Data from Circ_1993_H10_HRD10591_00025.txt Node
Date: Wed Jan 03 11:44:07 EST 2024
User: Yrep
Spectrometer: HR+D1059
Trigger mode: 1
Integration Time (sec): 1.000000E-1
Scans to average: 1
Electric dark correction enabled: true
Nonlinearity correction enabled: false
Boxcar width: 0
XAxis mode: Wavelengths
Number of Pixels in Spectrum: 2048
>>>>>Begin Spectral Data<<<<<
223.165	-30
223.4	-30
223.635	-30
223.869	-15
224.104	-21
224.338	-3
224.573	-6
224.808	-18
225.042	-16
225.277	-3
225.511	-13
225.746	2
225.98	10
226.215	12
226.449	6
226.683	22
226.918	37
227.152	36
227.387	39
227.621	42
227.856	50
228.09	41
228.324	49
228.559	66
228.793	65
229.027	60
229.262	60
229.496	74
229.73	81
229.964	87
230.199	85
230.433	83
230.667	84
230.901	81
231.136	78
231.37	71
231.604	84
231.838	78
232.072	82
232.306	71
232.541	80
232.775	79
233.009	95
233.243	90
233.477	74
233.711	79
233.945	92
234.179	80
234.413	89
234.647	79
234.881	90
235.115	81
235.349	79
235.583	78
235.817	92
236.051	78
236.285	64
236.519	82
236.753	96
236.987	90
237.221	79
237.455	64
237.689	79
237.922	78
238.156	79
238.39	68
238.624	72
238.858	74
239.091	92
239.325	79
239.559	80
239.793	80
240.027	81
240.26	68
240.494	88
240.728	82
240.961	67
241.195	69
241.429	83
241.662	70
241.896	70
242.13	72
242.363	76
242.597	83
242.83	76
243.064	87
243.298	88
243.531	83
243.765	92
243.998	65
244.232	76
244.465	85
244.699	80
244.932	82
245.166	78
245.399	81
245.633	75
245.866	78
246.099	82
246.333	87
246.566	85
246.8	78
247.033	69
247.266	82
247.5	87
247.733	89
247.966	93
248.2	87
248.433	82
248.666	87
248.899	84
249.133	87
249.366	82
249.599	78
249.832	89
250.066	101
250.299	79
250.532	85
250.765	87
250.998	68
251.231	80
251.465	98
251.698	87
251.931	92
252.164	82
252.397	88
252.63	87
252.863	84
253.096	94
253.329	76
253.562	86
253.795	90
254.028	96
254.261	75
254.494	72
254.727	79
254.96	76
255.193	74
255.426	82
255.659	86
255.892	77
256.124	74
256.357	74
256.59	91
256.823	72
257.056	73
257.289	83
257.521	88
257.754	82
257.987	71
258.22	78
258.452	85
258.685	77
258.918	83
259.151	80
259.383	101
259.616	91
259.849	70
260.081	86
260.314	68
260.547	99
260.779	99
261.012	82
261.244	70
261.477	74
261.71	85
261.942	90
262.175	99
262.407	80
262.64	80
262.872	94
263.105	82
263.337	78
263.57	91
263.802	77
264.035	81
264.267	74
264.499	70
264.732	93
264.964	74
265.197	69
265.429	86
265.661	83
265.894	91
266.126	78
266.358	84
266.591	81
266.823	87
267.055	90
267.287	86
267.52	85
267.752	85
267.984	94
268.216	87
268.448	65
268.681	77
268.913	91
269.145	87
269.377	82
269.609	84
269.841	82
270.073	87
270.306	81
270.538	94
270.77	81
271.002	83
271.234	89
271.466	80
271.698	83
271.93	90
272.162	78
272.394	84
272.626	84
272.858	82
273.09	75
273.322	93
273.553	84
273.785	84
274.017	75
274.249	86
274.481	90
274.713	78
274.945	84
275.176	99
275.408	98
275.64	86
275.872	71
276.104	80
276.335	97
276.567	95
276.799	107
277.031	103
277.262	88
277.494	102
277.726	95
277.957	82
278.189	82
278.421	73
278.652	83
278.884	90
279.115	90
279.347	90
279.579	67
279.81	99
280.042	102
280.273	99
280.505	90
280.736	79
280.968	81
281.199	79
281.431	97
281.662	84
281.894	103
282.125	94
282.356	110
282.588	117
282.819	102
283.051	94
283.282	95
283.513	68
283.745	102
283.976	86
284.207	93
284.439	80
284.67	82
284.901	86
285.132	95
285.364	92
285.595	79
285.826	85
286.057	91
286.288	85
286.52	101
286.751	94
286.982	92
287.213	102
287.444	95
287.675	95
287.906	91
288.138	80
288.369	103
288.6	90
288.831	110
289.062	112
289.293	88
289.524	81
289.755	91
289.986	78
290.217	88
290.448	92
290.679	81
290.91	76
291.141	78
291.371	79
291.602	84
291.833	90
292.064	82
292.295	85
292.526	83
292.757	84
292.987	82
293.218	100
293.449	69
293.68	82
293.91	88
294.141	87
294.372	79
294.603	82
294.833	95
295.064	99
295.295	92
295.525	91
295.756	84
295.987	116
296.217	124
296.448	108
296.679	89
296.909	80
297.14	86
297.37	85
297.601	97
297.831	86
298.062	86
298.292	99
298.523	98
298.753	91
298.984	75
299.214	74
299.445	104
299.675	86
299.905	99
300.136	82
300.366	86
300.597	98
300.827	101
301.057	89
301.288	92
301.518	78
301.748	95
301.979	93
302.209	79
302.439	91
302.669	83
302.9	85
303.13	107
303.36	88
303.59	93
303.82	103
304.051	95
304.281	88
304.511	90
304.741	75
304.971	72
305.201	82
305.431	96
305.661	88
305.891	90
306.121	88
306.352	101
306.582	90
306.812	98
307.042	85
307.272	83
307.502	90
307.731	91
307.961	98
308.191	79
308.421	84
308.651	84
308.881	94
309.111	102
309.341	94
309.571	85
309.8	109
310.03	98
310.26	97
310.49	89
310.72	91
310.949	96
311.179	88
311.409	88
311.639	92
311.868	99
312.098	86
312.328	104
312.557	94
312.787	95
313.017	92
313.246	85
313.476	92
313.706	104
313.935	86
314.165	99
314.394	86
314.624	97
314.853	108
315.083	90
315.312	101
315.542	97
315.771	84
316.001	90
316.23	92
316.46	81
316.689	93
316.919	96
317.148	105
317.377	84
317.607	104
317.836	84
318.065	95
318.295	98
318.524	95
318.753	95
318.983	104
319.212	106
319.441	88
319.67	109
319.9	91
320.129	88
320.358	89
320.587	93
320.816	91
321.046	112
321.275	93
321.504	110
321.733	106
321.962	81
322.191	104
322.42	107
322.649	88
322.878	93
323.108	92
323.337	109
323.566	112
323.795	125
324.024	166
324.253	286
324.482	627
324.71	1243
324.939	1666
325.168	628
325.397	190
325.626	136
325.855	128
326.084	108
326.313	117
326.542	142
326.77	200
326.999	342
327.228	701
327.457	1272
327.686	1004
327.914	294
328.143	166
328.372	144
328.6	118
328.829	136
329.058	110
329.287	114
329.515	82
329.744	106
329.972	97
330.201	132
330.43	141
330.658	122
330.887	120
331.115	106
331.344	90
331.572	98
331.801	105
332.03	104
332.258	93
332.486	106
332.715	90
332.943	102
333.172	92
333.4	97
333.629	97
333.857	104
334.085	132
334.314	115
334.542	152
334.771	158
334.999	96
335.227	99
335.455	96
335.684	102
335.912	95
336.14	88
336.369	97
336.597	100
336.825	82
337.053	91
337.281	99
337.51	90
337.738	96
337.966	89
338.194	97
338.422	99
338.65	104
338.878	81
339.106	90
339.334	99
339.562	79
339.79	89
340.018	94
340.246	90
340.474	91
340.702	90
340.93	78
341.158	96
341.386	94
341.614	86
341.842	96
342.07	86
342.298	98
342.526	78
342.754	88
342.981	85
343.209	79
343.437	100
343.665	90
343.893	90
344.12	90
344.348	86
344.576	87
344.804	104
345.031	102
345.259	95
345.487	94
345.714	90
345.942	96
346.17	94
346.397	91
346.625	92
346.853	92
347.08	90
347.308	80
347.535	104
347.763	97
347.99	108
348.218	104
348.445	101
348.673	98
348.9	95
349.128	101
349.355	83
349.583	107
349.81	94
350.037	108
350.265	95
350.492	92
350.72	88
350.947	114
351.174	107
351.402	101
351.629	94
351.856	92
352.083	93
352.311	108
352.538	97
352.765	101
352.992	115
353.22	101
353.447	96
353.674	109
353.901	93
354.128	76
354.355	103
354.583	91
354.81	82
355.037	88
355.264	74
355.491	102
355.718	102
355.945	85
356.172	106
356.399	98
356.626	90
356.853	95
357.08	91
357.307	89
357.534	85
357.761	92
357.988	97
358.215	101
358.441	96
358.668	101
358.895	99
359.122	76
359.349	99
359.576	78
359.802	95
360.029	109
360.256	106
360.483	91
360.709	98
360.936	91
361.163	104
361.39	98
361.616	94
361.843	92
362.07	92
362.296	86
362.523	92
362.749	104
362.976	88
363.203	95
363.429	103
363.656	96
363.882	85
364.109	92
364.335	90
364.562	76
364.788	83
365.015	92
365.241	86
365.468	96
365.694	97
365.92	97
366.147	70
366.373	84
366.599	93
366.826	89
367.052	100
367.278	102
367.505	84
367.731	90
367.957	100
368.184	106
368.41	107
368.636	84
368.862	114
369.089	93
369.315	105
369.541	101
369.767	96
369.993	91
370.219	94
370.445	96
370.672	90
370.898	89
371.124	99
371.35	98
371.576	92
371.802	96
372.028	99
372.254	96
372.48	90
372.706	104
372.932	81
373.158	88
373.384	93
373.61	92
373.835	76
374.061	87
374.287	89
374.513	87
374.739	89
374.965	78
375.191	98
375.416	97
375.642	100
375.868	91
376.094	96
376.319	93
376.545	94
376.771	88
376.997	85
377.222	111
377.448	100
377.674	98
377.899	97
378.125	103
378.35	84
378.576	103
378.802	100
379.027	104
379.253	111
379.478	102
379.704	103
379.929	97
380.155	98
380.38	105
380.606	103
380.831	101
381.057	101
381.282	100
381.507	104
381.733	97
381.958	107
382.184	99
382.409	95
382.634	110
382.86	104
383.085	110
383.31	128
383.535	116
383.761	110
383.986	104
384.211	110
384.436	119
384.662	118
384.887	114
385.112	127
385.337	128
385.562	121
385.787	116
386.013	122
386.238	130
386.463	140
386.688	126
386.913	126
387.138	121
387.363	118
387.588	110
387.813	102
388.038	134
388.263	134
388.488	135
388.713	102
388.938	106
389.163	91
389.387	110
389.612	96
389.837	110
390.062	101
390.287	82
390.512	88
390.736	86
390.961	101
391.186	99
391.411	95
391.636	100
391.86	83
392.085	88
392.31	86
392.534	94
392.759	107
392.984	96
393.208	104
393.433	140
393.658	131
393.882	102
394.107	90
394.331	88
394.556	88
394.78	95
395.005	95
395.229	96
395.454	98
395.678	95
395.903	82
396.127	78
396.352	93
396.576	105
396.801	112
397.025	130
397.249	97
397.474	83
397.698	83
397.922	80
398.147	89
398.371	98
398.595	84
398.82	88
399.044	97
399.268	93
399.492	88
399.717	82
399.941	81
400.165	88
400.389	94
400.613	86
400.837	86
401.062	91
401.286	100
401.51	92
401.734	87
401.958	94
402.182	100
402.406	135
402.63	96
402.854	91
403.078	82
403.302	88
403.526	87
403.75	92
403.974	79
404.198	76
404.422	94
404.645	86
404.869	84
405.093	91
405.317	104
405.541	107
405.765	103
405.988	111
406.212	141
406.436	178
406.66	129
406.883	90
407.107	104
407.331	86
407.555	93
407.778	90
408.002	91
408.226	94
408.449	83
408.673	74
408.896	95
409.12	92
409.344	95
409.567	93
409.791	85
410.014	90
410.238	86
410.461	88
410.685	104
410.908	115
411.132	90
411.355	94
411.578	86
411.802	98
412.025	89
412.249	91
412.472	90
412.695	95
412.919	94
413.142	94
413.365	93
413.589	102
413.812	95
414.035	85
414.258	86
414.482	100
414.705	89
414.928	87
415.151	79
415.374	98
415.597	104
415.821	80
416.044	108
416.267	75
416.49	98
416.713	105
416.936	83
417.159	83
417.382	102
417.605	99
417.828	90
418.051	108
418.274	85
418.497	90
418.72	66
418.943	89
419.166	82
419.389	94
419.611	95
419.834	100
420.057	94
420.28	94
420.503	80
420.726	79
420.948	83
421.171	85
421.394	94
421.617	108
421.839	95
422.062	103
422.285	88
422.507	98
422.73	108
422.953	102
423.175	87
423.398	106
423.621	84
423.843	94
424.066	101
424.288	98
424.511	88
424.733	96
424.956	111
425.178	89
425.401	92
425.623	105
425.846	81
426.068	94
426.291	99
426.513	87
426.735	94
426.958	105
427.18	99
427.402	115
427.625	141
427.847	120
428.069	115
428.292	96
428.514	67
428.736	91
428.958	102
429.181	90
429.403	88
429.625	87
429.847	94
430.069	79
430.292	87
430.514	87
430.736	90
430.958	88
431.18	80
431.402	101
431.624	103
431.846	91
432.068	87
432.29	79
432.512	91
432.734	92
432.956	91
433.178	101
433.4	104
433.622	104
433.844	104
434.066	99
434.287	99
434.509	97
434.731	95
434.953	89
435.175	83
435.397	71
435.618	97
435.84	86
436.062	107
436.284	114
436.505	97
436.727	70
436.949	97
437.17	88
437.392	86
437.614	84
437.835	95
438.057	115
438.278	96
438.5	84
438.721	101
438.943	101
439.165	85
439.386	83
439.608	84
439.829	79
440.05	114
440.272	118
440.493	108
440.715	94
440.936	87
441.158	81
441.379	82
441.6	91
441.822	84
442.043	95
442.264	83
442.486	95
442.707	91
442.928	92
443.149	112
443.371	106
443.592	94
443.813	100
444.034	105
444.255	88
444.476	79
444.698	93
444.919	85
445.14	131
445.361	123
445.582	105
445.803	123
446.024	115
446.245	116
446.466	88
446.687	94
446.908	96
447.129	89
447.35	94
447.571	86
447.792	76
448.013	84
448.234	90
448.455	86
448.675	97
448.896	90
449.117	92
449.338	105
449.559	120
449.779	123
450	72
450.221	96
450.442	99
450.662	85
450.883	105
451.104	108
451.324	70
451.545	89
451.766	98
451.986	104
452.207	101
452.428	94
452.648	87
452.869	87
453.089	93
453.31	123
453.53	98
453.751	96
453.971	98
454.192	94
454.412	91
454.633	94
454.853	85
455.073	91
455.294	80
455.514	97
455.734	93
455.955	99
456.175	77
456.395	86
456.616	95
456.836	89
457.056	83
457.276	93
457.497	79
457.717	85
457.937	84
458.157	79
458.377	80
458.598	98
458.818	127
459.038	128
459.258	86
459.478	79
459.698	80
459.918	96
460.138	91
460.358	85
460.578	95
460.798	90
461.018	94
461.238	102
461.458	81
461.678	81
461.898	85
462.118	84
462.338	79
462.558	77
462.777	87
462.997	72
463.217	94
463.437	85
463.657	98
463.876	91
464.096	85
464.316	88
464.536	108
464.755	101
464.975	102
465.195	135
465.414	136
465.634	88
465.854	100
466.073	88
466.293	73
466.512	95
466.732	88
466.951	82
467.171	84
467.391	100
467.61	91
467.829	95
468.049	97
468.268	111
468.488	87
468.707	81
468.927	75
469.146	92
469.365	90
469.585	79
469.804	82
470.023	87
470.243	93
470.462	89
470.681	106
470.901	96
471.12	74
471.339	82
471.558	81
471.777	75
471.997	87
472.216	116
472.435	175
472.654	85
472.873	82
473.092	93
473.311	100
473.53	88
473.749	88
473.968	85
474.187	98
474.406	88
474.625	81
474.844	91
475.063	92
475.282	100
475.501	89
475.72	78
475.939	89
476.158	76
476.377	94
476.596	83
476.814	94
477.033	87
477.252	84
477.471	106
477.69	99
477.908	83
478.127	94
478.346	97
478.564	95
478.783	90
479.002	92
479.22	90
479.439	83
479.658	93
479.876	94
480.095	96
480.313	85
480.532	95
480.751	104
480.969	130
481.188	239
481.406	156
481.624	100
481.843	93
482.061	100
482.28	82
482.498	87
482.717	83
482.935	89
483.153	96
483.372	91
483.59	99
483.808	95
484.027	103
484.245	84
484.463	98
484.681	107
484.9	92
485.118	115
485.336	94
485.554	103
485.772	113
485.99	106
486.209	108
486.427	108
486.645	120
486.863	117
487.081	107
487.299	96
487.517	95
487.735	95
487.953	85
488.171	84
488.389	103
488.607	95
488.825	94
489.043	93
489.261	87
489.479	97
489.696	98
489.914	92
490.132	95
490.35	89
490.568	91
490.786	100
491.003	94
491.221	98
491.439	107
491.657	96
491.874	98
492.092	90
492.31	82
492.527	90
492.745	93
492.963	82
493.18	94
493.398	86
493.615	83
493.833	98
494.05	95
494.268	94
494.485	100
494.703	99
494.92	94
495.138	96
495.355	97
495.573	80
495.79	105
496.008	103
496.225	104
496.442	89
496.66	102
496.877	84
497.094	88
497.312	84
497.529	103
497.746	86
497.963	87
498.181	86
498.398	105
498.615	89
498.832	95
499.049	83
499.267	95
499.484	83
499.701	84
499.918	90
500.135	99
500.352	89
500.569	79
500.786	84
501.003	96
501.22	98
501.437	92
501.654	95
501.871	93
502.088	82
502.305	99
502.522	92
502.739	103
502.956	91
503.172	87
503.389	93
503.606	92
503.823	106
504.04	92
504.256	85
504.473	89
504.69	77
504.907	85
505.123	90
505.34	96
505.557	82
505.773	99
505.99	90
506.207	95
506.423	90
506.64	92
506.856	84
507.073	91
507.289	98
507.506	93
507.722	110
507.939	93
508.155	100
508.372	101
508.588	103
508.805	84
509.021	90
509.238	91
509.454	86
509.67	93
509.887	100
510.103	113
510.319	175
510.536	583
510.752	1703
510.968	504
511.184	134
511.401	103
511.617	100
511.833	102
512.049	80
512.265	91
512.481	90
512.698	86
512.914	83
513.13	113
513.346	84
513.562	88
513.778	104
513.994	78
514.21	92
514.426	118
514.642	127
514.858	118
515.074	129
515.29	320
515.506	1000
515.721	383
515.937	133
516.153	106
516.369	100
516.585	92
516.801	70
517.016	92
517.232	102
517.448	79
517.664	91
517.879	83
518.095	89
518.311	93
518.527	88
518.742	98
518.958	90
519.173	101
519.389	91
519.605	91
519.82	97
520.036	105
520.251	101
520.467	110
520.682	87
520.898	113
521.113	114
521.329	119
521.544	163
521.76	379
521.975	1589
522.19	982
522.406	218
522.621	106
522.836	94
523.052	81
523.267	98
523.482	91
523.698	89
523.913	116
524.128	108
524.343	98
524.559	109
524.774	87
524.989	93
525.204	105
525.419	104
525.634	90
525.849	103
526.064	92
526.28	100
526.495	88
526.71	91
526.925	86
527.14	78
527.355	76
527.57	88
527.785	93
527.999	86
528.214	90
528.429	96
528.644	95
528.859	88
529.074	99
529.289	109
529.503	152
529.718	104
529.933	94
530.148	85
530.363	98
530.577	91
530.792	99
531.007	90
531.221	78
531.436	77
531.651	96
531.865	97
532.08	76
532.295	101
532.509	111
532.724	108
532.938	99
533.153	91
533.367	96
533.582	91
533.796	88
534.011	87
534.225	97
534.44	96
534.654	103
534.868	82
535.083	86
535.297	106
535.511	91
535.726	82
535.94	105
536.154	95
536.369	91
536.583	97
536.797	85
537.011	81
537.225	88
537.44	96
537.654	97
537.868	96
538.082	92
538.296	92
538.51	90
538.724	87
538.938	85
539.153	103
539.367	100
539.581	94
539.795	96
540.009	84
540.222	96
540.436	81
540.65	78
540.864	108
541.078	94
541.292	91
541.506	103
541.72	85
541.934	97
542.147	100
542.361	102
542.575	94
542.789	86
543.002	100
543.216	102
543.43	92
543.644	98
543.857	87
544.071	86
544.285	84
544.498	96
544.712	83
544.925	96
545.139	86
545.352	97
545.566	85
545.779	84
545.993	99
546.206	94
546.42	99
546.633	86
546.847	87
547.06	92
547.274	90
547.487	96
547.7	88
547.914	77
548.127	90
548.34	88
548.554	96
548.767	88
548.98	103
549.193	109
549.407	91
549.62	101
549.833	100
550.046	87
550.259	90
550.473	98
550.686	90
550.899	86
551.112	81
551.325	94
551.538	90
551.751	92
551.964	92
552.177	81
552.39	91
552.603	99
552.816	111
553.029	85
553.242	89
553.455	90
553.667	107
553.88	111
554.093	82
554.306	111
554.519	88
554.732	88
554.944	94
555.157	79
555.37	90
555.583	87
555.795	76
556.008	86
556.221	106
556.433	88
556.646	86
556.859	100
557.071	101
557.284	90
557.496	90
557.709	98
557.921	86
558.134	77
558.346	79
558.559	90
558.771	99
558.984	94
559.196	97
559.409	95
559.621	89
559.833	91
560.046	69
560.258	88
560.47	98
560.683	79
560.895	83
561.107	77
561.32	89
561.532	82
561.744	80
561.956	99
562.168	82
562.381	92
562.593	91
562.805	97
563.017	100
563.229	87
563.441	95
563.653	91
563.865	94
564.077	87
564.289	84
564.501	95
564.713	87
564.925	87
565.137	84
565.349	92
565.561	82
565.773	88
565.985	92
566.197	96
566.408	99
566.62	100
566.832	72
567.044	95
567.255	86
567.467	91
567.679	99
567.891	111
568.102	84
568.314	80
568.526	91
568.737	90
568.949	93
569.161	78
569.372	91
569.584	87
569.795	97
570.007	96
570.218	204
570.43	125
570.641	101
570.853	93
571.064	91
571.276	98
571.487	78
571.698	90
571.91	86
572.121	83
572.333	80
572.544	81
572.755	94
572.966	84
573.178	98
573.389	95
573.6	85
573.811	99
574.023	103
574.234	91
574.445	94
574.656	103
574.867	93
575.078	90
575.289	91
575.501	92
575.712	78
575.923	83
576.134	92
576.345	85
576.556	101
576.767	92
576.978	91
577.188	95
577.399	90
577.61	70
577.821	97
578.032	110
578.243	209
578.454	566
578.665	186
578.875	94
579.086	95
579.297	87
579.508	90
579.718	83
579.929	92
580.14	92
580.35	75
580.561	87
580.772	88
580.982	87
581.193	96
581.403	83
581.614	90
581.825	85
582.035	83
582.246	91
582.456	98
582.667	97
582.877	79
583.087	86
583.298	86
583.508	98
583.719	102
583.929	86
584.139	88
