Data from Circ_1993_H10_HRD10591_00020.txt Node
Date: Wed Jan 03 11:44:06 EST 2024
User: Yrep
Spectrometer: HR+D1059
Trigger mode: 1
Integration Time (sec): 1.000000E-1
Scans to average: 1
Electric dark correction enabled: true
Nonlinearity correction enabled: false
Boxcar width: 0
XAxis mode: Wavelengths
Number of Pixels in Spectrum: 2048
>>>>>Begin Spectral Data<<<<<
223.165	-9.56
223.4	-9.56
223.635	-9.56
223.869	-17.56
224.104	-21.56
224.338	-19.56
224.573	-20.56
224.808	-10.56
225.042	-4.56
225.277	1.44
225.511	-19.56
225.746	1.44
225.98	-12.56
226.215	25.44
226.449	24.44
226.683	21.44
226.918	33.44
227.152	28.44
227.387	34.44
227.621	32.44
227.856	56.44
228.09	43.44
228.324	63.44
228.559	73.44
228.793	56.44
229.027	67.44
229.262	50.44
229.496	77.44
229.73	69.44
229.964	82.44
230.199	79.44
230.433	91.44
230.667	63.44
230.901	79.44
231.136	77.44
231.37	77.44
231.604	74.44
231.838	83.44
232.072	68.44
232.306	74.44
232.541	82.44
232.775	81.44
233.009	81.44
233.243	75.44
233.477	81.44
233.711	77.44
233.945	72.44
234.179	82.44
234.413	79.44
234.647	79.44
234.881	75.44
235.115	77.44
235.349	85.44
235.583	89.44
235.817	71.44
236.051	72.44
236.285	81.44
236.519	77.44
236.753	81.44
236.987	88.44
237.221	82.44
237.455	69.44
237.689	85.44
237.922	78.44
238.156	77.44
238.39	76.44
238.624	75.44
238.858	67.44
239.091	78.44
239.325	68.44
239.559	82.44
239.793	78.44
240.027	72.44
240.26	76.44
240.494	63.44
240.728	80.44
240.961	68.44
241.195	74.44
241.429	69.44
241.662	80.44
241.896	70.44
242.13	86.44
242.363	81.44
242.597	97.44
242.83	83.44
243.064	74.44
243.298	79.44
243.531	78.44
243.765	81.44
243.998	94.44
244.232	72.44
244.465	81.44
244.699	89.44
244.932	71.44
245.166	84.44
245.399	75.44
245.633	75.44
245.866	83.44
246.099	64.44
246.333	77.44
246.566	58.44
246.8	91.44
247.033	80.44
247.266	78.44
247.5	87.44
247.733	76.44
247.966	81.44
248.2	73.44
248.433	85.44
248.666	81.44
248.899	73.44
249.133	81.44
249.366	105.44
249.599	72.44
249.832	74.44
250.066	77.44
250.299	82.44
250.532	67.44
250.765	74.44
250.998	60.44
251.231	92.44
251.465	67.44
251.698	81.44
251.931	72.44
252.164	79.44
252.397	74.44
252.63	71.44
252.863	74.44
253.096	77.44
253.329	93.44
253.562	85.44
253.795	80.44
254.028	75.44
254.261	97.44
254.494	84.44
254.727	79.44
254.96	86.44
255.193	91.44
255.426	96.44
255.659	74.44
255.892	79.44
256.124	82.44
256.357	72.44
256.59	81.44
256.823	69.44
257.056	90.44
257.289	76.44
257.521	80.44
257.754	76.44
257.987	72.44
258.22	88.44
258.452	73.44
258.685	88.44
258.918	76.44
259.151	74.44
259.383	72.44
259.616	88.44
259.849	78.44
260.081	77.44
260.314	66.44
260.547	78.44
260.779	87.44
261.012	76.44
261.244	80.44
261.477	77.44
261.71	97.44
261.942	96.44
262.175	101.44
262.407	66.44
262.64	83.44
262.872	68.44
263.105	88.44
263.337	83.44
263.57	96.44
263.802	88.44
264.035	72.44
264.267	80.44
264.499	74.44
264.732	85.44
264.964	91.44
265.197	83.44
265.429	81.44
265.661	83.44
265.894	71.44
266.126	81.44
266.358	74.44
266.591	90.44
266.823	93.44
267.055	83.44
267.287	83.44
267.52	90.44
267.752	90.44
267.984	81.44
268.216	77.44
268.448	81.44
268.681	94.44
268.913	76.44
269.145	81.44
269.377	80.44
269.609	80.44
269.841	91.44
270.073	105.44
270.306	76.44
270.538	80.44
270.77	77.44
271.002	97.44
271.234	79.44
271.466	85.44
271.698	84.44
271.93	78.44
272.162	79.44
272.394	83.44
272.626	80.44
272.858	80.44
273.09	81.44
273.322	81.44
273.553	78.44
273.785	82.44
274.017	67.44
274.249	75.44
274.481	90.44
274.713	83.44
274.945	77.44
275.176	78.44
275.408	99.44
275.64	95.44
275.872	79.44
276.104	82.44
276.335	86.44
276.567	87.44
276.799	103.44
277.031	90.44
277.262	78.44
277.494	86.44
277.726	92.44
277.957	78.44
278.189	77.44
278.421	76.44
278.652	77.44
278.884	86.44
279.115	87.44
279.347	85.44
279.579	74.44
279.81	88.44
280.042	88.44
280.273	78.44
280.505	84.44
280.736	89.44
280.968	91.44
281.199	82.44
281.431	83.44
281.662	93.44
281.894	90.44
282.125	96.44
282.356	103.44
282.588	130.44
282.819	91.44
283.051	82.44
283.282	83.44
283.513	88.44
283.745	82.44
283.976	81.44
284.207	78.44
284.439	70.44
284.67	84.44
284.901	93.44
285.132	84.44
285.364	79.44
285.595	88.44
285.826	86.44
286.057	90.44
286.288	94.44
286.52	102.44
286.751	79.44
286.982	91.44
287.213	84.44
287.444	85.44
287.675	76.44
287.906	85.44
288.138	91.44
288.369	92.44
288.6	88.44
288.831	90.44
289.062	85.44
289.293	83.44
289.524	88.44
289.755	84.44
289.986	78.44
290.217	86.44
290.448	97.44
290.679	86.44
290.91	89.44
291.141	88.44
291.371	84.44
291.602	96.44
291.833	94.44
292.064	93.44
292.295	84.44
292.526	91.44
292.757	76.44
292.987	92.44
293.218	82.44
293.449	94.44
293.68	98.44
293.91	92.44
294.141	95.44
294.372	94.44
294.603	100.44
294.833	76.44
295.064	80.44
295.295	88.44
295.525	85.44
295.756	101.44
295.987	101.44
296.217	125.44
296.448	95.44
296.679	96.44
296.909	97.44
297.14	83.44
297.37	99.44
297.601	90.44
297.831	81.44
298.062	96.44
298.292	101.44
298.523	79.44
298.753	86.44
298.984	78.44
299.214	98.44
299.445	100.44
299.675	96.44
299.905	84.44
300.136	93.44
300.366	100.44
300.597	81.44
300.827	78.44
301.057	82.44
301.288	86.44
301.518	88.44
301.748	93.44
301.979	91.44
302.209	78.44
302.439	85.44
302.669	93.44
302.9	90.44
303.13	106.44
303.36	92.44
303.59	94.44
303.82	100.44
304.051	83.44
304.281	98.44
304.511	97.44
304.741	91.44
304.971	96.44
305.201	91.44
305.431	82.44
305.661	98.44
305.891	81.44
306.121	95.44
306.352	98.44
306.582	100.44
306.812	101.44
307.042	96.44
307.272	100.44
307.502	85.44
307.731	88.44
307.961	106.44
308.191	88.44
308.421	90.44
308.651	90.44
308.881	94.44
309.111	96.44
309.341	86.44
309.571	103.44
309.8	85.44
310.03	96.44
310.26	98.44
310.49	94.44
310.72	88.44
310.949	99.44
311.179	89.44
311.409	84.44
311.639	94.44
311.868	97.44
312.098	99.44
312.328	102.44
312.557	90.44
312.787	85.44
313.017	94.44
313.246	88.44
313.476	86.44
313.706	93.44
313.935	99.44
314.165	105.44
314.394	104.44
314.624	84.44
314.853	91.44
315.083	96.44
315.312	83.44
315.542	99.44
315.771	82.44
316.001	85.44
316.23	86.44
316.46	90.44
316.689	86.44
316.919	93.44
317.148	92.44
317.377	97.44
317.607	80.44
317.836	88.44
318.065	85.44
318.295	84.44
318.524	82.44
318.753	94.44
318.983	91.44
319.212	106.44
319.441	93.44
319.67	81.44
319.9	77.44
320.129	82.44
320.358	92.44
320.587	95.44
320.816	97.44
321.046	97.44
321.275	88.44
321.504	95.44
321.733	99.44
321.962	97.44
322.191	94.44
322.42	94.44
322.649	100.44
322.878	114.44
323.108	100.44
323.337	115.44
323.566	129.44
323.795	129.44
324.024	177.44
324.253	321.44
324.482	652.44
324.71	1336.44
324.939	1749.44
325.168	662.44
325.397	211.44
325.626	133.44
325.855	119.44
326.084	109.44
326.313	109.44
326.542	131.44
326.77	213.44
326.999	372.44
327.228	755.44
327.457	1354.44
327.686	1061.44
327.914	286.44
328.143	187.44
328.372	138.44
328.6	113.44
328.829	106.44
329.058	127.44
329.287	109.44
329.515	117.44
329.744	97.44
329.972	108.44
330.201	124.44
330.43	117.44
330.658	128.44
330.887	122.44
331.115	120.44
331.344	80.44
331.572	85.44
331.801	93.44
332.03	104.44
332.258	97.44
332.486	87.44
332.715	97.44
332.943	98.44
333.172	112.44
333.4	103.44
333.629	102.44
333.857	109.44
334.085	109.44
334.314	113.44
334.542	134.44
334.771	131.44
334.999	116.44
335.227	108.44
335.455	88.44
335.684	99.44
335.912	86.44
336.14	100.44
336.369	95.44
336.597	99.44
336.825	93.44
337.053	102.44
337.281	101.44
337.51	103.44
337.738	97.44
337.966	83.44
338.194	93.44
338.422	103.44
338.65	83.44
338.878	90.44
339.106	98.44
339.334	88.44
339.562	92.44
339.79	99.44
340.018	66.44
340.246	103.44
340.474	96.44
340.702	93.44
340.93	105.44
341.158	104.44
341.386	81.44
341.614	81.44
341.842	102.44
342.07	84.44
342.298	98.44
342.526	83.44
342.754	74.44
342.981	86.44
343.209	96.44
343.437	87.44
343.665	89.44
343.893	106.44
344.12	83.44
344.348	82.44
344.576	94.44
344.804	99.44
345.031	93.44
345.259	109.44
345.487	96.44
345.714	101.44
345.942	93.44
346.17	76.44
346.397	93.44
346.625	88.44
346.853	92.44
347.08	87.44
347.308	81.44
347.535	98.44
347.763	91.44
347.99	93.44
348.218	95.44
348.445	96.44
348.673	104.44
348.9	95.44
349.128	90.44
349.355	80.44
349.583	77.44
349.81	89.44
350.037	102.44
350.265	96.44
350.492	95.44
350.72	83.44
350.947	92.44
351.174	108.44
351.402	111.44
351.629	94.44
351.856	103.44
352.083	102.44
352.311	89.44
352.538	108.44
352.765	91.44
352.992	112.44
353.22	99.44
353.447	111.44
353.674	101.44
353.901	87.44
354.128	105.44
354.355	92.44
354.583	105.44
354.81	102.44
355.037	80.44
355.264	102.44
355.491	98.44
355.718	99.44
355.945	106.44
356.172	102.44
356.399	108.44
356.626	97.44
356.853	107.44
357.08	92.44
357.307	85.44
357.534	91.44
357.761	84.44
357.988	93.44
358.215	110.44
358.441	105.44
358.668	104.44
358.895	96.44
359.122	93.44
359.349	84.44
359.576	90.44
359.802	94.44
360.029	117.44
360.256	103.44
360.483	93.44
360.709	87.44
360.936	90.44
361.163	102.44
361.39	91.44
361.616	91.44
361.843	94.44
362.07	90.44
362.296	93.44
362.523	73.44
362.749	82.44
362.976	84.44
363.203	91.44
363.429	79.44
363.656	99.44
363.882	90.44
364.109	94.44
364.335	96.44
364.562	72.44
364.788	78.44
365.015	101.44
365.241	85.44
365.468	110.44
365.694	80.44
365.92	84.44
366.147	94.44
366.373	89.44
366.599	89.44
366.826	92.44
367.052	95.44
367.278	95.44
367.505	92.44
367.731	97.44
367.957	95.44
368.184	83.44
368.41	100.44
368.636	93.44
368.862	92.44
369.089	113.44
369.315	94.44
369.541	100.44
369.767	97.44
369.993	81.44
370.219	82.44
370.445	93.44
370.672	82.44
370.898	79.44
371.124	93.44
371.35	89.44
371.576	85.44
371.802	83.44
372.028	88.44
372.254	80.44
372.48	82.44
372.706	93.44
372.932	93.44
373.158	85.44
373.384	86.44
373.61	95.44
373.835	81.44
374.061	87.44
374.287	93.44
374.513	93.44
374.739	95.44
374.965	88.44
375.191	93.44
375.416	84.44
375.642	98.44
375.868	81.44
376.094	95.44
376.319	98.44
376.545	85.44
376.771	96.44
376.997	78.44
377.222	92.44
377.448	86.44
377.674	102.44
377.899	89.44
378.125	102.44
378.35	108.44
378.576	90.44
378.802	100.44
379.027	91.44
379.253	101.44
379.478	104.44
379.704	116.44
379.929	102.44
380.155	104.44
380.38	97.44
380.606	90.44
380.831	95.44
381.057	96.44
381.282	103.44
381.507	106.44
381.733	103.44
381.958	133.44
382.184	118.44
382.409	124.44
382.634	104.44
382.86	107.44
383.085	120.44
383.31	129.44
383.535	122.44
383.761	121.44
383.986	121.44
384.211	120.44
384.436	121.44
384.662	137.44
384.887	121.44
385.112	130.44
385.337	137.44
385.562	128.44
385.787	131.44
386.013	131.44
386.238	145.44
386.463	149.44
386.688	145.44
386.913	126.44
387.138	135.44
387.363	128.44
387.588	125.44
387.813	124.44
388.038	124.44
388.263	137.44
388.488	136.44
388.713	94.44
388.938	103.44
389.163	92.44
389.387	85.44
389.612	82.44
389.837	97.44
390.062	91.44
390.287	95.44
390.512	97.44
390.736	97.44
390.961	94.44
391.186	100.44
391.411	105.44
391.636	91.44
391.86	90.44
392.085	74.44
392.31	82.44
392.534	83.44
392.759	103.44
392.984	99.44
393.208	110.44
393.433	175.44
393.658	152.44
393.882	102.44
394.107	91.44
394.331	89.44
394.556	77.44
394.78	95.44
395.005	91.44
395.229	80.44
395.454	87.44
395.678	90.44
395.903	111.44
396.127	81.44
396.352	91.44
396.576	101.44
396.801	112.44
397.025	122.44
397.249	112.44
397.474	85.44
397.698	86.44
397.922	89.44
398.147	92.44
398.371	102.44
398.595	87.44
398.82	88.44
399.044	90.44
399.268	85.44
399.492	92.44
399.717	98.44
399.941	100.44
400.165	110.44
400.389	91.44
400.613	105.44
400.837	94.44
401.062	92.44
401.286	94.44
401.51	88.44
401.734	88.44
401.958	97.44
402.182	110.44
402.406	122.44
402.63	105.44
402.854	85.44
403.078	65.44
403.302	95.44
403.526	89.44
403.75	89.44
403.974	81.44
404.198	91.44
404.422	88.44
404.645	97.44
404.869	97.44
405.093	85.44
405.317	96.44
405.541	101.44
405.765	88.44
405.988	121.44
406.212	152.44
406.436	186.44
406.66	129.44
406.883	110.44
407.107	108.44
407.331	86.44
407.555	108.44
407.778	101.44
408.002	82.44
408.226	95.44
408.449	85.44
408.673	74.44
408.896	85.44
409.12	90.44
409.344	98.44
409.567	97.44
409.791	100.44
410.014	81.44
410.238	94.44
410.461	84.44
410.685	101.44
410.908	88.44
411.132	107.44
411.355	97.44
411.578	83.44
411.802	88.44
412.025	84.44
412.249	94.44
412.472	82.44
412.695	68.44
412.919	81.44
413.142	85.44
413.365	101.44
413.589	85.44
413.812	74.44
414.035	88.44
414.258	82.44
414.482	70.44
414.705	109.44
414.928	89.44
415.151	92.44
415.374	100.44
415.597	98.44
415.821	101.44
416.044	89.44
416.267	83.44
416.49	85.44
416.713	98.44
416.936	90.44
417.159	91.44
417.382	86.44
417.605	89.44
417.828	77.44
418.051	83.44
418.274	79.44
418.497	83.44
418.72	102.44
418.943	95.44
419.166	100.44
419.389	100.44
419.611	94.44
419.834	85.44
420.057	92.44
420.28	84.44
420.503	78.44
420.726	98.44
420.948	93.44
421.171	97.44
421.394	94.44
421.617	102.44
421.839	101.44
422.062	93.44
422.285	95.44
422.507	110.44
422.73	124.44
422.953	103.44
423.175	101.44
423.398	89.44
423.621	93.44
423.843	102.44
424.066	77.44
424.288	89.44
424.511	106.44
424.733	97.44
424.956	110.44
425.178	105.44
425.401	93.44
425.623	99.44
425.846	83.44
426.068	84.44
426.291	77.44
426.513	87.44
426.735	97.44
426.958	110.44
427.18	124.44
427.402	122.44
427.625	140.44
427.847	127.44
428.069	107.44
428.292	80.44
428.514	88.44
428.736	83.44
428.958	76.44
429.181	94.44
429.403	87.44
429.625	87.44
429.847	101.44
430.069	93.44
430.292	95.44
430.514	82.44
430.736	78.44
430.958	83.44
431.18	88.44
431.402	90.44
431.624	97.44
431.846	88.44
432.068	90.44
432.29	93.44
432.512	100.44
432.734	91.44
432.956	87.44
433.178	84.44
433.4	103.44
433.622	102.44
433.844	98.44
434.066	106.44
434.287	101.44
434.509	85.44
434.731	105.44
434.953	96.44
435.175	93.44
435.397	98.44
435.618	85.44
435.84	106.44
436.062	119.44
436.284	114.44
436.505	93.44
436.727	78.44
436.949	87.44
437.17	88.44
437.392	85.44
437.614	83.44
437.835	87.44
438.057	122.44
438.278	113.44
438.5	91.44
438.721	106.44
438.943	116.44
439.165	97.44
439.386	85.44
439.608	85.44
439.829	97.44
440.05	102.44
440.272	139.44
440.493	97.44
440.715	93.44
440.936	81.44
441.158	91.44
441.379	71.44
441.6	85.44
441.822	91.44
442.043	86.44
442.264	105.44
442.486	102.44
442.707	96.44
442.928	102.44
443.149	124.44
443.371	104.44
443.592	89.44
443.813	90.44
444.034	123.44
444.255	95.44
444.476	85.44
444.698	93.44
444.919	88.44
445.14	118.44
445.361	119.44
445.582	127.44
445.803	109.44
446.024	115.44
446.245	125.44
446.466	99.44
446.687	85.44
446.908	94.44
447.129	77.44
447.35	77.44
447.571	88.44
447.792	88.44
448.013	109.44
448.234	106.44
448.455	95.44
448.675	94.44
448.896	106.44
449.117	84.44
449.338	102.44
449.559	126.44
449.779	120.44
450	86.44
450.221	95.44
450.442	81.44
450.662	84.44
450.883	105.44
451.104	89.44
451.324	104.44
451.545	89.44
451.766	79.44
451.986	89.44
452.207	82.44
452.428	100.44
452.648	97.44
452.869	98.44
453.089	96.44
453.31	93.44
453.53	96.44
453.751	84.44
453.971	88.44
454.192	98.44
454.412	91.44
454.633	91.44
454.853	88.44
455.073	71.44
455.294	84.44
455.514	99.44
455.734	88.44
455.955	86.44
456.175	82.44
456.395	91.44
456.616	92.44
456.836	83.44
457.056	79.44
457.276	81.44
457.497	67.44
457.717	101.44
457.937	98.44
458.157	88.44
458.377	88.44
458.598	99.44
458.818	121.44
459.038	129.44
459.258	109.44
459.478	89.44
459.698	96.44
459.918	84.44
460.138	90.44
460.358	93.44
460.578	87.44
460.798	92.44
461.018	79.44
461.238	84.44
461.458	92.44
461.678	99.44
461.898	92.44
462.118	89.44
462.338	93.44
462.558	92.44
462.777	91.44
462.997	86.44
463.217	98.44
463.437	73.44
463.657	76.44
463.876	80.44
464.096	76.44
464.316	89.44
464.536	97.44
464.755	86.44
464.975	109.44
465.195	133.44
465.414	131.44
465.634	104.44
465.854	78.44
466.073	79.44
466.293	90.44
466.512	70.44
466.732	89.44
466.951	87.44
467.171	77.44
467.391	93.44
467.61	98.44
467.829	90.44
468.049	107.44
468.268	100.44
468.488	70.44
468.707	80.44
468.927	88.44
469.146	70.44
469.365	94.44
469.585	88.44
469.804	104.44
470.023	114.44
470.243	94.44
470.462	96.44
470.681	99.44
470.901	102.44
471.12	102.44
471.339	85.44
471.558	91.44
471.777	89.44
471.997	90.44
472.216	127.44
472.435	154.44
472.654	85.44
472.873	95.44
473.092	93.44
473.311	78.44
473.53	86.44
473.749	97.44
473.968	96.44
474.187	97.44
474.406	88.44
474.625	71.44
474.844	85.44
475.063	83.44
475.282	90.44
475.501	100.44
475.72	86.44
475.939	82.44
476.158	77.44
476.377	89.44
476.596	94.44
476.814	80.44
477.033	86.44
477.252	89.44
477.471	85.44
477.69	82.44
477.908	87.44
478.127	76.44
478.346	78.44
478.564	68.44
478.783	98.44
479.002	74.44
479.22	84.44
479.439	101.44
479.658	97.44
479.876	83.44
480.095	90.44
480.313	100.44
480.532	79.44
480.751	96.44
480.969	117.44
481.188	192.44
481.406	163.44
481.624	96.44
481.843	86.44
482.061	80.44
482.28	92.44
482.498	87.44
482.717	86.44
482.935	97.44
483.153	86.44
483.372	89.44
483.59	101.44
483.808	96.44
484.027	90.44
484.245	102.44
484.463	92.44
484.681	94.44
484.9	101.44
485.118	85.44
485.336	90.44
485.554	98.44
485.772	98.44
485.99	103.44
486.209	105.44
486.427	104.44
486.645	123.44
486.863	123.44
487.081	107.44
487.299	102.44
487.517	96.44
487.735	88.44
487.953	102.44
488.171	108.44
488.389	98.44
488.607	110.44
488.825	86.44
489.043	106.44
489.261	92.44
489.479	96.44
489.696	80.44
489.914	87.44
490.132	83.44
490.35	85.44
490.568	107.44
490.786	82.44
491.003	91.44
491.221	80.44
491.439	101.44
491.657	96.44
491.874	101.44
492.092	85.44
492.31	88.44
492.527	92.44
492.745	75.44
492.963	96.44
493.18	82.44
493.398	97.44
493.615	83.44
493.833	90.44
494.05	91.44
494.268	89.44
494.485	84.44
494.703	105.44
494.92	92.44
495.138	80.44
495.355	100.44
495.573	91.44
495.79	94.44
496.008	84.44
496.225	103.44
496.442	84.44
496.66	90.44
496.877	82.44
497.094	92.44
497.312	85.44
497.529	82.44
497.746	86.44
497.963	105.44
498.181	94.44
498.398	99.44
498.615	115.44
498.832	78.44
499.049	95.44
499.267	90.44
499.484	77.44
499.701	92.44
499.918	90.44
500.135	98.44
500.352	96.44
500.569	94.44
500.786	109.44
501.003	94.44
501.22	99.44
501.437	96.44
501.654	89.44
501.871	110.44
502.088	95.44
502.305	91.44
502.522	95.44
502.739	87.44
502.956	104.44
503.172	97.44
503.389	92.44
503.606	106.44
503.823	97.44
504.04	74.44
504.256	94.44
504.473	95.44
504.69	89.44
504.907	94.44
505.123	97.44
505.34	94.44
505.557	105.44
505.773	104.44
505.99	85.44
506.207	80.44
506.423	92.44
506.64	88.44
506.856	100.44
507.073	96.44
507.289	107.44
507.506	96.44
507.722	98.44
507.939	116.44
508.155	90.44
508.372	81.44
508.588	99.44
508.805	91.44
509.021	99.44
509.238	91.44
509.454	105.44
509.67	91.44
509.887	101.44
510.103	109.44
510.319	190.44
510.536	643.44
510.752	1906.44
510.968	526.44
511.184	129.44
511.401	114.44
511.617	102.44
511.833	102.44
512.049	97.44
512.265	90.44
512.481	85.44
512.698	89.44
512.914	90.44
513.13	98.44
513.346	100.44
513.562	113.44
513.778	101.44
513.994	92.44
514.21	90.44
514.426	111.44
514.642	123.44
514.858	101.44
515.074	132.44
515.29	363.44
515.506	1104.44
