Data from Circ_1993_H10_HRD10591_00035.txt Node
Date: Wed Jan 03 11:44:09 EST 2024
User: Yrep
Spectrometer: HR+D1059
Trigger mode: 1
Integration Time (sec): 1.000000E-1
Scans to average: 1
Electric dark correction enabled: true
Nonlinearity correction enabled: false
Boxcar width: 0
XAxis mode: Wavelengths
Number of Pixels in Spectrum: 2048
>>>>>Begin Spectral Data<<<<<
223.165	-26
223.4	-26
223.635	-26
223.869	-8
224.104	-26
224.338	-32
224.573	-2
224.808	-14
225.042	1
225.277	-9
225.511	-4
225.746	12
225.98	14
226.215	17
226.449	5
226.683	22
226.918	24
227.152	26
227.387	43
227.621	42
227.856	40
228.09	44
228.324	41
228.559	48
228.793	79
229.027	48
229.262	62
229.496	74
229.73	69
229.964	75
230.199	76
230.433	89
230.667	74
230.901	70
231.136	88
231.37	81
231.604	85
231.838	70
232.072	80
232.306	85
232.541	73
232.775	82
233.009	79
233.243	67
233.477	70
233.711	86
233.945	77
234.179	81
234.413	84
234.647	60
234.881	78
235.115	81
235.349	85
235.583	80
235.817	69
236.051	78
236.285	84
236.519	78
236.753	70
236.987	75
237.221	83
237.455	86
237.689	74
237.922	70
238.156	74
238.39	60
238.624	79
238.858	84
239.091	85
239.325	86
239.559	82
239.793	69
240.027	82
240.26	73
240.494	77
240.728	88
240.961	77
241.195	85
241.429	84
241.662	80
241.896	78
242.13	80
242.363	74
242.597	73
242.83	78
243.064	77
243.298	84
243.531	82
243.765	85
243.998	67
244.232	68
244.465	73
244.699	82
244.932	68
245.166	90
245.399	79
245.633	70
245.866	78
246.099	84
246.333	68
246.566	72
246.8	91
247.033	71
247.266	67
247.5	80
247.733	68
247.966	96
248.2	70
248.433	76
248.666	66
248.899	79
249.133	84
249.366	95
249.599	103
249.832	83
250.066	91
250.299	76
250.532	68
250.765	80
250.998	93
251.231	85
251.465	81
251.698	77
251.931	82
252.164	78
252.397	85
252.63	85
252.863	70
253.096	73
253.329	82
253.562	83
253.795	85
254.028	82
254.261	80
254.494	76
254.727	79
254.96	80
255.193	82
255.426	73
255.659	89
255.892	93
256.124	86
256.357	69
256.59	76
256.823	74
257.056	80
257.289	72
257.521	79
257.754	68
257.987	72
258.22	87
258.452	83
258.685	78
258.918	82
259.151	90
259.383	90
259.616	73
259.849	74
260.081	101
260.314	86
260.547	81
260.779	84
261.012	80
261.244	94
261.477	99
261.71	86
261.942	91
262.175	117
262.407	88
262.64	86
262.872	77
263.105	90
263.337	87
263.57	84
263.802	82
264.035	66
264.267	72
264.499	82
264.732	82
264.964	82
265.197	84
265.429	78
265.661	76
265.894	92
266.126	79
266.358	92
266.591	84
266.823	81
267.055	93
267.287	85
267.52	81
267.752	75
267.984	88
268.216	67
268.448	81
268.681	66
268.913	82
269.145	67
269.377	92
269.609	88
269.841	90
270.073	94
270.306	65
270.538	91
270.77	82
271.002	84
271.234	68
271.466	94
271.698	81
271.93	82
272.162	92
272.394	82
272.626	85
272.858	81
273.09	77
273.322	75
273.553	89
273.785	80
274.017	81
274.249	94
274.481	84
274.713	82
274.945	98
275.176	83
275.408	83
275.64	81
275.872	102
276.104	98
276.335	105
276.567	102
276.799	106
277.031	88
277.262	79
277.494	85
277.726	80
277.957	86
278.189	79
278.421	94
278.652	92
278.884	64
279.115	95
279.347	86
279.579	74
279.81	94
280.042	74
280.273	107
280.505	84
280.736	80
280.968	77
281.199	79
281.431	80
281.662	85
281.894	87
282.125	101
282.356	116
282.588	131
282.819	100
283.051	73
283.282	88
283.513	78
283.745	84
283.976	89
284.207	94
284.439	78
284.67	73
284.901	79
285.132	74
285.364	91
285.595	107
285.826	82
286.057	78
286.288	78
286.52	77
286.751	81
286.982	83
287.213	88
287.444	97
287.675	87
287.906	101
288.138	84
288.369	102
288.6	90
288.831	90
289.062	102
289.293	86
289.524	83
289.755	89
289.986	97
290.217	98
290.448	70
290.679	95
290.91	78
291.141	88
291.371	91
291.602	86
291.833	91
292.064	90
292.295	94
292.526	77
292.757	89
292.987	86
293.218	77
293.449	95
293.68	89
293.91	85
294.141	84
294.372	82
294.603	100
294.833	69
295.064	94
295.295	101
295.525	103
295.756	90
295.987	109
296.217	125
296.448	115
296.679	93
296.909	85
297.14	73
297.37	89
297.601	90
297.831	104
298.062	99
298.292	86
298.523	96
298.753	77
298.984	84
299.214	86
299.445	92
299.675	105
299.905	94
300.136	90
300.366	86
300.597	91
300.827	77
301.057	86
301.288	81
301.518	92
301.748	90
301.979	108
302.209	84
302.439	73
302.669	79
302.9	81
303.13	76
303.36	97
303.59	99
303.82	97
304.051	79
304.281	81
304.511	90
304.741	92
304.971	86
305.201	76
305.431	84
305.661	78
305.891	82
306.121	83
306.352	102
306.582	100
306.812	91
307.042	97
307.272	94
307.502	97
307.731	88
307.961	89
308.191	82
308.421	80
308.651	108
308.881	77
309.111	93
309.341	95
309.571	94
309.8	94
310.03	88
310.26	95
310.49	90
310.72	98
310.949	101
311.179	93
311.409	85
311.639	90
311.868	89
312.098	98
312.328	89
312.557	88
312.787	102
313.017	100
313.246	85
313.476	106
313.706	104
313.935	94
314.165	110
314.394	89
314.624	94
314.853	89
315.083	106
315.312	91
315.542	85
315.771	84
316.001	88
316.23	89
316.46	82
316.689	84
316.919	90
317.148	86
317.377	95
317.607	91
317.836	85
318.065	73
318.295	88
318.524	88
318.753	81
318.983	92
319.212	103
319.441	78
319.67	101
319.9	79
320.129	96
320.358	86
320.587	77
320.816	91
321.046	97
321.275	96
321.504	94
321.733	100
321.962	87
322.191	104
322.42	101
322.649	107
322.878	118
323.108	116
323.337	112
323.566	105
323.795	139
324.024	189
324.253	347
324.482	706
324.71	1476
324.939	1948
325.168	728
325.397	223
325.626	133
325.855	108
326.084	118
326.313	113
326.542	152
326.77	208
326.999	397
327.228	810
327.457	1507
327.686	1200
327.914	328
328.143	196
328.372	158
328.6	132
328.829	118
329.058	116
329.287	121
329.515	115
329.744	109
329.972	100
330.201	148
330.43	172
330.658	124
330.887	137
331.115	112
331.344	109
331.572	89
331.801	108
332.03	94
332.258	88
332.486	93
332.715	107
332.943	103
333.172	93
333.4	75
333.629	93
333.857	114
334.085	120
334.314	131
334.542	187
334.771	169
334.999	112
335.227	94
335.455	101
335.684	92
335.912	99
336.14	105
336.369	100
336.597	110
336.825	100
337.053	92
337.281	84
337.51	75
337.738	84
337.966	80
338.194	97
338.422	92
338.65	96
338.878	112
339.106	94
339.334	93
339.562	87
339.79	85
340.018	83
340.246	100
340.474	92
340.702	103
340.93	90
341.158	97
341.386	96
341.614	94
341.842	87
342.07	82
342.298	90
342.526	101
342.754	95
342.981	103
343.209	99
343.437	91
343.665	72
343.893	93
344.12	80
344.348	94
344.576	80
344.804	90
345.031	107
345.259	82
345.487	92
345.714	100
345.942	83
346.17	105
346.397	96
346.625	86
346.853	96
347.08	89
347.308	84
347.535	102
347.763	85
347.99	100
348.218	97
348.445	112
348.673	84
348.9	95
349.128	88
349.355	84
349.583	95
349.81	93
350.037	99
350.265	98
350.492	96
350.72	100
350.947	98
351.174	107
351.402	92
351.629	91
351.856	97
352.083	98
352.311	96
352.538	116
352.765	100
352.992	112
353.22	109
353.447	102
353.674	110
353.901	108
354.128	84
354.355	101
354.583	96
354.81	102
355.037	106
355.264	101
355.491	96
355.718	87
355.945	106
356.172	98
356.399	95
356.626	80
356.853	87
357.08	86
357.307	93
357.534	98
357.761	90
357.988	88
358.215	94
358.441	95
358.668	98
358.895	98
359.122	92
359.349	93
359.576	92
359.802	103
360.029	107
360.256	112
360.483	114
360.709	83
360.936	95
361.163	95
361.39	77
361.616	89
361.843	85
362.07	97
362.296	106
362.523	82
362.749	107
362.976	92
363.203	97
363.429	83
363.656	86
363.882	91
364.109	95
364.335	98
364.562	89
364.788	88
365.015	92
365.241	97
365.468	102
365.694	105
365.92	100
366.147	84
366.373	94
366.599	85
366.826	90
367.052	88
367.278	93
367.505	87
367.731	83
367.957	87
368.184	82
368.41	100
368.636	101
368.862	100
369.089	105
369.315	85
369.541	90
369.767	89
369.993	88
370.219	82
370.445	92
370.672	82
370.898	86
371.124	91
371.35	86
371.576	101
371.802	96
372.028	70
372.254	99
372.48	72
372.706	85
372.932	94
373.158	81
373.384	92
373.61	92
373.835	76
374.061	89
374.287	97
374.513	104
374.739	90
374.965	91
375.191	69
375.416	88
375.642	100
375.868	89
376.094	92
376.319	90
376.545	95
376.771	81
376.997	101
377.222	93
377.448	92
377.674	83
377.899	102
378.125	81
378.35	88
378.576	102
378.802	90
379.027	104
379.253	92
379.478	90
379.704	96
379.929	102
380.155	95
380.38	93
380.606	99
380.831	99
381.057	84
381.282	97
381.507	97
381.733	98
381.958	95
382.184	101
382.409	100
382.634	116
382.86	108
383.085	98
383.31	109
383.535	114
383.761	103
383.986	92
384.211	102
384.436	103
384.662	101
384.887	107
385.112	111
385.337	120
385.562	118
385.787	111
386.013	110
386.238	129
386.463	116
386.688	110
386.913	105
387.138	115
387.363	102
387.588	101
387.813	109
388.038	125
388.263	126
388.488	114
388.713	98
388.938	84
389.163	85
389.387	94
389.612	93
389.837	99
390.062	96
390.287	88
390.512	92
390.736	89
390.961	101
391.186	85
391.411	105
391.636	99
391.86	82
392.085	92
392.31	84
392.534	75
392.759	91
392.984	97
393.208	115
393.433	156
393.658	131
393.882	112
394.107	89
394.331	92
394.556	89
394.78	91
395.005	92
395.229	80
395.454	90
395.678	94
395.903	96
396.127	89
396.352	98
396.576	94
396.801	85
397.025	112
397.249	105
397.474	92
397.698	82
397.922	73
398.147	89
398.371	86
398.595	90
398.82	78
399.044	75
399.268	75
399.492	96
399.717	76
399.941	78
400.165	96
400.389	94
400.613	101
400.837	65
401.062	84
401.286	93
401.51	82
401.734	91
401.958	103
402.182	118
402.406	136
402.63	114
402.854	88
403.078	94
403.302	89
403.526	85
403.75	86
403.974	83
404.198	87
404.422	76
404.645	79
404.869	86
405.093	78
405.317	89
405.541	86
405.765	96
405.988	108
406.212	149
406.436	197
406.66	118
406.883	91
407.107	98
407.331	92
407.555	105
407.778	85
408.002	93
408.226	88
408.449	77
408.673	100
408.896	86
409.12	102
409.344	82
409.567	92
409.791	86
410.014	96
410.238	91
410.461	88
410.685	88
410.908	106
411.132	101
411.355	88
411.578	97
411.802	91
412.025	100
412.249	98
412.472	99
412.695	101
412.919	91
413.142	95
413.365	90
413.589	85
413.812	96
414.035	85
414.258	83
414.482	98
414.705	85
414.928	97
415.151	97
415.374	98
415.597	90
415.821	97
416.044	86
416.267	83
416.49	73
416.713	100
416.936	99
417.159	104
417.382	85
417.605	100
417.828	101
418.051	74
418.274	89
418.497	81
418.72	81
418.943	90
419.166	88
419.389	100
419.611	89
419.834	86
420.057	93
420.28	100
420.503	90
420.726	97
420.948	88
421.171	94
421.394	102
421.617	109
421.839	91
422.062	81
422.285	92
422.507	93
422.73	120
422.953	112
423.175	92
423.398	87
423.621	99
423.843	85
424.066	88
424.288	91
424.511	92
424.733	99
424.956	119
425.178	97
425.401	93
425.623	102
425.846	81
426.068	92
426.291	96
426.513	86
426.735	95
426.958	102
427.18	94
427.402	139
427.625	158
427.847	130
428.069	96
428.292	85
428.514	101
428.736	82
428.958	91
429.181	88
429.403	85
429.625	88
429.847	91
430.069	91
430.292	89
430.514	82
430.736	87
430.958	79
431.18	83
431.402	97
431.624	87
431.846	96
432.068	77
432.29	83
432.512	81
432.734	79
432.956	93
433.178	112
433.4	97
433.622	92
433.844	86
434.066	89
434.287	89
434.509	96
434.731	108
434.953	89
435.175	93
435.397	82
435.618	93
435.84	96
436.062	120
436.284	101
436.505	106
436.727	92
436.949	74
437.17	77
437.392	69
437.614	90
437.835	104
438.057	104
438.278	107
438.5	94
438.721	125
438.943	93
439.165	99
439.386	84
439.608	88
439.829	92
440.05	104
440.272	143
440.493	104
440.715	82
440.936	86
441.158	83
441.379	86
441.6	83
441.822	87
442.043	98
442.264	84
442.486	89
442.707	97
442.928	100
443.149	117
443.371	123
443.592	116
443.813	121
444.034	93
444.255	84
444.476	93
444.698	76
444.919	106
445.14	133
445.361	114
445.582	112
445.803	134
446.024	126
446.245	120
446.466	118
446.687	85
446.908	95
447.129	87
447.35	83
447.571	85
447.792	97
448.013	96
448.234	100
448.455	85
448.675	112
448.896	100
449.117	94
449.338	100
449.559	114
449.779	137
450	89
450.221	83
450.442	79
450.662	92
450.883	92
451.104	112
451.324	90
451.545	90
451.766	84
451.986	100
452.207	77
452.428	95
452.648	108
452.869	106
453.089	97
453.31	111
453.53	107
453.751	101
453.971	86
454.192	97
454.412	95
454.633	100
454.853	86
455.073	79
455.294	85
455.514	93
455.734	103
455.955	89
456.175	90
456.395	85
456.616	93
456.836	78
457.056	69
457.276	91
457.497	90
457.717	77
457.937	83
458.157	72
458.377	94
458.598	101
458.818	141
459.038	143
459.258	102
459.478	102
459.698	77
459.918	90
460.138	90
460.358	75
460.578	75
460.798	95
461.018	77
461.238	88
461.458	74
461.678	95
461.898	92
462.118	94
462.338	106
462.558	84
462.777	78
462.997	81
463.217	86
463.437	95
463.657	78
463.876	73
464.096	98
464.316	87
464.536	106
464.755	79
464.975	96
465.195	145
465.414	143
465.634	92
465.854	96
466.073	94
466.293	96
466.512	90
466.732	80
466.951	70
467.171	93
467.391	104
467.61	107
467.829	80
468.049	113
468.268	128
468.488	99
468.707	78
468.927	95
469.146	89
469.365	89
469.585	85
469.804	91
470.023	105
470.243	80
470.462	94
470.681	101
470.901	99
471.12	90
471.339	86
471.558	84
471.777	82
471.997	113
472.216	137
472.435	221
472.654	115
472.873	88
473.092	92
473.311	92
473.53	101
473.749	82
473.968	88
474.187	99
474.406	98
474.625	84
474.844	84
475.063	88
475.282	85
475.501	78
475.72	79
475.939	89
476.158	91
476.377	87
476.596	88
476.814	85
477.033	87
477.252	86
477.471	83
477.69	74
477.908	89
478.127	80
478.346	83
478.564	98
478.783	98
479.002	86
479.22	88
479.439	94
479.658	100
479.876	93
480.095	93
480.313	80
480.532	94
480.751	109
480.969	146
481.188	324
481.406	210
481.624	100
481.843	79
482.061	91
482.28	81
482.498	84
482.717	97
482.935	77
483.153	88
483.372	88
483.59	76
483.808	79
484.027	96
484.245	80
484.463	88
484.681	94
484.9	93
485.118	89
485.336	91
485.554	104
485.772	93
485.99	105
486.209	98
486.427	95
486.645	105
486.863	96
487.081	95
487.299	106
487.517	91
487.735	95
487.953	101
488.171	88
488.389	90
488.607	87
488.825	96
489.043	86
489.261	98
489.479	99
489.696	89
489.914	76
490.132	72
490.35	88
490.568	98
490.786	90
491.003	94
491.221	78
491.439	92
491.657	91
491.874	84
492.092	81
492.31	78
492.527	88
492.745	98
492.963	83
493.18	82
493.398	84
493.615	81
493.833	91
494.05	92
494.268	74
494.485	87
494.703	84
494.92	88
495.138	81
495.355	78
495.573	90
495.79	84
496.008	96
496.225	98
496.442	86
496.66	83
496.877	89
497.094	104
497.312	84
497.529	83
497.746	93
497.963	92
498.181	92
498.398	74
498.615	93
498.832	93
499.049	102
499.267	97
499.484	82
499.701	91
499.918	102
500.135	85
500.352	99
500.569	93
500.786	97
501.003	99
501.22	74
501.437	81
501.654	97
501.871	98
502.088	84
502.305	90
502.522	94
502.739	79
502.956	92
503.172	83
503.389	83
503.606	100
503.823	84
504.04	86
504.256	89
504.473	94
504.69	80
504.907	89
505.123	94
505.34	95
505.557	93
505.773	106
505.99	98
506.207	78
506.423	84
506.64	90
506.856	101
507.073	93
507.289	94
507.506	110
507.722	115
507.939	104
508.155	85
508.372	99
508.588	96
508.805	91
509.021	84
509.238	98
509.454	103
509.67	106
509.887	108
510.103	126
510.319	179
510.536	683
510.752	2166
510.968	576
511.184	147
511.401	94
511.617	92
511.833	99
512.049	92
512.265	91
512.481	88
512.698	90
512.914	78
513.13	89
513.346	87
513.562	82
513.778	91
513.994	89
514.21	86
514.426	115
514.642	130
514.858	117
515.074	118
515.29	369
515.506	1309
515.721	482
515.937	138
516.153	117
516.369	112
516.585	85
516.801	89
517.016	95
517.232	89
517.448	100
517.664	102
517.879	99
518.095	95
518.311	84
518.527	104
518.742	87
518.958	80
519.173	109
519.389	99
519.605	104
519.82	91
520.036	94
520.251	110
520.467	97
520.682	80
520.898	113
521.113	116
521.329	128
521.544	176
521.76	506
521.975	2141
522.19	1264
522.406	261
522.621	108
522.836	106
523.052	96
523.267	88
523.482	98
523.698	96
523.913	117
524.128	100
524.343	91
524.559	105
524.774	93
524.989	85
525.204	93
525.419	100
525.634	94
525.849	78
526.064	75
526.28	98
526.495	99
526.71	84
526.925	85
527.14	98
527.355	98
527.57	85
527.785	93
527.999	89
528.214	92
528.429	94
528.644	90
528.859	91
529.074	101
529.289	115
529.503	180
529.718	106
529.933	84
530.148	90
530.363	94
530.577	76
530.792	90
531.007	103
531.221	89
531.436	95
531.651	101
531.865	99
532.08	101
532.295	93
532.509	91
532.724	108
532.938	74
533.153	95
533.367	97
533.582	82
533.796	100
534.011	97
534.225	78
534.44	90
534.654	85
534.868	106
535.083	97
535.297	94
535.511	97
535.726	100
535.94	101
536.154	84
536.369	95
536.583	92
536.797	82
537.011	90
537.225	85
537.44	88
537.654	91
537.868	78
538.082	87
538.296	92
538.51	80
538.724	86
538.938	89
539.153	103
539.367	99
539.581	91
539.795	89
540.009	91
540.222	88
540.436	82
540.65	70
540.864	83
541.078	100
541.292	84
541.506	92
541.72	83
541.934	106
542.147	82
542.361	89
542.575	82
542.789	90
543.002	87
543.216	93
543.43	102
543.644	82
543.857	97
544.071	106
544.285	107
544.498	95
544.712	78
544.925	92
545.139	91
545.352	89
545.566	85
545.779	91
545.993	88
546.206	94
546.42	88
546.633	91
546.847	93
547.06	88
547.274	100
547.487	92
547.7	82
547.914	85
548.127	101
548.34	104
548.554	76
548.767	97
548.98	82
549.193	77
549.407	88
549.62	92
549.833	88
550.046	90
550.259	88
550.473	85
550.686	89
550.899	89
551.112	84
551.325	79
551.538	93
551.751	82
551.964	82
552.177	92
552.39	93
552.603	79
552.816	84
553.029	99
553.242	80
553.455	96
553.667	110
553.88	105
554.093	108
554.306	91
554.519	86
554.732	84
554.944	78
555.157	93
555.37	92
555.583	97
555.795	80
556.008	77
556.221	96
556.433	89
556.646	88
556.859	86
557.071	73
557.284	87
557.496	80
557.709	98
557.921	100
558.134	81
558.346	84
558.559	76
558.771	81
558.984	73
559.196	93
559.409	102
559.621	93
559.833	85
560.046	75
560.258	92
560.47	94
560.683	92
560.895	99
561.107	74
561.32	91
561.532	90
561.744	90
561.956	85
562.168	85
562.381	94
562.593	91
562.805	90
563.017	90
563.229	93
563.441	87
563.653	93
563.865	85
564.077	74
564.289	70
564.501	86
564.713	93
564.925	101
565.137	99
565.349	83
565.561	91
565.773	101
565.985	86
566.197	77
566.408	83
566.62	87
566.832	90
567.044	86
567.255	66
567.467	72
567.679	88
567.891	93
568.102	93
568.314	95
568.526	84
568.737	85
568.949	80
569.161	74
569.372	84
569.584	92
569.795	97
570.007	121
570.218	221
570.43	129
570.641	91
570.853	88
571.064	83
571.276	84
571.487	88
571.698	85
571.91	85
572.121	90
572.333	100
572.544	72
572.755	91
572.966	86
573.178	80
573.389	75
573.6	99
573.811	83
574.023	82
574.234	84
574.445	78
574.656	77
574.867	91
575.078	96
575.289	89
575.501	100
575.712	96
575.923	85
576.134	96
576.345	87
576.556	85
576.767	87
576.978	86
577.188	88
577.399	93
577.61	81
577.821	91
578.032	100
578.243	236
578.454	684
578.665	208
578.875	92
579.086	82
579.297	87
579.508	85
579.718	79
579.929	83
580.14	94
580.35	88
580.561	69
580.772	92
580.982	89
581.193	88
581.403	110
581.614	92
581.825	94
582.035	88
582.246	94
582.456	93
582.667	90
582.877	84
583.087	80
583.298	97
583.508	74
583.719	84
583.929	85
584.139	84
584.35	79
584.56	79
