Data from Circ_1993_H10_HRD10591_00066.txt Node
Date: Wed Jan 03 11:44:15 EST 2024
User: Yrep
Spectrometer: HR+D1059
Trigger mode: 1
Integration Time (sec): 1.000000E-1
Scans to average: 1
Electric dark correction enabled: true
Nonlinearity correction enabled: false
Boxcar width: 0
XAxis mode: Wavelengths
Number of Pixels in Spectrum: 2048
>>>>>Begin Spectral Data<<<<<
223.165	-21.5
223.4	-21.5
223.635	-21.5
223.869	-15.5
224.104	-22.5
224.338	-17.5
224.573	-12.5
224.808	6.5
225.042	-12.5
225.277	-7.5
225.511	-1.5
225.746	0.5
225.98	8.5
226.215	-0.5
226.449	15.5
226.683	23.5
226.918	30.5
227.152	26.5
227.387	25.5
227.621	39.5
227.856	47.5
228.09	54.5
228.324	48.5
228.559	56.5
228.793	63.5
229.027	68.5
229.262	71.5
229.496	70.5
229.73	85.5
229.964	79.5
230.199	81.5
230.433	76.5
230.667	88.5
230.901	80.5
231.136	79.5
231.37	89.5
231.604	86.5
231.838	65.5
232.072	62.5
232.306	68.5
232.541	83.5
232.775	83.5
233.009	86.5
233.243	77.5
233.477	73.5
233.711	67.5
233.945	86.5
234.179	76.5
234.413	70.5
234.647	89.5
234.881	78.5
235.115	87.5
235.349	70.5
235.583	65.5
235.817	74.5
236.051	70.5
236.285	71.5
236.519	64.5
236.753	72.5
236.987	70.5
237.221	87.5
237.455	78.5
237.689	83.5
237.922	69.5
238.156	75.5
238.39	77.5
238.624	75.5
238.858	90.5
239.091	80.5
239.325	76.5
239.559	75.5
239.793	86.5
240.027	75.5
240.26	75.5
240.494	75.5
240.728	75.5
240.961	66.5
241.195	75.5
241.429	66.5
241.662	71.5
241.896	75.5
242.13	86.5
242.363	70.5
242.597	76.5
242.83	66.5
243.064	76.5
243.298	74.5
243.531	70.5
243.765	73.5
243.998	78.5
244.232	78.5
244.465	76.5
244.699	81.5
244.932	76.5
245.166	71.5
245.399	66.5
245.633	70.5
245.866	76.5
246.099	80.5
246.333	71.5
246.566	59.5
246.8	89.5
247.033	71.5
247.266	67.5
247.5	78.5
247.733	81.5
247.966	87.5
248.2	77.5
248.433	70.5
248.666	89.5
248.899	75.5
249.133	98.5
249.366	97.5
249.599	90.5
249.832	95.5
250.066	95.5
250.299	74.5
250.532	80.5
250.765	73.5
250.998	80.5
251.231	78.5
251.465	76.5
251.698	78.5
251.931	80.5
252.164	86.5
252.397	88.5
252.63	85.5
252.863	86.5
253.096	76.5
253.329	75.5
253.562	73.5
253.795	86.5
254.028	82.5
254.261	77.5
254.494	82.5
254.727	81.5
254.96	97.5
255.193	80.5
255.426	77.5
255.659	76.5
255.892	94.5
256.124	77.5
256.357	80.5
256.59	80.5
256.823	89.5
257.056	79.5
257.289	76.5
257.521	86.5
257.754	86.5
257.987	90.5
258.22	87.5
258.452	76.5
258.685	97.5
258.918	75.5
259.151	89.5
259.383	95.5
259.616	96.5
259.849	76.5
260.081	73.5
260.314	83.5
260.547	94.5
260.779	98.5
261.012	93.5
261.244	89.5
261.477	92.5
261.71	95.5
261.942	105.5
262.175	113.5
262.407	85.5
262.64	77.5
262.872	67.5
263.105	84.5
263.337	86.5
263.57	79.5
263.802	75.5
264.035	80.5
264.267	75.5
264.499	69.5
264.732	71.5
264.964	73.5
265.197	83.5
265.429	80.5
265.661	64.5
265.894	82.5
266.126	86.5
266.358	81.5
266.591	84.5
266.823	68.5
267.055	88.5
267.287	85.5
267.52	72.5
267.752	84.5
267.984	76.5
268.216	86.5
268.448	74.5
268.681	95.5
268.913	92.5
269.145	81.5
269.377	89.5
269.609	67.5
269.841	73.5
270.073	83.5
270.306	81.5
270.538	74.5
270.77	85.5
271.002	84.5
271.234	89.5
271.466	90.5
271.698	82.5
271.93	76.5
272.162	87.5
272.394	73.5
272.626	80.5
272.858	89.5
273.09	88.5
273.322	83.5
273.553	91.5
273.785	66.5
274.017	85.5
274.249	76.5
274.481	89.5
274.713	89.5
274.945	83.5
275.176	74.5
275.408	77.5
275.64	83.5
275.872	92.5
276.104	80.5
276.335	87.5
276.567	96.5
276.799	98.5
277.031	99.5
277.262	87.5
277.494	99.5
277.726	67.5
277.957	89.5
278.189	85.5
278.421	84.5
278.652	82.5
278.884	90.5
279.115	90.5
279.347	80.5
279.579	84.5
279.81	100.5
280.042	88.5
280.273	97.5
280.505	82.5
280.736	92.5
280.968	70.5
281.199	88.5
281.431	89.5
281.662	96.5
281.894	86.5
282.125	80.5
282.356	94.5
282.588	126.5
282.819	108.5
283.051	80.5
283.282	96.5
283.513	94.5
283.745	76.5
283.976	92.5
284.207	87.5
284.439	88.5
284.67	75.5
284.901	94.5
285.132	76.5
285.364	79.5
285.595	85.5
285.826	82.5
286.057	90.5
286.288	86.5
286.52	65.5
286.751	86.5
286.982	80.5
287.213	59.5
287.444	83.5
287.675	91.5
287.906	83.5
288.138	84.5
288.369	89.5
288.6	80.5
288.831	92.5
289.062	109.5
289.293	102.5
289.524	67.5
289.755	83.5
289.986	84.5
290.217	87.5
290.448	86.5
290.679	82.5
290.91	70.5
291.141	90.5
291.371	95.5
291.602	89.5
291.833	77.5
292.064	84.5
292.295	78.5
292.526	76.5
292.757	79.5
292.987	78.5
293.218	76.5
293.449	79.5
293.68	91.5
293.91	83.5
294.141	86.5
294.372	90.5
294.603	95.5
294.833	83.5
295.064	86.5
295.295	80.5
295.525	73.5
295.756	81.5
295.987	105.5
296.217	129.5
296.448	115.5
296.679	96.5
296.909	90.5
297.14	87.5
297.37	88.5
297.601	86.5
297.831	96.5
298.062	96.5
298.292	84.5
298.523	84.5
298.753	95.5
298.984	80.5
299.214	76.5
299.445	71.5
299.675	80.5
299.905	87.5
300.136	78.5
300.366	83.5
300.597	83.5
300.827	82.5
301.057	88.5
301.288	102.5
301.518	90.5
301.748	86.5
301.979	118.5
302.209	93.5
302.439	75.5
302.669	91.5
302.9	88.5
303.13	92.5
303.36	88.5
303.59	103.5
303.82	99.5
304.051	102.5
304.281	92.5
304.511	83.5
304.741	76.5
304.971	98.5
305.201	102.5
305.431	93.5
305.661	94.5
305.891	85.5
306.121	82.5
306.352	98.5
306.582	104.5
306.812	91.5
307.042	94.5
307.272	104.5
307.502	91.5
307.731	96.5
307.961	98.5
308.191	91.5
308.421	86.5
308.651	93.5
308.881	89.5
309.111	81.5
309.341	97.5
309.571	93.5
309.8	81.5
310.03	86.5
310.26	88.5
310.49	92.5
310.72	100.5
310.949	95.5
311.179	95.5
311.409	96.5
311.639	81.5
311.868	85.5
312.098	96.5
312.328	94.5
312.557	94.5
312.787	105.5
313.017	101.5
313.246	95.5
313.476	82.5
313.706	84.5
313.935	88.5
314.165	110.5
314.394	107.5
314.624	102.5
314.853	96.5
315.083	103.5
315.312	94.5
315.542	89.5
315.771	101.5
316.001	84.5
316.23	75.5
316.46	97.5
316.689	98.5
316.919	103.5
317.148	93.5
317.377	64.5
317.607	103.5
317.836	101.5
318.065	90.5
318.295	82.5
318.524	81.5
318.753	89.5
318.983	79.5
319.212	98.5
319.441	109.5
319.67	104.5
319.9	86.5
320.129	81.5
320.358	90.5
320.587	97.5
320.816	91.5
321.046	96.5
321.275	85.5
321.504	80.5
321.733	92.5
321.962	87.5
322.191	116.5
322.42	98.5
322.649	91.5
322.878	112.5
323.108	108.5
323.337	106.5
323.566	115.5
323.795	140.5
324.024	198.5
324.253	367.5
324.482	777.5
324.71	1612.5
324.939	2152.5
325.168	803.5
325.397	250.5
325.626	154.5
325.855	131.5
326.084	126.5
326.313	118.5
326.542	142.5
326.77	209.5
326.999	438.5
327.228	889.5
327.457	1686.5
327.686	1336.5
327.914	370.5
328.143	224.5
328.372	193.5
328.6	144.5
328.829	128.5
329.058	141.5
329.287	124.5
329.515	98.5
329.744	112.5
329.972	148.5
330.201	189.5
330.43	246.5
330.658	174.5
330.887	154.5
331.115	121.5
331.344	80.5
331.572	104.5
331.801	110.5
332.03	99.5
332.258	97.5
332.486	92.5
332.715	80.5
332.943	93.5
333.172	91.5
333.4	104.5
333.629	123.5
333.857	110.5
334.085	139.5
334.314	199.5
334.542	300.5
334.771	310.5
334.999	136.5
335.227	98.5
335.455	92.5
335.684	97.5
335.912	99.5
336.14	95.5
336.369	100.5
336.597	97.5
336.825	88.5
337.053	97.5
337.281	83.5
337.51	80.5
337.738	83.5
337.966	86.5
338.194	93.5
338.422	87.5
338.65	89.5
338.878	99.5
339.106	87.5
339.334	92.5
339.562	88.5
339.79	82.5
340.018	82.5
340.246	81.5
340.474	89.5
340.702	79.5
340.93	92.5
341.158	96.5
341.386	109.5
341.614	103.5
341.842	97.5
342.07	92.5
342.298	78.5
342.526	84.5
342.754	98.5
342.981	87.5
343.209	97.5
343.437	86.5
343.665	86.5
343.893	101.5
344.12	77.5
344.348	92.5
344.576	97.5
344.804	90.5
345.031	84.5
345.259	95.5
345.487	113.5
345.714	88.5
345.942	95.5
346.17	80.5
346.397	106.5
346.625	89.5
346.853	94.5
347.08	83.5
347.308	94.5
347.535	92.5
347.763	98.5
347.99	89.5
348.218	93.5
348.445	103.5
348.673	94.5
348.9	106.5
349.128	91.5
349.355	89.5
349.583	89.5
349.81	89.5
350.037	83.5
350.265	96.5
350.492	84.5
350.72	92.5
350.947	96.5
351.174	104.5
351.402	97.5
351.629	99.5
351.856	100.5
352.083	99.5
352.311	95.5
352.538	106.5
352.765	105.5
352.992	117.5
353.22	95.5
353.447	113.5
353.674	89.5
353.901	93.5
354.128	93.5
354.355	95.5
354.583	89.5
354.81	99.5
355.037	90.5
355.264	82.5
355.491	97.5
355.718	91.5
355.945	103.5
356.172	89.5
356.399	82.5
356.626	92.5
356.853	89.5
357.08	75.5
357.307	91.5
357.534	93.5
357.761	96.5
357.988	98.5
358.215	89.5
358.441	87.5
358.668	101.5
358.895	87.5
359.122	80.5
359.349	89.5
359.576	86.5
359.802	109.5
360.029	100.5
360.256	103.5
360.483	91.5
360.709	77.5
360.936	95.5
361.163	85.5
361.39	98.5
361.616	93.5
361.843	89.5
362.07	100.5
362.296	102.5
362.523	83.5
362.749	92.5
362.976	76.5
363.203	96.5
363.429	88.5
363.656	82.5
363.882	87.5
364.109	92.5
364.335	89.5
364.562	90.5
364.788	89.5
365.015	84.5
365.241	94.5
365.468	104.5
365.694	105.5
365.92	93.5
366.147	103.5
366.373	79.5
366.599	89.5
366.826	94.5
367.052	83.5
367.278	74.5
367.505	82.5
367.731	90.5
367.957	89.5
368.184	91.5
368.41	97.5
368.636	104.5
368.862	109.5
369.089	92.5
369.315	86.5
369.541	73.5
369.767	80.5
369.993	86.5
370.219	87.5
370.445	84.5
370.672	88.5
370.898	86.5
371.124	78.5
371.35	74.5
371.576	90.5
371.802	80.5
372.028	97.5
372.254	89.5
372.48	87.5
372.706	83.5
372.932	83.5
373.158	83.5
373.384	89.5
373.61	80.5
373.835	95.5
374.061	80.5
374.287	100.5
374.513	73.5
374.739	94.5
374.965	75.5
375.191	82.5
375.416	85.5
375.642	95.5
375.868	93.5
376.094	94.5
376.319	93.5
376.545	88.5
376.771	79.5
376.997	99.5
377.222	91.5
377.448	101.5
377.674	100.5
377.899	98.5
378.125	94.5
378.35	84.5
378.576	75.5
378.802	84.5
379.027	80.5
379.253	86.5
379.478	76.5
379.704	79.5
379.929	94.5
380.155	86.5
380.38	81.5
380.606	93.5
380.831	87.5
381.057	95.5
381.282	83.5
381.507	89.5
381.733	79.5
381.958	86.5
382.184	93.5
382.409	98.5
382.634	89.5
382.86	84.5
383.085	102.5
383.31	89.5
383.535	88.5
383.761	94.5
383.986	95.5
384.211	118.5
384.436	88.5
384.662	95.5
384.887	111.5
385.112	104.5
385.337	107.5
385.562	110.5
385.787	101.5
386.013	106.5
386.238	102.5
386.463	95.5
386.688	103.5
386.913	107.5
387.138	121.5
387.363	104.5
387.588	106.5
387.813	92.5
388.038	103.5
388.263	123.5
388.488	102.5
388.713	94.5
388.938	90.5
389.163	80.5
389.387	102.5
389.612	80.5
389.837	99.5
390.062	95.5
390.287	96.5
390.512	94.5
390.736	109.5
390.961	76.5
391.186	81.5
391.411	100.5
391.636	89.5
391.86	82.5
392.085	72.5
392.31	87.5
392.534	88.5
392.759	79.5
392.984	96.5
393.208	94.5
393.433	100.5
393.658	95.5
393.882	83.5
394.107	93.5
394.331	62.5
394.556	82.5
394.78	85.5
395.005	90.5
395.229	86.5
395.454	97.5
395.678	84.5
395.903	84.5
396.127	65.5
396.352	79.5
396.576	87.5
396.801	96.5
397.025	111.5
397.249	100.5
397.474	91.5
397.698	78.5
397.922	89.5
398.147	87.5
398.371	87.5
398.595	79.5
398.82	64.5
399.044	80.5
399.268	73.5
399.492	88.5
399.717	79.5
399.941	88.5
400.165	88.5
400.389	91.5
400.613	89.5
400.837	80.5
401.062	84.5
401.286	74.5
401.51	77.5
401.734	92.5
401.958	96.5
402.182	125.5
402.406	142.5
402.63	115.5
402.854	87.5
403.078	78.5
403.302	77.5
403.526	76.5
403.75	90.5
403.974	82.5
404.198	84.5
404.422	113.5
404.645	79.5
404.869	89.5
405.093	91.5
405.317	95.5
405.541	112.5
405.765	91.5
405.988	118.5
406.212	169.5
406.436	199.5
406.66	142.5
406.883	100.5
407.107	96.5
407.331	105.5
407.555	112.5
407.778	104.5
408.002	88.5
408.226	85.5
408.449	86.5
408.673	79.5
408.896	82.5
409.12	89.5
409.344	89.5
409.567	87.5
409.791	79.5
410.014	86.5
410.238	94.5
410.461	91.5
410.685	92.5
410.908	106.5
411.132	112.5
411.355	96.5
411.578	88.5
411.802	84.5
412.025	71.5
412.249	96.5
412.472	87.5
412.695	111.5
412.919	96.5
413.142	93.5
413.365	90.5
413.589	77.5
413.812	79.5
414.035	92.5
414.258	84.5
414.482	86.5
414.705	82.5
414.928	83.5
415.151	78.5
415.374	70.5
415.597	85.5
415.821	83.5
416.044	92.5
416.267	83.5
416.49	65.5
416.713	87.5
416.936	90.5
417.159	84.5
417.382	89.5
417.605	81.5
417.828	81.5
418.051	77.5
418.274	79.5
418.497	109.5
418.72	80.5
418.943	88.5
419.166	84.5
419.389	66.5
419.611	81.5
419.834	98.5
420.057	88.5
420.28	108.5
420.503	94.5
420.726	89.5
420.948	64.5
421.171	92.5
421.394	96.5
421.617	86.5
421.839	73.5
422.062	82.5
422.285	94.5
422.507	94.5
422.73	113.5
422.953	99.5
423.175	94.5
423.398	74.5
423.621	83.5
423.843	86.5
424.066	84.5
424.288	96.5
424.511	88.5
424.733	94.5
424.956	107.5
425.178	99.5
425.401	95.5
425.623	112.5
425.846	80.5
426.068	71.5
426.291	83.5
426.513	94.5
426.735	87.5
426.958	93.5
427.18	109.5
427.402	144.5
427.625	168.5
427.847	136.5
428.069	126.5
428.292	85.5
428.514	90.5
428.736	83.5
428.958	90.5
429.181	80.5
429.403	82.5
429.625	81.5
429.847	74.5
430.069	98.5
430.292	107.5
430.514	82.5
430.736	82.5
430.958	81.5
431.18	92.5
431.402	74.5
431.624	91.5
431.846	83.5
432.068	89.5
432.29	83.5
432.512	86.5
432.734	87.5
432.956	92.5
433.178	115.5
433.4	94.5
433.622	89.5
433.844	100.5
434.066	97.5
434.287	79.5
434.509	89.5
434.731	72.5
434.953	90.5
435.175	72.5
435.397	85.5
435.618	86.5
435.84	93.5
436.062	105.5
436.284	123.5
436.505	105.5
436.727	96.5
436.949	99.5
437.17	88.5
437.392	94.5
437.614	88.5
437.835	104.5
438.057	99.5
438.278	109.5
438.5	94.5
438.721	108.5
438.943	93.5
439.165	82.5
439.386	79.5
439.608	85.5
439.829	104.5
440.05	122.5
440.272	134.5
440.493	100.5
440.715	84.5
440.936	88.5
441.158	81.5
441.379	89.5
441.6	80.5
441.822	93.5
442.043	83.5
442.264	107.5
442.486	113.5
442.707	96.5
442.928	98.5
443.149	127.5
443.371	125.5
443.592	105.5
443.813	116.5
444.034	96.5
444.255	96.5
444.476	86.5
444.698	94.5
444.919	68.5
445.14	138.5
445.361	128.5
445.582	120.5
445.803	126.5
446.024	124.5
446.245	132.5
446.466	117.5
446.687	94.5
446.908	95.5
447.129	82.5
447.35	98.5
447.571	88.5
447.792	101.5
448.013	99.5
448.234	107.5
448.455	99.5
448.675	128.5
448.896	115.5
449.117	108.5
449.338	93.5
449.559	131.5
449.779	139.5
450	89.5
450.221	79.5
450.442	93.5
450.662	90.5
450.883	92.5
451.104	109.5
451.324	92.5
451.545	92.5
451.766	79.5
451.986	98.5
452.207	94.5
452.428	97.5
452.648	89.5
452.869	116.5
453.089	94.5
453.31	106.5
453.53	98.5
453.751	88.5
453.971	100.5
454.192	110.5
454.412	85.5
454.633	95.5
454.853	95.5
455.073	83.5
455.294	82.5
455.514	100.5
455.734	86.5
455.955	89.5
456.175	91.5
456.395	90.5
456.616	84.5
456.836	79.5
457.056	75.5
457.276	87.5
457.497	87.5
457.717	81.5
457.937	86.5
458.157	83.5
458.377	75.5
458.598	97.5
458.818	153.5
459.038	163.5
459.258	105.5
459.478	92.5
459.698	79.5
459.918	86.5
460.138	94.5
460.358	75.5
460.578	77.5
460.798	82.5
461.018	92.5
461.238	88.5
461.458	77.5
461.678	89.5
461.898	87.5
462.118	91.5
462.338	74.5
462.558	71.5
462.777	79.5
462.997	71.5
463.217	84.5
463.437	82.5
463.657	88.5
463.876	80.5
464.096	83.5
464.316	93.5
464.536	86.5
464.755	82.5
464.975	87.5
465.195	144.5
465.414	153.5
465.634	97.5
465.854	88.5
466.073	90.5
466.293	78.5
466.512	92.5
466.732	76.5
466.951	100.5
467.171	97.5
467.391	96.5
467.61	113.5
467.829	98.5
468.049	138.5
468.268	164.5
468.488	108.5
468.707	91.5
468.927	84.5
469.146	100.5
469.365	83.5
469.585	79.5
469.804	83.5
470.023	103.5
470.243	96.5
470.462	100.5
470.681	95.5
470.901	82.5
471.12	89.5
471.339	84.5
471.558	72.5
471.777	78.5
471.997	114.5
472.216	228.5
472.435	359.5
472.654	142.5
472.873	102.5
473.092	91.5
473.311	86.5
473.53	92.5
473.749	76.5
473.968	91.5
474.187	106.5
474.406	80.5
474.625	87.5
474.844	88.5
475.063	89.5
475.282	88.5
475.501	86.5
475.72	90.5
475.939	80.5
476.158	78.5
476.377	81.5
476.596	79.5
476.814	88.5
477.033	83.5
477.252	97.5
477.471	78.5
477.69	93.5
477.908	86.5
478.127	71.5
478.346	78.5
478.564	91.5
478.783	82.5
479.002	87.5
479.22	99.5
479.439	92.5
479.658	105.5
479.876	96.5
480.095	87.5
480.313	110.5
480.532	89.5
480.751	116.5
480.969	211.5
481.188	618.5
481.406	391.5
481.624	122.5
481.843	96.5
482.061	78.5
482.28	80.5
482.498	88.5
482.717	86.5
482.935	94.5
483.153	99.5
483.372	100.5
483.59	72.5
483.808	83.5
484.027	71.5
484.245	70.5
484.463	71.5
484.681	93.5
484.9	92.5
485.118	97.5
485.336	92.5
485.554	90.5
485.772	99.5
485.99	114.5
486.209	107.5
486.427	105.5
486.645	107.5
486.863	114.5
487.081	91.5
487.299	90.5
487.517	99.5
487.735	95.5
487.953	89.5
488.171	97.5
488.389	91.5
488.607	96.5
488.825	104.5
489.043	84.5
489.261	96.5
489.479	69.5
489.696	88.5
489.914	86.5
490.132	76.5
490.35	83.5
490.568	83.5
490.786	90.5
491.003	79.5
491.221	82.5
491.439	83.5
491.657	97.5
491.874	89.5
492.092	96.5
492.31	84.5
492.527	82.5
492.745	89.5
492.963	100.5
493.18	75.5
493.398	75.5
493.615	83.5
493.833	83.5
494.05	86.5
494.268	83.5
494.485	108.5
494.703	111.5
494.92	81.5
495.138	99.5
495.355	81.5
495.573	82.5
495.79	96.5
496.008	84.5
496.225	94.5
496.442	83.5
496.66	87.5
496.877	91.5
497.094	91.5
497.312	83.5
497.529	87.5
497.746	83.5
497.963	80.5
498.181	73.5
498.398	90.5
498.615	110.5
498.832	90.5
499.049	78.5
499.267	111.5
499.484	88.5
499.701	82.5
499.918	77.5
500.135	82.5
500.352	85.5
500.569	100.5
500.786	82.5
501.003	97.5
501.22	94.5
501.437	87.5
501.654	100.5
501.871	111.5
502.088	86.5
502.305	78.5
502.522	99.5
502.739	95.5
502.956	87.5
503.172	90.5
503.389	78.5
503.606	92.5
503.823	103.5
504.04	79.5
504.256	91.5
504.473	96.5
504.69	76.5
504.907	74.5
505.123	99.5
505.34	88.5
505.557	86.5
505.773	107.5
505.99	86.5
506.207	92.5
506.423	94.5
506.64	72.5
506.856	86.5
507.073	92.5
507.289	74.5
507.506	103.5
507.722	95.5
507.939	124.5
508.155	106.5
508.372	92.5
508.588	78.5
508.805	82.5
509.021	95.5
509.238	93.5
509.454	107.5
509.67	88.5
509.887	118.5
510.103	134.5
510.319	198.5
510.536	679.5
510.752	2204.5
510.968	602.5
511.184	164.5
511.401	108.5
511.617	104.5
511.833	98.5
512.049	74.5
512.265	94.5
512.481	76.5
512.698	76.5
512.914	82.5
513.13	84.5
513.346	89.5
513.562	95.5
513.778	97.5
513.994	95.5
514.21	92.5
514.426	109.5
514.642	130.5
514.858	140.5
515.074	154.5
515.29	414.5
515.506	1398.5
515.721	507.5
515.937	157.5
516.153	106.5
516.369	93.5
516.585	99.5
516.801	82.5
517.016	90.5
517.232	91.5
517.448	91.5
517.664	106.5
517.879	93.5
518.095	90.5
518.311	94.5
518.527	90.5
518.742	95.5
518.958	85.5
519.173	83.5
519.389	90.5
519.605	86.5
519.82	99.5
520.036	90.5
520.251	110.5
520.467	113.5
520.682	97.5
520.898	94.5
521.113	104.5
521.329	143.5
521.544	199.5
521.76	515.5
521.975	2274.5
522.19	1363.5
522.406	311.5
522.621	112.5
522.836	99.5
523.052	98.5
523.267	94.5
523.482	92.5
523.698	91.5
523.913	110.5
524.128	106.5
524.343	89.5
524.559	97.5
524.774	103.5
524.989	93.5
525.204	100.5
525.419	108.5
525.634	95.5
525.849	85.5
526.064	91.5
526.28	92.5
526.495	98.5
526.71	83.5
526.925	81.5
527.14	78.5
527.355	72.5
527.57	90.5
527.785	87.5
527.999	87.5
528.214	89.5
528.429	78.5
528.644	90.5
528.859	94.5
529.074	91.5
529.289	105.5
529.503	172.5
529.718	85.5
529.933	79.5
530.148	92.5
530.363	102.5
530.577	82.5
530.792	91.5
531.007	104.5
531.221	88.5
531.436	83.5
531.651	91.5
531.865	87.5
532.08	96.5
532.295	87.5
532.509	95.5
532.724	91.5
532.938	95.5
533.153	88.5
533.367	90.5
533.582	79.5
533.796	86.5
534.011	82.5
534.225	96.5
534.44	94.5
534.654	96.5
534.868	82.5
535.083	88.5
535.297	99.5
535.511	90.5
535.726	114.5
535.94	94.5
536.154	97.5
