Data from Circ_1993_H10_HRD10591_00023.txt Node
Date: Wed Jan 03 11:44:06 EST 2024
User: Yrep
Spectrometer: HR+D1059
Trigger mode: 1
Integration Time (sec): 1.000000E-1
Scans to average: 1
Electric dark correction enabled: true
Nonlinearity correction enabled: false
Boxcar width: 0
XAxis mode: Wavelengths
Number of Pixels in Spectrum: 2048
>>>>>Begin Spectral Data<<<<<
223.165	-21.38
223.4	-21.38
223.635	-21.38
223.869	-10.38
224.104	-19.38
224.338	-16.38
224.573	-12.38
224.808	-19.38
225.042	-13.38
225.277	-5.38
225.511	1.62
225.746	11.62
225.98	16.62
226.215	-0.38
226.449	19.62
226.683	21.62
226.918	29.62
227.152	17.62
227.387	33.62
227.621	34.62
227.856	42.62
228.09	53.62
228.324	59.62
228.559	53.62
228.793	63.62
229.027	64.62
229.262	59.62
229.496	74.62
229.73	79.62
229.964	67.62
230.199	78.62
230.433	78.62
230.667	68.62
230.901	69.62
231.136	75.62
231.37	77.62
231.604	71.62
231.838	77.62
232.072	62.62
232.306	74.62
232.541	79.62
232.775	69.62
233.009	76.62
233.243	83.62
233.477	72.62
233.711	76.62
233.945	72.62
234.179	88.62
234.413	74.62
234.647	95.62
234.881	83.62
235.115	76.62
235.349	80.62
235.583	64.62
235.817	68.62
236.051	72.62
236.285	72.62
236.519	66.62
236.753	74.62
236.987	81.62
237.221	72.62
237.455	90.62
237.689	67.62
237.922	67.62
238.156	77.62
238.39	67.62
238.624	56.62
238.858	66.62
239.091	78.62
239.325	67.62
239.559	68.62
239.793	71.62
240.027	71.62
240.26	89.62
240.494	81.62
240.728	65.62
240.961	73.62
241.195	78.62
241.429	69.62
241.662	64.62
241.896	70.62
242.13	75.62
242.363	76.62
242.597	80.62
242.83	83.62
243.064	67.62
243.298	69.62
243.531	56.62
243.765	83.62
243.998	82.62
244.232	69.62
244.465	75.62
244.699	57.62
244.932	66.62
245.166	76.62
245.399	78.62
245.633	73.62
245.866	71.62
246.099	95.62
246.333	75.62
246.566	87.62
246.8	74.62
247.033	70.62
247.266	73.62
247.5	69.62
247.733	76.62
247.966	89.62
248.2	88.62
248.433	72.62
248.666	80.62
248.899	69.62
249.133	59.62
249.366	89.62
249.599	96.62
249.832	75.62
250.066	78.62
250.299	75.62
250.532	73.62
250.765	81.62
250.998	81.62
251.231	74.62
251.465	60.62
251.698	69.62
251.931	74.62
252.164	86.62
252.397	90.62
252.63	66.62
252.863	69.62
253.096	73.62
253.329	64.62
253.562	81.62
253.795	75.62
254.028	69.62
254.261	83.62
254.494	76.62
254.727	80.62
254.96	74.62
255.193	74.62
255.426	72.62
255.659	79.62
255.892	88.62
256.124	69.62
256.357	75.62
256.59	75.62
256.823	67.62
257.056	72.62
257.289	63.62
257.521	79.62
257.754	77.62
257.987	78.62
258.22	82.62
258.452	86.62
258.685	83.62
258.918	78.62
259.151	76.62
259.383	80.62
259.616	68.62
259.849	75.62
260.081	86.62
260.314	74.62
260.547	78.62
260.779	86.62
261.012	83.62
261.244	70.62
261.477	86.62
261.71	95.62
261.942	102.62
262.175	99.62
262.407	95.62
262.64	84.62
262.872	89.62
263.105	67.62
263.337	89.62
263.57	80.62
263.802	81.62
264.035	73.62
264.267	74.62
264.499	78.62
264.732	89.62
264.964	93.62
265.197	73.62
265.429	77.62
265.661	76.62
265.894	87.62
266.126	75.62
266.358	87.62
266.591	78.62
266.823	79.62
267.055	85.62
267.287	87.62
267.52	60.62
267.752	60.62
267.984	76.62
268.216	70.62
268.448	79.62
268.681	91.62
268.913	74.62
269.145	86.62
269.377	77.62
269.609	79.62
269.841	87.62
270.073	72.62
270.306	80.62
270.538	81.62
270.77	94.62
271.002	74.62
271.234	86.62
271.466	85.62
271.698	75.62
271.93	72.62
272.162	66.62
272.394	79.62
272.626	99.62
272.858	86.62
273.09	83.62
273.322	86.62
273.553	78.62
273.785	82.62
274.017	83.62
274.249	78.62
274.481	64.62
274.713	88.62
274.945	84.62
275.176	79.62
275.408	94.62
275.64	80.62
275.872	78.62
276.104	85.62
276.335	87.62
276.567	88.62
276.799	95.62
277.031	93.62
277.262	79.62
277.494	80.62
277.726	86.62
277.957	81.62
278.189	74.62
278.421	68.62
278.652	77.62
278.884	76.62
279.115	74.62
279.347	70.62
279.579	78.62
279.81	91.62
280.042	83.62
280.273	79.62
280.505	85.62
280.736	79.62
280.968	90.62
281.199	102.62
281.431	96.62
281.662	95.62
281.894	83.62
282.125	95.62
282.356	101.62
282.588	116.62
282.819	90.62
283.051	67.62
283.282	91.62
283.513	82.62
283.745	82.62
283.976	90.62
284.207	71.62
284.439	77.62
284.67	82.62
284.901	98.62
285.132	89.62
285.364	75.62
285.595	88.62
285.826	64.62
286.057	88.62
286.288	84.62
286.52	84.62
286.751	70.62
286.982	91.62
287.213	78.62
287.444	83.62
287.675	74.62
287.906	76.62
288.138	71.62
288.369	84.62
288.6	80.62
288.831	78.62
289.062	76.62
289.293	81.62
289.524	66.62
289.755	86.62
289.986	92.62
290.217	83.62
290.448	82.62
290.679	91.62
290.91	91.62
291.141	88.62
291.371	93.62
291.602	75.62
291.833	84.62
292.064	83.62
292.295	92.62
292.526	97.62
292.757	86.62
292.987	76.62
293.218	81.62
293.449	88.62
293.68	76.62
293.91	87.62
294.141	77.62
294.372	86.62
294.603	96.62
294.833	94.62
295.064	79.62
295.295	79.62
295.525	85.62
295.756	90.62
295.987	96.62
296.217	124.62
296.448	95.62
296.679	89.62
296.909	87.62
297.14	81.62
297.37	90.62
297.601	93.62
297.831	81.62
298.062	94.62
298.292	94.62
298.523	87.62
298.753	86.62
298.984	79.62
299.214	93.62
299.445	83.62
299.675	92.62
299.905	85.62
300.136	70.62
300.366	92.62
300.597	80.62
300.827	89.62
301.057	81.62
301.288	92.62
301.518	83.62
301.748	75.62
301.979	90.62
302.209	86.62
302.439	82.62
302.669	79.62
302.9	91.62
303.13	87.62
303.36	91.62
303.59	91.62
303.82	92.62
304.051	76.62
304.281	83.62
304.511	75.62
304.741	90.62
304.971	86.62
305.201	92.62
305.431	67.62
305.661	83.62
305.891	83.62
306.121	102.62
306.352	95.62
306.582	89.62
306.812	77.62
307.042	89.62
307.272	90.62
307.502	88.62
307.731	93.62
307.961	85.62
308.191	99.62
308.421	98.62
308.651	87.62
308.881	80.62
309.111	99.62
309.341	89.62
309.571	88.62
309.8	71.62
310.03	98.62
310.26	83.62
310.49	99.62
310.72	77.62
310.949	79.62
311.179	87.62
311.409	89.62
311.639	84.62
311.868	103.62
312.098	101.62
312.328	85.62
312.557	73.62
312.787	99.62
313.017	94.62
313.246	92.62
313.476	86.62
313.706	90.62
313.935	83.62
314.165	91.62
314.394	93.62
314.624	103.62
314.853	88.62
315.083	80.62
315.312	92.62
315.542	104.62
315.771	85.62
316.001	79.62
316.23	90.62
316.46	87.62
316.689	94.62
316.919	103.62
317.148	95.62
317.377	83.62
317.607	85.62
317.836	77.62
318.065	89.62
318.295	79.62
318.524	85.62
318.753	78.62
318.983	92.62
319.212	94.62
319.441	91.62
319.67	98.62
319.9	94.62
320.129	85.62
320.358	85.62
320.587	92.62
320.816	93.62
321.046	93.62
321.275	96.62
321.504	86.62
321.733	69.62
321.962	78.62
322.191	90.62
322.42	86.62
322.649	107.62
322.878	113.62
323.108	105.62
323.337	112.62
323.566	114.62
323.795	118.62
324.024	172.62
324.253	291.62
324.482	630.62
324.71	1278.62
324.939	1632.62
325.168	606.62
325.397	194.62
325.626	117.62
325.855	120.62
326.084	94.62
326.313	127.62
326.542	135.62
326.77	171.62
326.999	355.62
327.228	722.62
327.457	1290.62
327.686	1018.62
327.914	279.62
328.143	173.62
328.372	133.62
328.6	98.62
328.829	110.62
329.058	115.62
329.287	105.62
329.515	111.62
329.744	88.62
329.972	92.62
330.201	108.62
330.43	129.62
330.658	110.62
330.887	110.62
331.115	99.62
331.344	97.62
331.572	87.62
331.801	99.62
332.03	95.62
332.258	84.62
332.486	86.62
332.715	105.62
332.943	86.62
333.172	93.62
333.4	101.62
333.629	99.62
333.857	124.62
334.085	111.62
334.314	111.62
334.542	123.62
334.771	122.62
334.999	94.62
335.227	95.62
335.455	90.62
335.684	102.62
335.912	96.62
336.14	83.62
336.369	91.62
336.597	102.62
336.825	93.62
337.053	97.62
337.281	96.62
337.51	90.62
337.738	81.62
337.966	87.62
338.194	102.62
338.422	86.62
338.65	100.62
338.878	85.62
339.106	86.62
339.334	79.62
339.562	87.62
339.79	98.62
340.018	91.62
340.246	88.62
340.474	88.62
340.702	99.62
340.93	65.62
341.158	90.62
341.386	90.62
341.614	78.62
341.842	99.62
342.07	92.62
342.298	79.62
342.526	85.62
342.754	83.62
342.981	82.62
343.209	92.62
343.437	95.62
343.665	78.62
343.893	83.62
344.12	96.62
344.348	91.62
344.576	94.62
344.804	94.62
345.031	86.62
345.259	79.62
345.487	99.62
345.714	93.62
345.942	92.62
346.17	87.62
346.397	82.62
346.625	89.62
346.853	92.62
347.08	95.62
347.308	92.62
347.535	97.62
347.763	87.62
347.99	91.62
348.218	104.62
348.445	85.62
348.673	85.62
348.9	93.62
349.128	80.62
349.355	91.62
349.583	93.62
349.81	96.62
350.037	70.62
350.265	94.62
350.492	80.62
350.72	95.62
350.947	106.62
351.174	97.62
351.402	94.62
351.629	91.62
351.856	87.62
352.083	93.62
352.311	91.62
352.538	84.62
352.765	95.62
352.992	91.62
353.22	96.62
353.447	90.62
353.674	97.62
353.901	98.62
354.128	85.62
354.355	89.62
354.583	104.62
354.81	93.62
355.037	69.62
355.264	89.62
355.491	83.62
355.718	87.62
355.945	79.62
356.172	84.62
356.399	87.62
356.626	95.62
356.853	78.62
357.08	82.62
357.307	81.62
357.534	88.62
357.761	89.62
357.988	93.62
358.215	111.62
358.441	99.62
358.668	102.62
358.895	80.62
359.122	78.62
359.349	90.62
359.576	85.62
359.802	98.62
360.029	98.62
360.256	93.62
360.483	81.62
360.709	86.62
360.936	99.62
361.163	99.62
361.39	98.62
361.616	97.62
361.843	72.62
362.07	86.62
362.296	96.62
362.523	82.62
362.749	93.62
362.976	90.62
363.203	98.62
363.429	94.62
363.656	84.62
363.882	90.62
364.109	85.62
364.335	80.62
364.562	85.62
364.788	90.62
365.015	74.62
365.241	78.62
365.468	85.62
365.694	99.62
365.92	96.62
366.147	92.62
366.373	82.62
366.599	77.62
366.826	101.62
367.052	89.62
367.278	102.62
367.505	93.62
367.731	81.62
367.957	81.62
368.184	71.62
368.41	93.62
368.636	111.62
368.862	99.62
369.089	99.62
369.315	85.62
369.541	78.62
369.767	91.62
369.993	90.62
370.219	79.62
370.445	75.62
370.672	78.62
370.898	90.62
371.124	80.62
371.35	80.62
371.576	90.62
371.802	73.62
372.028	96.62
372.254	80.62
372.48	99.62
372.706	90.62
372.932	82.62
373.158	93.62
373.384	85.62
373.61	95.62
373.835	78.62
374.061	85.62
374.287	91.62
374.513	83.62
374.739	79.62
374.965	82.62
375.191	71.62
375.416	99.62
375.642	94.62
375.868	102.62
376.094	87.62
376.319	83.62
376.545	92.62
376.771	99.62
376.997	81.62
377.222	94.62
377.448	96.62
377.674	93.62
377.899	84.62
378.125	92.62
378.35	95.62
378.576	81.62
378.802	89.62
379.027	87.62
379.253	88.62
379.478	97.62
379.704	94.62
379.929	99.62
380.155	94.62
380.38	96.62
380.606	99.62
380.831	94.62
381.057	93.62
381.282	95.62
381.507	110.62
381.733	102.62
381.958	93.62
382.184	104.62
382.409	100.62
382.634	113.62
382.86	112.62
383.085	102.62
383.31	99.62
383.535	105.62
383.761	98.62
383.986	104.62
384.211	102.62
384.436	99.62
384.662	108.62
384.887	125.62
385.112	133.62
385.337	124.62
385.562	121.62
385.787	102.62
386.013	118.62
386.238	129.62
386.463	126.62
386.688	120.62
386.913	119.62
387.138	142.62
387.363	108.62
387.588	110.62
387.813	102.62
388.038	122.62
388.263	138.62
388.488	137.62
388.713	101.62
388.938	88.62
389.163	99.62
389.387	99.62
389.612	88.62
389.837	91.62
390.062	87.62
390.287	73.62
390.512	72.62
390.736	91.62
390.961	85.62
391.186	91.62
391.411	104.62
391.636	87.62
391.86	85.62
392.085	89.62
392.31	81.62
392.534	65.62
392.759	87.62
392.984	90.62
393.208	119.62
393.433	157.62
393.658	149.62
393.882	91.62
394.107	73.62
394.331	62.62
394.556	97.62
394.78	89.62
395.005	77.62
395.229	85.62
395.454	94.62
395.678	82.62
395.903	88.62
396.127	85.62
396.352	85.62
396.576	75.62
396.801	110.62
397.025	125.62
397.249	102.62
397.474	92.62
397.698	77.62
397.922	63.62
398.147	74.62
398.371	78.62
398.595	81.62
398.82	85.62
399.044	86.62
399.268	83.62
399.492	91.62
399.717	95.62
399.941	70.62
400.165	93.62
400.389	96.62
400.613	88.62
400.837	74.62
401.062	92.62
401.286	87.62
401.51	94.62
401.734	80.62
401.958	97.62
402.182	112.62
402.406	130.62
402.63	94.62
402.854	82.62
403.078	87.62
403.302	98.62
403.526	77.62
403.75	73.62
403.974	86.62
404.198	87.62
404.422	78.62
404.645	98.62
404.869	94.62
405.093	92.62
405.317	98.62
405.541	96.62
405.765	94.62
405.988	110.62
406.212	139.62
406.436	167.62
406.66	125.62
406.883	89.62
407.107	74.62
407.331	92.62
407.555	90.62
407.778	77.62
408.002	79.62
408.226	86.62
408.449	95.62
408.673	73.62
408.896	87.62
409.12	66.62
409.344	81.62
409.567	96.62
409.791	79.62
410.014	96.62
410.238	86.62
410.461	88.62
410.685	91.62
410.908	86.62
411.132	88.62
411.355	94.62
411.578	94.62
411.802	82.62
412.025	80.62
412.249	90.62
412.472	85.62
412.695	94.62
412.919	81.62
413.142	89.62
413.365	92.62
413.589	84.62
413.812	78.62
414.035	98.62
414.258	79.62
414.482	72.62
414.705	95.62
414.928	92.62
415.151	81.62
415.374	70.62
415.597	89.62
415.821	77.62
416.044	76.62
416.267	87.62
416.49	77.62
416.713	91.62
416.936	99.62
417.159	89.62
417.382	92.62
417.605	89.62
417.828	98.62
418.051	94.62
418.274	85.62
418.497	72.62
418.72	78.62
418.943	76.62
419.166	93.62
419.389	80.62
419.611	92.62
419.834	81.62
420.057	69.62
420.28	88.62
420.503	83.62
420.726	93.62
420.948	88.62
421.171	70.62
421.394	71.62
421.617	98.62
421.839	94.62
422.062	75.62
422.285	87.62
422.507	94.62
422.73	111.62
422.953	119.62
423.175	87.62
423.398	81.62
423.621	83.62
423.843	81.62
424.066	76.62
424.288	82.62
424.511	94.62
424.733	83.62
424.956	101.62
425.178	89.62
425.401	82.62
425.623	86.62
425.846	94.62
426.068	87.62
426.291	78.62
426.513	74.62
426.735	80.62
426.958	86.62
427.18	93.62
427.402	124.62
427.625	128.62
427.847	129.62
428.069	110.62
428.292	99.62
428.514	78.62
428.736	96.62
428.958	77.62
429.181	96.62
429.403	85.62
429.625	80.62
429.847	98.62
430.069	86.62
430.292	98.62
430.514	70.62
430.736	77.62
430.958	85.62
431.18	82.62
431.402	86.62
431.624	76.62
431.846	76.62
432.068	87.62
432.29	86.62
432.512	88.62
432.734	82.62
432.956	88.62
433.178	87.62
433.4	87.62
433.622	92.62
433.844	86.62
434.066	97.62
434.287	96.62
434.509	82.62
434.731	82.62
434.953	94.62
435.175	80.62
435.397	81.62
435.618	97.62
435.84	107.62
436.062	100.62
436.284	103.62
436.505	90.62
436.727	103.62
436.949	91.62
437.17	80.62
437.392	87.62
437.614	90.62
437.835	99.62
438.057	113.62
438.278	102.62
438.5	106.62
438.721	102.62
438.943	98.62
439.165	78.62
439.386	81.62
439.608	83.62
439.829	83.62
440.05	92.62
440.272	117.62
440.493	101.62
440.715	79.62
440.936	79.62
441.158	73.62
441.379	77.62
441.6	74.62
441.822	89.62
442.043	90.62
442.264	93.62
442.486	99.62
442.707	93.62
442.928	98.62
443.149	99.62
443.371	109.62
443.592	96.62
443.813	126.62
444.034	92.62
444.255	73.62
444.476	85.62
444.698	81.62
444.919	82.62
445.14	128.62
445.361	121.62
445.582	105.62
445.803	116.62
446.024	116.62
446.245	107.62
446.466	91.62
446.687	96.62
446.908	95.62
447.129	75.62
447.35	78.62
447.571	77.62
447.792	91.62
448.013	92.62
448.234	73.62
448.455	96.62
448.675	83.62
448.896	99.62
449.117	100.62
449.338	94.62
449.559	114.62
449.779	104.62
450	70.62
450.221	98.62
450.442	89.62
450.662	91.62
450.883	89.62
451.104	111.62
451.324	88.62
451.545	69.62
451.766	90.62
451.986	74.62
452.207	89.62
452.428	96.62
452.648	94.62
452.869	93.62
453.089	105.62
453.31	93.62
453.53	93.62
453.751	90.62
453.971	109.62
454.192	99.62
454.412	77.62
454.633	81.62
454.853	73.62
455.073	91.62
455.294	92.62
455.514	86.62
455.734	76.62
455.955	89.62
456.175	69.62
456.395	80.62
456.616	81.62
456.836	96.62
457.056	70.62
457.276	95.62
457.497	76.62
457.717	73.62
457.937	84.62
458.157	88.62
458.377	87.62
458.598	93.62
458.818	117.62
459.038	112.62
459.258	91.62
459.478	85.62
459.698	86.62
459.918	80.62
460.138	79.62
460.358	67.62
460.578	86.62
460.798	93.62
461.018	81.62
461.238	77.62
461.458	78.62
461.678	80.62
461.898	77.62
462.118	80.62
462.338	80.62
462.558	83.62
462.777	84.62
462.997	72.62
463.217	76.62
463.437	75.62
463.657	77.62
463.876	81.62
464.096	80.62
464.316	89.62
464.536	88.62
464.755	100.62
464.975	82.62
465.195	126.62
465.414	118.62
465.634	87.62
465.854	94.62
466.073	98.62
466.293	86.62
466.512	82.62
466.732	78.62
466.951	78.62
467.171	83.62
467.391	93.62
467.61	82.62
467.829	99.62
468.049	94.62
468.268	96.62
468.488	84.62
468.707	82.62
468.927	76.62
469.146	80.62
469.365	90.62
469.585	78.62
469.804	85.62
470.023	82.62
470.243	95.62
470.462	89.62
470.681	90.62
470.901	77.62
471.12	89.62
471.339	91.62
471.558	87.62
471.777	92.62
471.997	76.62
472.216	104.62
472.435	146.62
472.654	94.62
472.873	80.62
473.092	87.62
473.311	87.62
473.53	73.62
473.749	78.62
473.968	86.62
474.187	108.62
474.406	75.62
474.625	69.62
474.844	82.62
475.063	82.62
475.282	92.62
475.501	78.62
475.72	89.62
475.939	97.62
476.158	84.62
476.377	81.62
476.596	89.62
476.814	74.62
477.033	86.62
477.252	77.62
477.471	84.62
477.69	69.62
477.908	75.62
478.127	81.62
478.346	74.62
478.564	98.62
478.783	93.62
479.002	81.62
479.22	84.62
479.439	81.62
479.658	94.62
479.876	86.62
480.095	90.62
480.313	83.62
480.532	86.62
480.751	106.62
480.969	117.62
481.188	207.62
481.406	145.62
481.624	104.62
481.843	78.62
482.061	90.62
482.28	77.62
482.498	80.62
482.717	83.62
482.935	84.62
483.153	73.62
483.372	79.62
483.59	108.62
483.808	79.62
484.027	82.62
484.245	87.62
484.463	88.62
484.681	98.62
484.9	93.62
485.118	99.62
485.336	100.62
485.554	89.62
485.772	98.62
485.99	115.62
486.209	103.62
486.427	110.62
486.645	111.62
486.863	92.62
487.081	88.62
487.299	105.62
487.517	89.62
487.735	100.62
487.953	85.62
488.171	86.62
488.389	93.62
488.607	95.62
488.825	105.62
489.043	89.62
489.261	88.62
489.479	79.62
489.696	87.62
489.914	88.62
490.132	78.62
490.35	91.62
490.568	84.62
490.786	81.62
491.003	82.62
491.221	98.62
491.439	93.62
491.657	79.62
491.874	87.62
492.092	94.62
492.31	87.62
492.527	88.62
492.745	86.62
492.963	87.62
493.18	78.62
493.398	93.62
493.615	95.62
493.833	88.62
494.05	87.62
494.268	82.62
494.485	73.62
494.703	97.62
494.92	82.62
495.138	89.62
495.355	99.62
495.573	99.62
495.79	82.62
496.008	96.62
496.225	73.62
496.442	84.62
496.66	78.62
496.877	82.62
497.094	86.62
497.312	85.62
497.529	81.62
497.746	82.62
497.963	99.62
498.181	102.62
498.398	88.62
498.615	91.62
498.832	89.62
499.049	79.62
499.267	90.62
499.484	85.62
499.701	97.62
499.918	76.62
500.135	63.62
500.352	78.62
500.569	90.62
500.786	80.62
501.003	82.62
501.22	95.62
501.437	84.62
501.654	93.62
501.871	105.62
502.088	96.62
502.305	100.62
502.522	86.62
502.739	75.62
502.956	98.62
503.172	96.62
503.389	73.62
503.606	93.62
503.823	98.62
504.04	83.62
504.256	84.62
504.473	82.62
504.69	90.62
504.907	93.62
505.123	81.62
505.34	82.62
505.557	94.62
505.773	80.62
505.99	89.62
506.207	83.62
506.423	89.62
506.64	72.62
506.856	93.62
507.073	83.62
507.289	86.62
507.506	92.62
507.722	95.62
507.939	98.62
508.155	98.62
508.372	84.62
508.588	85.62
508.805	85.62
509.021	86.62
509.238	94.62
509.454	93.62
509.67	91.62
509.887	91.62
510.103	102.62
510.319	170.62
510.536	583.62
510.752	1731.62
510.968	497.62
511.184	133.62
511.401	96.62
511.617	100.62
511.833	89.62
512.049	85.62
512.265	93.62
512.481	97.62
512.698	89.62
512.914	80.62
513.13	95.62
513.346	85.62
513.562	93.62
513.778	83.62
513.994	96.62
514.21	81.62
514.426	96.62
514.642	104.62
514.858	96.62
515.074	118.62
515.29	326.62
515.506	1009.62
515.721	386.62
515.937	127.62
516.153	85.62
516.369	88.62
516.585	84.62
516.801	88.62
517.016	81.62
517.232	80.62
517.448	93.62
517.664	90.62
