Data from Circ_1993_H10_HRD10591_00051.txt Node
Date: Wed Jan 03 11:44:12 EST 2024
User: Yrep
Spectrometer: HR+D1059
Trigger mode: 1
Integration Time (sec): 1.000000E-1
Scans to average: 1
Electric dark correction enabled: true
Nonlinearity correction enabled: false
Boxcar width: 0
XAxis mode: Wavelengths
Number of Pixels in Spectrum: 2048
>>>>>Begin Spectral Data<<<<<
223.165	-23.38
223.4	-23.38
223.635	-23.38
223.869	-15.38
224.104	-28.38
224.338	-0.38
224.573	-13.38
224.808	-8.38
225.042	-5.38
225.277	-1.38
225.511	6.62
225.746	4.62
225.98	1.62
226.215	7.62
226.449	-7.38
226.683	18.62
226.918	40.62
227.152	23.62
227.387	41.62
227.621	45.62
227.856	52.62
228.09	48.62
228.324	40.62
228.559	62.62
228.793	63.62
229.027	73.62
229.262	68.62
229.496	81.62
229.73	86.62
229.964	79.62
230.199	59.62
230.433	80.62
230.667	65.62
230.901	86.62
231.136	84.62
231.37	67.62
231.604	77.62
231.838	90.62
232.072	79.62
232.306	83.62
232.541	83.62
232.775	82.62
233.009	82.62
233.243	79.62
233.477	92.62
233.711	76.62
233.945	87.62
234.179	88.62
234.413	85.62
234.647	78.62
234.881	79.62
235.115	95.62
235.349	88.62
235.583	75.62
235.817	67.62
236.051	58.62
236.285	94.62
236.519	71.62
236.753	84.62
236.987	88.62
237.221	87.62
237.455	67.62
237.689	84.62
237.922	77.62
238.156	80.62
238.39	76.62
238.624	67.62
238.858	66.62
239.091	94.62
239.325	76.62
239.559	72.62
239.793	87.62
240.027	73.62
240.26	80.62
240.494	83.62
240.728	78.62
240.961	71.62
241.195	70.62
241.429	77.62
241.662	81.62
241.896	80.62
242.13	62.62
242.363	87.62
242.597	65.62
242.83	61.62
243.064	90.62
243.298	84.62
243.531	86.62
243.765	78.62
243.998	72.62
244.232	84.62
244.465	82.62
244.699	72.62
244.932	86.62
245.166	77.62
245.399	77.62
245.633	80.62
245.866	80.62
246.099	91.62
246.333	71.62
246.566	85.62
246.8	88.62
247.033	72.62
247.266	86.62
247.5	83.62
247.733	81.62
247.966	86.62
248.2	87.62
248.433	82.62
248.666	59.62
248.899	71.62
249.133	95.62
249.366	96.62
249.599	94.62
249.832	80.62
250.066	77.62
250.299	96.62
250.532	72.62
250.765	92.62
250.998	79.62
251.231	95.62
251.465	74.62
251.698	76.62
251.931	79.62
252.164	86.62
252.397	78.62
252.63	81.62
252.863	74.62
253.096	94.62
253.329	83.62
253.562	79.62
253.795	86.62
254.028	96.62
254.261	83.62
254.494	78.62
254.727	83.62
254.96	78.62
255.193	68.62
255.426	83.62
255.659	78.62
255.892	85.62
256.124	82.62
256.357	83.62
256.59	81.62
256.823	78.62
257.056	75.62
257.289	86.62
257.521	96.62
257.754	86.62
257.987	76.62
258.22	92.62
258.452	70.62
258.685	86.62
258.918	85.62
259.151	78.62
259.383	81.62
259.616	70.62
259.849	71.62
260.081	82.62
260.314	94.62
260.547	77.62
260.779	87.62
261.012	83.62
261.244	86.62
261.477	75.62
261.71	91.62
261.942	102.62
262.175	112.62
262.407	96.62
262.64	91.62
262.872	72.62
263.105	80.62
263.337	96.62
263.57	78.62
263.802	92.62
264.035	91.62
264.267	82.62
264.499	82.62
264.732	101.62
264.964	97.62
265.197	94.62
265.429	88.62
265.661	83.62
265.894	107.62
266.126	76.62
266.358	78.62
266.591	92.62
266.823	81.62
267.055	62.62
267.287	100.62
267.52	83.62
267.752	85.62
267.984	86.62
268.216	87.62
268.448	81.62
268.681	77.62
268.913	89.62
269.145	81.62
269.377	90.62
269.609	71.62
269.841	93.62
270.073	82.62
270.306	88.62
270.538	83.62
270.77	81.62
271.002	79.62
271.234	91.62
271.466	82.62
271.698	83.62
271.93	93.62
272.162	82.62
272.394	89.62
272.626	94.62
272.858	72.62
273.09	85.62
273.322	90.62
273.553	82.62
273.785	85.62
274.017	81.62
274.249	79.62
274.481	91.62
274.713	90.62
274.945	94.62
275.176	87.62
275.408	83.62
275.64	89.62
275.872	90.62
276.104	86.62
276.335	94.62
276.567	101.62
276.799	103.62
277.031	97.62
277.262	89.62
277.494	86.62
277.726	89.62
277.957	86.62
278.189	90.62
278.421	82.62
278.652	93.62
278.884	98.62
279.115	91.62
279.347	84.62
279.579	79.62
279.81	87.62
280.042	104.62
280.273	93.62
280.505	92.62
280.736	92.62
280.968	90.62
281.199	70.62
281.431	78.62
281.662	80.62
281.894	89.62
282.125	92.62
282.356	112.62
282.588	143.62
282.819	106.62
283.051	85.62
283.282	84.62
283.513	96.62
283.745	92.62
283.976	99.62
284.207	95.62
284.439	72.62
284.67	104.62
284.901	100.62
285.132	87.62
285.364	90.62
285.595	84.62
285.826	97.62
286.057	78.62
286.288	90.62
286.52	91.62
286.751	88.62
286.982	99.62
287.213	87.62
287.444	85.62
287.675	97.62
287.906	98.62
288.138	93.62
288.369	97.62
288.6	101.62
288.831	88.62
289.062	93.62
289.293	81.62
289.524	84.62
289.755	80.62
289.986	75.62
290.217	72.62
290.448	82.62
290.679	90.62
290.91	89.62
291.141	83.62
291.371	79.62
291.602	82.62
291.833	79.62
292.064	94.62
292.295	86.62
292.526	88.62
292.757	79.62
292.987	75.62
293.218	92.62
293.449	93.62
293.68	78.62
293.91	101.62
294.141	89.62
294.372	83.62
294.603	104.62
294.833	88.62
295.064	85.62
295.295	97.62
295.525	88.62
295.756	90.62
295.987	108.62
296.217	118.62
296.448	102.62
296.679	101.62
296.909	90.62
297.14	95.62
297.37	92.62
297.601	91.62
297.831	103.62
298.062	93.62
298.292	81.62
298.523	71.62
298.753	90.62
298.984	97.62
299.214	81.62
299.445	88.62
299.675	78.62
299.905	95.62
300.136	83.62
300.366	86.62
300.597	83.62
300.827	100.62
301.057	99.62
301.288	121.62
301.518	84.62
301.748	95.62
301.979	92.62
302.209	84.62
302.439	101.62
302.669	109.62
302.9	94.62
303.13	86.62
303.36	99.62
303.59	103.62
303.82	93.62
304.051	95.62
304.281	88.62
304.511	93.62
304.741	72.62
304.971	90.62
305.201	97.62
305.431	100.62
305.661	88.62
305.891	82.62
306.121	83.62
306.352	91.62
306.582	102.62
306.812	93.62
307.042	87.62
307.272	99.62
307.502	96.62
307.731	81.62
307.961	87.62
308.191	97.62
308.421	99.62
308.651	92.62
308.881	95.62
309.111	95.62
309.341	99.62
309.571	105.62
309.8	92.62
310.03	96.62
310.26	95.62
310.49	98.62
310.72	99.62
310.949	96.62
311.179	102.62
311.409	102.62
311.639	98.62
311.868	91.62
312.098	89.62
312.328	86.62
312.557	115.62
312.787	110.62
313.017	111.62
313.246	107.62
313.476	87.62
313.706	99.62
313.935	96.62
314.165	88.62
314.394	99.62
314.624	91.62
314.853	93.62
315.083	99.62
315.312	94.62
315.542	91.62
315.771	90.62
316.001	102.62
316.23	104.62
316.46	101.62
316.689	92.62
316.919	93.62
317.148	101.62
317.377	92.62
317.607	100.62
317.836	103.62
318.065	95.62
318.295	97.62
318.524	100.62
318.753	95.62
318.983	89.62
319.212	116.62
319.441	106.62
319.67	95.62
319.9	91.62
320.129	94.62
320.358	99.62
320.587	88.62
320.816	108.62
321.046	108.62
321.275	101.62
321.504	97.62
321.733	94.62
321.962	85.62
322.191	109.62
322.42	96.62
322.649	100.62
322.878	93.62
323.108	101.62
323.337	114.62
323.566	120.62
323.795	148.62
324.024	180.62
324.253	339.62
324.482	716.62
324.71	1432.62
324.939	1921.62
325.168	703.62
325.397	202.62
325.626	158.62
325.855	118.62
326.084	131.62
326.313	134.62
326.542	151.62
326.77	204.62
326.999	416.62
327.228	797.62
327.457	1443.62
327.686	1156.62
327.914	336.62
328.143	193.62
328.372	178.62
328.6	137.62
328.829	115.62
329.058	136.62
329.287	121.62
329.515	104.62
329.744	108.62
329.972	126.62
330.201	181.62
330.43	212.62
330.658	145.62
330.887	149.62
331.115	118.62
331.344	103.62
331.572	101.62
331.801	95.62
332.03	105.62
332.258	103.62
332.486	114.62
332.715	96.62
332.943	100.62
333.172	100.62
333.4	100.62
333.629	104.62
333.857	115.62
334.085	132.62
334.314	171.62
334.542	259.62
334.771	247.62
334.999	108.62
335.227	100.62
335.455	99.62
335.684	97.62
335.912	100.62
336.14	85.62
336.369	110.62
336.597	96.62
336.825	101.62
337.053	89.62
337.281	85.62
337.51	89.62
337.738	93.62
337.966	94.62
338.194	93.62
338.422	116.62
338.65	92.62
338.878	90.62
339.106	103.62
339.334	109.62
339.562	100.62
339.79	74.62
340.018	96.62
340.246	93.62
340.474	85.62
340.702	88.62
340.93	116.62
341.158	87.62
341.386	90.62
341.614	94.62
341.842	92.62
342.07	90.62
342.298	87.62
342.526	84.62
342.754	85.62
342.981	116.62
343.209	97.62
343.437	112.62
343.665	96.62
343.893	83.62
344.12	104.62
344.348	92.62
344.576	84.62
344.804	100.62
345.031	94.62
345.259	103.62
345.487	94.62
345.714	103.62
345.942	83.62
346.17	91.62
346.397	112.62
346.625	104.62
346.853	90.62
347.08	103.62
347.308	95.62
347.535	89.62
347.763	95.62
347.99	103.62
348.218	91.62
348.445	93.62
348.673	84.62
348.9	108.62
349.128	95.62
349.355	104.62
349.583	87.62
349.81	88.62
350.037	99.62
350.265	102.62
350.492	97.62
350.72	81.62
350.947	103.62
351.174	101.62
351.402	103.62
351.629	100.62
351.856	98.62
352.083	100.62
352.311	114.62
352.538	110.62
352.765	97.62
352.992	117.62
353.22	109.62
353.447	85.62
353.674	107.62
353.901	98.62
354.128	86.62
354.355	99.62
354.583	101.62
354.81	104.62
355.037	90.62
355.264	100.62
355.491	87.62
355.718	83.62
355.945	92.62
356.172	104.62
356.399	90.62
356.626	98.62
356.853	102.62
357.08	103.62
357.307	91.62
357.534	98.62
357.761	88.62
357.988	103.62
358.215	116.62
358.441	89.62
358.668	106.62
358.895	100.62
359.122	84.62
359.349	89.62
359.576	84.62
359.802	103.62
360.029	116.62
360.256	97.62
360.483	109.62
360.709	80.62
360.936	92.62
361.163	103.62
361.39	96.62
361.616	94.62
361.843	98.62
362.07	71.62
362.296	90.62
362.523	90.62
362.749	94.62
362.976	93.62
363.203	75.62
363.429	80.62
363.656	91.62
363.882	85.62
364.109	92.62
364.335	95.62
364.562	91.62
364.788	88.62
365.015	95.62
365.241	110.62
365.468	89.62
365.694	109.62
365.92	92.62
366.147	87.62
366.373	91.62
366.599	91.62
366.826	91.62
367.052	94.62
367.278	74.62
367.505	80.62
367.731	91.62
367.957	99.62
368.184	87.62
368.41	98.62
368.636	108.62
368.862	112.62
369.089	110.62
369.315	95.62
369.541	80.62
369.767	87.62
369.993	87.62
370.219	78.62
370.445	91.62
370.672	95.62
370.898	84.62
371.124	96.62
371.35	100.62
371.576	88.62
371.802	92.62
372.028	94.62
372.254	84.62
372.48	84.62
372.706	94.62
372.932	86.62
373.158	90.62
373.384	90.62
373.61	75.62
373.835	80.62
374.061	98.62
374.287	84.62
374.513	98.62
374.739	88.62
374.965	91.62
375.191	87.62
375.416	98.62
375.642	98.62
375.868	94.62
376.094	87.62
376.319	96.62
376.545	94.62
376.771	92.62
376.997	92.62
377.222	90.62
377.448	95.62
377.674	75.62
377.899	71.62
378.125	93.62
378.35	100.62
378.576	92.62
378.802	83.62
379.027	98.62
379.253	98.62
379.478	88.62
379.704	91.62
379.929	93.62
380.155	90.62
380.38	96.62
380.606	98.62
380.831	108.62
381.057	104.62
381.282	88.62
381.507	102.62
381.733	102.62
381.958	96.62
382.184	108.62
382.409	112.62
382.634	107.62
382.86	104.62
383.085	101.62
383.31	88.62
383.535	100.62
383.761	96.62
383.986	109.62
384.211	109.62
384.436	94.62
384.662	94.62
384.887	100.62
385.112	114.62
385.337	103.62
385.562	125.62
385.787	107.62
386.013	127.62
386.238	128.62
386.463	110.62
386.688	109.62
386.913	112.62
387.138	102.62
387.363	101.62
387.588	122.62
387.813	99.62
388.038	113.62
388.263	118.62
388.488	119.62
388.713	110.62
388.938	109.62
389.163	98.62
389.387	91.62
389.612	96.62
389.837	101.62
390.062	99.62
390.287	100.62
390.512	92.62
390.736	92.62
390.961	100.62
391.186	100.62
391.411	81.62
391.636	101.62
391.86	100.62
392.085	80.62
392.31	87.62
392.534	70.62
392.759	81.62
392.984	97.62
393.208	102.62
393.433	110.62
393.658	121.62
393.882	96.62
394.107	88.62
394.331	88.62
394.556	95.62
394.78	90.62
395.005	89.62
395.229	108.62
395.454	91.62
395.678	87.62
395.903	77.62
396.127	99.62
396.352	76.62
396.576	103.62
396.801	98.62
397.025	111.62
397.249	87.62
397.474	96.62
397.698	77.62
397.922	85.62
398.147	81.62
398.371	64.62
398.595	96.62
398.82	98.62
399.044	95.62
399.268	85.62
399.492	81.62
399.717	86.62
399.941	82.62
400.165	98.62
400.389	87.62
400.613	91.62
400.837	107.62
401.062	93.62
401.286	103.62
401.51	88.62
401.734	91.62
401.958	99.62
402.182	120.62
402.406	135.62
402.63	108.62
402.854	84.62
403.078	86.62
403.302	90.62
403.526	94.62
403.75	99.62
403.974	89.62
404.198	89.62
404.422	86.62
404.645	76.62
404.869	83.62
405.093	97.62
405.317	115.62
405.541	113.62
405.765	103.62
405.988	112.62
406.212	145.62
406.436	202.62
406.66	148.62
406.883	107.62
407.107	91.62
407.331	97.62
407.555	80.62
407.778	112.62
408.002	79.62
408.226	90.62
408.449	84.62
408.673	94.62
408.896	93.62
409.12	100.62
409.344	101.62
409.567	92.62
409.791	87.62
410.014	93.62
410.238	100.62
410.461	98.62
410.685	92.62
410.908	101.62
411.132	113.62
411.355	80.62
411.578	103.62
411.802	95.62
412.025	87.62
412.249	93.62
412.472	86.62
412.695	97.62
412.919	93.62
413.142	82.62
413.365	79.62
413.589	100.62
413.812	103.62
414.035	92.62
414.258	86.62
414.482	88.62
414.705	103.62
414.928	93.62
415.151	96.62
415.374	100.62
415.597	83.62
415.821	87.62
416.044	90.62
416.267	92.62
416.49	88.62
416.713	74.62
416.936	90.62
417.159	86.62
417.382	82.62
417.605	103.62
417.828	107.62
418.051	85.62
418.274	100.62
418.497	98.62
418.72	90.62
418.943	94.62
419.166	105.62
419.389	90.62
419.611	92.62
419.834	96.62
420.057	108.62
420.28	75.62
420.503	81.62
420.726	88.62
420.948	100.62
421.171	79.62
421.394	101.62
421.617	82.62
421.839	89.62
422.062	80.62
422.285	90.62
422.507	106.62
422.73	95.62
422.953	100.62
423.175	94.62
423.398	80.62
423.621	81.62
423.843	99.62
424.066	99.62
424.288	92.62
424.511	98.62
424.733	94.62
424.956	104.62
425.178	91.62
425.401	99.62
425.623	98.62
425.846	73.62
426.068	90.62
426.291	79.62
426.513	88.62
426.735	97.62
426.958	95.62
427.18	117.62
427.402	142.62
427.625	166.62
427.847	127.62
428.069	107.62
428.292	103.62
428.514	110.62
428.736	85.62
428.958	83.62
429.181	85.62
429.403	81.62
429.625	94.62
429.847	98.62
430.069	86.62
430.292	99.62
430.514	87.62
430.736	84.62
430.958	91.62
431.18	85.62
431.402	86.62
431.624	96.62
431.846	96.62
432.068	94.62
432.29	90.62
432.512	96.62
432.734	91.62
432.956	85.62
433.178	102.62
433.4	107.62
433.622	84.62
433.844	95.62
434.066	103.62
434.287	98.62
434.509	83.62
434.731	90.62
434.953	82.62
435.175	86.62
435.397	80.62
435.618	88.62
435.84	102.62
436.062	112.62
436.284	113.62
436.505	86.62
436.727	100.62
436.949	94.62
437.17	97.62
437.392	96.62
437.614	92.62
437.835	104.62
438.057	102.62
438.278	87.62
438.5	92.62
438.721	103.62
438.943	108.62
439.165	102.62
439.386	85.62
439.608	86.62
439.829	99.62
440.05	106.62
440.272	129.62
440.493	98.62
440.715	95.62
440.936	87.62
441.158	76.62
441.379	96.62
441.6	91.62
441.822	94.62
442.043	94.62
442.264	103.62
442.486	102.62
442.707	88.62
442.928	107.62
443.149	135.62
443.371	135.62
443.592	90.62
443.813	111.62
444.034	94.62
444.255	80.62
444.476	78.62
444.698	84.62
444.919	104.62
445.14	123.62
445.361	123.62
445.582	96.62
445.803	117.62
446.024	122.62
446.245	119.62
446.466	112.62
446.687	96.62
446.908	94.62
447.129	92.62
447.35	100.62
447.571	103.62
447.792	86.62
448.013	102.62
448.234	105.62
448.455	92.62
448.675	112.62
448.896	107.62
449.117	107.62
449.338	119.62
449.559	119.62
449.779	135.62
450	96.62
450.221	83.62
450.442	98.62
450.662	91.62
450.883	104.62
451.104	101.62
451.324	82.62
451.545	84.62
451.766	91.62
451.986	83.62
452.207	96.62
452.428	98.62
452.648	107.62
452.869	117.62
453.089	93.62
453.31	114.62
453.53	94.62
453.751	94.62
453.971	100.62
454.192	106.62
454.412	88.62
454.633	67.62
454.853	88.62
455.073	92.62
455.294	102.62
455.514	89.62
455.734	102.62
455.955	80.62
456.175	88.62
456.395	91.62
456.616	82.62
456.836	70.62
457.056	75.62
457.276	100.62
457.497	83.62
457.717	75.62
457.937	83.62
458.157	83.62
458.377	99.62
458.598	95.62
458.818	129.62
459.038	130.62
459.258	105.62
459.478	96.62
459.698	85.62
459.918	78.62
460.138	82.62
460.358	90.62
460.578	98.62
460.798	91.62
461.018	86.62
461.238	78.62
461.458	82.62
461.678	69.62
461.898	86.62
462.118	84.62
462.338	90.62
462.558	101.62
462.777	84.62
462.997	92.62
463.217	89.62
463.437	94.62
463.657	83.62
463.876	92.62
464.096	94.62
464.316	85.62
464.536	85.62
464.755	99.62
464.975	92.62
465.195	132.62
465.414	135.62
465.634	95.62
465.854	79.62
466.073	85.62
466.293	83.62
466.512	76.62
466.732	92.62
466.951	87.62
467.171	90.62
467.391	102.62
467.61	102.62
467.829	99.62
468.049	120.62
468.268	151.62
468.488	97.62
468.707	84.62
468.927	80.62
469.146	67.62
469.365	90.62
469.585	78.62
469.804	91.62
470.023	79.62
470.243	99.62
470.462	95.62
470.681	108.62
470.901	100.62
471.12	90.62
471.339	95.62
471.558	87.62
471.777	90.62
471.997	109.62
472.216	194.62
472.435	304.62
472.654	135.62
472.873	81.62
473.092	84.62
473.311	89.62
473.53	74.62
473.749	85.62
473.968	87.62
474.187	104.62
474.406	82.62
474.625	86.62
474.844	100.62
475.063	88.62
475.282	79.62
475.501	95.62
475.72	95.62
475.939	92.62
476.158	82.62
476.377	83.62
476.596	88.62
476.814	91.62
477.033	85.62
477.252	91.62
477.471	84.62
477.69	71.62
477.908	84.62
478.127	102.62
478.346	82.62
478.564	80.62
478.783	102.62
479.002	96.62
479.22	100.62
479.439	111.62
479.658	95.62
479.876	83.62
480.095	88.62
480.313	92.62
480.532	85.62
480.751	122.62
480.969	192.62
481.188	494.62
481.406	316.62
481.624	115.62
481.843	90.62
482.061	98.62
482.28	92.62
482.498	91.62
482.717	104.62
482.935	82.62
483.153	82.62
483.372	85.62
483.59	109.62
483.808	91.62
484.027	82.62
484.245	87.62
484.463	112.62
484.681	95.62
484.9	89.62
485.118	92.62
485.336	98.62
485.554	102.62
485.772	102.62
485.99	98.62
486.209	108.62
486.427	116.62
486.645	103.62
486.863	116.62
487.081	108.62
487.299	90.62
487.517	90.62
487.735	93.62
487.953	98.62
488.171	95.62
488.389	97.62
488.607	108.62
488.825	90.62
489.043	92.62
489.261	93.62
489.479	91.62
489.696	81.62
489.914	96.62
490.132	92.62
490.35	96.62
490.568	99.62
490.786	96.62
491.003	87.62
491.221	101.62
491.439	99.62
491.657	103.62
491.874	97.62
492.092	95.62
492.31	87.62
492.527	90.62
492.745	90.62
492.963	94.62
493.18	87.62
493.398	94.62
493.615	82.62
493.833	96.62
494.05	93.62
494.268	73.62
494.485	97.62
494.703	97.62
494.92	101.62
495.138	77.62
495.355	96.62
495.573	99.62
495.79	96.62
496.008	92.62
496.225	88.62
496.442	78.62
496.66	95.62
496.877	86.62
497.094	85.62
497.312	85.62
497.529	91.62
497.746	79.62
497.963	93.62
498.181	94.62
498.398	101.62
498.615	110.62
498.832	105.62
499.049	88.62
499.267	109.62
499.484	83.62
499.701	84.62
499.918	90.62
500.135	101.62
500.352	90.62
500.569	99.62
500.786	98.62
501.003	82.62
501.22	96.62
501.437	83.62
501.654	107.62
501.871	101.62
502.088	98.62
502.305	110.62
502.522	83.62
502.739	72.62
502.956	94.62
503.172	85.62
503.389	75.62
503.606	93.62
503.823	106.62
504.04	80.62
504.256	84.62
504.473	94.62
504.69	85.62
504.907	99.62
505.123	95.62
505.34	94.62
505.557	91.62
505.773	91.62
505.99	99.62
506.207	87.62
506.423	104.62
506.64	101.62
506.856	84.62
507.073	81.62
507.289	112.62
507.506	92.62
507.722	84.62
507.939	113.62
508.155	117.62
508.372	92.62
508.588	92.62
508.805	91.62
509.021	97.62
509.238	91.62
509.454	101.62
509.67	98.62
509.887	101.62
510.103	120.62
510.319	188.62
510.536	652.62
510.752	2043.62
510.968	574.62
511.184	140.62
511.401	99.62
511.617	105.62
511.833	88.62
512.049	98.62
512.265	103.62
512.481	86.62
512.698	90.62
512.914	72.62
513.13	87.62
513.346	109.62
513.562	89.62
513.778	88.62
513.994	99.62
514.21	95.62
514.426	103.62
514.642	126.62
514.858	115.62
515.074	166.62
