Data from Circ_1993_H10_HRD10591_00059.txt Node
Date: Wed Jan 03 11:44:13 EST 2024
User: Yrep
Spectrometer: HR+D1059
Trigger mode: 1
Integration Time (sec): 1.000000E-1
Scans to average: 1
Electric dark correction enabled: true
Nonlinearity correction enabled: false
Boxcar width: 0
XAxis mode: Wavelengths
Number of Pixels in Spectrum: 2048
>>>>>Begin Spectral Data<<<<<
223.165	-23.31
223.4	-23.31
223.635	-23.31
223.869	-28.31
224.104	-11.31
224.338	-15.31
224.573	-19.31
224.808	-3.31
225.042	-9.31
225.277	-9.31
225.511	-10.31
225.746	22.69
225.98	12.69
226.215	15.69
226.449	14.69
226.683	20.69
226.918	20.69
227.152	22.69
227.387	15.69
227.621	30.69
227.856	38.69
228.09	32.69
228.324	46.69
228.559	55.69
228.793	156.69
229.027	439.69
229.262	504.69
229.496	570.69
229.73	737.69
229.964	755.69
230.199	551.69
230.433	463.69
230.667	437.69
230.901	438.69
231.136	427.69
231.37	450.69
231.604	429.69
231.838	444.69
232.072	456.69
232.306	467.69
232.541	474.69
232.775	466.69
233.009	485.69
233.243	471.69
233.477	473.69
233.711	482.69
233.945	491.69
234.179	501.69
234.413	490.69
234.647	472.69
234.881	507.69
235.115	537.69
235.349	540.69
235.583	561.69
235.817	585.69
236.051	618.69
236.285	587.69
236.519	617.69
236.753	686.69
236.987	883.69
237.221	1299.69
237.455	1387.69
237.689	858.69
237.922	715.69
238.156	717.69
238.39	672.69
238.624	674.69
238.858	662.69
239.091	648.69
239.325	672.69
239.559	671.69
239.793	716.69
240.027	761.69
240.26	891.69
240.494	925.69
240.728	935.69
240.961	871.69
241.195	816.69
241.429	789.69
241.662	767.69
241.896	778.69
242.13	787.69
242.363	806.69
242.597	821.69
242.83	830.69
243.064	845.69
243.298	844.69
243.531	876.69
243.765	847.69
243.998	867.69
244.232	863.69
244.465	862.69
244.699	907.69
244.932	928.69
245.166	912.69
245.399	919.69
245.633	946.69
245.866	917.69
246.099	924.69
246.333	958.69
246.566	952.69
246.8	982.69
247.033	1022.69
247.266	1034.69
247.5	1083.69
247.733	1146.69
247.966	1156.69
248.2	1148.69
248.433	1126.69
248.666	1196.69
248.899	1352.69
249.133	1437.69
249.366	1389.69
249.599	1297.69
249.832	1289.69
250.066	1297.69
250.299	1447.69
250.532	1682.69
250.765	1817.69
250.998	1865.69
251.231	1695.69
251.465	1507.69
251.698	1495.69
251.931	1416.69
252.164	1404.69
252.397	1418.69
252.63	1455.69
252.863	1574.69
253.096	1659.69
253.329	1713.69
253.562	1601.69
253.795	1555.69
254.028	1569.69
254.261	1649.69
254.494	1797.69
254.727	2077.69
254.96	2154.69
255.193	1953.69
255.426	1841.69
255.659	1848.69
255.892	2090.69
256.124	2405.69
256.357	2239.69
256.59	1932.69
256.823	1787.69
257.056	1694.69
257.289	1655.69
257.521	1630.69
257.754	1649.69
257.987	1600.69
258.22	1578.69
258.452	1597.69
258.685	1575.69
258.918	1611.69
259.151	1669.69
259.383	1701.69
259.616	1722.69
259.849	1762.69
260.081	1883.69
260.314	2067.69
260.547	2033.69
260.779	1847.69
261.012	1778.69
261.244	1754.69
261.477	1710.69
261.71	1696.69
261.942	1759.69
262.175	1784.69
262.407	1756.69
262.64	1679.69
262.872	1696.69
263.105	1641.69
263.337	1687.69
263.57	1662.69
263.802	1705.69
264.035	1695.69
264.267	1732.69
264.499	1698.69
264.732	1738.69
264.964	1726.69
265.197	1735.69
265.429	1739.69
265.661	1740.69
265.894	1759.69
266.126	1766.69
266.358	1790.69
266.591	1800.69
266.823	1867.69
267.055	1881.69
267.287	1891.69
267.52	1851.69
267.752	1892.69
267.984	1916.69
268.216	1944.69
268.448	1997.69
268.681	1982.69
268.913	2148.69
269.145	2303.69
269.377	2349.69
269.609	2265.69
269.841	2275.69
270.073	2368.69
270.306	2583.69
270.538	2765.69
270.77	2634.69
271.002	2498.69
271.234	2446.69
271.466	2586.69
271.698	2713.69
271.93	2709.69
272.162	2733.69
272.394	2677.69
272.626	2495.69
272.858	2323.69
273.09	2315.69
273.322	2260.69
273.553	2264.69
273.785	2285.69
274.017	2269.69
274.249	2267.69
274.481	2305.69
274.713	2275.69
274.945	2328.69
275.176	2313.69
275.408	2339.69
275.64	2317.69
275.872	2321.69
276.104	2365.69
276.335	2381.69
276.567	2475.69
276.799	2598.69
277.031	2845.69
277.262	2926.69
277.494	2806.69
277.726	2585.69
277.957	2575.69
278.189	2491.69
278.421	2429.69
278.652	2410.69
278.884	2444.69
279.115	2445.69
279.347	2473.69
279.579	2404.69
279.81	2488.69
280.042	2521.69
280.273	2526.69
280.505	2554.69
280.736	2550.69
280.968	2488.69
281.199	2543.69
281.431	2486.69
281.662	2562.69
281.894	2561.69
282.125	2590.69
282.356	2763.69
282.588	2800.69
282.819	2749.69
283.051	2630.69
283.282	2633.69
283.513	2627.69
283.745	2729.69
283.976	2708.69
284.207	2699.69
284.439	2671.69
284.67	2681.69
284.901	2699.69
285.132	2662.69
285.364	2676.69
285.595	2692.69
285.826	2714.69
286.057	2739.69
286.288	2760.69
286.52	2748.69
286.751	2750.69
286.982	2799.69
287.213	2761.69
287.444	2857.69
287.675	2886.69
287.906	2875.69
288.138	3025.69
288.369	2944.69
288.6	2997.69
288.831	2977.69
289.062	2907.69
289.293	2922.69
289.524	2879.69
289.755	2862.69
289.986	2872.69
290.217	2918.69
290.448	2898.69
290.679	2897.69
290.91	2875.69
291.141	2827.69
291.371	2856.69
291.602	2914.69
291.833	2861.69
292.064	2852.69
292.295	2854.69
292.526	2841.69
292.757	2877.69
292.987	2874.69
293.218	2846.69
293.449	2983.69
293.68	2889.69
293.91	2875.69
294.141	2886.69
294.372	2921.69
294.603	2996.69
294.833	2945.69
295.064	2941.69
295.295	2963.69
295.525	2944.69
295.756	3034.69
295.987	3062.69
296.217	3211.69
296.448	3171.69
296.679	3033.69
296.909	2985.69
297.14	3077.69
297.37	3086.69
297.601	3163.69
297.831	3085.69
298.062	3113.69
298.292	3144.69
298.523	3172.69
298.753	3151.69
298.984	3154.69
299.214	3162.69
299.445	3150.69
299.675	3201.69
299.905	3250.69
300.136	3209.69
300.366	3185.69
300.597	3237.69
300.827	3309.69
301.057	3413.69
301.288	3415.69
301.518	3384.69
301.748	3409.69
301.979	3494.69
302.209	3515.69
302.439	3475.69
302.669	3419.69
302.9	3353.69
303.13	3394.69
303.36	3416.69
303.59	3481.69
303.82	3447.69
304.051	3453.69
304.281	3419.69
304.511	3362.69
304.741	3365.69
304.971	3384.69
305.201	3397.69
305.431	3372.69
305.661	3333.69
305.891	3353.69
306.121	3397.69
306.352	3465.69
306.582	3377.69
306.812	3362.69
307.042	3343.69
307.272	3403.69
307.502	3414.69
307.731	3436.69
307.961	3456.69
308.191	3440.69
308.421	3391.69
308.651	3399.69
308.881	3368.69
309.111	3423.69
309.341	3455.69
309.571	3571.69
309.8	3561.69
310.03	3658.69
310.26	3679.69
310.49	3653.69
310.72	3709.69
310.949	3880.69
311.179	3797.69
311.409	3711.69
311.639	3686.69
311.868	3702.69
312.098	3745.69
312.328	3839.69
312.557	3924.69
312.787	4041.69
313.017	3939.69
313.246	3848.69
313.476	3806.69
313.706	3889.69
313.935	3974.69
314.165	4009.69
314.394	3975.69
314.624	3991.69
314.853	3942.69
315.083	3882.69
315.312	3861.69
315.542	3756.69
315.771	3743.69
316.001	3802.69
316.23	3753.69
316.46	3811.69
316.689	3855.69
316.919	3837.69
317.148	3874.69
317.377	3904.69
317.607	3842.69
317.836	3792.69
318.065	3761.69
318.295	3802.69
318.524	3802.69
318.753	3781.69
318.983	3822.69
319.212	3755.69
319.441	3867.69
319.67	3783.69
319.9	3835.69
320.129	3834.69
320.358	3840.69
320.587	3835.69
320.816	3912.69
321.046	3934.69
321.275	3943.69
321.504	3898.69
321.733	3969.69
321.962	3998.69
322.191	4160.69
322.42	4195.69
322.649	4261.69
322.878	4308.69
323.108	4374.69
323.337	4617.69
323.566	4768.69
323.795	5014.69
324.024	5593.69
324.253	7184.69
324.482	10667.69
324.71	15014.69
324.939	15619.69
325.168	12361.69
325.397	6459.69
325.626	5295.69
325.855	4987.69
326.084	4866.69
326.313	4901.69
326.542	5037.69
326.77	5644.69
326.999	7106.69
327.228	10318.69
327.457	14208.69
327.686	13265.69
327.914	7412.69
328.143	6306.69
328.372	6142.69
328.6	5724.69
328.829	5404.69
329.058	5586.69
329.287	5603.69
329.515	5487.69
329.744	5481.69
329.972	5800.69
330.201	6503.69
330.43	6974.69
330.658	6334.69
330.887	6122.69
331.115	5664.69
331.344	5274.69
331.572	5173.69
331.801	5289.69
332.03	5253.69
332.258	5179.69
332.486	5253.69
332.715	5394.69
332.943	5541.69
333.172	5790.69
333.4	6001.69
333.629	6127.69
333.857	6461.69
334.085	6903.69
334.314	7553.69
334.542	8356.69
334.771	7999.69
334.999	6445.69
335.227	5878.69
335.455	5653.69
335.684	5453.69
335.912	5367.69
336.14	5214.69
336.369	5156.69
336.597	5199.69
336.825	5128.69
337.053	5021.69
337.281	5014.69
337.51	4942.69
337.738	4893.69
337.966	4780.69
338.194	4814.69
338.422	4708.69
338.65	4697.69
338.878	4724.69
339.106	4637.69
339.334	4647.69
339.562	4582.69
339.79	4505.69
340.018	4478.69
340.246	4579.69
340.474	4579.69
340.702	4540.69
340.93	4465.69
341.158	4544.69
341.386	4511.69
341.614	4513.69
341.842	4493.69
342.07	4441.69
342.298	4470.69
342.526	4466.69
342.754	4377.69
342.981	4495.69
343.209	4635.69
343.437	4813.69
343.665	5027.69
343.893	5302.69
344.12	5359.69
344.348	5070.69
344.576	4955.69
344.804	4803.69
345.031	4759.69
345.259	4734.69
345.487	4559.69
345.714	4425.69
345.942	4324.69
346.17	4332.69
346.397	4385.69
346.625	4324.69
346.853	4237.69
347.08	4297.69
347.308	4380.69
347.535	4375.69
347.763	4409.69
347.99	4308.69
348.218	4397.69
348.445	4407.69
348.673	4291.69
348.9	4270.69
349.128	4205.69
349.355	4188.69
349.583	4151.69
349.81	4171.69
350.037	4143.69
350.265	4137.69
350.492	4114.69
350.72	4139.69
350.947	4131.69
351.174	4271.69
351.402	4293.69
351.629	4303.69
351.856	4318.69
352.083	4257.69
352.311	4338.69
352.538	4314.69
352.765	4262.69
352.992	4260.69
353.22	4214.69
353.447	4143.69
353.674	4103.69
353.901	4058.69
354.128	4080.69
354.355	4108.69
354.583	4079.69
354.81	4089.69
355.037	4117.69
355.264	4034.69
355.491	4078.69
355.718	4080.69
355.945	4083.69
356.172	4124.69
356.399	4063.69
356.626	4086.69
356.853	4120.69
357.08	4061.69
357.307	4043.69
357.534	4043.69
357.761	4135.69
357.988	4103.69
358.215	4031.69
358.441	4059.69
358.668	4125.69
358.895	4119.69
359.122	4189.69
359.349	4199.69
359.576	4358.69
359.802	4574.69
360.029	4632.69
360.256	4580.69
360.483	4493.69
360.709	4296.69
360.936	4274.69
361.163	4313.69
361.39	4266.69
361.616	4285.69
361.843	4238.69
362.07	4334.69
362.296	4328.69
362.523	4241.69
362.749	4282.69
362.976	4210.69
363.203	4215.69
363.429	4144.69
363.656	4195.69
363.882	4090.69
364.109	4111.69
364.335	4084.69
364.562	4174.69
364.788	4185.69
365.015	4149.69
365.241	4216.69
365.468	4175.69
365.694	4256.69
365.92	4156.69
366.147	4137.69
366.373	4203.69
366.599	4190.69
366.826	4173.69
367.052	4171.69
367.278	4203.69
367.505	4191.69
367.731	4197.69
367.957	4221.69
368.184	4247.69
368.41	4243.69
368.636	4368.69
368.862	4382.69
369.089	4234.69
369.315	4287.69
369.541	4322.69
369.767	4281.69
369.993	4297.69
370.219	4329.69
370.445	4277.69
370.672	4330.69
370.898	4335.69
371.124	4424.69
371.35	4501.69
371.576	4450.69
371.802	4440.69
372.028	4415.69
372.254	4402.69
372.48	4499.69
372.706	4671.69
372.932	4559.69
373.158	4528.69
373.384	4527.69
373.61	4495.69
373.835	4510.69
374.061	4436.69
374.287	4582.69
374.513	4650.69
374.739	4797.69
374.965	4828.69
375.191	4847.69
375.416	4817.69
375.642	4650.69
375.868	4662.69
376.094	4507.69
376.319	4509.69
376.545	4461.69
376.771	4457.69
376.997	4408.69
377.222	4444.69
377.448	4394.69
377.674	4354.69
377.899	4386.69
378.125	4404.69
378.35	4384.69
378.576	4394.69
378.802	4409.69
379.027	4406.69
379.253	4352.69
379.478	4425.69
379.704	4422.69
379.929	4483.69
380.155	4459.69
380.38	4456.69
380.606	4511.69
380.831	4411.69
381.057	4451.69
381.282	4437.69
381.507	4425.69
381.733	4529.69
381.958	4597.69
382.184	4552.69
382.409	4650.69
382.634	4729.69
382.86	4670.69
383.085	4722.69
383.31	4838.69
383.535	4914.69
383.761	4930.69
383.986	5002.69
384.211	5026.69
384.436	5137.69
384.662	5161.69
384.887	5315.69
385.112	5299.69
385.337	5354.69
385.562	5310.69
385.787	5394.69
386.013	5498.69
386.238	5468.69
386.463	5429.69
386.688	5410.69
386.913	5331.69
387.138	5288.69
387.363	5309.69
387.588	5183.69
387.813	5286.69
388.038	5238.69
388.263	5285.69
388.488	5403.69
388.713	5323.69
388.938	5284.69
389.163	5242.69
389.387	5204.69
389.612	5233.69
389.837	5246.69
390.062	5206.69
390.287	5203.69
390.512	5226.69
390.736	5371.69
390.961	5393.69
391.186	5480.69
391.411	5588.69
391.636	5728.69
391.86	5953.69
392.085	6008.69
392.31	5837.69
392.534	5778.69
392.759	5679.69
392.984	5641.69
393.208	5581.69
393.433	5637.69
393.658	5596.69
393.882	5550.69
394.107	5480.69
394.331	5593.69
394.556	5614.69
394.78	5682.69
395.005	5667.69
395.229	5686.69
395.454	5907.69
395.678	6018.69
395.903	5953.69
396.127	6042.69
396.352	5870.69
396.576	5668.69
396.801	5650.69
397.025	5805.69
397.249	5901.69
397.474	5954.69
397.698	6022.69
397.922	6128.69
398.147	6207.69
398.371	6325.69
398.595	6433.69
398.82	6811.69
399.044	7320.69
399.268	8105.69
399.492	9159.69
399.717	9791.69
399.941	9565.69
400.165	8859.69
400.389	8209.69
400.613	7360.69
400.837	6996.69
401.062	6835.69
401.286	6714.69
401.51	6716.69
401.734	6730.69
401.958	6819.69
402.182	6922.69
402.406	7062.69
402.63	7006.69
402.854	7248.69
403.078	7250.69
403.302	7350.69
403.526	7487.69
403.75	7593.69
403.974	7557.69
404.198	7632.69
404.422	7727.69
404.645	7767.69
404.869	7814.69
405.093	8196.69
405.317	8578.69
405.541	8581.69
405.765	7833.69
405.988	7571.69
406.212	7643.69
406.436	7723.69
406.66	7932.69
406.883	7937.69
407.107	8482.69
407.331	8990.69
407.555	9456.69
407.778	9151.69
408.002	8487.69
408.226	8060.69
408.449	8002.69
408.673	7881.69
408.896	8024.69
409.12	8160.69
409.344	7676.69
409.567	7495.69
409.791	7357.69
410.014	7231.69
410.238	7161.69
410.461	7188.69
410.685	7279.69
410.908	7309.69
411.132	7502.69
411.355	7451.69
411.578	7225.69
411.802	6961.69
412.025	7085.69
412.249	7455.69
412.472	7847.69
412.695	8190.69
412.919	7453.69
413.142	7198.69
413.365	6946.69
413.589	6875.69
413.812	6710.69
414.035	6634.69
414.258	6715.69
414.482	6744.69
414.705	6777.69
414.928	6686.69
415.151	6669.69
415.374	6575.69
415.597	6686.69
415.821	6511.69
416.044	6465.69
416.267	6545.69
416.49	6429.69
416.713	6435.69
416.936	6619.69
417.159	6559.69
417.382	6584.69
417.605	6605.69
417.828	6784.69
418.051	6819.69
418.274	6789.69
418.497	6621.69
418.72	6729.69
418.943	6701.69
419.166	7102.69
419.389	7517.69
419.611	7418.69
419.834	7261.69
420.057	7241.69
420.28	7190.69
420.503	7031.69
420.726	6922.69
420.948	7020.69
421.171	7304.69
421.394	7218.69
421.617	6807.69
421.839	6753.69
422.062	6811.69
422.285	6958.69
422.507	7643.69
422.73	8089.69
422.953	7517.69
423.175	7179.69
423.398	7228.69
423.621	7106.69
423.843	7352.69
424.066	7324.69
424.288	7187.69
424.511	7424.69
424.733	7901.69
424.956	8233.69
425.178	7778.69
425.401	7979.69
425.623	7775.69
425.846	6831.69
426.068	6747.69
426.291	6696.69
426.513	6698.69
426.735	6762.69
426.958	7239.69
427.18	7898.69
427.402	9009.69
427.625	9139.69
427.847	8077.69
428.069	7587.69
428.292	6814.69
428.514	6308.69
428.736	6124.69
428.958	6150.69
429.181	6030.69
429.403	5934.69
429.625	6118.69
429.847	6404.69
430.069	6925.69
430.292	6501.69
430.514	5998.69
430.736	5940.69
430.958	5910.69
431.18	5859.69
431.402	5815.69
431.624	5758.69
431.846	5957.69
432.068	5935.69
432.29	5971.69
432.512	5815.69
432.734	5952.69
432.956	5929.69
433.178	6004.69
433.4	5949.69
433.622	5904.69
433.844	5949.69
434.066	5917.69
434.287	6065.69
434.509	6293.69
434.731	6469.69
434.953	6588.69
435.175	6744.69
435.397	6843.69
435.618	6730.69
435.84	7093.69
436.062	7897.69
436.284	7741.69
436.505	6619.69
436.727	6325.69
436.949	6103.69
437.17	5873.69
437.392	5921.69
437.614	6102.69
437.835	6412.69
438.057	7376.69
438.278	7941.69
438.5	7871.69
438.721	8649.69
438.943	7637.69
439.165	6515.69
439.386	6349.69
439.608	6298.69
439.829	6438.69
440.05	6786.69
440.272	7106.69
440.493	6512.69
440.715	6337.69
440.936	6245.69
441.158	6336.69
441.379	6360.69
441.6	6743.69
441.822	6932.69
442.043	7307.69
442.264	8065.69
442.486	7712.69
442.707	6997.69
442.928	6853.69
443.149	7022.69
443.371	7351.69
443.592	7745.69
443.813	8781.69
444.034	8586.69
444.255	7563.69
444.476	7496.69
444.698	7686.69
444.919	7694.69
445.14	7575.69
445.361	7339.69
445.582	7513.69
445.803	7974.69
446.024	8742.69
446.245	8245.69
446.466	7415.69
446.687	6522.69
446.908	6213.69
447.129	5932.69
447.35	5771.69
447.571	5717.69
447.792	5684.69
448.013	5761.69
448.234	6006.69
448.455	6573.69
448.675	7733.69
448.896	7960.69
449.117	6677.69
449.338	6989.69
449.559	8211.69
449.779	8363.69
450	6475.69
450.221	5841.69
450.442	5644.69
450.662	5609.69
450.883	5603.69
451.104	5695.69
451.324	5558.69
451.545	5372.69
451.766	5242.69
451.986	5211.69
452.207	5168.69
452.428	5090.69
452.648	5225.69
452.869	5211.69
453.089	5179.69
453.31	5402.69
453.53	5207.69
453.751	5127.69
453.971	5211.69
454.192	5244.69
454.412	4997.69
454.633	4958.69
454.853	5008.69
455.073	5057.69
455.294	5410.69
455.514	5952.69
455.734	5399.69
455.955	4934.69
456.175	4834.69
456.395	4784.69
456.616	4723.69
456.836	4813.69
457.056	4777.69
457.276	4713.69
457.497	4901.69
457.717	4866.69
457.937	4882.69
458.157	5019.69
458.377	5134.69
458.598	5438.69
458.818	6015.69
459.038	6826.69
459.258	6733.69
459.478	6102.69
459.698	5932.69
459.918	6046.69
460.138	6259.69
460.358	6414.69
460.578	6455.69
460.798	6509.69
461.018	6562.69
461.238	6419.69
461.458	6405.69
461.678	6320.69
461.898	6520.69
462.118	6670.69
462.338	6900.69
462.558	7019.69
462.777	7315.69
462.997	8024.69
463.217	8359.69
463.437	8191.69
463.657	7549.69
463.876	7391.69
464.096	7385.69
464.316	7427.69
464.536	7432.69
464.755	7105.69
464.975	7065.69
465.195	7176.69
465.414	7094.69
465.634	6300.69
465.854	5981.69
466.073	5766.69
466.293	5685.69
466.512	5499.69
466.732	5428.69
466.951	5452.69
467.171	5370.69
467.391	5453.69
467.61	5435.69
467.829	5462.69
468.049	5649.69
468.268	5652.69
468.488	5355.69
468.707	5213.69
468.927	5194.69
469.146	5165.69
469.365	5250.69
469.585	5315.69
469.804	5503.69
470.023	5625.69
470.243	5572.69
470.462	5709.69
470.681	5797.69
470.901	5666.69
471.12	5583.69
471.339	5543.69
471.558	5462.69
471.777	5364.69
471.997	5475.69
472.216	5929.69
472.435	6901.69
472.654	6058.69
472.873	5479.69
473.092	5407.69
473.311	5319.69
473.53	5285.69
473.749	5362.69
473.968	5915.69
474.187	6885.69
474.406	6338.69
474.625	5457.69
474.844	5325.69
475.063	5213.69
475.282	5152.69
475.501	5250.69
475.72	5312.69
475.939	5318.69
476.158	5409.69
476.377	5431.69
476.596	5409.69
476.814	5541.69
477.033	5583.69
477.252	5663.69
477.471	5738.69
477.69	5851.69
477.908	5974.69
478.127	6169.69
478.346	6235.69
478.564	6269.69
478.783	6373.69
479.002	6538.69
479.22	6567.69
479.439	6567.69
479.658	6713.69
479.876	6872.69
480.095	7040.69
480.313	7439.69
480.532	7454.69
480.751	7360.69
480.969	7815.69
481.188	9726.69
481.406	9324.69
481.624	7605.69
481.843	7076.69
482.061	6712.69
482.28	6478.69
482.498	6464.69
482.717	6269.69
482.935	6246.69
483.153	6217.69
483.372	6233.69
483.59	6229.69
483.808	6158.69
484.027	6159.69
484.245	6223.69
484.463	6241.69
484.681	6356.69
484.9	6336.69
485.118	6379.69
485.336	6492.69
485.554	6541.69
485.772	6575.69
485.99	6652.69
486.209	6637.69
486.427	6671.69
486.645	6623.69
486.863	6837.69
487.081	6650.69
487.299	6667.69
487.517	6646.69
487.735	6593.69
