Data from Circ_1993_H10_HRD10591_00010.txt Node
Date: Wed Jan 03 11:44:04 EST 2024
User: Yrep
Spectrometer: HR+D1059
Trigger mode: 1
Integration Time (sec): 1.000000E-1
Scans to average: 1
Electric dark correction enabled: true
Nonlinearity correction enabled: false
Boxcar width: 0
XAxis mode: Wavelengths
Number of Pixels in Spectrum: 2048
>>>>>Begin Spectral Data<<<<<
223.165	-14.38
223.4	-14.38
223.635	-14.38
223.869	-7.38
224.104	-18.38
224.338	-8.38
224.573	-6.38
224.808	-13.38
225.042	-31.38
225.277	-10.38
225.511	-1.38
225.746	11.62
225.98	-8.38
226.215	17.62
226.449	9.62
226.683	22.62
226.918	29.62
227.152	28.62
227.387	38.62
227.621	35.62
227.856	59.62
228.09	43.62
228.324	59.62
228.559	48.62
228.793	66.62
229.027	65.62
229.262	70.62
229.496	63.62
229.73	71.62
229.964	86.62
230.199	71.62
230.433	76.62
230.667	77.62
230.901	84.62
231.136	99.62
231.37	81.62
231.604	77.62
231.838	91.62
232.072	75.62
232.306	77.62
232.541	89.62
232.775	70.62
233.009	78.62
233.243	105.62
233.477	78.62
233.711	85.62
233.945	77.62
234.179	88.62
234.413	66.62
234.647	77.62
234.881	92.62
235.115	92.62
235.349	73.62
235.583	71.62
235.817	75.62
236.051	92.62
236.285	89.62
236.519	90.62
236.753	81.62
236.987	89.62
237.221	84.62
237.455	94.62
237.689	61.62
237.922	63.62
238.156	65.62
238.39	65.62
238.624	73.62
238.858	102.62
239.091	85.62
239.325	93.62
239.559	85.62
239.793	75.62
240.027	84.62
240.26	87.62
240.494	89.62
240.728	63.62
240.961	87.62
241.195	92.62
241.429	75.62
241.662	75.62
241.896	73.62
242.13	92.62
242.363	60.62
242.597	79.62
242.83	77.62
243.064	85.62
243.298	69.62
243.531	82.62
243.765	86.62
243.998	84.62
244.232	69.62
244.465	79.62
244.699	83.62
244.932	88.62
245.166	62.62
245.399	81.62
245.633	79.62
245.866	77.62
246.099	72.62
246.333	75.62
246.566	87.62
246.8	71.62
247.033	81.62
247.266	81.62
247.5	82.62
247.733	80.62
247.966	85.62
248.2	102.62
248.433	82.62
248.666	73.62
248.899	83.62
249.133	92.62
249.366	80.62
249.599	104.62
249.832	84.62
250.066	90.62
250.299	79.62
250.532	77.62
250.765	99.62
250.998	94.62
251.231	76.62
251.465	53.62
251.698	88.62
251.931	85.62
252.164	77.62
252.397	93.62
252.63	88.62
252.863	76.62
253.096	88.62
253.329	83.62
253.562	77.62
253.795	81.62
254.028	76.62
254.261	97.62
254.494	102.62
254.727	65.62
254.96	73.62
255.193	68.62
255.426	95.62
255.659	66.62
255.892	76.62
256.124	86.62
256.357	86.62
256.59	84.62
256.823	84.62
257.056	88.62
257.289	70.62
257.521	87.62
257.754	83.62
257.987	90.62
258.22	88.62
258.452	82.62
258.685	86.62
258.918	91.62
259.151	88.62
259.383	89.62
259.616	84.62
259.849	89.62
260.081	83.62
260.314	91.62
260.547	88.62
260.779	87.62
261.012	93.62
261.244	91.62
261.477	83.62
261.71	98.62
261.942	95.62
262.175	92.62
262.407	89.62
262.64	92.62
262.872	87.62
263.105	84.62
263.337	89.62
263.57	84.62
263.802	80.62
264.035	85.62
264.267	81.62
264.499	85.62
264.732	83.62
264.964	78.62
265.197	81.62
265.429	77.62
265.661	82.62
265.894	80.62
266.126	79.62
266.358	69.62
266.591	83.62
266.823	82.62
267.055	76.62
267.287	88.62
267.52	85.62
267.752	82.62
267.984	91.62
268.216	93.62
268.448	88.62
268.681	102.62
268.913	81.62
269.145	80.62
269.377	101.62
269.609	72.62
269.841	94.62
270.073	105.62
270.306	87.62
270.538	88.62
270.77	92.62
271.002	103.62
271.234	87.62
271.466	83.62
271.698	98.62
271.93	87.62
272.162	86.62
272.394	80.62
272.626	86.62
272.858	96.62
273.09	92.62
273.322	77.62
273.553	91.62
273.785	83.62
274.017	88.62
274.249	95.62
274.481	87.62
274.713	84.62
274.945	94.62
275.176	83.62
275.408	93.62
275.64	89.62
275.872	79.62
276.104	102.62
276.335	88.62
276.567	109.62
276.799	97.62
277.031	79.62
277.262	81.62
277.494	82.62
277.726	93.62
277.957	83.62
278.189	93.62
278.421	72.62
278.652	79.62
278.884	87.62
279.115	101.62
279.347	94.62
279.579	92.62
279.81	94.62
280.042	98.62
280.273	96.62
280.505	90.62
280.736	81.62
280.968	93.62
281.199	94.62
281.431	97.62
281.662	90.62
281.894	91.62
282.125	95.62
282.356	112.62
282.588	126.62
282.819	95.62
283.051	86.62
283.282	81.62
283.513	87.62
283.745	81.62
283.976	80.62
284.207	89.62
284.439	90.62
284.67	79.62
284.901	95.62
285.132	83.62
285.364	91.62
285.595	96.62
285.826	81.62
286.057	90.62
286.288	79.62
286.52	69.62
286.751	83.62
286.982	105.62
287.213	94.62
287.444	92.62
287.675	80.62
287.906	93.62
288.138	84.62
288.369	85.62
288.6	87.62
288.831	77.62
289.062	77.62
289.293	90.62
289.524	85.62
289.755	79.62
289.986	92.62
290.217	81.62
290.448	86.62
290.679	95.62
290.91	88.62
291.141	87.62
291.371	87.62
291.602	99.62
291.833	94.62
292.064	96.62
292.295	69.62
292.526	85.62
292.757	64.62
292.987	86.62
293.218	95.62
293.449	94.62
293.68	84.62
293.91	79.62
294.141	94.62
294.372	82.62
294.603	93.62
294.833	110.62
295.064	77.62
295.295	99.62
295.525	86.62
295.756	94.62
295.987	116.62
296.217	119.62
296.448	123.62
296.679	88.62
296.909	89.62
297.14	96.62
297.37	93.62
297.601	91.62
297.831	76.62
298.062	92.62
298.292	94.62
298.523	89.62
298.753	79.62
298.984	90.62
299.214	83.62
299.445	81.62
299.675	88.62
299.905	93.62
300.136	95.62
300.366	80.62
300.597	88.62
300.827	84.62
301.057	112.62
301.288	104.62
301.518	99.62
301.748	97.62
301.979	112.62
302.209	81.62
302.439	88.62
302.669	83.62
302.9	97.62
303.13	87.62
303.36	92.62
303.59	117.62
303.82	92.62
304.051	113.62
304.281	95.62
304.511	86.62
304.741	93.62
304.971	92.62
305.201	89.62
305.431	83.62
305.661	91.62
305.891	93.62
306.121	99.62
306.352	91.62
306.582	91.62
306.812	90.62
307.042	83.62
307.272	85.62
307.502	97.62
307.731	103.62
307.961	93.62
308.191	89.62
308.421	93.62
308.651	94.62
308.881	115.62
309.111	91.62
309.341	96.62
309.571	92.62
309.8	105.62
310.03	84.62
310.26	97.62
310.49	97.62
310.72	87.62
310.949	100.62
311.179	99.62
311.409	102.62
311.639	110.62
311.868	94.62
312.098	80.62
312.328	86.62
312.557	100.62
312.787	105.62
313.017	87.62
313.246	89.62
313.476	99.62
313.706	98.62
313.935	75.62
314.165	94.62
314.394	111.62
314.624	97.62
314.853	94.62
315.083	91.62
315.312	93.62
315.542	87.62
315.771	81.62
316.001	89.62
316.23	85.62
316.46	84.62
316.689	110.62
316.919	87.62
317.148	87.62
317.377	83.62
317.607	93.62
317.836	100.62
318.065	99.62
318.295	93.62
318.524	104.62
318.753	102.62
318.983	92.62
319.212	109.62
319.441	104.62
319.67	91.62
319.9	105.62
320.129	99.62
320.358	82.62
320.587	80.62
320.816	79.62
321.046	97.62
321.275	88.62
321.504	107.62
321.733	93.62
321.962	77.62
322.191	122.62
322.42	99.62
322.649	104.62
322.878	102.62
323.108	102.62
323.337	117.62
323.566	115.62
323.795	132.62
324.024	170.62
324.253	287.62
324.482	605.62
324.71	1191.62
324.939	1605.62
325.168	609.62
325.397	208.62
325.626	139.62
325.855	101.62
326.084	123.62
326.313	125.62
326.542	141.62
326.77	203.62
326.999	348.62
327.228	717.62
327.457	1216.62
327.686	988.62
327.914	305.62
328.143	161.62
328.372	127.62
328.6	110.62
328.829	96.62
329.058	105.62
329.287	103.62
329.515	96.62
329.744	108.62
329.972	97.62
330.201	104.62
330.43	113.62
330.658	117.62
330.887	111.62
331.115	109.62
331.344	101.62
331.572	92.62
331.801	107.62
332.03	83.62
332.258	90.62
332.486	99.62
332.715	101.62
332.943	85.62
333.172	110.62
333.4	105.62
333.629	109.62
333.857	108.62
334.085	105.62
334.314	107.62
334.542	123.62
334.771	122.62
334.999	112.62
335.227	97.62
335.455	100.62
335.684	100.62
335.912	105.62
336.14	111.62
336.369	112.62
336.597	97.62
336.825	97.62
337.053	95.62
337.281	102.62
337.51	94.62
337.738	88.62
337.966	104.62
338.194	85.62
338.422	90.62
338.65	83.62
338.878	89.62
339.106	94.62
339.334	100.62
339.562	87.62
339.79	83.62
340.018	85.62
340.246	86.62
340.474	103.62
340.702	98.62
340.93	84.62
341.158	91.62
341.386	86.62
341.614	100.62
341.842	101.62
342.07	91.62
342.298	94.62
342.526	100.62
342.754	91.62
342.981	97.62
343.209	109.62
343.437	97.62
343.665	99.62
343.893	90.62
344.12	113.62
344.348	81.62
344.576	78.62
344.804	91.62
345.031	95.62
345.259	92.62
345.487	92.62
345.714	104.62
345.942	91.62
346.17	83.62
346.397	99.62
346.625	82.62
346.853	86.62
347.08	81.62
347.308	117.62
347.535	108.62
347.763	114.62
347.99	93.62
348.218	84.62
348.445	97.62
348.673	106.62
348.9	70.62
349.128	102.62
349.355	91.62
349.583	98.62
349.81	112.62
350.037	81.62
350.265	89.62
350.492	104.62
350.72	84.62
350.947	95.62
351.174	108.62
351.402	107.62
351.629	110.62
351.856	104.62
352.083	95.62
352.311	95.62
352.538	104.62
352.765	107.62
352.992	106.62
353.22	112.62
353.447	101.62
353.674	113.62
353.901	112.62
354.128	110.62
354.355	93.62
354.583	98.62
354.81	95.62
355.037	116.62
355.264	95.62
355.491	91.62
355.718	105.62
355.945	109.62
356.172	89.62
356.399	87.62
356.626	74.62
356.853	102.62
357.08	102.62
357.307	101.62
357.534	103.62
357.761	88.62
357.988	99.62
358.215	118.62
358.441	101.62
358.668	111.62
358.895	107.62
359.122	115.62
359.349	97.62
359.576	91.62
359.802	107.62
360.029	109.62
360.256	94.62
360.483	100.62
360.709	90.62
360.936	76.62
361.163	100.62
361.39	102.62
361.616	87.62
361.843	77.62
362.07	97.62
362.296	95.62
362.523	93.62
362.749	95.62
362.976	79.62
363.203	103.62
363.429	93.62
363.656	98.62
363.882	102.62
364.109	89.62
364.335	95.62
364.562	91.62
364.788	83.62
365.015	96.62
365.241	97.62
365.468	109.62
365.694	106.62
365.92	101.62
366.147	89.62
366.373	95.62
366.599	92.62
366.826	85.62
367.052	83.62
367.278	107.62
367.505	91.62
367.731	96.62
367.957	87.62
368.184	84.62
368.41	105.62
368.636	111.62
368.862	101.62
369.089	109.62
369.315	95.62
369.541	86.62
369.767	90.62
369.993	107.62
370.219	84.62
370.445	95.62
370.672	90.62
370.898	107.62
371.124	88.62
371.35	96.62
371.576	93.62
371.802	87.62
372.028	91.62
372.254	89.62
372.48	91.62
372.706	92.62
372.932	104.62
373.158	114.62
373.384	101.62
373.61	85.62
373.835	91.62
374.061	91.62
374.287	93.62
374.513	102.62
374.739	92.62
374.965	80.62
375.191	80.62
375.416	104.62
375.642	105.62
375.868	92.62
376.094	99.62
376.319	79.62
376.545	101.62
376.771	99.62
376.997	102.62
377.222	105.62
377.448	86.62
377.674	99.62
377.899	100.62
378.125	104.62
378.35	95.62
378.576	118.62
378.802	109.62
379.027	122.62
379.253	100.62
379.478	103.62
379.704	113.62
379.929	102.62
380.155	108.62
380.38	99.62
380.606	118.62
380.831	109.62
381.057	119.62
381.282	113.62
381.507	111.62
381.733	124.62
381.958	114.62
382.184	134.62
382.409	124.62
382.634	134.62
382.86	129.62
383.085	133.62
383.31	127.62
383.535	140.62
383.761	123.62
383.986	123.62
384.211	130.62
384.436	133.62
384.662	137.62
384.887	151.62
385.112	155.62
385.337	165.62
385.562	158.62
385.787	152.62
386.013	159.62
386.238	168.62
386.463	150.62
386.688	150.62
386.913	161.62
387.138	187.62
387.363	158.62
387.588	131.62
387.813	152.62
388.038	170.62
388.263	180.62
388.488	170.62
388.713	118.62
388.938	106.62
389.163	100.62
389.387	95.62
389.612	102.62
389.837	98.62
390.062	99.62
390.287	103.62
390.512	91.62
390.736	91.62
390.961	100.62
391.186	107.62
391.411	103.62
391.636	98.62
391.86	98.62
392.085	85.62
392.31	87.62
392.534	93.62
392.759	93.62
392.984	106.62
393.208	140.62
393.433	199.62
393.658	161.62
393.882	105.62
394.107	96.62
394.331	82.62
394.556	105.62
394.78	103.62
395.005	90.62
395.229	91.62
395.454	83.62
395.678	100.62
395.903	96.62
396.127	91.62
396.352	111.62
396.576	100.62
396.801	126.62
397.025	159.62
397.249	105.62
397.474	92.62
397.698	86.62
397.922	99.62
398.147	90.62
398.371	93.62
398.595	84.62
398.82	97.62
399.044	85.62
399.268	88.62
399.492	92.62
399.717	111.62
399.941	92.62
400.165	103.62
400.389	94.62
400.613	81.62
400.837	82.62
401.062	91.62
401.286	95.62
401.51	103.62
401.734	101.62
401.958	100.62
402.182	112.62
402.406	137.62
402.63	94.62
402.854	96.62
403.078	86.62
403.302	88.62
403.526	85.62
403.75	87.62
403.974	89.62
404.198	88.62
404.422	79.62
404.645	78.62
404.869	93.62
405.093	102.62
405.317	93.62
405.541	104.62
405.765	102.62
405.988	113.62
406.212	144.62
406.436	201.62
406.66	144.62
406.883	105.62
407.107	88.62
407.331	84.62
407.555	105.62
407.778	104.62
408.002	84.62
408.226	86.62
408.449	102.62
408.673	87.62
408.896	109.62
409.12	99.62
409.344	107.62
409.567	103.62
409.791	97.62
410.014	100.62
410.238	106.62
410.461	97.62
410.685	107.62
410.908	106.62
411.132	108.62
411.355	91.62
411.578	98.62
411.802	97.62
412.025	95.62
412.249	96.62
412.472	100.62
412.695	99.62
412.919	88.62
413.142	104.62
413.365	115.62
413.589	104.62
413.812	85.62
414.035	88.62
414.258	88.62
414.482	108.62
414.705	100.62
414.928	105.62
415.151	111.62
415.374	107.62
415.597	93.62
415.821	104.62
416.044	89.62
416.267	93.62
416.49	90.62
416.713	101.62
416.936	98.62
417.159	93.62
417.382	97.62
417.605	102.62
417.828	95.62
418.051	82.62
418.274	110.62
418.497	97.62
418.72	92.62
418.943	96.62
419.166	80.62
419.389	86.62
419.611	107.62
419.834	98.62
420.057	102.62
420.28	95.62
420.503	84.62
420.726	86.62
420.948	89.62
421.171	87.62
421.394	103.62
421.617	105.62
421.839	89.62
422.062	93.62
422.285	88.62
422.507	120.62
422.73	134.62
422.953	114.62
423.175	94.62
423.398	97.62
423.621	81.62
423.843	91.62
424.066	98.62
424.288	89.62
424.511	83.62
424.733	104.62
424.956	100.62
425.178	91.62
425.401	96.62
425.623	101.62
425.846	94.62
426.068	90.62
426.291	105.62
426.513	102.62
426.735	111.62
426.958	97.62
427.18	109.62
427.402	120.62
427.625	123.62
427.847	117.62
428.069	111.62
428.292	94.62
428.514	86.62
428.736	80.62
428.958	89.62
429.181	85.62
429.403	77.62
429.625	92.62
429.847	89.62
430.069	115.62
430.292	85.62
430.514	95.62
430.736	85.62
430.958	96.62
431.18	83.62
431.402	101.62
431.624	93.62
431.846	93.62
432.068	94.62
432.29	94.62
432.512	94.62
432.734	97.62
432.956	103.62
433.178	94.62
433.4	87.62
433.622	89.62
433.844	97.62
434.066	103.62
434.287	87.62
434.509	95.62
434.731	79.62
434.953	70.62
435.175	93.62
435.397	100.62
435.618	77.62
435.84	100.62
436.062	118.62
436.284	112.62
436.505	109.62
436.727	89.62
436.949	80.62
437.17	101.62
437.392	89.62
437.614	84.62
437.835	105.62
438.057	94.62
438.278	104.62
438.5	99.62
438.721	107.62
438.943	99.62
439.165	94.62
439.386	84.62
439.608	102.62
439.829	91.62
440.05	121.62
440.272	126.62
440.493	99.62
440.715	93.62
440.936	99.62
441.158	84.62
441.379	84.62
441.6	103.62
441.822	111.62
442.043	89.62
442.264	88.62
442.486	98.62
442.707	115.62
442.928	105.62
443.149	126.62
443.371	120.62
443.592	117.62
443.813	95.62
444.034	126.62
444.255	98.62
444.476	88.62
444.698	90.62
444.919	75.62
445.14	139.62
445.361	106.62
445.582	104.62
445.803	132.62
446.024	135.62
446.245	118.62
446.466	97.62
446.687	74.62
446.908	89.62
447.129	102.62
447.35	95.62
447.571	88.62
447.792	90.62
448.013	99.62
448.234	104.62
448.455	101.62
448.675	111.62
448.896	98.62
449.117	100.62
449.338	108.62
449.559	116.62
449.779	118.62
450	97.62
450.221	85.62
450.442	93.62
450.662	82.62
450.883	87.62
451.104	99.62
451.324	88.62
451.545	97.62
451.766	79.62
451.986	95.62
452.207	88.62
452.428	81.62
452.648	76.62
452.869	98.62
453.089	93.62
453.31	101.62
453.53	87.62
453.751	91.62
453.971	91.62
454.192	103.62
454.412	82.62
454.633	88.62
454.853	93.62
455.073	75.62
455.294	88.62
455.514	92.62
455.734	96.62
455.955	80.62
456.175	94.62
456.395	86.62
456.616	87.62
456.836	89.62
457.056	98.62
457.276	86.62
457.497	85.62
457.717	105.62
457.937	100.62
458.157	98.62
458.377	81.62
458.598	102.62
458.818	114.62
459.038	114.62
459.258	101.62
459.478	106.62
459.698	91.62
459.918	90.62
460.138	92.62
460.358	95.62
460.578	86.62
460.798	92.62
461.018	89.62
461.238	85.62
461.458	85.62
461.678	96.62
461.898	91.62
462.118	87.62
462.338	80.62
462.558	99.62
462.777	93.62
462.997	100.62
463.217	87.62
463.437	97.62
463.657	84.62
463.876	88.62
464.096	94.62
464.316	84.62
464.536	92.62
464.755	83.62
464.975	107.62
465.195	137.62
465.414	123.62
465.634	93.62
465.854	113.62
466.073	82.62
466.293	97.62
466.512	80.62
466.732	88.62
466.951	99.62
467.171	94.62
467.391	90.62
467.61	96.62
467.829	92.62
468.049	101.62
468.268	105.62
468.488	106.62
468.707	78.62
468.927	91.62
469.146	88.62
469.365	87.62
469.585	82.62
469.804	87.62
470.023	89.62
470.243	95.62
470.462	92.62
470.681	101.62
470.901	85.62
471.12	91.62
471.339	101.62
471.558	89.62
471.777	76.62
471.997	79.62
472.216	109.62
472.435	130.62
472.654	101.62
472.873	95.62
473.092	80.62
473.311	77.62
473.53	86.62
473.749	102.62
473.968	98.62
474.187	104.62
474.406	95.62
474.625	92.62
474.844	95.62
475.063	93.62
475.282	93.62
475.501	89.62
475.72	100.62
475.939	88.62
476.158	95.62
476.377	81.62
476.596	89.62
476.814	95.62
477.033	82.62
477.252	94.62
477.471	71.62
477.69	79.62
477.908	89.62
478.127	100.62
478.346	93.62
478.564	91.62
478.783	112.62
479.002	97.62
479.22	107.62
479.439	95.62
479.658	90.62
479.876	97.62
480.095	96.62
480.313	101.62
480.532	85.62
480.751	98.62
480.969	109.62
481.188	180.62
481.406	130.62
481.624	99.62
481.843	110.62
482.061	111.62
482.28	97.62
482.498	87.62
482.717	110.62
482.935	91.62
483.153	99.62
483.372	98.62
483.59	99.62
483.808	85.62
484.027	99.62
484.245	93.62
484.463	86.62
484.681	92.62
484.9	102.62
485.118	101.62
485.336	101.62
485.554	106.62
485.772	105.62
485.99	115.62
486.209	112.62
486.427	116.62
486.645	121.62
486.863	131.62
487.081	113.62
487.299	91.62
487.517	99.62
487.735	93.62
487.953	92.62
488.171	108.62
488.389	96.62
488.607	88.62
488.825	115.62
489.043	87.62
489.261	87.62
489.479	104.62
489.696	100.62
489.914	104.62
490.132	100.62
490.35	92.62
490.568	103.62
490.786	99.62
491.003	87.62
491.221	95.62
491.439	109.62
491.657	97.62
491.874	103.62
492.092	101.62
492.31	95.62
492.527	86.62
492.745	88.62
492.963	95.62
493.18	95.62
493.398	97.62
493.615	118.62
493.833	85.62
494.05	81.62
494.268	91.62
494.485	85.62
494.703	98.62
494.92	101.62
495.138	79.62
495.355	105.62
495.573	95.62
495.79	95.62
496.008	103.62
496.225	103.62
496.442	91.62
496.66	97.62
496.877	100.62
497.094	89.62
497.312	98.62
497.529	99.62
497.746	85.62
497.963	91.62
498.181	88.62
498.398	87.62
498.615	104.62
498.832	92.62
499.049	80.62
499.267	90.62
499.484	85.62
499.701	85.62
499.918	96.62
500.135	88.62
500.352	91.62
500.569	96.62
500.786	102.62
501.003	92.62
501.22	116.62
501.437	103.62
501.654	95.62
501.871	106.62
502.088	89.62
502.305	91.62
502.522	95.62
502.739	92.62
502.956	83.62
503.172	93.62
503.389	100.62
503.606	95.62
503.823	100.62
504.04	94.62
504.256	99.62
504.473	102.62
504.69	96.62
504.907	92.62
505.123	91.62
505.34	99.62
505.557	89.62
505.773	89.62
505.99	88.62
506.207	92.62
506.423	100.62
506.64	97.62
506.856	89.62
507.073	101.62
507.289	96.62
507.506	95.62
507.722	107.62
507.939	99.62
508.155	97.62
508.372	93.62
508.588	93.62
508.805	103.62
509.021	91.62
509.238	120.62
509.454	97.62
509.67	101.62
509.887	96.62
510.103	128.62
510.319	193.62
510.536	598.62
510.752	1705.62
510.968	500.62
511.184	143.62
511.401	105.62
511.617	110.62
511.833	92.62
512.049	90.62
512.265	85.62
512.481	102.62
512.698	92.62
512.914	104.62
513.13	91.62
513.346	91.62
513.562	91.62
513.778	99.62
513.994	95.62
514.21	103.62
