Data from Circ_1993_H10_HRD10591_00052.txt Node
Date: Wed Jan 03 11:44:12 EST 2024
User: Yrep
Spectrometer: HR+D1059
Trigger mode: 1
Integration Time (sec): 1.000000E-1
Scans to average: 1
Electric dark correction enabled: true
Nonlinearity correction enabled: false
Boxcar width: 0
XAxis mode: Wavelengths
Number of Pixels in Spectrum: 2048
>>>>>Begin Spectral Data<<<<<
223.165	-16.75
223.4	-16.75
223.635	-16.75
223.869	-30.75
224.104	-18.75
224.338	-11.75
224.573	-17.75
224.808	-12.75
225.042	-10.75
225.277	-4.75
225.511	11.25
225.746	-12.75
225.98	1.25
226.215	22.25
226.449	18.25
226.683	18.25
226.918	32.25
227.152	33.25
227.387	22.25
227.621	26.25
227.856	47.25
228.09	21.25
228.324	60.25
228.559	48.25
228.793	56.25
229.027	67.25
229.262	55.25
229.496	70.25
229.73	96.25
229.964	86.25
230.199	86.25
230.433	71.25
230.667	86.25
230.901	66.25
231.136	82.25
231.37	71.25
231.604	74.25
231.838	78.25
232.072	79.25
232.306	68.25
232.541	94.25
232.775	76.25
233.009	70.25
233.243	67.25
233.477	81.25
233.711	77.25
233.945	95.25
234.179	88.25
234.413	92.25
234.647	91.25
234.881	83.25
235.115	87.25
235.349	84.25
235.583	78.25
235.817	92.25
236.051	70.25
236.285	64.25
236.519	77.25
236.753	85.25
236.987	74.25
237.221	75.25
237.455	87.25
237.689	93.25
237.922	80.25
238.156	66.25
238.39	70.25
238.624	80.25
238.858	79.25
239.091	74.25
239.325	97.25
239.559	78.25
239.793	90.25
240.027	83.25
240.26	82.25
240.494	83.25
240.728	68.25
240.961	61.25
241.195	87.25
241.429	77.25
241.662	83.25
241.896	79.25
242.13	75.25
242.363	68.25
242.597	81.25
242.83	78.25
243.064	83.25
243.298	78.25
243.531	78.25
243.765	78.25
243.998	78.25
244.232	87.25
244.465	74.25
244.699	78.25
244.932	76.25
245.166	72.25
245.399	84.25
245.633	89.25
245.866	69.25
246.099	78.25
246.333	97.25
246.566	82.25
246.8	95.25
247.033	87.25
247.266	71.25
247.5	98.25
247.733	80.25
247.966	82.25
248.2	88.25
248.433	85.25
248.666	89.25
248.899	85.25
249.133	76.25
249.366	92.25
249.599	91.25
249.832	81.25
250.066	88.25
250.299	64.25
250.532	77.25
250.765	82.25
250.998	85.25
251.231	86.25
251.465	90.25
251.698	86.25
251.931	86.25
252.164	72.25
252.397	81.25
252.63	101.25
252.863	91.25
253.096	72.25
253.329	96.25
253.562	66.25
253.795	86.25
254.028	98.25
254.261	78.25
254.494	77.25
254.727	95.25
254.96	85.25
255.193	67.25
255.426	68.25
255.659	80.25
255.892	76.25
256.124	76.25
256.357	89.25
256.59	88.25
256.823	74.25
257.056	88.25
257.289	89.25
257.521	78.25
257.754	98.25
257.987	95.25
258.22	97.25
258.452	86.25
258.685	89.25
258.918	101.25
259.151	82.25
259.383	71.25
259.616	94.25
259.849	97.25
260.081	74.25
260.314	82.25
260.547	85.25
260.779	95.25
261.012	96.25
261.244	77.25
261.477	84.25
261.71	91.25
261.942	111.25
262.175	104.25
262.407	86.25
262.64	89.25
262.872	86.25
263.105	90.25
263.337	81.25
263.57	86.25
263.802	97.25
264.035	84.25
264.267	97.25
264.499	89.25
264.732	96.25
264.964	60.25
265.197	76.25
265.429	75.25
265.661	70.25
265.894	82.25
266.126	101.25
266.358	83.25
266.591	79.25
266.823	83.25
267.055	85.25
267.287	92.25
267.52	81.25
267.752	90.25
267.984	82.25
268.216	79.25
268.448	87.25
268.681	71.25
268.913	88.25
269.145	86.25
269.377	79.25
269.609	76.25
269.841	91.25
270.073	84.25
270.306	99.25
270.538	81.25
270.77	83.25
271.002	91.25
271.234	99.25
271.466	100.25
271.698	71.25
271.93	87.25
272.162	85.25
272.394	74.25
272.626	70.25
272.858	80.25
273.09	94.25
273.322	86.25
273.553	81.25
273.785	93.25
274.017	78.25
274.249	85.25
274.481	76.25
274.713	89.25
274.945	92.25
275.176	92.25
275.408	83.25
275.64	91.25
275.872	94.25
276.104	76.25
276.335	76.25
276.567	100.25
276.799	105.25
277.031	108.25
277.262	104.25
277.494	92.25
277.726	72.25
277.957	86.25
278.189	91.25
278.421	86.25
278.652	90.25
278.884	91.25
279.115	83.25
279.347	92.25
279.579	84.25
279.81	101.25
280.042	97.25
280.273	90.25
280.505	91.25
280.736	101.25
280.968	92.25
281.199	86.25
281.431	96.25
281.662	80.25
281.894	87.25
282.125	103.25
282.356	103.25
282.588	124.25
282.819	109.25
283.051	75.25
283.282	88.25
283.513	111.25
283.745	74.25
283.976	78.25
284.207	80.25
284.439	100.25
284.67	85.25
284.901	92.25
285.132	85.25
285.364	68.25
285.595	77.25
285.826	86.25
286.057	96.25
286.288	87.25
286.52	95.25
286.751	91.25
286.982	99.25
287.213	83.25
287.444	84.25
287.675	86.25
287.906	90.25
288.138	83.25
288.369	79.25
288.6	87.25
288.831	71.25
289.062	93.25
289.293	82.25
289.524	95.25
289.755	83.25
289.986	94.25
290.217	94.25
290.448	97.25
290.679	89.25
290.91	93.25
291.141	83.25
291.371	79.25
291.602	80.25
291.833	92.25
292.064	84.25
292.295	94.25
292.526	90.25
292.757	83.25
292.987	98.25
293.218	94.25
293.449	90.25
293.68	98.25
293.91	89.25
294.141	86.25
294.372	87.25
294.603	94.25
294.833	94.25
295.064	80.25
295.295	82.25
295.525	94.25
295.756	103.25
295.987	116.25
296.217	146.25
296.448	127.25
296.679	87.25
296.909	90.25
297.14	93.25
297.37	92.25
297.601	82.25
297.831	79.25
298.062	80.25
298.292	91.25
298.523	97.25
298.753	71.25
298.984	84.25
299.214	86.25
299.445	83.25
299.675	93.25
299.905	90.25
300.136	95.25
300.366	83.25
300.597	81.25
300.827	93.25
301.057	91.25
301.288	96.25
301.518	77.25
301.748	82.25
301.979	105.25
302.209	90.25
302.439	79.25
302.669	102.25
302.9	88.25
303.13	90.25
303.36	93.25
303.59	108.25
303.82	95.25
304.051	95.25
304.281	86.25
304.511	87.25
304.741	85.25
304.971	87.25
305.201	95.25
305.431	94.25
305.661	99.25
305.891	93.25
306.121	88.25
306.352	96.25
306.582	112.25
306.812	110.25
307.042	88.25
307.272	94.25
307.502	96.25
307.731	82.25
307.961	86.25
308.191	88.25
308.421	83.25
308.651	88.25
308.881	95.25
309.111	82.25
309.341	94.25
309.571	103.25
309.8	92.25
310.03	98.25
310.26	92.25
310.49	83.25
310.72	99.25
310.949	101.25
311.179	102.25
311.409	97.25
311.639	99.25
311.868	108.25
312.098	87.25
312.328	86.25
312.557	104.25
312.787	94.25
313.017	107.25
313.246	97.25
313.476	94.25
313.706	110.25
313.935	96.25
314.165	89.25
314.394	88.25
314.624	98.25
314.853	95.25
315.083	111.25
315.312	94.25
315.542	93.25
315.771	86.25
316.001	86.25
316.23	99.25
316.46	102.25
316.689	98.25
316.919	109.25
317.148	97.25
317.377	94.25
317.607	109.25
317.836	96.25
318.065	95.25
318.295	90.25
318.524	93.25
318.753	94.25
318.983	103.25
319.212	100.25
319.441	99.25
319.67	94.25
319.9	96.25
320.129	100.25
320.358	100.25
320.587	100.25
320.816	103.25
321.046	94.25
321.275	103.25
321.504	103.25
321.733	95.25
321.962	99.25
322.191	110.25
322.42	105.25
322.649	110.25
322.878	94.25
323.108	111.25
323.337	104.25
323.566	123.25
323.795	140.25
324.024	175.25
324.253	334.25
324.482	693.25
324.71	1399.25
324.939	1806.25
325.168	650.25
325.397	197.25
325.626	138.25
325.855	120.25
326.084	122.25
326.313	118.25
326.542	139.25
326.77	208.25
326.999	400.25
327.228	804.25
327.457	1382.25
327.686	1110.25
327.914	310.25
328.143	182.25
328.372	154.25
328.6	127.25
328.829	101.25
329.058	125.25
329.287	119.25
329.515	109.25
329.744	116.25
329.972	123.25
330.201	157.25
330.43	197.25
330.658	138.25
330.887	126.25
331.115	110.25
331.344	106.25
331.572	100.25
331.801	105.25
332.03	111.25
332.258	92.25
332.486	107.25
332.715	86.25
332.943	95.25
333.172	100.25
333.4	98.25
333.629	111.25
333.857	127.25
334.085	130.25
334.314	157.25
334.542	238.25
334.771	219.25
334.999	116.25
335.227	99.25
335.455	99.25
335.684	99.25
335.912	88.25
336.14	95.25
336.369	97.25
336.597	94.25
336.825	74.25
337.053	95.25
337.281	99.25
337.51	98.25
337.738	76.25
337.966	105.25
338.194	102.25
338.422	93.25
338.65	98.25
338.878	81.25
339.106	91.25
339.334	103.25
339.562	86.25
339.79	88.25
340.018	82.25
340.246	94.25
340.474	98.25
340.702	93.25
340.93	103.25
341.158	91.25
341.386	96.25
341.614	94.25
341.842	88.25
342.07	101.25
342.298	100.25
342.526	100.25
342.754	87.25
342.981	76.25
343.209	93.25
343.437	99.25
343.665	103.25
343.893	102.25
344.12	106.25
344.348	91.25
344.576	98.25
344.804	103.25
345.031	104.25
345.259	98.25
345.487	92.25
345.714	104.25
345.942	91.25
346.17	82.25
346.397	91.25
346.625	90.25
346.853	80.25
347.08	89.25
347.308	96.25
347.535	102.25
347.763	106.25
347.99	100.25
348.218	111.25
348.445	104.25
348.673	86.25
348.9	98.25
349.128	98.25
349.355	87.25
349.583	88.25
349.81	104.25
350.037	93.25
350.265	89.25
350.492	114.25
350.72	78.25
350.947	110.25
351.174	108.25
351.402	88.25
351.629	93.25
351.856	90.25
352.083	94.25
352.311	106.25
352.538	107.25
352.765	102.25
352.992	102.25
353.22	116.25
353.447	111.25
353.674	103.25
353.901	97.25
354.128	90.25
354.355	93.25
354.583	100.25
354.81	102.25
355.037	97.25
355.264	98.25
355.491	97.25
355.718	89.25
355.945	89.25
356.172	96.25
356.399	103.25
356.626	89.25
356.853	111.25
357.08	102.25
357.307	92.25
357.534	93.25
357.761	91.25
357.988	103.25
358.215	93.25
358.441	98.25
358.668	108.25
358.895	87.25
359.122	92.25
359.349	81.25
359.576	99.25
359.802	109.25
360.029	107.25
360.256	81.25
360.483	111.25
360.709	100.25
360.936	98.25
361.163	91.25
361.39	86.25
361.616	109.25
361.843	80.25
362.07	104.25
362.296	111.25
362.523	95.25
362.749	80.25
362.976	88.25
363.203	92.25
363.429	88.25
363.656	90.25
363.882	93.25
364.109	90.25
364.335	99.25
364.562	96.25
364.788	100.25
365.015	87.25
365.241	83.25
365.468	118.25
365.694	108.25
365.92	99.25
366.147	101.25
366.373	88.25
366.599	94.25
366.826	89.25
367.052	86.25
367.278	80.25
367.505	76.25
367.731	86.25
367.957	85.25
368.184	93.25
368.41	101.25
368.636	115.25
368.862	111.25
369.089	104.25
369.315	91.25
369.541	94.25
369.767	96.25
369.993	91.25
370.219	98.25
370.445	97.25
370.672	87.25
370.898	86.25
371.124	93.25
371.35	92.25
371.576	73.25
371.802	83.25
372.028	97.25
372.254	80.25
372.48	104.25
372.706	78.25
372.932	92.25
373.158	78.25
373.384	94.25
373.61	82.25
373.835	83.25
374.061	91.25
374.287	83.25
374.513	94.25
374.739	85.25
374.965	82.25
375.191	87.25
375.416	100.25
375.642	79.25
375.868	93.25
376.094	88.25
376.319	84.25
376.545	90.25
376.771	94.25
376.997	89.25
377.222	100.25
377.448	108.25
377.674	94.25
377.899	89.25
378.125	76.25
378.35	93.25
378.576	84.25
378.802	84.25
379.027	91.25
379.253	87.25
379.478	96.25
379.704	89.25
379.929	74.25
380.155	102.25
380.38	96.25
380.606	98.25
380.831	100.25
381.057	103.25
381.282	104.25
381.507	99.25
381.733	97.25
381.958	107.25
382.184	110.25
382.409	98.25
382.634	95.25
382.86	86.25
383.085	90.25
383.31	110.25
383.535	99.25
383.761	112.25
383.986	97.25
384.211	103.25
384.436	95.25
384.662	102.25
384.887	127.25
385.112	103.25
385.337	105.25
385.562	108.25
385.787	110.25
386.013	101.25
386.238	125.25
386.463	103.25
386.688	114.25
386.913	107.25
387.138	110.25
387.363	109.25
387.588	104.25
387.813	94.25
388.038	120.25
388.263	106.25
388.488	108.25
388.713	109.25
388.938	95.25
389.163	111.25
389.387	104.25
389.612	103.25
389.837	91.25
390.062	107.25
390.287	108.25
390.512	98.25
390.736	92.25
390.961	90.25
391.186	107.25
391.411	96.25
391.636	85.25
391.86	84.25
392.085	85.25
392.31	73.25
392.534	87.25
392.759	99.25
392.984	92.25
393.208	101.25
393.433	122.25
393.658	126.25
393.882	95.25
394.107	93.25
394.331	88.25
394.556	94.25
394.78	89.25
395.005	101.25
395.229	96.25
395.454	92.25
395.678	93.25
395.903	92.25
396.127	97.25
396.352	90.25
396.576	90.25
396.801	102.25
397.025	117.25
397.249	97.25
397.474	98.25
397.698	72.25
397.922	78.25
398.147	89.25
398.371	89.25
398.595	84.25
398.82	90.25
399.044	97.25
399.268	79.25
399.492	95.25
399.717	93.25
399.941	107.25
400.165	102.25
400.389	86.25
400.613	103.25
400.837	90.25
401.062	84.25
401.286	89.25
401.51	95.25
401.734	81.25
401.958	96.25
402.182	109.25
402.406	127.25
402.63	114.25
402.854	103.25
403.078	88.25
403.302	91.25
403.526	83.25
403.75	86.25
403.974	81.25
404.198	108.25
404.422	113.25
404.645	80.25
404.869	86.25
405.093	88.25
405.317	107.25
405.541	95.25
405.765	96.25
405.988	113.25
406.212	148.25
406.436	187.25
406.66	139.25
406.883	86.25
407.107	71.25
407.331	90.25
407.555	88.25
407.778	86.25
408.002	80.25
408.226	82.25
408.449	88.25
408.673	72.25
408.896	110.25
409.12	98.25
409.344	78.25
409.567	84.25
409.791	110.25
410.014	96.25
410.238	91.25
410.461	84.25
410.685	98.25
410.908	101.25
411.132	109.25
411.355	107.25
411.578	98.25
411.802	90.25
412.025	97.25
412.249	93.25
412.472	96.25
412.695	112.25
412.919	88.25
413.142	81.25
413.365	94.25
413.589	103.25
413.812	88.25
414.035	108.25
414.258	100.25
414.482	94.25
414.705	108.25
414.928	91.25
415.151	93.25
415.374	103.25
415.597	83.25
415.821	102.25
416.044	96.25
416.267	84.25
416.49	96.25
416.713	93.25
416.936	92.25
417.159	90.25
417.382	75.25
417.605	85.25
417.828	92.25
418.051	80.25
418.274	91.25
418.497	95.25
418.72	76.25
418.943	80.25
419.166	99.25
419.389	89.25
419.611	85.25
419.834	90.25
420.057	87.25
420.28	92.25
420.503	90.25
420.726	91.25
420.948	96.25
421.171	92.25
421.394	79.25
421.617	97.25
421.839	92.25
422.062	83.25
422.285	84.25
422.507	93.25
422.73	116.25
422.953	98.25
423.175	95.25
423.398	96.25
423.621	84.25
423.843	88.25
424.066	80.25
424.288	93.25
424.511	86.25
424.733	93.25
424.956	115.25
425.178	102.25
425.401	98.25
425.623	95.25
425.846	100.25
426.068	94.25
426.291	97.25
426.513	94.25
426.735	84.25
426.958	92.25
427.18	106.25
427.402	132.25
427.625	141.25
427.847	141.25
428.069	117.25
428.292	97.25
428.514	88.25
428.736	78.25
428.958	92.25
429.181	89.25
429.403	89.25
429.625	97.25
429.847	98.25
430.069	73.25
430.292	92.25
430.514	88.25
430.736	92.25
430.958	83.25
431.18	83.25
431.402	92.25
431.624	87.25
431.846	90.25
432.068	87.25
432.29	92.25
432.512	102.25
432.734	90.25
432.956	99.25
433.178	93.25
433.4	98.25
433.622	90.25
433.844	92.25
434.066	108.25
434.287	102.25
434.509	84.25
434.731	85.25
434.953	67.25
435.175	88.25
435.397	100.25
435.618	94.25
435.84	102.25
436.062	112.25
436.284	104.25
436.505	102.25
436.727	82.25
436.949	97.25
437.17	90.25
437.392	104.25
437.614	95.25
437.835	99.25
438.057	116.25
438.278	98.25
438.5	103.25
438.721	115.25
438.943	103.25
439.165	93.25
439.386	84.25
439.608	92.25
439.829	88.25
440.05	115.25
440.272	123.25
440.493	93.25
440.715	83.25
440.936	87.25
441.158	102.25
441.379	90.25
441.6	95.25
441.822	100.25
442.043	96.25
442.264	96.25
442.486	91.25
442.707	97.25
442.928	97.25
443.149	120.25
443.371	114.25
443.592	111.25
443.813	113.25
444.034	108.25
444.255	97.25
444.476	99.25
444.698	94.25
444.919	80.25
445.14	123.25
445.361	116.25
445.582	96.25
445.803	109.25
446.024	128.25
446.245	118.25
446.466	101.25
446.687	102.25
446.908	93.25
447.129	94.25
447.35	91.25
447.571	91.25
447.792	81.25
448.013	98.25
448.234	94.25
448.455	98.25
448.675	112.25
448.896	111.25
449.117	92.25
449.338	105.25
449.559	117.25
449.779	128.25
450	86.25
450.221	85.25
450.442	92.25
450.662	96.25
450.883	115.25
451.104	93.25
451.324	94.25
451.545	89.25
451.766	80.25
451.986	87.25
452.207	70.25
452.428	86.25
452.648	94.25
452.869	105.25
453.089	97.25
453.31	98.25
453.53	96.25
453.751	82.25
453.971	93.25
454.192	99.25
454.412	87.25
454.633	90.25
454.853	97.25
455.073	90.25
455.294	82.25
455.514	108.25
455.734	89.25
455.955	91.25
456.175	89.25
456.395	79.25
456.616	83.25
456.836	87.25
457.056	93.25
457.276	85.25
457.497	91.25
457.717	93.25
457.937	101.25
458.157	76.25
458.377	91.25
458.598	100.25
458.818	130.25
459.038	128.25
459.258	98.25
459.478	89.25
459.698	83.25
459.918	91.25
460.138	91.25
460.358	86.25
460.578	82.25
460.798	90.25
461.018	92.25
461.238	90.25
461.458	94.25
461.678	72.25
461.898	85.25
462.118	82.25
462.338	83.25
462.558	93.25
462.777	92.25
462.997	89.25
463.217	87.25
463.437	74.25
463.657	76.25
463.876	95.25
464.096	82.25
464.316	93.25
464.536	107.25
464.755	99.25
464.975	97.25
465.195	128.25
465.414	127.25
465.634	97.25
465.854	84.25
466.073	96.25
466.293	104.25
466.512	95.25
466.732	88.25
466.951	84.25
467.171	87.25
467.391	108.25
467.61	104.25
467.829	102.25
468.049	118.25
468.268	140.25
468.488	99.25
468.707	102.25
468.927	82.25
469.146	75.25
469.365	86.25
469.585	77.25
469.804	95.25
470.023	79.25
470.243	89.25
470.462	95.25
470.681	87.25
470.901	84.25
471.12	82.25
471.339	85.25
471.558	79.25
471.777	94.25
471.997	94.25
472.216	178.25
472.435	286.25
472.654	131.25
472.873	80.25
473.092	87.25
473.311	109.25
473.53	107.25
473.749	85.25
473.968	90.25
474.187	100.25
474.406	104.25
474.625	82.25
474.844	78.25
475.063	89.25
475.282	88.25
475.501	96.25
475.72	95.25
475.939	104.25
476.158	94.25
476.377	92.25
476.596	87.25
476.814	92.25
477.033	101.25
477.252	91.25
477.471	103.25
477.69	93.25
477.908	89.25
478.127	101.25
478.346	95.25
478.564	98.25
478.783	97.25
479.002	85.25
479.22	98.25
479.439	96.25
479.658	100.25
479.876	96.25
480.095	94.25
480.313	97.25
480.532	102.25
480.751	102.25
480.969	196.25
481.188	458.25
481.406	289.25
481.624	117.25
481.843	90.25
482.061	86.25
482.28	83.25
482.498	94.25
482.717	94.25
482.935	86.25
483.153	89.25
483.372	85.25
483.59	87.25
483.808	81.25
484.027	86.25
484.245	96.25
484.463	101.25
484.681	97.25
484.9	95.25
485.118	94.25
485.336	98.25
485.554	104.25
485.772	112.25
485.99	119.25
486.209	101.25
486.427	109.25
486.645	116.25
486.863	108.25
487.081	123.25
487.299	96.25
487.517	116.25
487.735	98.25
487.953	93.25
488.171	106.25
488.389	82.25
488.607	104.25
488.825	109.25
489.043	101.25
489.261	80.25
489.479	89.25
489.696	87.25
489.914	92.25
490.132	79.25
490.35	88.25
490.568	96.25
490.786	98.25
491.003	90.25
491.221	90.25
491.439	82.25
491.657	85.25
491.874	80.25
492.092	85.25
492.31	80.25
492.527	99.25
492.745	99.25
492.963	96.25
493.18	91.25
493.398	87.25
493.615	107.25
493.833	82.25
494.05	82.25
494.268	83.25
494.485	91.25
494.703	100.25
494.92	86.25
495.138	103.25
495.355	99.25
495.573	93.25
495.79	71.25
496.008	96.25
496.225	84.25
496.442	95.25
496.66	87.25
496.877	77.25
497.094	90.25
497.312	100.25
497.529	99.25
497.746	88.25
497.963	90.25
498.181	82.25
498.398	115.25
498.615	109.25
498.832	110.25
499.049	105.25
499.267	90.25
499.484	86.25
499.701	85.25
499.918	99.25
500.135	97.25
500.352	93.25
500.569	102.25
500.786	95.25
501.003	101.25
501.22	95.25
501.437	83.25
501.654	87.25
501.871	117.25
502.088	104.25
502.305	99.25
502.522	102.25
502.739	99.25
502.956	90.25
503.172	93.25
503.389	99.25
503.606	102.25
503.823	82.25
504.04	102.25
504.256	92.25
504.473	86.25
504.69	94.25
504.907	98.25
505.123	90.25
505.34	91.25
505.557	90.25
505.773	91.25
505.99	87.25
506.207	90.25
506.423	90.25
506.64	94.25
506.856	97.25
507.073	90.25
507.289	100.25
507.506	91.25
507.722	106.25
507.939	103.25
508.155	100.25
508.372	91.25
508.588	94.25
508.805	113.25
509.021	90.25
509.238	99.25
509.454	107.25
509.67	96.25
509.887	101.25
510.103	116.25
510.319	192.25
510.536	644.25
510.752	1918.25
510.968	534.25
511.184	135.25
511.401	104.25
511.617	92.25
511.833	79.25
512.049	95.25
512.265	85.25
512.481	85.25
512.698	97.25
512.914	94.25
513.13	87.25
513.346	78.25
513.562	93.25
513.778	98.25
513.994	95.25
514.21	100.25
514.426	110.25
514.642	119.25
514.858	123.25
515.074	133.25
