Data from Circ_1993_H10_HRD10591_00100.txt Node
Date: Wed Jan 03 11:44:22 EST 2024
User: Yrep
Spectrometer: HR+D1059
Trigger mode: 1
Integration Time (sec): 1.000000E-1
Scans to average: 1
Electric dark correction enabled: true
Nonlinearity correction enabled: false
Boxcar width: 0
XAxis mode: Wavelengths
Number of Pixels in Spectrum: 2048
>>>>>Begin Spectral Data<<<<<
223.165	-19.56
223.4	-19.56
223.635	-19.56
223.869	-16.56
224.104	-24.56
224.338	-14.56
224.573	-15.56
224.808	-23.56
225.042	-17.56
225.277	-10.56
225.511	-15.56
225.746	7.44
225.98	0.44
226.215	20.44
226.449	20.44
226.683	23.44
226.918	38.44
227.152	47.44
227.387	26.44
227.621	43.44
227.856	59.44
228.09	53.44
228.324	61.44
228.559	35.44
228.793	148.44
229.027	440.44
229.262	512.44
229.496	599.44
229.73	760.44
229.964	776.44
230.199	516.44
230.433	450.44
230.667	475.44
230.901	445.44
231.136	424.44
231.37	463.44
231.604	435.44
231.838	444.44
232.072	441.44
232.306	468.44
232.541	476.44
232.775	472.44
233.009	495.44
233.243	483.44
233.477	483.44
233.711	499.44
233.945	512.44
234.179	522.44
234.413	498.44
234.647	513.44
234.881	509.44
235.115	529.44
235.349	557.44
235.583	571.44
235.817	583.44
236.051	617.44
236.285	590.44
236.519	610.44
236.753	713.44
236.987	878.44
237.221	1309.44
237.455	1415.44
237.689	904.44
237.922	761.44
238.156	711.44
238.39	680.44
238.624	652.44
238.858	640.44
239.091	652.44
239.325	688.44
239.559	692.44
239.793	736.44
240.027	775.44
240.26	907.44
240.494	972.44
240.728	973.44
240.961	884.44
241.195	811.44
241.429	767.44
241.662	766.44
241.896	786.44
242.13	836.44
242.363	811.44
242.597	809.44
242.83	859.44
243.064	832.44
243.298	848.44
243.531	863.44
243.765	860.44
243.998	866.44
244.232	881.44
244.465	896.44
244.699	919.44
244.932	931.44
245.166	912.44
245.399	931.44
245.633	939.44
245.866	934.44
246.099	960.44
246.333	958.44
246.566	996.44
246.8	1005.44
247.033	1000.44
247.266	1086.44
247.5	1110.44
247.733	1172.44
247.966	1152.44
248.2	1180.44
248.433	1212.44
248.666	1250.44
248.899	1338.44
249.133	1465.44
249.366	1469.44
249.599	1380.44
249.832	1327.44
250.066	1475.44
250.299	1674.44
250.532	1954.44
250.765	2067.44
250.998	1995.44
251.231	1780.44
251.465	1570.44
251.698	1511.44
251.931	1471.44
252.164	1456.44
252.397	1476.44
252.63	1481.44
252.863	1548.44
253.096	1698.44
253.329	1741.44
253.562	1689.44
253.795	1628.44
254.028	1560.44
254.261	1638.44
254.494	1896.44
254.727	2142.44
254.96	2244.44
255.193	2036.44
255.426	1986.44
255.659	2084.44
255.892	2568.44
256.124	3123.44
256.357	2820.44
256.59	2303.44
256.823	1999.44
257.056	1845.44
257.289	1794.44
257.521	1759.44
257.754	1698.44
257.987	1691.44
258.22	1648.44
258.452	1653.44
258.685	1675.44
258.918	1618.44
259.151	1700.44
259.383	1770.44
259.616	1747.44
259.849	1829.44
260.081	1905.44
260.314	2123.44
260.547	2012.44
260.779	1903.44
261.012	1793.44
261.244	1716.44
261.477	1719.44
261.71	1721.44
261.942	1795.44
262.175	1828.44
262.407	1789.44
262.64	1726.44
262.872	1731.44
263.105	1704.44
263.337	1696.44
263.57	1718.44
263.802	1699.44
264.035	1719.44
264.267	1729.44
264.499	1738.44
264.732	1758.44
264.964	1758.44
265.197	1769.44
265.429	1737.44
265.661	1759.44
265.894	1781.44
266.126	1794.44
266.358	1838.44
266.591	1845.44
266.823	1917.44
267.055	1928.44
267.287	1917.44
267.52	1892.44
267.752	1854.44
267.984	1914.44
268.216	1929.44
268.448	1959.44
268.681	2041.44
268.913	2112.44
269.145	2352.44
269.377	2390.44
269.609	2260.44
269.841	2260.44
270.073	2401.44
270.306	2593.44
270.538	2749.44
270.77	2603.44
271.002	2504.44
271.234	2479.44
271.466	2621.44
271.698	2680.44
271.93	2709.44
272.162	2752.44
272.394	2608.44
272.626	2504.44
272.858	2372.44
273.09	2305.44
273.322	2314.44
273.553	2277.44
273.785	2296.44
274.017	2284.44
274.249	2321.44
274.481	2329.44
274.713	2337.44
274.945	2370.44
275.176	2336.44
275.408	2352.44
275.64	2364.44
275.872	2401.44
276.104	2391.44
276.335	2399.44
276.567	2528.44
276.799	2683.44
277.031	2901.44
277.262	3084.44
277.494	2913.44
277.726	2719.44
277.957	2648.44
278.189	2543.44
278.421	2468.44
278.652	2460.44
278.884	2489.44
279.115	2474.44
279.347	2508.44
279.579	2531.44
279.81	2570.44
280.042	2544.44
280.273	2687.44
280.505	2692.44
280.736	2628.44
280.968	2564.44
281.199	2557.44
281.431	2528.44
281.662	2580.44
281.894	2589.44
282.125	2614.44
282.356	2797.44
282.588	2923.44
282.819	2772.44
283.051	2601.44
283.282	2641.44
283.513	2665.44
283.745	2703.44
283.976	2790.44
284.207	2713.44
284.439	2695.44
284.67	2719.44
284.901	2731.44
285.132	2714.44
285.364	2679.44
285.595	2741.44
285.826	2743.44
286.057	2769.44
286.288	2771.44
286.52	2734.44
286.751	2792.44
286.982	2793.44
287.213	2806.44
287.444	2803.44
287.675	2916.44
287.906	3023.44
288.138	2983.44
288.369	2990.44
288.6	2978.44
288.831	2968.44
289.062	2955.44
289.293	2965.44
289.524	2906.44
289.755	2885.44
289.986	2867.44
290.217	2924.44
290.448	2910.44
290.679	2863.44
290.91	2900.44
291.141	2898.44
291.371	2914.44
291.602	2893.44
291.833	2867.44
292.064	2869.44
292.295	2894.44
292.526	2883.44
292.757	2896.44
292.987	2864.44
293.218	2903.44
293.449	2924.44
293.68	2948.44
293.91	2913.44
294.141	2848.44
294.372	2909.44
294.603	2927.44
294.833	2967.44
295.064	2966.44
295.295	2943.44
295.525	2966.44
295.756	3020.44
295.987	3063.44
296.217	3277.44
296.448	3209.44
296.679	3079.44
296.909	2991.44
297.14	3098.44
297.37	3077.44
297.601	3115.44
297.831	3097.44
298.062	3115.44
298.292	3138.44
298.523	3185.44
298.753	3202.44
298.984	3155.44
299.214	3152.44
299.445	3147.44
299.675	3189.44
299.905	3224.44
300.136	3259.44
300.366	3254.44
300.597	3271.44
300.827	3336.44
301.057	3418.44
301.288	3428.44
301.518	3409.44
301.748	3404.44
301.979	3492.44
302.209	3509.44
302.439	3450.44
302.669	3402.44
302.9	3353.44
303.13	3377.44
303.36	3424.44
303.59	3519.44
303.82	3584.44
304.051	3493.44
304.281	3424.44
304.511	3384.44
304.741	3371.44
304.971	3352.44
305.201	3352.44
305.431	3420.44
305.661	3397.44
305.891	3384.44
306.121	3370.44
306.352	3434.44
306.582	3419.44
306.812	3371.44
307.042	3401.44
307.272	3481.44
307.502	3533.44
307.731	3494.44
307.961	3475.44
308.191	3400.44
308.421	3418.44
308.651	3483.44
308.881	3440.44
309.111	3413.44
309.341	3406.44
309.571	3542.44
309.8	3575.44
310.03	3623.44
310.26	3705.44
310.49	3680.44
310.72	3820.44
310.949	3936.44
311.179	3813.44
311.409	3774.44
311.639	3774.44
311.868	3744.44
312.098	3771.44
312.328	3934.44
312.557	4038.44
312.787	4097.44
313.017	3958.44
313.246	3871.44
313.476	3844.44
313.706	3880.44
313.935	3926.44
314.165	4057.44
314.394	4095.44
314.624	3993.44
314.853	3912.44
315.083	3849.44
315.312	3867.44
315.542	3839.44
315.771	3876.44
316.001	3753.44
316.23	3816.44
316.46	3802.44
316.689	3908.44
316.919	3889.44
317.148	3900.44
317.377	3855.44
317.607	3895.44
317.836	3824.44
318.065	3832.44
318.295	3844.44
318.524	3839.44
318.753	3810.44
318.983	3868.44
319.212	3792.44
319.441	3905.44
319.67	3963.44
319.9	3827.44
320.129	3852.44
320.358	3861.44
320.587	3850.44
320.816	4041.44
321.046	4035.44
321.275	3957.44
321.504	3968.44
321.733	3960.44
321.962	4089.44
322.191	4130.44
322.42	4226.44
322.649	4316.44
322.878	4437.44
323.108	4521.44
323.337	4741.44
323.566	4910.44
323.795	5155.44
324.024	5708.44
324.253	7311.44
324.482	10975.44
324.71	15206.44
324.939	15621.44
325.168	13048.44
325.397	6711.44
325.626	5481.44
325.855	5145.44
326.084	5028.44
326.313	5020.44
326.542	5160.44
326.77	5851.44
326.999	7269.44
327.228	10467.44
327.457	14561.44
327.686	13927.44
327.914	7983.44
328.143	6980.44
328.372	6967.44
328.6	6320.44
328.829	5932.44
329.058	6114.44
329.287	6133.44
329.515	5897.44
329.744	6164.44
329.972	6933.44
330.201	8107.44
330.43	8848.44
330.658	7455.44
330.887	6749.44
331.115	6181.44
331.344	5613.44
331.572	5425.44
331.801	5507.44
332.03	5573.44
332.258	5503.44
332.486	5507.44
332.715	5633.44
332.943	5850.44
333.172	6093.44
333.4	6323.44
333.629	6678.44
333.857	7226.44
334.085	8045.44
334.314	9349.44
334.542	10995.44
334.771	10271.44
334.999	7474.44
335.227	6423.44
335.455	5977.44
335.684	5743.44
335.912	5555.44
336.14	5415.44
336.369	5370.44
336.597	5335.44
336.825	5327.44
337.053	5167.44
337.281	5125.44
337.51	4970.44
337.738	4983.44
337.966	4978.44
338.194	4891.44
338.422	4859.44
338.65	4747.44
338.878	4720.44
339.106	4695.44
339.334	4765.44
339.562	4594.44
339.79	4549.44
340.018	4568.44
340.246	4640.44
340.474	4600.44
340.702	4596.44
340.93	4559.44
341.158	4558.44
341.386	4537.44
341.614	4600.44
341.842	4561.44
342.07	4429.44
342.298	4479.44
342.526	4489.44
342.754	4476.44
342.981	4482.44
343.209	4558.44
343.437	4753.44
343.665	5020.44
343.893	5245.44
344.12	5295.44
344.348	5085.44
344.576	4922.44
344.804	4821.44
345.031	4777.44
345.259	4731.44
345.487	4600.44
345.714	4565.44
345.942	4413.44
346.17	4376.44
346.397	4287.44
346.625	4323.44
346.853	4286.44
347.08	4233.44
347.308	4375.44
347.535	4411.44
347.763	4474.44
347.99	4431.44
348.218	4405.44
348.445	4443.44
348.673	4327.44
348.9	4324.44
349.128	4290.44
349.355	4207.44
349.583	4174.44
349.81	4218.44
350.037	4140.44
350.265	4154.44
350.492	4180.44
350.72	4163.44
350.947	4187.44
351.174	4267.44
351.402	4366.44
351.629	4259.44
351.856	4269.44
352.083	4262.44
352.311	4380.44
352.538	4387.44
352.765	4359.44
352.992	4270.44
353.22	4187.44
353.447	4207.44
353.674	4121.44
353.901	4123.44
354.128	4101.44
354.355	4068.44
354.583	4107.44
354.81	4052.44
355.037	4068.44
355.264	4058.44
355.491	4075.44
355.718	4104.44
355.945	4078.44
356.172	4114.44
356.399	4084.44
356.626	4129.44
356.853	4093.44
357.08	4067.44
357.307	4140.44
357.534	4031.44
357.761	4060.44
357.988	4080.44
358.215	4083.44
358.441	4099.44
358.668	4134.44
358.895	4154.44
359.122	4212.44
359.349	4287.44
359.576	4399.44
359.802	4599.44
360.029	4723.44
360.256	4747.44
360.483	4495.44
360.709	4403.44
360.936	4347.44
361.163	4336.44
361.39	4368.44
361.616	4329.44
361.843	4307.44
362.07	4322.44
362.296	4321.44
362.523	4264.44
362.749	4312.44
362.976	4237.44
363.203	4194.44
363.429	4164.44
363.656	4183.44
363.882	4184.44
364.109	4174.44
364.335	4091.44
364.562	4255.44
364.788	4117.44
365.015	4183.44
365.241	4175.44
365.468	4194.44
365.694	4225.44
365.92	4218.44
366.147	4181.44
366.373	4242.44
366.599	4175.44
366.826	4154.44
367.052	4111.44
367.278	4171.44
367.505	4180.44
367.731	4210.44
367.957	4190.44
368.184	4270.44
368.41	4296.44
368.636	4371.44
368.862	4384.44
369.089	4298.44
369.315	4259.44
369.541	4232.44
369.767	4306.44
369.993	4315.44
370.219	4312.44
370.445	4355.44
370.672	4338.44
370.898	4336.44
371.124	4425.44
371.35	4379.44
371.576	4399.44
371.802	4399.44
372.028	4356.44
372.254	4385.44
372.48	4490.44
372.706	4535.44
372.932	4558.44
373.158	4524.44
373.384	4484.44
373.61	4443.44
373.835	4439.44
374.061	4376.44
374.287	4547.44
374.513	4627.44
374.739	4713.44
374.965	4782.44
375.191	4906.44
375.416	4762.44
375.642	4608.44
375.868	4575.44
376.094	4478.44
376.319	4494.44
376.545	4472.44
376.771	4434.44
376.997	4393.44
377.222	4428.44
377.448	4395.44
377.674	4425.44
377.899	4337.44
378.125	4356.44
378.35	4369.44
378.576	4371.44
378.802	4299.44
379.027	4409.44
379.253	4308.44
379.478	4360.44
379.704	4356.44
379.929	4448.44
380.155	4451.44
380.38	4406.44
380.606	4443.44
380.831	4420.44
381.057	4370.44
381.282	4401.44
381.507	4392.44
381.733	4511.44
381.958	4455.44
382.184	4567.44
382.409	4639.44
382.634	4633.44
382.86	4700.44
383.085	4684.44
383.31	4736.44
383.535	4778.44
383.761	4931.44
383.986	4914.44
384.211	5008.44
384.436	5118.44
384.662	5240.44
384.887	5255.44
385.112	5259.44
385.337	5252.44
385.562	5343.44
385.787	5361.44
386.013	5351.44
386.238	5389.44
386.463	5349.44
386.688	5332.44
386.913	5260.44
387.138	5237.44
387.363	5264.44
387.588	5244.44
387.813	5289.44
388.038	5188.44
388.263	5231.44
388.488	5243.44
388.713	5276.44
388.938	5234.44
389.163	5186.44
389.387	5171.44
389.612	5141.44
389.837	5147.44
390.062	5170.44
390.287	5254.44
390.512	5246.44
390.736	5246.44
390.961	5318.44
391.186	5449.44
391.411	5641.44
391.636	5665.44
391.86	5872.44
392.085	5919.44
392.31	5759.44
392.534	5661.44
392.759	5624.44
392.984	5588.44
393.208	5423.44
393.433	5465.44
393.658	5468.44
393.882	5475.44
394.107	5450.44
394.331	5480.44
394.556	5540.44
394.78	5657.44
395.005	5633.44
395.229	5652.44
395.454	5841.44
395.678	5936.44
395.903	5870.44
396.127	6016.44
396.352	5805.44
396.576	5648.44
396.801	5632.44
397.025	5652.44
397.249	5821.44
397.474	5895.44
397.698	5952.44
397.922	6137.44
398.147	6188.44
398.371	6230.44
398.595	6368.44
398.82	6712.44
399.044	7284.44
399.268	8083.44
399.492	9067.44
399.717	9604.44
399.941	9424.44
400.165	8811.44
400.389	8119.44
400.613	7374.44
400.837	6978.44
401.062	6795.44
401.286	6677.44
401.51	6636.44
401.734	6590.44
401.958	6752.44
402.182	6840.44
402.406	6995.44
402.63	7025.44
402.854	7162.44
403.078	7251.44
403.302	7368.44
403.526	7511.44
403.75	7552.44
403.974	7638.44
404.198	7597.44
404.422	7725.44
404.645	7749.44
404.869	7939.44
405.093	8396.44
405.317	8882.44
405.541	8763.44
405.765	7979.44
405.988	7687.44
406.212	7696.44
406.436	7835.44
406.66	7957.44
406.883	7896.44
407.107	8469.44
407.331	8978.44
407.555	9454.44
407.778	9175.44
408.002	8415.44
408.226	7997.44
408.449	7929.44
408.673	7851.44
408.896	7919.44
409.12	7961.44
409.344	7616.44
409.567	7386.44
409.791	7283.44
410.014	7145.44
410.238	7149.44
410.461	7190.44
410.685	7227.44
410.908	7271.44
411.132	7595.44
411.355	7537.44
411.578	7178.44
411.802	7067.44
412.025	7194.44
412.249	7517.44
412.472	8095.44
412.695	8503.44
412.919	7836.44
413.142	7422.44
413.365	7067.44
413.589	6965.44
413.812	6852.44
414.035	6631.44
414.258	6712.44
414.482	6752.44
414.705	6701.44
414.928	6675.44
415.151	6624.44
415.374	6505.44
415.597	6583.44
415.821	6499.44
416.044	6530.44
416.267	6499.44
416.49	6448.44
416.713	6315.44
416.936	6510.44
417.159	6476.44
417.382	6585.44
417.605	6735.44
417.828	6786.44
418.051	6864.44
418.274	6663.44
418.497	6554.44
418.72	6756.44
418.943	6747.44
419.166	7121.44
419.389	7518.44
419.611	7396.44
419.834	7380.44
420.057	7343.44
420.28	7468.44
420.503	7290.44
420.726	7097.44
420.948	7155.44
421.171	7437.44
421.394	7225.44
421.617	6834.44
421.839	6679.44
422.062	6835.44
422.285	6979.44
422.507	7500.44
422.73	8038.44
422.953	7461.44
423.175	7098.44
423.398	7146.44
423.621	7164.44
423.843	7331.44
424.066	7280.44
424.288	7198.44
424.511	7388.44
424.733	7901.44
424.956	8169.44
425.178	7760.44
425.401	7831.44
425.623	7771.44
425.846	6833.44
426.068	6705.44
426.291	6632.44
426.513	6655.44
426.735	6764.44
426.958	7247.44
427.18	7968.44
427.402	9115.44
427.625	9344.44
427.847	8475.44
428.069	8006.44
428.292	7027.44
428.514	6333.44
428.736	6213.44
428.958	6174.44
429.181	5965.44
429.403	5967.44
429.625	6109.44
429.847	6421.44
430.069	6909.44
430.292	6519.44
430.514	5929.44
430.736	6016.44
430.958	5853.44
431.18	5755.44
431.402	5776.44
431.624	5802.44
431.846	5865.44
432.068	5811.44
432.29	5909.44
432.512	5757.44
432.734	5941.44
432.956	5879.44
433.178	6020.44
433.4	5967.44
433.622	5818.44
433.844	5846.44
434.066	5961.44
434.287	5950.44
434.509	6199.44
434.731	6429.44
434.953	6589.44
435.175	6645.44
435.397	6761.44
435.618	6639.44
435.84	7076.44
436.062	7868.44
436.284	7762.44
436.505	6625.44
436.727	6308.44
436.949	6051.44
437.17	5960.44
437.392	5897.44
437.614	6107.44
437.835	6467.44
438.057	7409.44
438.278	7834.44
438.5	7837.44
438.721	8701.44
438.943	7607.44
439.165	6393.44
439.386	6263.44
439.608	6278.44
439.829	6468.44
440.05	6785.44
440.272	7191.44
440.493	6492.44
440.715	6297.44
440.936	6211.44
441.158	6231.44
441.379	6312.44
441.6	6720.44
441.822	6916.44
442.043	7347.44
442.264	8095.44
442.486	7785.44
442.707	6933.44
442.928	6792.44
443.149	7011.44
443.371	7131.44
443.592	7750.44
443.813	8676.44
444.034	8610.44
444.255	7572.44
444.476	7396.44
444.698	7590.44
444.919	7727.44
445.14	7501.44
445.361	7331.44
445.582	7535.44
445.803	8097.44
446.024	8708.44
446.245	8293.44
446.466	7442.44
446.687	6483.44
446.908	6215.44
447.129	5882.44
447.35	5763.44
447.571	5783.44
447.792	5603.44
448.013	5760.44
448.234	5897.44
448.455	6587.44
448.675	7659.44
448.896	8058.44
449.117	6739.44
449.338	6948.44
449.559	8207.44
449.779	8322.44
450	6437.44
450.221	5845.44
450.442	5586.44
450.662	5573.44
450.883	5597.44
451.104	5703.44
451.324	5483.44
451.545	5408.44
451.766	5321.44
451.986	5222.44
452.207	5140.44
452.428	5195.44
452.648	5145.44
452.869	5192.44
453.089	5286.44
453.31	5338.44
453.53	5185.44
453.751	5143.44
453.971	5136.44
454.192	5300.44
454.412	5041.44
454.633	5049.44
454.853	4994.44
455.073	5056.44
455.294	5409.44
455.514	5904.44
455.734	5426.44
455.955	4869.44
456.175	4847.44
456.395	4777.44
456.616	4753.44
456.836	4768.44
457.056	4715.44
457.276	4684.44
457.497	4884.44
457.717	4784.44
457.937	4920.44
458.157	5019.44
458.377	5071.44
458.598	5504.44
458.818	6147.44
459.038	6831.44
459.258	6697.44
459.478	6060.44
459.698	5923.44
459.918	6006.44
460.138	6163.44
460.358	6320.44
460.578	6383.44
460.798	6475.44
461.018	6458.44
461.238	6313.44
461.458	6317.44
461.678	6326.44
461.898	6444.44
462.118	6451.44
462.338	6865.44
462.558	7004.44
462.777	7280.44
462.997	7827.44
463.217	8179.44
463.437	8005.44
463.657	7540.44
463.876	7263.44
464.096	7293.44
464.316	7314.44
464.536	7301.44
464.755	7117.44
464.975	7060.44
465.195	7155.44
465.414	7249.44
465.634	6336.44
465.854	5999.44
466.073	5826.44
466.293	5628.44
466.512	5500.44
466.732	5349.44
466.951	5441.44
467.171	5417.44
467.391	5513.44
467.61	5541.44
467.829	5565.44
468.049	5866.44
468.268	6180.44
468.488	5615.44
468.707	5331.44
468.927	5267.44
469.146	5288.44
469.365	5268.44
469.585	5258.44
469.804	5490.44
470.023	5615.44
470.243	5557.44
470.462	5718.44
470.681	5743.44
470.901	5728.44
471.12	5609.44
471.339	5583.44
471.558	5562.44
471.777	5561.44
471.997	5587.44
472.216	6592.44
472.435	8456.44
472.654	6835.44
472.873	6010.44
473.092	5675.44
473.311	5461.44
473.53	5439.44
473.749	5519.44
473.968	5992.44
474.187	6861.44
474.406	6411.44
474.625	5552.44
474.844	5313.44
475.063	5283.44
475.282	5319.44
475.501	5325.44
475.72	5362.44
475.939	5349.44
476.158	5431.44
476.377	5444.44
476.596	5367.44
476.814	5561.44
477.033	5691.44
477.252	5714.44
477.471	5778.44
477.69	5932.44
477.908	6001.44
478.127	6167.44
478.346	6243.44
478.564	6315.44
478.783	6401.44
479.002	6555.44
479.22	6562.44
479.439	6696.44
479.658	6753.44
479.876	6868.44
480.095	7181.44
480.313	7639.44
480.532	7533.44
480.751	7629.44
480.969	8504.44
481.188	12056.44
481.406	11730.44
481.624	8709.44
481.843	7724.44
482.061	7191.44
482.28	6943.44
482.498	6669.44
482.717	6546.44
482.935	6481.44
483.153	6425.44
483.372	6339.44
483.59	6318.44
483.808	6340.44
484.027	6269.44
484.245	6400.44
484.463	6319.44
484.681	6429.44
484.9	6439.44
485.118	6492.44
485.336	6554.44
485.554	6629.44
485.772	6585.44
485.99	6656.44
486.209	6627.44
486.427	6687.44
486.645	6760.44
486.863	6829.44
487.081	6850.44
487.299	6748.44
487.517	6652.44
487.735	6694.44
