Data from Circ_1993_H10_HRD10591_00086.txt Node
Date: Wed Jan 03 11:44:19 EST 2024
User: Yrep
Spectrometer: HR+D1059
Trigger mode: 1
Integration Time (sec): 1.000000E-1
Scans to average: 1
Electric dark correction enabled: true
Nonlinearity correction enabled: false
Boxcar width: 0
XAxis mode: Wavelengths
Number of Pixels in Spectrum: 2048
>>>>>Begin Spectral Data<<<<<
223.165	-16.44
223.4	-16.44
223.635	-16.44
223.869	-22.44
224.104	-13.44
224.338	-18.44
224.573	-17.44
224.808	-3.44
225.042	9.56
225.277	-17.44
225.511	-0.44
225.746	-12.44
225.98	2.56
226.215	5.56
226.449	14.56
226.683	21.56
226.918	30.56
227.152	37.56
227.387	31.56
227.621	38.56
227.856	32.56
228.09	41.56
228.324	43.56
228.559	54.56
228.793	47.56
229.027	72.56
229.262	62.56
229.496	58.56
229.73	67.56
229.964	67.56
230.199	59.56
230.433	66.56
230.667	68.56
230.901	63.56
231.136	86.56
231.37	74.56
231.604	84.56
231.838	74.56
232.072	84.56
232.306	82.56
232.541	89.56
232.775	81.56
233.009	80.56
233.243	75.56
233.477	83.56
233.711	73.56
233.945	76.56
234.179	86.56
234.413	80.56
234.647	83.56
234.881	74.56
235.115	77.56
235.349	84.56
235.583	70.56
235.817	72.56
236.051	84.56
236.285	80.56
236.519	76.56
236.753	84.56
236.987	87.56
237.221	89.56
237.455	93.56
237.689	101.56
237.922	69.56
238.156	65.56
238.39	68.56
238.624	73.56
238.858	60.56
239.091	80.56
239.325	85.56
239.559	74.56
239.793	66.56
240.027	63.56
240.26	77.56
240.494	94.56
240.728	81.56
240.961	79.56
241.195	90.56
241.429	67.56
241.662	69.56
241.896	69.56
242.13	76.56
242.363	70.56
242.597	66.56
242.83	61.56
243.064	79.56
243.298	81.56
243.531	72.56
243.765	70.56
243.998	85.56
244.232	78.56
244.465	76.56
244.699	96.56
244.932	68.56
245.166	60.56
245.399	76.56
245.633	80.56
245.866	79.56
246.099	69.56
246.333	78.56
246.566	70.56
246.8	81.56
247.033	78.56
247.266	71.56
247.5	74.56
247.733	88.56
247.966	80.56
248.2	76.56
248.433	84.56
248.666	83.56
248.899	88.56
249.133	79.56
249.366	88.56
249.599	85.56
249.832	77.56
250.066	85.56
250.299	77.56
250.532	80.56
250.765	79.56
250.998	77.56
251.231	74.56
251.465	80.56
251.698	92.56
251.931	81.56
252.164	71.56
252.397	72.56
252.63	78.56
252.863	68.56
253.096	70.56
253.329	84.56
253.562	92.56
253.795	83.56
254.028	78.56
254.261	79.56
254.494	81.56
254.727	78.56
254.96	89.56
255.193	84.56
255.426	82.56
255.659	66.56
255.892	77.56
256.124	78.56
256.357	65.56
256.59	86.56
256.823	74.56
257.056	82.56
257.289	92.56
257.521	92.56
257.754	91.56
257.987	76.56
258.22	89.56
258.452	75.56
258.685	95.56
258.918	90.56
259.151	81.56
259.383	84.56
259.616	82.56
259.849	76.56
260.081	87.56
260.314	86.56
260.547	91.56
260.779	88.56
261.012	76.56
261.244	92.56
261.477	88.56
261.71	85.56
261.942	88.56
262.175	97.56
262.407	80.56
262.64	78.56
262.872	85.56
263.105	82.56
263.337	74.56
263.57	72.56
263.802	77.56
264.035	80.56
264.267	85.56
264.499	78.56
264.732	77.56
264.964	69.56
265.197	82.56
265.429	85.56
265.661	91.56
265.894	91.56
266.126	80.56
266.358	92.56
266.591	76.56
266.823	74.56
267.055	87.56
267.287	63.56
267.52	77.56
267.752	74.56
267.984	77.56
268.216	85.56
268.448	85.56
268.681	86.56
268.913	78.56
269.145	85.56
269.377	87.56
269.609	75.56
269.841	85.56
270.073	94.56
270.306	90.56
270.538	82.56
270.77	86.56
271.002	92.56
271.234	73.56
271.466	77.56
271.698	89.56
271.93	78.56
272.162	80.56
272.394	82.56
272.626	90.56
272.858	81.56
273.09	69.56
273.322	89.56
273.553	92.56
273.785	85.56
274.017	81.56
274.249	74.56
274.481	85.56
274.713	72.56
274.945	78.56
275.176	96.56
275.408	90.56
275.64	82.56
275.872	92.56
276.104	84.56
276.335	84.56
276.567	82.56
276.799	97.56
277.031	99.56
277.262	104.56
277.494	83.56
277.726	79.56
277.957	83.56
278.189	73.56
278.421	67.56
278.652	82.56
278.884	74.56
279.115	85.56
279.347	80.56
279.579	83.56
279.81	88.56
280.042	109.56
280.273	85.56
280.505	77.56
280.736	84.56
280.968	96.56
281.199	96.56
281.431	75.56
281.662	86.56
281.894	87.56
282.125	98.56
282.356	104.56
282.588	112.56
282.819	100.56
283.051	83.56
283.282	85.56
283.513	86.56
283.745	99.56
283.976	99.56
284.207	89.56
284.439	77.56
284.67	75.56
284.901	78.56
285.132	79.56
285.364	76.56
285.595	82.56
285.826	85.56
286.057	72.56
286.288	92.56
286.52	99.56
286.751	92.56
286.982	95.56
287.213	78.56
287.444	82.56
287.675	98.56
287.906	92.56
288.138	98.56
288.369	77.56
288.6	89.56
288.831	79.56
289.062	84.56
289.293	90.56
289.524	96.56
289.755	94.56
289.986	89.56
290.217	75.56
290.448	83.56
290.679	80.56
290.91	83.56
291.141	78.56
291.371	96.56
291.602	90.56
291.833	90.56
292.064	77.56
292.295	82.56
292.526	81.56
292.757	82.56
292.987	87.56
293.218	76.56
293.449	92.56
293.68	93.56
293.91	92.56
294.141	92.56
294.372	87.56
294.603	85.56
294.833	100.56
295.064	82.56
295.295	62.56
295.525	110.56
295.756	84.56
295.987	107.56
296.217	113.56
296.448	111.56
296.679	84.56
296.909	79.56
297.14	85.56
297.37	65.56
297.601	84.56
297.831	91.56
298.062	98.56
298.292	82.56
298.523	82.56
298.753	91.56
298.984	90.56
299.214	89.56
299.445	76.56
299.675	76.56
299.905	85.56
300.136	87.56
300.366	94.56
300.597	86.56
300.827	101.56
301.057	88.56
301.288	110.56
301.518	78.56
301.748	83.56
301.979	103.56
302.209	88.56
302.439	84.56
302.669	97.56
302.9	91.56
303.13	86.56
303.36	78.56
303.59	93.56
303.82	81.56
304.051	90.56
304.281	84.56
304.511	83.56
304.741	81.56
304.971	90.56
305.201	92.56
305.431	96.56
305.661	68.56
305.891	90.56
306.121	80.56
306.352	85.56
306.582	99.56
306.812	91.56
307.042	94.56
307.272	85.56
307.502	91.56
307.731	100.56
307.961	91.56
308.191	100.56
308.421	85.56
308.651	89.56
308.881	98.56
309.111	105.56
309.341	101.56
309.571	85.56
309.8	91.56
310.03	88.56
310.26	98.56
310.49	105.56
310.72	84.56
310.949	89.56
311.179	89.56
311.409	91.56
311.639	85.56
311.868	84.56
312.098	84.56
312.328	91.56
312.557	86.56
312.787	101.56
313.017	92.56
313.246	82.56
313.476	78.56
313.706	90.56
313.935	94.56
314.165	86.56
314.394	91.56
314.624	92.56
314.853	97.56
315.083	86.56
315.312	86.56
315.542	89.56
315.771	83.56
316.001	77.56
316.23	95.56
316.46	90.56
316.689	78.56
316.919	76.56
317.148	86.56
317.377	89.56
317.607	76.56
317.836	88.56
318.065	102.56
318.295	76.56
318.524	79.56
318.753	97.56
318.983	77.56
319.212	94.56
319.441	96.56
319.67	95.56
319.9	84.56
320.129	108.56
320.358	90.56
320.587	88.56
320.816	91.56
321.046	79.56
321.275	100.56
321.504	81.56
321.733	85.56
321.962	109.56
322.191	88.56
322.42	89.56
322.649	110.56
322.878	115.56
323.108	112.56
323.337	122.56
323.566	129.56
323.795	141.56
324.024	175.56
324.253	311.56
324.482	639.56
324.71	1285.56
324.939	1709.56
325.168	618.56
325.397	207.56
325.626	136.56
325.855	116.56
326.084	112.56
326.313	123.56
326.542	136.56
326.77	186.56
326.999	351.56
327.228	753.56
327.457	1366.56
327.686	1048.56
327.914	304.56
328.143	191.56
328.372	170.56
328.6	131.56
328.829	106.56
329.058	114.56
329.287	104.56
329.515	103.56
329.744	118.56
329.972	132.56
330.201	202.56
330.43	234.56
330.658	150.56
330.887	129.56
331.115	118.56
331.344	102.56
331.572	90.56
331.801	98.56
332.03	109.56
332.258	94.56
332.486	95.56
332.715	92.56
332.943	86.56
333.172	92.56
333.4	110.56
333.629	104.56
333.857	115.56
334.085	154.56
334.314	212.56
334.542	306.56
334.771	283.56
334.999	123.56
335.227	109.56
335.455	100.56
335.684	101.56
335.912	99.56
336.14	109.56
336.369	113.56
336.597	100.56
336.825	94.56
337.053	101.56
337.281	87.56
337.51	80.56
337.738	89.56
337.966	94.56
338.194	94.56
338.422	82.56
338.65	88.56
338.878	90.56
339.106	85.56
339.334	96.56
339.562	76.56
339.79	88.56
340.018	94.56
340.246	74.56
340.474	87.56
340.702	82.56
340.93	96.56
341.158	92.56
341.386	96.56
341.614	85.56
341.842	106.56
342.07	83.56
342.298	90.56
342.526	101.56
342.754	94.56
342.981	100.56
343.209	70.56
343.437	102.56
343.665	70.56
343.893	83.56
344.12	89.56
344.348	97.56
344.576	90.56
344.804	78.56
345.031	86.56
345.259	93.56
345.487	102.56
345.714	84.56
345.942	93.56
346.17	102.56
346.397	92.56
346.625	94.56
346.853	100.56
347.08	78.56
347.308	85.56
347.535	93.56
347.763	79.56
347.99	100.56
348.218	103.56
348.445	101.56
348.673	96.56
348.9	90.56
349.128	84.56
349.355	90.56
349.583	80.56
349.81	91.56
350.037	88.56
350.265	101.56
350.492	96.56
350.72	109.56
350.947	93.56
351.174	110.56
351.402	92.56
351.629	92.56
351.856	100.56
352.083	89.56
352.311	106.56
352.538	123.56
352.765	102.56
352.992	96.56
353.22	103.56
353.447	102.56
353.674	99.56
353.901	95.56
354.128	96.56
354.355	88.56
354.583	101.56
354.81	84.56
355.037	93.56
355.264	98.56
355.491	92.56
355.718	92.56
355.945	95.56
356.172	100.56
356.399	93.56
356.626	91.56
356.853	90.56
357.08	89.56
357.307	85.56
357.534	85.56
357.761	89.56
357.988	80.56
358.215	88.56
358.441	97.56
358.668	76.56
358.895	82.56
359.122	103.56
359.349	82.56
359.576	77.56
359.802	84.56
360.029	99.56
360.256	112.56
360.483	90.56
360.709	95.56
360.936	103.56
361.163	76.56
361.39	96.56
361.616	88.56
361.843	74.56
362.07	100.56
362.296	95.56
362.523	99.56
362.749	94.56
362.976	102.56
363.203	94.56
363.429	87.56
363.656	93.56
363.882	82.56
364.109	84.56
364.335	88.56
364.562	80.56
364.788	84.56
365.015	82.56
365.241	86.56
365.468	100.56
365.694	99.56
365.92	91.56
366.147	82.56
366.373	85.56
366.599	91.56
366.826	98.56
367.052	103.56
367.278	88.56
367.505	77.56
367.731	77.56
367.957	84.56
368.184	93.56
368.41	89.56
368.636	108.56
368.862	98.56
369.089	92.56
369.315	90.56
369.541	80.56
369.767	82.56
369.993	93.56
370.219	90.56
370.445	96.56
370.672	90.56
370.898	86.56
371.124	76.56
371.35	86.56
371.576	79.56
371.802	84.56
372.028	106.56
372.254	92.56
372.48	86.56
372.706	92.56
372.932	76.56
373.158	106.56
373.384	85.56
373.61	102.56
373.835	88.56
374.061	87.56
374.287	78.56
374.513	102.56
374.739	80.56
374.965	96.56
375.191	80.56
375.416	88.56
375.642	84.56
375.868	98.56
376.094	97.56
376.319	93.56
376.545	88.56
376.771	91.56
376.997	73.56
377.222	83.56
377.448	87.56
377.674	92.56
377.899	88.56
378.125	96.56
378.35	85.56
378.576	93.56
378.802	92.56
379.027	89.56
379.253	94.56
379.478	88.56
379.704	90.56
379.929	101.56
380.155	89.56
380.38	90.56
380.606	85.56
380.831	101.56
381.057	91.56
381.282	90.56
381.507	100.56
381.733	99.56
381.958	90.56
382.184	104.56
382.409	104.56
382.634	102.56
382.86	106.56
383.085	102.56
383.31	105.56
383.535	92.56
383.761	100.56
383.986	99.56
384.211	89.56
384.436	96.56
384.662	101.56
384.887	93.56
385.112	96.56
385.337	98.56
385.562	101.56
385.787	99.56
386.013	103.56
386.238	103.56
386.463	104.56
386.688	110.56
386.913	90.56
387.138	97.56
387.363	95.56
387.588	108.56
387.813	90.56
388.038	112.56
388.263	101.56
388.488	112.56
388.713	104.56
388.938	100.56
389.163	90.56
389.387	92.56
389.612	96.56
389.837	101.56
390.062	91.56
390.287	96.56
390.512	94.56
390.736	97.56
390.961	91.56
391.186	99.56
391.411	91.56
391.636	95.56
391.86	93.56
392.085	82.56
392.31	104.56
392.534	80.56
392.759	82.56
392.984	88.56
393.208	90.56
393.433	118.56
393.658	105.56
393.882	85.56
394.107	83.56
394.331	89.56
394.556	90.56
394.78	82.56
395.005	81.56
395.229	81.56
395.454	82.56
395.678	93.56
395.903	98.56
396.127	98.56
396.352	109.56
396.576	89.56
396.801	93.56
397.025	102.56
397.249	84.56
397.474	82.56
397.698	88.56
397.922	84.56
398.147	99.56
398.371	85.56
398.595	88.56
398.82	64.56
399.044	75.56
399.268	92.56
399.492	94.56
399.717	82.56
399.941	89.56
400.165	96.56
400.389	80.56
400.613	77.56
400.837	85.56
401.062	80.56
401.286	81.56
401.51	92.56
401.734	94.56
401.958	82.56
402.182	109.56
402.406	147.56
402.63	97.56
402.854	90.56
403.078	97.56
403.302	89.56
403.526	89.56
403.75	88.56
403.974	85.56
404.198	74.56
404.422	94.56
404.645	87.56
404.869	96.56
405.093	88.56
405.317	90.56
405.541	97.56
405.765	102.56
405.988	110.56
406.212	134.56
406.436	174.56
406.66	111.56
406.883	85.56
407.107	92.56
407.331	86.56
407.555	94.56
407.778	94.56
408.002	83.56
408.226	74.56
408.449	84.56
408.673	92.56
408.896	90.56
409.12	70.56
409.344	93.56
409.567	93.56
409.791	84.56
410.014	96.56
410.238	88.56
410.461	74.56
410.685	95.56
410.908	104.56
411.132	107.56
411.355	101.56
411.578	92.56
411.802	82.56
412.025	87.56
412.249	83.56
412.472	85.56
412.695	96.56
412.919	98.56
413.142	86.56
413.365	92.56
413.589	80.56
413.812	88.56
414.035	96.56
414.258	92.56
414.482	86.56
414.705	89.56
414.928	85.56
415.151	85.56
415.374	97.56
415.597	100.56
415.821	92.56
416.044	72.56
416.267	69.56
416.49	90.56
416.713	67.56
416.936	92.56
417.159	87.56
417.382	105.56
417.605	97.56
417.828	95.56
418.051	92.56
418.274	101.56
418.497	94.56
418.72	84.56
418.943	73.56
419.166	85.56
419.389	85.56
419.611	90.56
419.834	76.56
420.057	82.56
420.28	89.56
420.503	96.56
420.726	92.56
420.948	102.56
421.171	87.56
421.394	88.56
421.617	83.56
421.839	93.56
422.062	96.56
422.285	108.56
422.507	97.56
422.73	90.56
422.953	95.56
423.175	93.56
423.398	94.56
423.621	100.56
423.843	79.56
424.066	79.56
424.288	80.56
424.511	85.56
424.733	93.56
424.956	102.56
425.178	89.56
425.401	89.56
425.623	100.56
425.846	88.56
426.068	82.56
426.291	90.56
426.513	95.56
426.735	100.56
426.958	98.56
427.18	105.56
427.402	115.56
427.625	136.56
427.847	136.56
428.069	139.56
428.292	102.56
428.514	84.56
428.736	74.56
428.958	87.56
429.181	85.56
429.403	86.56
429.625	84.56
429.847	73.56
430.069	78.56
430.292	84.56
430.514	86.56
430.736	67.56
430.958	85.56
431.18	94.56
431.402	83.56
431.624	86.56
431.846	83.56
432.068	66.56
432.29	92.56
432.512	74.56
432.734	76.56
432.956	90.56
433.178	92.56
433.4	88.56
433.622	91.56
433.844	96.56
434.066	77.56
434.287	83.56
434.509	97.56
434.731	100.56
434.953	77.56
435.175	89.56
435.397	92.56
435.618	101.56
435.84	102.56
436.062	88.56
436.284	94.56
436.505	91.56
436.727	107.56
436.949	90.56
437.17	92.56
437.392	78.56
437.614	81.56
437.835	101.56
438.057	107.56
438.278	101.56
438.5	92.56
438.721	110.56
438.943	108.56
439.165	86.56
439.386	80.56
439.608	92.56
439.829	96.56
440.05	100.56
440.272	103.56
440.493	87.56
440.715	81.56
440.936	90.56
441.158	87.56
441.379	77.56
441.6	99.56
441.822	95.56
442.043	90.56
442.264	89.56
442.486	75.56
442.707	92.56
442.928	98.56
443.149	112.56
443.371	107.56
443.592	99.56
443.813	102.56
444.034	102.56
444.255	76.56
444.476	88.56
444.698	83.56
444.919	87.56
445.14	120.56
445.361	113.56
445.582	97.56
445.803	109.56
446.024	111.56
446.245	101.56
446.466	108.56
446.687	84.56
446.908	88.56
447.129	98.56
447.35	82.56
447.571	88.56
447.792	92.56
448.013	94.56
448.234	85.56
448.455	89.56
448.675	103.56
448.896	96.56
449.117	89.56
449.338	104.56
449.559	114.56
449.779	101.56
450	79.56
450.221	84.56
450.442	88.56
450.662	99.56
450.883	94.56
451.104	101.56
451.324	108.56
451.545	87.56
451.766	94.56
451.986	90.56
452.207	78.56
452.428	75.56
452.648	93.56
452.869	101.56
453.089	90.56
453.31	92.56
453.53	88.56
453.751	86.56
453.971	87.56
454.192	98.56
454.412	99.56
454.633	83.56
454.853	74.56
455.073	77.56
455.294	75.56
455.514	88.56
455.734	89.56
455.955	76.56
456.175	78.56
456.395	80.56
456.616	85.56
456.836	86.56
457.056	72.56
457.276	91.56
457.497	83.56
457.717	79.56
457.937	88.56
458.157	86.56
458.377	86.56
458.598	101.56
458.818	141.56
459.038	131.56
459.258	90.56
459.478	88.56
459.698	84.56
459.918	84.56
460.138	86.56
460.358	85.56
460.578	82.56
460.798	93.56
461.018	95.56
461.238	95.56
461.458	88.56
461.678	81.56
461.898	83.56
462.118	89.56
462.338	67.56
462.558	96.56
462.777	80.56
462.997	59.56
463.217	86.56
463.437	76.56
463.657	91.56
463.876	90.56
464.096	82.56
464.316	90.56
464.536	86.56
464.755	77.56
464.975	85.56
465.195	129.56
465.414	121.56
465.634	86.56
465.854	75.56
466.073	84.56
466.293	91.56
466.512	80.56
466.732	78.56
466.951	89.56
467.171	94.56
467.391	101.56
467.61	108.56
467.829	96.56
468.049	141.56
468.268	182.56
468.488	110.56
468.707	76.56
468.927	77.56
469.146	97.56
469.365	86.56
469.585	104.56
469.804	93.56
470.023	104.56
470.243	91.56
470.462	92.56
470.681	97.56
470.901	88.56
471.12	84.56
471.339	80.56
471.558	99.56
471.777	118.56
471.997	112.56
472.216	212.56
472.435	389.56
472.654	147.56
472.873	79.56
473.092	74.56
473.311	97.56
473.53	85.56
473.749	85.56
473.968	98.56
474.187	104.56
474.406	105.56
474.625	85.56
474.844	85.56
475.063	92.56
475.282	87.56
475.501	95.56
475.72	94.56
475.939	104.56
476.158	81.56
476.377	69.56
476.596	91.56
476.814	84.56
477.033	89.56
477.252	88.56
477.471	89.56
477.69	83.56
477.908	65.56
478.127	82.56
478.346	79.56
478.564	92.56
478.783	74.56
479.002	83.56
479.22	104.56
479.439	102.56
479.658	96.56
479.876	89.56
480.095	91.56
480.313	76.56
480.532	77.56
480.751	116.56
480.969	230.56
481.188	667.56
481.406	414.56
481.624	129.56
481.843	100.56
482.061	82.56
482.28	89.56
482.498	93.56
482.717	77.56
482.935	84.56
483.153	92.56
483.372	77.56
483.59	84.56
483.808	92.56
484.027	94.56
484.245	88.56
484.463	69.56
484.681	94.56
484.9	98.56
485.118	108.56
485.336	91.56
485.554	92.56
485.772	96.56
485.99	97.56
486.209	107.56
486.427	112.56
486.645	94.56
486.863	100.56
487.081	101.56
487.299	87.56
487.517	102.56
487.735	88.56
487.953	89.56
488.171	81.56
488.389	105.56
488.607	84.56
488.825	93.56
489.043	85.56
489.261	85.56
489.479	89.56
489.696	85.56
489.914	91.56
490.132	96.56
490.35	81.56
490.568	107.56
490.786	92.56
491.003	86.56
491.221	76.56
491.439	98.56
491.657	82.56
491.874	97.56
492.092	84.56
492.31	88.56
492.527	88.56
492.745	87.56
492.963	89.56
493.18	80.56
493.398	88.56
493.615	89.56
493.833	91.56
494.05	83.56
494.268	99.56
494.485	93.56
494.703	83.56
494.92	76.56
495.138	92.56
495.355	91.56
495.573	102.56
495.79	91.56
496.008	89.56
496.225	73.56
496.442	91.56
496.66	88.56
496.877	93.56
497.094	103.56
497.312	74.56
497.529	78.56
497.746	73.56
497.963	89.56
498.181	89.56
498.398	78.56
498.615	120.56
498.832	90.56
499.049	84.56
499.267	86.56
499.484	80.56
499.701	83.56
499.918	96.56
500.135	93.56
500.352	95.56
500.569	87.56
500.786	98.56
501.003	77.56
501.22	90.56
501.437	81.56
501.654	76.56
501.871	107.56
502.088	95.56
502.305	77.56
502.522	80.56
502.739	98.56
502.956	91.56
503.172	88.56
503.389	88.56
503.606	91.56
503.823	84.56
504.04	89.56
504.256	88.56
504.473	82.56
504.69	76.56
504.907	97.56
505.123	85.56
505.34	79.56
505.557	79.56
505.773	89.56
505.99	81.56
506.207	78.56
506.423	87.56
506.64	97.56
506.856	79.56
507.073	92.56
507.289	97.56
507.506	82.56
507.722	95.56
507.939	96.56
508.155	98.56
508.372	96.56
508.588	93.56
508.805	84.56
509.021	78.56
509.238	96.56
509.454	97.56
509.67	77.56
509.887	95.56
510.103	112.56
510.319	168.56
510.536	560.56
510.752	1668.56
510.968	469.56
511.184	130.56
511.401	95.56
511.617	91.56
511.833	90.56
512.049	89.56
512.265	74.56
512.481	94.56
512.698	94.56
512.914	89.56
513.13	90.56
513.346	63.56
513.562	79.56
513.778	88.56
513.994	90.56
514.21	95.56
514.426	92.56
514.642	100.56
514.858	95.56
515.074	122.56
515.29	336.56
515.506	1019.56
515.721	388.56
515.937	125.56
516.153	106.56
516.369	97.56
516.585	90.56
