Data from Circ_1993_H10_HRD10591_00038.txt Node
Date: Wed Jan 03 11:44:09 EST 2024
User: Yrep
Spectrometer: HR+D1059
Trigger mode: 1
Integration Time (sec): 1.000000E-1
Scans to average: 1
Electric dark correction enabled: true
Nonlinearity correction enabled: false
Boxcar width: 0
XAxis mode: Wavelengths
Number of Pixels in Spectrum: 2048
>>>>>Begin Spectral Data<<<<<
223.165	2.12
223.4	2.12
223.635	2.12
223.869	-9.88
224.104	-29.88
224.338	-19.88
224.573	-17.88
224.808	-20.88
225.042	-9.88
225.277	-2.88
225.511	9.12
225.746	-2.88
225.98	5.12
226.215	16.12
226.449	22.12
226.683	16.12
226.918	19.12
227.152	24.12
227.387	40.12
227.621	39.12
227.856	62.12
228.09	52.12
228.324	37.12
228.559	54.12
228.793	54.12
229.027	76.12
229.262	73.12
229.496	73.12
229.73	91.12
229.964	73.12
230.199	84.12
230.433	76.12
230.667	91.12
230.901	92.12
231.136	79.12
231.37	80.12
231.604	61.12
231.838	81.12
232.072	93.12
232.306	96.12
232.541	88.12
232.775	84.12
233.009	80.12
233.243	71.12
233.477	81.12
233.711	86.12
233.945	81.12
234.179	89.12
234.413	75.12
234.647	109.12
234.881	75.12
235.115	78.12
235.349	89.12
235.583	93.12
235.817	84.12
236.051	82.12
236.285	89.12
236.519	82.12
236.753	83.12
236.987	83.12
237.221	91.12
237.455	77.12
237.689	85.12
237.922	81.12
238.156	78.12
238.39	82.12
238.624	82.12
238.858	68.12
239.091	73.12
239.325	83.12
239.559	91.12
239.793	95.12
240.027	85.12
240.26	73.12
240.494	86.12
240.728	73.12
240.961	63.12
241.195	78.12
241.429	66.12
241.662	77.12
241.896	87.12
242.13	85.12
242.363	91.12
242.597	87.12
242.83	75.12
243.064	70.12
243.298	75.12
243.531	78.12
243.765	77.12
243.998	78.12
244.232	69.12
244.465	87.12
244.699	102.12
244.932	89.12
245.166	96.12
245.399	92.12
245.633	77.12
245.866	75.12
246.099	72.12
246.333	73.12
246.566	83.12
246.8	89.12
247.033	93.12
247.266	66.12
247.5	79.12
247.733	85.12
247.966	90.12
248.2	81.12
248.433	77.12
248.666	73.12
248.899	87.12
249.133	75.12
249.366	108.12
249.599	82.12
249.832	93.12
250.066	104.12
250.299	93.12
250.532	74.12
250.765	84.12
250.998	85.12
251.231	84.12
251.465	72.12
251.698	86.12
251.931	81.12
252.164	83.12
252.397	85.12
252.63	72.12
252.863	93.12
253.096	94.12
253.329	84.12
253.562	82.12
253.795	73.12
254.028	90.12
254.261	83.12
254.494	87.12
254.727	88.12
254.96	65.12
255.193	72.12
255.426	87.12
255.659	85.12
255.892	80.12
256.124	81.12
256.357	94.12
256.59	90.12
256.823	79.12
257.056	89.12
257.289	82.12
257.521	90.12
257.754	105.12
257.987	97.12
258.22	85.12
258.452	106.12
258.685	87.12
258.918	100.12
259.151	86.12
259.383	93.12
259.616	93.12
259.849	82.12
260.081	84.12
260.314	91.12
260.547	83.12
260.779	88.12
261.012	86.12
261.244	90.12
261.477	95.12
261.71	95.12
261.942	111.12
262.175	113.12
262.407	84.12
262.64	87.12
262.872	95.12
263.105	97.12
263.337	94.12
263.57	86.12
263.802	90.12
264.035	86.12
264.267	78.12
264.499	95.12
264.732	82.12
264.964	90.12
265.197	89.12
265.429	96.12
265.661	86.12
265.894	84.12
266.126	67.12
266.358	91.12
266.591	89.12
266.823	90.12
267.055	83.12
267.287	86.12
267.52	83.12
267.752	89.12
267.984	102.12
268.216	95.12
268.448	79.12
268.681	80.12
268.913	91.12
269.145	83.12
269.377	80.12
269.609	89.12
269.841	97.12
270.073	73.12
270.306	93.12
270.538	88.12
270.77	84.12
271.002	85.12
271.234	84.12
271.466	78.12
271.698	97.12
271.93	85.12
272.162	83.12
272.394	90.12
272.626	91.12
272.858	96.12
273.09	94.12
273.322	92.12
273.553	86.12
273.785	81.12
274.017	91.12
274.249	96.12
274.481	82.12
274.713	82.12
274.945	82.12
275.176	86.12
275.408	106.12
275.64	82.12
275.872	86.12
276.104	85.12
276.335	76.12
276.567	97.12
276.799	100.12
277.031	102.12
277.262	103.12
277.494	99.12
277.726	96.12
277.957	96.12
278.189	87.12
278.421	92.12
278.652	87.12
278.884	83.12
279.115	83.12
279.347	98.12
279.579	79.12
279.81	98.12
280.042	98.12
280.273	94.12
280.505	94.12
280.736	94.12
280.968	99.12
281.199	94.12
281.431	82.12
281.662	87.12
281.894	97.12
282.125	104.12
282.356	100.12
282.588	122.12
282.819	106.12
283.051	86.12
283.282	87.12
283.513	88.12
283.745	84.12
283.976	80.12
284.207	84.12
284.439	93.12
284.67	79.12
284.901	100.12
285.132	97.12
285.364	86.12
285.595	98.12
285.826	83.12
286.057	81.12
286.288	91.12
286.52	89.12
286.751	88.12
286.982	85.12
287.213	106.12
287.444	89.12
287.675	97.12
287.906	87.12
288.138	91.12
288.369	101.12
288.6	103.12
288.831	94.12
289.062	87.12
289.293	73.12
289.524	93.12
289.755	93.12
289.986	91.12
290.217	89.12
290.448	95.12
290.679	80.12
290.91	84.12
291.141	82.12
291.371	87.12
291.602	89.12
291.833	93.12
292.064	94.12
292.295	88.12
292.526	96.12
292.757	89.12
292.987	81.12
293.218	95.12
293.449	92.12
293.68	80.12
293.91	86.12
294.141	90.12
294.372	87.12
294.603	101.12
294.833	102.12
295.064	88.12
295.295	86.12
295.525	91.12
295.756	115.12
295.987	116.12
296.217	141.12
296.448	115.12
296.679	97.12
296.909	103.12
297.14	94.12
297.37	97.12
297.601	101.12
297.831	89.12
298.062	97.12
298.292	81.12
298.523	104.12
298.753	96.12
298.984	93.12
299.214	99.12
299.445	96.12
299.675	107.12
299.905	109.12
300.136	102.12
300.366	83.12
300.597	89.12
300.827	91.12
301.057	95.12
301.288	106.12
301.518	92.12
301.748	85.12
301.979	106.12
302.209	92.12
302.439	94.12
302.669	83.12
302.9	86.12
303.13	91.12
303.36	79.12
303.59	115.12
303.82	111.12
304.051	88.12
304.281	93.12
304.511	104.12
304.741	94.12
304.971	77.12
305.201	93.12
305.431	93.12
305.661	103.12
305.891	93.12
306.121	107.12
306.352	95.12
306.582	99.12
306.812	104.12
307.042	86.12
307.272	96.12
307.502	105.12
307.731	99.12
307.961	100.12
308.191	99.12
308.421	94.12
308.651	97.12
308.881	102.12
309.111	98.12
309.341	82.12
309.571	88.12
309.8	92.12
310.03	94.12
310.26	85.12
310.49	102.12
310.72	99.12
310.949	106.12
311.179	96.12
311.409	92.12
311.639	101.12
311.868	90.12
312.098	94.12
312.328	101.12
312.557	102.12
312.787	97.12
313.017	106.12
313.246	107.12
313.476	92.12
313.706	112.12
313.935	99.12
314.165	101.12
314.394	111.12
314.624	107.12
314.853	99.12
315.083	105.12
315.312	108.12
315.542	81.12
315.771	103.12
316.001	96.12
316.23	102.12
316.46	88.12
316.689	100.12
316.919	93.12
317.148	84.12
317.377	115.12
317.607	90.12
317.836	91.12
318.065	97.12
318.295	94.12
318.524	89.12
318.753	105.12
318.983	99.12
319.212	100.12
319.441	119.12
319.67	107.12
319.9	99.12
320.129	96.12
320.358	88.12
320.587	110.12
320.816	111.12
321.046	95.12
321.275	109.12
321.504	90.12
321.733	81.12
321.962	93.12
322.191	93.12
322.42	115.12
322.649	106.12
322.878	114.12
323.108	99.12
323.337	109.12
323.566	119.12
323.795	134.12
324.024	166.12
324.253	338.12
324.482	663.12
324.71	1341.12
324.939	1793.12
325.168	666.12
325.397	209.12
325.626	132.12
325.855	126.12
326.084	138.12
326.313	133.12
326.542	146.12
326.77	203.12
326.999	394.12
327.228	770.12
327.457	1391.12
327.686	1145.12
327.914	322.12
328.143	191.12
328.372	160.12
328.6	126.12
328.829	119.12
329.058	126.12
329.287	131.12
329.515	128.12
329.744	107.12
329.972	122.12
330.201	138.12
330.43	168.12
330.658	120.12
330.887	149.12
331.115	106.12
331.344	94.12
331.572	108.12
331.801	104.12
332.03	102.12
332.258	85.12
332.486	103.12
332.715	98.12
332.943	97.12
333.172	115.12
333.4	117.12
333.629	99.12
333.857	118.12
334.085	113.12
334.314	150.12
334.542	205.12
334.771	171.12
334.999	118.12
335.227	113.12
335.455	111.12
335.684	108.12
335.912	118.12
336.14	111.12
336.369	93.12
336.597	107.12
336.825	96.12
337.053	104.12
337.281	94.12
337.51	101.12
337.738	97.12
337.966	87.12
338.194	102.12
338.422	93.12
338.65	83.12
338.878	90.12
339.106	89.12
339.334	93.12
339.562	79.12
339.79	94.12
340.018	95.12
340.246	96.12
340.474	102.12
340.702	103.12
340.93	98.12
341.158	92.12
341.386	108.12
341.614	110.12
341.842	96.12
342.07	93.12
342.298	101.12
342.526	91.12
342.754	92.12
342.981	96.12
343.209	85.12
343.437	105.12
343.665	106.12
343.893	83.12
344.12	96.12
344.348	102.12
344.576	97.12
344.804	99.12
345.031	87.12
345.259	97.12
345.487	98.12
345.714	93.12
345.942	100.12
346.17	103.12
346.397	95.12
346.625	104.12
346.853	86.12
347.08	105.12
347.308	90.12
347.535	100.12
347.763	113.12
347.99	111.12
348.218	89.12
348.445	104.12
348.673	102.12
348.9	97.12
349.128	93.12
349.355	90.12
349.583	101.12
349.81	105.12
350.037	109.12
350.265	86.12
350.492	102.12
350.72	118.12
350.947	99.12
351.174	109.12
351.402	103.12
351.629	105.12
351.856	97.12
352.083	106.12
352.311	99.12
352.538	107.12
352.765	109.12
352.992	105.12
353.22	116.12
353.447	93.12
353.674	85.12
353.901	98.12
354.128	99.12
354.355	100.12
354.583	110.12
354.81	118.12
355.037	88.12
355.264	82.12
355.491	101.12
355.718	96.12
355.945	98.12
356.172	113.12
356.399	94.12
356.626	103.12
356.853	101.12
357.08	95.12
357.307	104.12
357.534	102.12
357.761	103.12
357.988	98.12
358.215	98.12
358.441	93.12
358.668	94.12
358.895	108.12
359.122	97.12
359.349	100.12
359.576	104.12
359.802	114.12
360.029	106.12
360.256	101.12
360.483	104.12
360.709	108.12
360.936	85.12
361.163	104.12
361.39	92.12
361.616	106.12
361.843	97.12
362.07	100.12
362.296	109.12
362.523	75.12
362.749	101.12
362.976	93.12
363.203	89.12
363.429	112.12
363.656	97.12
363.882	87.12
364.109	91.12
364.335	89.12
364.562	103.12
364.788	99.12
365.015	102.12
365.241	109.12
365.468	99.12
365.694	103.12
365.92	112.12
366.147	74.12
366.373	88.12
366.599	108.12
366.826	81.12
367.052	101.12
367.278	87.12
367.505	95.12
367.731	108.12
367.957	96.12
368.184	91.12
368.41	102.12
368.636	113.12
368.862	118.12
369.089	101.12
369.315	97.12
369.541	95.12
369.767	87.12
369.993	97.12
370.219	86.12
370.445	106.12
370.672	89.12
370.898	88.12
371.124	86.12
371.35	106.12
371.576	93.12
371.802	90.12
372.028	93.12
372.254	99.12
372.48	96.12
372.706	105.12
372.932	93.12
373.158	95.12
373.384	95.12
373.61	93.12
373.835	105.12
374.061	113.12
374.287	110.12
374.513	93.12
374.739	91.12
374.965	96.12
375.191	88.12
375.416	102.12
375.642	93.12
375.868	85.12
376.094	115.12
376.319	83.12
376.545	88.12
376.771	92.12
376.997	97.12
377.222	81.12
377.448	90.12
377.674	99.12
377.899	107.12
378.125	89.12
378.35	99.12
378.576	97.12
378.802	104.12
379.027	94.12
379.253	106.12
379.478	97.12
379.704	86.12
379.929	82.12
380.155	87.12
380.38	95.12
380.606	103.12
380.831	93.12
381.057	103.12
381.282	96.12
381.507	103.12
381.733	112.12
381.958	109.12
382.184	111.12
382.409	89.12
382.634	105.12
382.86	102.12
383.085	119.12
383.31	106.12
383.535	110.12
383.761	104.12
383.986	99.12
384.211	94.12
384.436	110.12
384.662	114.12
384.887	127.12
385.112	105.12
385.337	100.12
385.562	124.12
385.787	113.12
386.013	118.12
386.238	102.12
386.463	110.12
386.688	113.12
386.913	94.12
387.138	128.12
387.363	123.12
387.588	99.12
387.813	124.12
388.038	104.12
388.263	113.12
388.488	122.12
388.713	108.12
388.938	98.12
389.163	86.12
389.387	91.12
389.612	99.12
389.837	93.12
390.062	104.12
390.287	99.12
390.512	94.12
390.736	86.12
390.961	94.12
391.186	91.12
391.411	102.12
391.636	103.12
391.86	78.12
392.085	83.12
392.31	92.12
392.534	87.12
392.759	99.12
392.984	97.12
393.208	106.12
393.433	137.12
393.658	115.12
393.882	93.12
394.107	107.12
394.331	110.12
394.556	99.12
394.78	91.12
395.005	94.12
395.229	101.12
395.454	97.12
395.678	89.12
395.903	85.12
396.127	98.12
396.352	83.12
396.576	93.12
396.801	106.12
397.025	111.12
397.249	96.12
397.474	101.12
397.698	85.12
397.922	86.12
398.147	88.12
398.371	84.12
398.595	100.12
398.82	94.12
399.044	90.12
399.268	100.12
399.492	98.12
399.717	102.12
399.941	75.12
400.165	90.12
400.389	88.12
400.613	83.12
400.837	90.12
401.062	80.12
401.286	95.12
401.51	104.12
401.734	95.12
401.958	107.12
402.182	120.12
402.406	157.12
402.63	114.12
402.854	91.12
403.078	98.12
403.302	87.12
403.526	75.12
403.75	87.12
403.974	100.12
404.198	89.12
404.422	93.12
404.645	89.12
404.869	101.12
405.093	98.12
405.317	109.12
405.541	109.12
405.765	99.12
405.988	130.12
406.212	158.12
406.436	181.12
406.66	121.12
406.883	93.12
407.107	87.12
407.331	87.12
407.555	106.12
407.778	104.12
408.002	90.12
408.226	94.12
408.449	94.12
408.673	90.12
408.896	111.12
409.12	102.12
409.344	91.12
409.567	107.12
409.791	93.12
410.014	102.12
410.238	95.12
410.461	97.12
410.685	90.12
410.908	101.12
411.132	95.12
411.355	97.12
411.578	102.12
411.802	101.12
412.025	102.12
412.249	98.12
412.472	88.12
412.695	85.12
412.919	102.12
413.142	84.12
413.365	94.12
413.589	84.12
413.812	92.12
414.035	97.12
414.258	106.12
414.482	103.12
414.705	91.12
414.928	90.12
415.151	107.12
415.374	96.12
415.597	85.12
415.821	89.12
416.044	73.12
416.267	79.12
416.49	85.12
416.713	86.12
416.936	92.12
417.159	78.12
417.382	87.12
417.605	98.12
417.828	93.12
418.051	98.12
418.274	101.12
418.497	84.12
418.72	100.12
418.943	84.12
419.166	92.12
419.389	81.12
419.611	88.12
419.834	96.12
420.057	98.12
420.28	96.12
420.503	91.12
420.726	91.12
420.948	105.12
421.171	104.12
421.394	105.12
421.617	82.12
421.839	96.12
422.062	80.12
422.285	100.12
422.507	91.12
422.73	119.12
422.953	113.12
423.175	92.12
423.398	79.12
423.621	95.12
423.843	109.12
424.066	91.12
424.288	88.12
424.511	96.12
424.733	98.12
424.956	97.12
425.178	117.12
425.401	88.12
425.623	111.12
425.846	97.12
426.068	90.12
426.291	99.12
426.513	100.12
426.735	91.12
426.958	99.12
427.18	99.12
427.402	123.12
427.625	154.12
427.847	137.12
428.069	127.12
428.292	89.12
428.514	102.12
428.736	79.12
428.958	86.12
429.181	106.12
429.403	93.12
429.625	81.12
429.847	100.12
430.069	93.12
430.292	87.12
430.514	97.12
430.736	99.12
430.958	91.12
431.18	92.12
431.402	99.12
431.624	89.12
431.846	82.12
432.068	87.12
432.29	86.12
432.512	98.12
432.734	84.12
432.956	94.12
433.178	89.12
433.4	86.12
433.622	94.12
433.844	86.12
434.066	93.12
434.287	86.12
434.509	99.12
434.731	91.12
434.953	93.12
435.175	93.12
435.397	86.12
435.618	104.12
435.84	110.12
436.062	113.12
436.284	111.12
436.505	100.12
436.727	99.12
436.949	94.12
437.17	88.12
437.392	82.12
437.614	113.12
437.835	119.12
438.057	117.12
438.278	95.12
438.5	102.12
438.721	119.12
438.943	108.12
439.165	94.12
439.386	86.12
439.608	96.12
439.829	105.12
440.05	106.12
440.272	135.12
440.493	91.12
440.715	101.12
440.936	96.12
441.158	93.12
441.379	91.12
441.6	101.12
441.822	105.12
442.043	102.12
442.264	99.12
442.486	90.12
442.707	97.12
442.928	96.12
443.149	114.12
443.371	121.12
443.592	116.12
443.813	109.12
444.034	106.12
444.255	104.12
444.476	82.12
444.698	93.12
444.919	84.12
445.14	146.12
445.361	123.12
445.582	126.12
445.803	132.12
446.024	113.12
446.245	118.12
446.466	104.12
446.687	98.12
446.908	90.12
447.129	85.12
447.35	80.12
447.571	100.12
447.792	103.12
448.013	88.12
448.234	99.12
448.455	111.12
448.675	109.12
448.896	111.12
449.117	92.12
449.338	93.12
449.559	127.12
449.779	124.12
450	99.12
450.221	85.12
450.442	96.12
450.662	86.12
450.883	105.12
451.104	105.12
451.324	110.12
451.545	95.12
451.766	86.12
451.986	89.12
452.207	96.12
452.428	104.12
452.648	113.12
452.869	107.12
453.089	113.12
453.31	103.12
453.53	89.12
453.751	94.12
453.971	111.12
454.192	95.12
454.412	100.12
454.633	100.12
454.853	91.12
455.073	95.12
455.294	105.12
455.514	106.12
455.734	73.12
455.955	89.12
456.175	93.12
456.395	82.12
456.616	86.12
456.836	93.12
457.056	97.12
457.276	90.12
457.497	100.12
457.717	83.12
457.937	84.12
458.157	100.12
458.377	90.12
458.598	116.12
458.818	121.12
459.038	139.12
459.258	98.12
459.478	99.12
459.698	83.12
459.918	83.12
460.138	91.12
460.358	88.12
460.578	87.12
460.798	88.12
461.018	99.12
461.238	83.12
461.458	98.12
461.678	87.12
461.898	87.12
462.118	78.12
462.338	90.12
462.558	92.12
462.777	85.12
462.997	83.12
463.217	102.12
463.437	91.12
463.657	87.12
463.876	86.12
464.096	74.12
464.316	85.12
464.536	79.12
464.755	92.12
464.975	111.12
465.195	133.12
465.414	131.12
465.634	106.12
465.854	95.12
466.073	86.12
466.293	95.12
466.512	96.12
466.732	97.12
466.951	96.12
467.171	92.12
467.391	96.12
467.61	99.12
467.829	93.12
468.049	106.12
468.268	118.12
468.488	107.12
468.707	90.12
468.927	86.12
469.146	105.12
469.365	96.12
469.585	89.12
469.804	77.12
470.023	97.12
470.243	96.12
470.462	95.12
470.681	96.12
470.901	100.12
471.12	102.12
471.339	90.12
471.558	93.12
471.777	92.12
471.997	105.12
472.216	143.12
472.435	225.12
472.654	132.12
472.873	83.12
473.092	88.12
473.311	80.12
473.53	87.12
473.749	93.12
473.968	93.12
474.187	108.12
474.406	94.12
474.625	92.12
474.844	93.12
475.063	81.12
475.282	90.12
475.501	92.12
475.72	86.12
475.939	79.12
476.158	91.12
476.377	87.12
476.596	94.12
476.814	107.12
477.033	95.12
477.252	87.12
477.471	97.12
477.69	97.12
477.908	97.12
478.127	95.12
478.346	91.12
478.564	66.12
478.783	99.12
479.002	81.12
479.22	87.12
479.439	98.12
479.658	100.12
479.876	107.12
480.095	86.12
480.313	105.12
480.532	86.12
480.751	109.12
480.969	164.12
481.188	345.12
481.406	235.12
481.624	107.12
481.843	106.12
482.061	84.12
482.28	98.12
482.498	81.12
482.717	77.12
482.935	103.12
483.153	86.12
483.372	98.12
483.59	99.12
483.808	83.12
484.027	109.12
484.245	99.12
484.463	93.12
484.681	107.12
484.9	98.12
485.118	105.12
485.336	97.12
485.554	102.12
485.772	115.12
485.99	127.12
486.209	116.12
486.427	112.12
486.645	106.12
486.863	125.12
487.081	110.12
487.299	99.12
487.517	105.12
487.735	90.12
487.953	92.12
488.171	91.12
488.389	114.12
488.607	100.12
488.825	83.12
489.043	93.12
489.261	85.12
489.479	90.12
489.696	88.12
489.914	89.12
490.132	104.12
490.35	96.12
490.568	81.12
490.786	84.12
491.003	93.12
491.221	92.12
491.439	90.12
491.657	98.12
491.874	102.12
492.092	90.12
492.31	90.12
492.527	83.12
492.745	88.12
492.963	90.12
493.18	102.12
493.398	81.12
493.615	104.12
493.833	89.12
494.05	91.12
494.268	93.12
494.485	89.12
494.703	96.12
494.92	87.12
495.138	95.12
495.355	90.12
495.573	102.12
495.79	101.12
496.008	89.12
496.225	106.12
496.442	93.12
496.66	91.12
496.877	97.12
497.094	95.12
497.312	91.12
497.529	101.12
497.746	91.12
497.963	86.12
498.181	82.12
498.398	92.12
498.615	118.12
498.832	107.12
499.049	108.12
499.267	92.12
499.484	98.12
499.701	95.12
499.918	102.12
500.135	104.12
500.352	93.12
500.569	94.12
500.786	100.12
501.003	102.12
501.22	89.12
501.437	95.12
501.654	108.12
501.871	89.12
502.088	95.12
502.305	83.12
502.522	90.12
502.739	91.12
502.956	81.12
503.172	82.12
503.389	105.12
503.606	107.12
503.823	100.12
504.04	83.12
504.256	90.12
504.473	96.12
504.69	93.12
504.907	103.12
505.123	98.12
505.34	93.12
505.557	100.12
505.773	96.12
505.99	96.12
506.207	108.12
506.423	97.12
506.64	110.12
506.856	101.12
507.073	85.12
507.289	101.12
507.506	95.12
507.722	103.12
507.939	107.12
508.155	107.12
508.372	94.12
508.588	103.12
508.805	93.12
509.021	105.12
509.238	103.12
509.454	88.12
509.67	106.12
509.887	99.12
510.103	129.12
510.319	196.12
510.536	632.12
510.752	1885.12
510.968	545.12
511.184	150.12
511.401	96.12
511.617	82.12
511.833	107.12
512.049	93.12
512.265	81.12
512.481	102.12
512.698	101.12
512.914	98.12
513.13	98.12
513.346	90.12
513.562	86.12
513.778	90.12
513.994	96.12
