Data from Circ_1993_H10_HRD10591_00063.txt Node
Date: Wed Jan 03 11:44:14 EST 2024
User: Yrep
Spectrometer: HR+D1059
Trigger mode: 1
Integration Time (sec): 1.000000E-1
Scans to average: 1
Electric dark correction enabled: true
Nonlinearity correction enabled: false
Boxcar width: 0
XAxis mode: Wavelengths
Number of Pixels in Spectrum: 2048
>>>>>Begin Spectral Data<<<<<
223.165	-17.44
223.4	-17.44
223.635	-17.44
223.869	-21.44
224.104	-8.44
224.338	-18.44
224.573	-20.44
224.808	-5.44
225.042	-19.44
225.277	-8.44
225.511	0.56
225.746	8.56
225.98	4.56
226.215	12.56
226.449	13.56
226.683	13.56
226.918	21.56
227.152	44.56
227.387	45.56
227.621	34.56
227.856	37.56
228.09	50.56
228.324	51.56
228.559	51.56
228.793	53.56
229.027	60.56
229.262	52.56
229.496	79.56
229.73	86.56
229.964	69.56
230.199	82.56
230.433	68.56
230.667	68.56
230.901	83.56
231.136	74.56
231.37	78.56
231.604	81.56
231.838	85.56
232.072	80.56
232.306	81.56
232.541	86.56
232.775	65.56
233.009	78.56
233.243	79.56
233.477	82.56
233.711	77.56
233.945	78.56
234.179	90.56
234.413	76.56
234.647	80.56
234.881	70.56
235.115	76.56
235.349	98.56
235.583	84.56
235.817	79.56
236.051	70.56
236.285	81.56
236.519	70.56
236.753	68.56
236.987	90.56
237.221	81.56
237.455	71.56
237.689	84.56
237.922	71.56
238.156	69.56
238.39	78.56
238.624	75.56
238.858	72.56
239.091	75.56
239.325	87.56
239.559	70.56
239.793	75.56
240.027	80.56
240.26	82.56
240.494	68.56
240.728	71.56
240.961	69.56
241.195	88.56
241.429	82.56
241.662	76.56
241.896	89.56
242.13	65.56
242.363	84.56
242.597	73.56
242.83	79.56
243.064	77.56
243.298	64.56
243.531	73.56
243.765	80.56
243.998	74.56
244.232	74.56
244.465	76.56
244.699	75.56
244.932	63.56
245.166	78.56
245.399	73.56
245.633	77.56
245.866	78.56
246.099	79.56
246.333	83.56
246.566	76.56
246.8	74.56
247.033	75.56
247.266	71.56
247.5	73.56
247.733	64.56
247.966	81.56
248.2	91.56
248.433	75.56
248.666	51.56
248.899	86.56
249.133	81.56
249.366	88.56
249.599	79.56
249.832	92.56
250.066	83.56
250.299	72.56
250.532	78.56
250.765	71.56
250.998	88.56
251.231	79.56
251.465	72.56
251.698	79.56
251.931	74.56
252.164	80.56
252.397	80.56
252.63	66.56
252.863	69.56
253.096	87.56
253.329	68.56
253.562	94.56
253.795	85.56
254.028	79.56
254.261	72.56
254.494	71.56
254.727	89.56
254.96	76.56
255.193	84.56
255.426	81.56
255.659	84.56
255.892	88.56
256.124	92.56
256.357	67.56
256.59	77.56
256.823	84.56
257.056	93.56
257.289	87.56
257.521	90.56
257.754	83.56
257.987	95.56
258.22	74.56
258.452	80.56
258.685	83.56
258.918	87.56
259.151	93.56
259.383	74.56
259.616	78.56
259.849	78.56
260.081	82.56
260.314	94.56
260.547	73.56
260.779	77.56
261.012	77.56
261.244	74.56
261.477	72.56
261.71	107.56
261.942	111.56
262.175	115.56
262.407	93.56
262.64	91.56
262.872	79.56
263.105	93.56
263.337	88.56
263.57	92.56
263.802	75.56
264.035	67.56
264.267	82.56
264.499	82.56
264.732	95.56
264.964	76.56
265.197	78.56
265.429	72.56
265.661	83.56
265.894	84.56
266.126	90.56
266.358	92.56
266.591	79.56
266.823	76.56
267.055	82.56
267.287	75.56
267.52	79.56
267.752	92.56
267.984	81.56
268.216	84.56
268.448	80.56
268.681	76.56
268.913	83.56
269.145	79.56
269.377	88.56
269.609	87.56
269.841	71.56
270.073	76.56
270.306	79.56
270.538	91.56
270.77	75.56
271.002	89.56
271.234	79.56
271.466	94.56
271.698	78.56
271.93	84.56
272.162	85.56
272.394	75.56
272.626	74.56
272.858	80.56
273.09	74.56
273.322	89.56
273.553	71.56
273.785	71.56
274.017	83.56
274.249	74.56
274.481	77.56
274.713	73.56
274.945	83.56
275.176	71.56
275.408	87.56
275.64	72.56
275.872	88.56
276.104	96.56
276.335	90.56
276.567	97.56
276.799	96.56
277.031	96.56
277.262	94.56
277.494	96.56
277.726	99.56
277.957	73.56
278.189	75.56
278.421	83.56
278.652	82.56
278.884	86.56
279.115	81.56
279.347	82.56
279.579	89.56
279.81	79.56
280.042	84.56
280.273	101.56
280.505	81.56
280.736	75.56
280.968	85.56
281.199	81.56
281.431	80.56
281.662	94.56
281.894	94.56
282.125	85.56
282.356	110.56
282.588	119.56
282.819	98.56
283.051	73.56
283.282	79.56
283.513	107.56
283.745	98.56
283.976	89.56
284.207	88.56
284.439	76.56
284.67	89.56
284.901	83.56
285.132	75.56
285.364	87.56
285.595	87.56
285.826	73.56
286.057	88.56
286.288	74.56
286.52	98.56
286.751	80.56
286.982	84.56
287.213	91.56
287.444	77.56
287.675	94.56
287.906	84.56
288.138	85.56
288.369	95.56
288.6	74.56
288.831	96.56
289.062	92.56
289.293	91.56
289.524	84.56
289.755	93.56
289.986	84.56
290.217	80.56
290.448	85.56
290.679	89.56
290.91	96.56
291.141	85.56
291.371	87.56
291.602	89.56
291.833	78.56
292.064	91.56
292.295	93.56
292.526	80.56
292.757	93.56
292.987	82.56
293.218	80.56
293.449	74.56
293.68	86.56
293.91	80.56
294.141	96.56
294.372	89.56
294.603	82.56
294.833	85.56
295.064	91.56
295.295	89.56
295.525	101.56
295.756	84.56
295.987	111.56
296.217	147.56
296.448	116.56
296.679	87.56
296.909	104.56
297.14	87.56
297.37	87.56
297.601	88.56
297.831	89.56
298.062	72.56
298.292	84.56
298.523	78.56
298.753	93.56
298.984	84.56
299.214	88.56
299.445	101.56
299.675	95.56
299.905	80.56
300.136	84.56
300.366	84.56
300.597	93.56
300.827	97.56
301.057	104.56
301.288	94.56
301.518	84.56
301.748	85.56
301.979	98.56
302.209	97.56
302.439	85.56
302.669	97.56
302.9	88.56
303.13	106.56
303.36	90.56
303.59	89.56
303.82	97.56
304.051	88.56
304.281	92.56
304.511	89.56
304.741	92.56
304.971	78.56
305.201	76.56
305.431	98.56
305.661	71.56
305.891	71.56
306.121	92.56
306.352	100.56
306.582	108.56
306.812	81.56
307.042	98.56
307.272	97.56
307.502	104.56
307.731	87.56
307.961	100.56
308.191	80.56
308.421	79.56
308.651	85.56
308.881	96.56
309.111	94.56
309.341	91.56
309.571	93.56
309.8	94.56
310.03	90.56
310.26	98.56
310.49	112.56
310.72	92.56
310.949	109.56
311.179	106.56
311.409	75.56
311.639	98.56
311.868	101.56
312.098	95.56
312.328	102.56
312.557	110.56
312.787	110.56
313.017	116.56
313.246	92.56
313.476	97.56
313.706	104.56
313.935	99.56
314.165	93.56
314.394	101.56
314.624	93.56
314.853	98.56
315.083	77.56
315.312	85.56
315.542	96.56
315.771	99.56
316.001	96.56
316.23	90.56
316.46	89.56
316.689	84.56
316.919	94.56
317.148	98.56
317.377	93.56
317.607	83.56
317.836	98.56
318.065	79.56
318.295	89.56
318.524	89.56
318.753	90.56
318.983	96.56
319.212	100.56
319.441	118.56
319.67	94.56
319.9	99.56
320.129	88.56
320.358	78.56
320.587	95.56
320.816	97.56
321.046	108.56
321.275	103.56
321.504	89.56
321.733	85.56
321.962	104.56
322.191	106.56
322.42	114.56
322.649	98.56
322.878	111.56
323.108	108.56
323.337	111.56
323.566	117.56
323.795	151.56
324.024	202.56
324.253	363.56
324.482	767.56
324.71	1609.56
324.939	2103.56
325.168	801.56
325.397	252.56
325.626	137.56
325.855	118.56
326.084	115.56
326.313	127.56
326.542	153.56
326.77	218.56
326.999	436.56
327.228	906.56
327.457	1678.56
327.686	1332.56
327.914	377.56
328.143	210.56
328.372	163.56
328.6	142.56
328.829	128.56
329.058	114.56
329.287	112.56
329.515	111.56
329.744	111.56
329.972	127.56
330.201	185.56
330.43	235.56
330.658	155.56
330.887	126.56
331.115	114.56
331.344	101.56
331.572	100.56
331.801	93.56
332.03	102.56
332.258	84.56
332.486	96.56
332.715	98.56
332.943	110.56
333.172	97.56
333.4	96.56
333.629	101.56
333.857	114.56
334.085	126.56
334.314	203.56
334.542	289.56
334.771	257.56
334.999	139.56
335.227	105.56
335.455	85.56
335.684	92.56
335.912	95.56
336.14	101.56
336.369	110.56
336.597	108.56
336.825	98.56
337.053	97.56
337.281	95.56
337.51	90.56
337.738	84.56
337.966	86.56
338.194	107.56
338.422	91.56
338.65	107.56
338.878	90.56
339.106	96.56
339.334	105.56
339.562	95.56
339.79	71.56
340.018	85.56
340.246	83.56
340.474	96.56
340.702	100.56
340.93	77.56
341.158	85.56
341.386	93.56
341.614	95.56
341.842	93.56
342.07	96.56
342.298	89.56
342.526	88.56
342.754	83.56
342.981	87.56
343.209	94.56
343.437	78.56
343.665	97.56
343.893	77.56
344.12	89.56
344.348	90.56
344.576	80.56
344.804	79.56
345.031	105.56
345.259	95.56
345.487	78.56
345.714	93.56
345.942	98.56
346.17	88.56
346.397	99.56
346.625	96.56
346.853	93.56
347.08	98.56
347.308	90.56
347.535	91.56
347.763	100.56
347.99	93.56
348.218	95.56
348.445	96.56
348.673	91.56
348.9	92.56
349.128	99.56
349.355	92.56
349.583	91.56
349.81	87.56
350.037	87.56
350.265	102.56
350.492	81.56
350.72	98.56
350.947	107.56
351.174	119.56
351.402	108.56
351.629	96.56
351.856	89.56
352.083	101.56
352.311	90.56
352.538	119.56
352.765	107.56
352.992	92.56
353.22	113.56
353.447	111.56
353.674	95.56
353.901	96.56
354.128	91.56
354.355	95.56
354.583	107.56
354.81	100.56
355.037	95.56
355.264	87.56
355.491	77.56
355.718	81.56
355.945	94.56
356.172	93.56
356.399	101.56
356.626	104.56
356.853	101.56
357.08	94.56
357.307	95.56
357.534	96.56
357.761	84.56
357.988	100.56
358.215	99.56
358.441	101.56
358.668	75.56
358.895	89.56
359.122	84.56
359.349	96.56
359.576	95.56
359.802	90.56
360.029	105.56
360.256	119.56
360.483	86.56
360.709	94.56
360.936	101.56
361.163	78.56
361.39	92.56
361.616	104.56
361.843	92.56
362.07	95.56
362.296	91.56
362.523	78.56
362.749	89.56
362.976	92.56
363.203	102.56
363.429	103.56
363.656	83.56
363.882	84.56
364.109	87.56
364.335	79.56
364.562	89.56
364.788	78.56
365.015	91.56
365.241	97.56
365.468	114.56
365.694	103.56
365.92	91.56
366.147	89.56
366.373	81.56
366.599	90.56
366.826	89.56
367.052	94.56
367.278	77.56
367.505	100.56
367.731	99.56
367.957	91.56
368.184	97.56
368.41	85.56
368.636	103.56
368.862	103.56
369.089	106.56
369.315	90.56
369.541	93.56
369.767	96.56
369.993	91.56
370.219	77.56
370.445	94.56
370.672	81.56
370.898	88.56
371.124	91.56
371.35	84.56
371.576	85.56
371.802	81.56
372.028	79.56
372.254	85.56
372.48	83.56
372.706	85.56
372.932	80.56
373.158	97.56
373.384	95.56
373.61	79.56
373.835	93.56
374.061	94.56
374.287	78.56
374.513	78.56
374.739	95.56
374.965	83.56
375.191	91.56
375.416	90.56
375.642	89.56
375.868	80.56
376.094	85.56
376.319	97.56
376.545	92.56
376.771	107.56
376.997	76.56
377.222	80.56
377.448	92.56
377.674	82.56
377.899	92.56
378.125	97.56
378.35	92.56
378.576	85.56
378.802	90.56
379.027	110.56
379.253	101.56
379.478	92.56
379.704	87.56
379.929	80.56
380.155	91.56
380.38	95.56
380.606	84.56
380.831	89.56
381.057	120.56
381.282	84.56
381.507	99.56
381.733	89.56
381.958	88.56
382.184	82.56
382.409	91.56
382.634	106.56
382.86	77.56
383.085	108.56
383.31	105.56
383.535	98.56
383.761	95.56
383.986	107.56
384.211	98.56
384.436	107.56
384.662	109.56
384.887	98.56
385.112	102.56
385.337	107.56
385.562	113.56
385.787	116.56
386.013	103.56
386.238	117.56
386.463	104.56
386.688	101.56
386.913	100.56
387.138	116.56
387.363	100.56
387.588	106.56
387.813	116.56
388.038	102.56
388.263	121.56
388.488	116.56
388.713	98.56
388.938	85.56
389.163	92.56
389.387	81.56
389.612	98.56
389.837	109.56
390.062	102.56
390.287	97.56
390.512	95.56
390.736	86.56
390.961	88.56
391.186	80.56
391.411	95.56
391.636	85.56
391.86	78.56
392.085	85.56
392.31	70.56
392.534	83.56
392.759	88.56
392.984	91.56
393.208	93.56
393.433	107.56
393.658	98.56
393.882	84.56
394.107	87.56
394.331	90.56
394.556	93.56
394.78	91.56
395.005	98.56
395.229	90.56
395.454	83.56
395.678	89.56
395.903	102.56
396.127	100.56
396.352	98.56
396.576	82.56
396.801	107.56
397.025	108.56
397.249	101.56
397.474	84.56
397.698	86.56
397.922	89.56
398.147	85.56
398.371	89.56
398.595	84.56
398.82	83.56
399.044	87.56
399.268	96.56
399.492	92.56
399.717	94.56
399.941	81.56
400.165	89.56
400.389	75.56
400.613	100.56
400.837	92.56
401.062	79.56
401.286	87.56
401.51	90.56
401.734	83.56
401.958	91.56
402.182	99.56
402.406	137.56
402.63	111.56
402.854	96.56
403.078	82.56
403.302	78.56
403.526	71.56
403.75	86.56
403.974	86.56
404.198	79.56
404.422	89.56
404.645	71.56
404.869	87.56
405.093	97.56
405.317	98.56
405.541	85.56
405.765	74.56
405.988	106.56
406.212	151.56
406.436	195.56
406.66	128.56
406.883	111.56
407.107	111.56
407.331	90.56
407.555	95.56
407.778	95.56
408.002	106.56
408.226	86.56
408.449	75.56
408.673	84.56
408.896	87.56
409.12	91.56
409.344	93.56
409.567	92.56
409.791	97.56
410.014	87.56
410.238	90.56
410.461	102.56
410.685	99.56
410.908	97.56
411.132	106.56
411.355	97.56
411.578	94.56
411.802	85.56
412.025	88.56
412.249	101.56
412.472	96.56
412.695	88.56
412.919	96.56
413.142	90.56
413.365	81.56
413.589	90.56
413.812	92.56
414.035	98.56
414.258	84.56
414.482	90.56
414.705	86.56
414.928	101.56
415.151	96.56
415.374	90.56
415.597	84.56
415.821	90.56
416.044	79.56
416.267	93.56
416.49	73.56
416.713	75.56
416.936	80.56
417.159	89.56
417.382	95.56
417.605	83.56
417.828	95.56
418.051	91.56
418.274	92.56
418.497	76.56
418.72	84.56
418.943	91.56
419.166	89.56
419.389	99.56
419.611	89.56
419.834	85.56
420.057	80.56
420.28	74.56
420.503	89.56
420.726	90.56
420.948	76.56
421.171	97.56
421.394	89.56
421.617	85.56
421.839	92.56
422.062	94.56
422.285	72.56
422.507	106.56
422.73	101.56
422.953	97.56
423.175	82.56
423.398	83.56
423.621	78.56
423.843	90.56
424.066	96.56
424.288	93.56
424.511	92.56
424.733	80.56
424.956	97.56
425.178	77.56
425.401	104.56
425.623	96.56
425.846	90.56
426.068	86.56
426.291	76.56
426.513	101.56
426.735	99.56
426.958	92.56
427.18	102.56
427.402	131.56
427.625	175.56
427.847	124.56
428.069	121.56
428.292	97.56
428.514	85.56
428.736	72.56
428.958	83.56
429.181	87.56
429.403	79.56
429.625	92.56
429.847	88.56
430.069	88.56
430.292	83.56
430.514	82.56
430.736	79.56
430.958	97.56
431.18	71.56
431.402	85.56
431.624	79.56
431.846	73.56
432.068	73.56
432.29	87.56
432.512	98.56
432.734	78.56
432.956	84.56
433.178	83.56
433.4	90.56
433.622	84.56
433.844	75.56
434.066	71.56
434.287	89.56
434.509	81.56
434.731	88.56
434.953	97.56
435.175	99.56
435.397	97.56
435.618	96.56
435.84	98.56
436.062	125.56
436.284	101.56
436.505	110.56
436.727	95.56
436.949	91.56
437.17	95.56
437.392	86.56
437.614	96.56
437.835	106.56
438.057	100.56
438.278	88.56
438.5	101.56
438.721	131.56
438.943	105.56
439.165	106.56
439.386	82.56
439.608	92.56
439.829	93.56
440.05	114.56
440.272	125.56
440.493	85.56
440.715	83.56
440.936	100.56
441.158	76.56
441.379	87.56
441.6	95.56
441.822	87.56
442.043	94.56
442.264	94.56
442.486	96.56
442.707	84.56
442.928	106.56
443.149	130.56
443.371	120.56
443.592	110.56
443.813	105.56
444.034	103.56
444.255	94.56
444.476	77.56
444.698	83.56
444.919	97.56
445.14	132.56
445.361	120.56
445.582	114.56
445.803	128.56
446.024	137.56
446.245	117.56
446.466	107.56
446.687	87.56
446.908	88.56
447.129	91.56
447.35	106.56
447.571	87.56
447.792	108.56
448.013	76.56
448.234	100.56
448.455	98.56
448.675	104.56
448.896	109.56
449.117	114.56
449.338	94.56
449.559	122.56
449.779	109.56
450	85.56
450.221	77.56
450.442	92.56
450.662	97.56
450.883	97.56
451.104	99.56
451.324	91.56
451.545	89.56
451.766	86.56
451.986	77.56
452.207	104.56
452.428	81.56
452.648	90.56
452.869	87.56
453.089	97.56
453.31	110.56
453.53	96.56
453.751	82.56
453.971	81.56
454.192	105.56
454.412	99.56
454.633	88.56
454.853	92.56
455.073	93.56
455.294	94.56
455.514	97.56
455.734	84.56
455.955	83.56
456.175	75.56
456.395	89.56
456.616	95.56
456.836	82.56
457.056	81.56
457.276	81.56
457.497	68.56
457.717	85.56
457.937	87.56
458.157	84.56
458.377	91.56
458.598	108.56
458.818	127.56
459.038	140.56
459.258	115.56
459.478	91.56
459.698	98.56
459.918	81.56
460.138	89.56
460.358	108.56
460.578	97.56
460.798	94.56
461.018	94.56
461.238	80.56
461.458	92.56
461.678	89.56
461.898	84.56
462.118	77.56
462.338	73.56
462.558	85.56
462.777	98.56
462.997	78.56
463.217	83.56
463.437	86.56
463.657	85.56
463.876	91.56
464.096	90.56
464.316	95.56
464.536	84.56
464.755	90.56
464.975	104.56
465.195	142.56
465.414	139.56
465.634	77.56
465.854	96.56
466.073	95.56
466.293	83.56
466.512	94.56
466.732	85.56
466.951	71.56
467.171	88.56
467.391	87.56
467.61	103.56
467.829	102.56
468.049	147.56
468.268	138.56
468.488	98.56
468.707	90.56
468.927	102.56
469.146	73.56
469.365	78.56
469.585	96.56
469.804	79.56
470.023	86.56
470.243	84.56
470.462	101.56
470.681	92.56
470.901	85.56
471.12	93.56
471.339	79.56
471.558	100.56
471.777	96.56
471.997	108.56
472.216	196.56
472.435	348.56
472.654	131.56
472.873	99.56
473.092	88.56
473.311	83.56
473.53	87.56
473.749	106.56
473.968	100.56
474.187	104.56
474.406	113.56
474.625	86.56
474.844	85.56
475.063	91.56
475.282	85.56
475.501	89.56
475.72	93.56
475.939	90.56
476.158	99.56
476.377	88.56
476.596	79.56
476.814	95.56
477.033	95.56
477.252	77.56
477.471	91.56
477.69	97.56
477.908	92.56
478.127	96.56
478.346	90.56
478.564	99.56
478.783	102.56
479.002	90.56
479.22	91.56
479.439	108.56
479.658	110.56
479.876	87.56
480.095	101.56
480.313	98.56
480.532	99.56
480.751	104.56
480.969	205.56
481.188	563.56
481.406	366.56
481.624	123.56
481.843	87.56
482.061	94.56
482.28	85.56
482.498	96.56
482.717	91.56
482.935	78.56
483.153	100.56
483.372	95.56
483.59	87.56
483.808	79.56
484.027	87.56
484.245	104.56
484.463	92.56
484.681	113.56
484.9	95.56
485.118	99.56
485.336	104.56
485.554	101.56
485.772	102.56
485.99	80.56
486.209	106.56
486.427	107.56
486.645	108.56
486.863	106.56
487.081	105.56
487.299	96.56
487.517	106.56
487.735	83.56
487.953	99.56
488.171	83.56
488.389	104.56
488.607	98.56
488.825	97.56
489.043	78.56
489.261	96.56
489.479	78.56
489.696	75.56
489.914	80.56
490.132	82.56
490.35	90.56
490.568	87.56
490.786	91.56
491.003	89.56
491.221	88.56
491.439	93.56
491.657	96.56
491.874	92.56
492.092	81.56
492.31	75.56
492.527	92.56
492.745	87.56
492.963	100.56
493.18	82.56
493.398	91.56
493.615	97.56
493.833	93.56
494.05	82.56
494.268	90.56
494.485	99.56
494.703	90.56
494.92	90.56
495.138	95.56
495.355	100.56
495.573	92.56
495.79	84.56
496.008	91.56
496.225	99.56
496.442	92.56
496.66	83.56
496.877	93.56
497.094	96.56
497.312	93.56
497.529	89.56
497.746	100.56
497.963	98.56
498.181	91.56
498.398	91.56
498.615	105.56
498.832	94.56
499.049	92.56
499.267	84.56
499.484	96.56
499.701	107.56
499.918	91.56
500.135	91.56
500.352	85.56
500.569	89.56
500.786	95.56
501.003	76.56
501.22	79.56
501.437	84.56
501.654	96.56
501.871	109.56
502.088	89.56
502.305	92.56
502.522	89.56
502.739	87.56
502.956	90.56
503.172	97.56
503.389	75.56
503.606	110.56
503.823	86.56
504.04	73.56
504.256	85.56
504.473	81.56
504.69	84.56
504.907	98.56
505.123	87.56
505.34	95.56
505.557	85.56
505.773	88.56
505.99	83.56
506.207	75.56
506.423	91.56
506.64	97.56
506.856	80.56
507.073	94.56
507.289	93.56
507.506	101.56
507.722	97.56
507.939	105.56
508.155	90.56
508.372	80.56
508.588	95.56
508.805	98.56
509.021	110.56
509.238	91.56
509.454	96.56
509.67	98.56
509.887	90.56
510.103	124.56
510.319	180.56
510.536	653.56
510.752	2089.56
510.968	592.56
511.184	141.56
511.401	101.56
511.617	96.56
511.833	98.56
512.049	94.56
512.265	96.56
512.481	101.56
512.698	89.56
512.914	99.56
513.13	85.56
513.346	93.56
513.562	92.56
513.778	100.56
513.994	93.56
514.21	113.56
514.426	104.56
514.642	123.56
514.858	113.56
515.074	162.56
515.29	388.56
515.506	1272.56
515.721	476.56
515.937	159.56
