Data from Circ_1993_H10_HRD10591_00099.txt Node
Date: Wed Jan 03 11:44:21 EST 2024
User: Yrep
Spectrometer: HR+D1059
Trigger mode: 1
Integration Time (sec): 1.000000E-1
Scans to average: 1
Electric dark correction enabled: true
Nonlinearity correction enabled: false
Boxcar width: 0
XAxis mode: Wavelengths
Number of Pixels in Spectrum: 2048
>>>>>Begin Spectral Data<<<<<
223.165	-16.75
223.4	-16.75
223.635	-16.75
223.869	-14.75
224.104	-7.75
224.338	-23.75
224.573	-13.75
224.808	-10.75
225.042	-9.75
225.277	-6.75
225.511	-7.75
225.746	8.25
225.98	0.25
226.215	20.25
226.449	21.25
226.683	11.25
226.918	18.25
227.152	32.25
227.387	31.25
227.621	32.25
227.856	33.25
228.09	44.25
228.324	41.25
228.559	58.25
228.793	61.25
229.027	53.25
229.262	65.25
229.496	58.25
229.73	76.25
229.964	89.25
230.199	70.25
230.433	80.25
230.667	67.25
230.901	72.25
231.136	86.25
231.37	70.25
231.604	82.25
231.838	82.25
232.072	78.25
232.306	76.25
232.541	90.25
232.775	91.25
233.009	80.25
233.243	60.25
233.477	69.25
233.711	83.25
233.945	76.25
234.179	81.25
234.413	83.25
234.647	83.25
234.881	83.25
235.115	60.25
235.349	84.25
235.583	72.25
235.817	73.25
236.051	75.25
236.285	61.25
236.519	96.25
236.753	82.25
236.987	81.25
237.221	82.25
237.455	88.25
237.689	93.25
237.922	68.25
238.156	68.25
238.39	84.25
238.624	75.25
238.858	72.25
239.091	70.25
239.325	86.25
239.559	78.25
239.793	77.25
240.027	73.25
240.26	80.25
240.494	68.25
240.728	86.25
240.961	69.25
241.195	67.25
241.429	77.25
241.662	85.25
241.896	64.25
242.13	76.25
242.363	82.25
242.597	75.25
242.83	71.25
243.064	77.25
243.298	65.25
243.531	78.25
243.765	69.25
243.998	82.25
244.232	67.25
244.465	68.25
244.699	79.25
244.932	80.25
245.166	79.25
245.399	72.25
245.633	74.25
245.866	83.25
246.099	72.25
246.333	67.25
246.566	66.25
246.8	76.25
247.033	68.25
247.266	81.25
247.5	76.25
247.733	82.25
247.966	83.25
248.2	85.25
248.433	77.25
248.666	74.25
248.899	68.25
249.133	75.25
249.366	97.25
249.599	83.25
249.832	76.25
250.066	79.25
250.299	69.25
250.532	80.25
250.765	69.25
250.998	65.25
251.231	79.25
251.465	77.25
251.698	79.25
251.931	74.25
252.164	81.25
252.397	74.25
252.63	78.25
252.863	79.25
253.096	84.25
253.329	81.25
253.562	92.25
253.795	84.25
254.028	77.25
254.261	87.25
254.494	87.25
254.727	100.25
254.96	84.25
255.193	75.25
255.426	88.25
255.659	84.25
255.892	79.25
256.124	80.25
256.357	88.25
256.59	76.25
256.823	80.25
257.056	82.25
257.289	68.25
257.521	72.25
257.754	76.25
257.987	79.25
258.22	83.25
258.452	72.25
258.685	85.25
258.918	88.25
259.151	84.25
259.383	87.25
259.616	72.25
259.849	80.25
260.081	84.25
260.314	77.25
260.547	77.25
260.779	81.25
261.012	91.25
261.244	71.25
261.477	84.25
261.71	84.25
261.942	98.25
262.175	113.25
262.407	82.25
262.64	91.25
262.872	75.25
263.105	81.25
263.337	93.25
263.57	80.25
263.802	82.25
264.035	81.25
264.267	82.25
264.499	80.25
264.732	77.25
264.964	87.25
265.197	74.25
265.429	91.25
265.661	83.25
265.894	92.25
266.126	87.25
266.358	80.25
266.591	84.25
266.823	82.25
267.055	89.25
267.287	89.25
267.52	85.25
267.752	83.25
267.984	76.25
268.216	76.25
268.448	81.25
268.681	92.25
268.913	82.25
269.145	90.25
269.377	78.25
269.609	85.25
269.841	84.25
270.073	72.25
270.306	94.25
270.538	81.25
270.77	102.25
271.002	92.25
271.234	90.25
271.466	82.25
271.698	79.25
271.93	96.25
272.162	75.25
272.394	88.25
272.626	81.25
272.858	85.25
273.09	81.25
273.322	84.25
273.553	72.25
273.785	78.25
274.017	82.25
274.249	83.25
274.481	92.25
274.713	85.25
274.945	85.25
275.176	74.25
275.408	91.25
275.64	93.25
275.872	84.25
276.104	85.25
276.335	82.25
276.567	100.25
276.799	108.25
277.031	112.25
277.262	102.25
277.494	89.25
277.726	85.25
277.957	82.25
278.189	82.25
278.421	96.25
278.652	76.25
278.884	88.25
279.115	82.25
279.347	92.25
279.579	96.25
279.81	97.25
280.042	96.25
280.273	102.25
280.505	90.25
280.736	63.25
280.968	97.25
281.199	83.25
281.431	84.25
281.662	85.25
281.894	83.25
282.125	93.25
282.356	112.25
282.588	129.25
282.819	128.25
283.051	99.25
283.282	81.25
283.513	95.25
283.745	85.25
283.976	75.25
284.207	80.25
284.439	74.25
284.67	80.25
284.901	92.25
285.132	75.25
285.364	80.25
285.595	71.25
285.826	88.25
286.057	90.25
286.288	84.25
286.52	88.25
286.751	90.25
286.982	74.25
287.213	81.25
287.444	79.25
287.675	82.25
287.906	95.25
288.138	85.25
288.369	74.25
288.6	78.25
288.831	86.25
289.062	82.25
289.293	86.25
289.524	80.25
289.755	99.25
289.986	76.25
290.217	83.25
290.448	88.25
290.679	88.25
290.91	97.25
291.141	80.25
291.371	94.25
291.602	77.25
291.833	82.25
292.064	88.25
292.295	89.25
292.526	90.25
292.757	99.25
292.987	81.25
293.218	72.25
293.449	98.25
293.68	85.25
293.91	89.25
294.141	84.25
294.372	94.25
294.603	88.25
294.833	80.25
295.064	96.25
295.295	90.25
295.525	97.25
295.756	96.25
295.987	106.25
296.217	127.25
296.448	116.25
296.679	84.25
296.909	86.25
297.14	94.25
297.37	84.25
297.601	86.25
297.831	100.25
298.062	108.25
298.292	81.25
298.523	92.25
298.753	87.25
298.984	76.25
299.214	92.25
299.445	78.25
299.675	90.25
299.905	100.25
300.136	95.25
300.366	80.25
300.597	81.25
300.827	83.25
301.057	97.25
301.288	100.25
301.518	92.25
301.748	88.25
301.979	105.25
302.209	113.25
302.439	84.25
302.669	91.25
302.9	90.25
303.13	100.25
303.36	110.25
303.59	99.25
303.82	98.25
304.051	82.25
304.281	82.25
304.511	89.25
304.741	85.25
304.971	80.25
305.201	82.25
305.431	102.25
305.661	88.25
305.891	97.25
306.121	100.25
306.352	86.25
306.582	92.25
306.812	84.25
307.042	99.25
307.272	110.25
307.502	107.25
307.731	101.25
307.961	85.25
308.191	102.25
308.421	104.25
308.651	80.25
308.881	86.25
309.111	82.25
309.341	88.25
309.571	98.25
309.8	84.25
310.03	98.25
310.26	81.25
310.49	97.25
310.72	81.25
310.949	96.25
311.179	102.25
311.409	81.25
311.639	94.25
311.868	104.25
312.098	97.25
312.328	98.25
312.557	99.25
312.787	91.25
313.017	98.25
313.246	92.25
313.476	84.25
313.706	98.25
313.935	102.25
314.165	93.25
314.394	97.25
314.624	100.25
314.853	94.25
315.083	88.25
315.312	88.25
315.542	97.25
315.771	114.25
316.001	93.25
316.23	96.25
316.46	85.25
316.689	94.25
316.919	101.25
317.148	89.25
317.377	92.25
317.607	93.25
317.836	97.25
318.065	99.25
318.295	91.25
318.524	83.25
318.753	93.25
318.983	106.25
319.212	97.25
319.441	104.25
319.67	105.25
319.9	102.25
320.129	89.25
320.358	78.25
320.587	87.25
320.816	93.25
321.046	90.25
321.275	84.25
321.504	74.25
321.733	98.25
321.962	105.25
322.191	124.25
322.42	106.25
322.649	107.25
322.878	98.25
323.108	111.25
323.337	111.25
323.566	117.25
323.795	144.25
324.024	188.25
324.253	363.25
324.482	750.25
324.71	1538.25
324.939	2020.25
325.168	745.25
325.397	240.25
325.626	157.25
325.855	131.25
326.084	127.25
326.313	127.25
326.542	140.25
326.77	214.25
326.999	425.25
327.228	844.25
327.457	1528.25
327.686	1229.25
327.914	358.25
328.143	229.25
328.372	218.25
328.6	150.25
328.829	129.25
329.058	119.25
329.287	127.25
329.515	98.25
329.744	128.25
329.972	178.25
330.201	279.25
330.43	354.25
330.658	182.25
330.887	143.25
331.115	130.25
331.344	107.25
331.572	108.25
331.801	101.25
332.03	120.25
332.258	109.25
332.486	101.25
332.715	103.25
332.943	97.25
333.172	106.25
333.4	105.25
333.629	111.25
333.857	141.25
334.085	153.25
334.314	252.25
334.542	401.25
334.771	381.25
334.999	155.25
335.227	101.25
335.455	98.25
335.684	106.25
335.912	105.25
336.14	110.25
336.369	98.25
336.597	98.25
336.825	89.25
337.053	93.25
337.281	93.25
337.51	98.25
337.738	104.25
337.966	82.25
338.194	97.25
338.422	85.25
338.65	85.25
338.878	98.25
339.106	78.25
339.334	89.25
339.562	81.25
339.79	96.25
340.018	88.25
340.246	80.25
340.474	87.25
340.702	77.25
340.93	104.25
341.158	98.25
341.386	98.25
341.614	100.25
341.842	95.25
342.07	98.25
342.298	92.25
342.526	91.25
342.754	87.25
342.981	98.25
343.209	77.25
343.437	94.25
343.665	86.25
343.893	91.25
344.12	99.25
344.348	96.25
344.576	93.25
344.804	81.25
345.031	94.25
345.259	105.25
345.487	99.25
345.714	73.25
345.942	92.25
346.17	83.25
346.397	100.25
346.625	97.25
346.853	83.25
347.08	88.25
347.308	82.25
347.535	106.25
347.763	91.25
347.99	109.25
348.218	91.25
348.445	120.25
348.673	96.25
348.9	79.25
349.128	93.25
349.355	81.25
349.583	93.25
349.81	90.25
350.037	82.25
350.265	96.25
350.492	76.25
350.72	108.25
350.947	94.25
351.174	112.25
351.402	102.25
351.629	101.25
351.856	108.25
352.083	100.25
352.311	126.25
352.538	112.25
352.765	96.25
352.992	92.25
353.22	101.25
353.447	96.25
353.674	98.25
353.901	100.25
354.128	88.25
354.355	105.25
354.583	89.25
354.81	81.25
355.037	84.25
355.264	80.25
355.491	106.25
355.718	93.25
355.945	111.25
356.172	84.25
356.399	90.25
356.626	88.25
356.853	97.25
357.08	92.25
357.307	94.25
357.534	91.25
357.761	102.25
357.988	96.25
358.215	84.25
358.441	101.25
358.668	93.25
358.895	85.25
359.122	89.25
359.349	106.25
359.576	81.25
359.802	99.25
360.029	123.25
360.256	124.25
360.483	110.25
360.709	100.25
360.936	88.25
361.163	92.25
361.39	92.25
361.616	104.25
361.843	101.25
362.07	92.25
362.296	108.25
362.523	99.25
362.749	94.25
362.976	79.25
363.203	94.25
363.429	95.25
363.656	97.25
363.882	82.25
364.109	86.25
364.335	91.25
364.562	90.25
364.788	92.25
365.015	93.25
365.241	103.25
365.468	117.25
365.694	94.25
365.92	104.25
366.147	88.25
366.373	83.25
366.599	88.25
366.826	81.25
367.052	100.25
367.278	100.25
367.505	98.25
367.731	96.25
367.957	96.25
368.184	96.25
368.41	97.25
368.636	107.25
368.862	110.25
369.089	89.25
369.315	101.25
369.541	78.25
369.767	96.25
369.993	93.25
370.219	90.25
370.445	78.25
370.672	95.25
370.898	102.25
371.124	76.25
371.35	89.25
371.576	83.25
371.802	98.25
372.028	90.25
372.254	86.25
372.48	85.25
372.706	101.25
372.932	90.25
373.158	99.25
373.384	91.25
373.61	82.25
373.835	88.25
374.061	82.25
374.287	89.25
374.513	89.25
374.739	77.25
374.965	92.25
375.191	68.25
375.416	77.25
375.642	82.25
375.868	94.25
376.094	95.25
376.319	76.25
376.545	80.25
376.771	98.25
376.997	86.25
377.222	90.25
377.448	91.25
377.674	84.25
377.899	76.25
378.125	111.25
378.35	89.25
378.576	95.25
378.802	94.25
379.027	88.25
379.253	89.25
379.478	97.25
379.704	94.25
379.929	110.25
380.155	84.25
380.38	84.25
380.606	90.25
380.831	89.25
381.057	97.25
381.282	83.25
381.507	92.25
381.733	107.25
381.958	104.25
382.184	94.25
382.409	99.25
382.634	108.25
382.86	94.25
383.085	98.25
383.31	108.25
383.535	94.25
383.761	96.25
383.986	97.25
384.211	84.25
384.436	108.25
384.662	85.25
384.887	96.25
385.112	101.25
385.337	101.25
385.562	104.25
385.787	108.25
386.013	87.25
386.238	98.25
386.463	114.25
386.688	103.25
386.913	98.25
387.138	106.25
387.363	114.25
387.588	92.25
387.813	95.25
388.038	105.25
388.263	92.25
388.488	107.25
388.713	91.25
388.938	92.25
389.163	77.25
389.387	95.25
389.612	92.25
389.837	99.25
390.062	83.25
390.287	89.25
390.512	90.25
390.736	93.25
390.961	81.25
391.186	96.25
391.411	95.25
391.636	77.25
391.86	78.25
392.085	81.25
392.31	88.25
392.534	96.25
392.759	89.25
392.984	92.25
393.208	102.25
393.433	97.25
393.658	92.25
393.882	84.25
394.107	71.25
394.331	82.25
394.556	84.25
394.78	103.25
395.005	92.25
395.229	89.25
395.454	67.25
395.678	93.25
395.903	87.25
396.127	84.25
396.352	65.25
396.576	92.25
396.801	102.25
397.025	85.25
397.249	85.25
397.474	99.25
397.698	89.25
397.922	92.25
398.147	72.25
398.371	73.25
398.595	80.25
398.82	91.25
399.044	85.25
399.268	90.25
399.492	91.25
399.717	91.25
399.941	99.25
400.165	90.25
400.389	77.25
400.613	85.25
400.837	103.25
401.062	80.25
401.286	62.25
401.51	87.25
401.734	78.25
401.958	98.25
402.182	112.25
402.406	131.25
402.63	109.25
402.854	99.25
403.078	94.25
403.302	100.25
403.526	79.25
403.75	84.25
403.974	87.25
404.198	102.25
404.422	91.25
404.645	81.25
404.869	79.25
405.093	93.25
405.317	95.25
405.541	105.25
405.765	99.25
405.988	113.25
406.212	173.25
406.436	208.25
406.66	139.25
406.883	83.25
407.107	85.25
407.331	98.25
407.555	99.25
407.778	99.25
408.002	92.25
408.226	97.25
408.449	85.25
408.673	94.25
408.896	89.25
409.12	89.25
409.344	87.25
409.567	85.25
409.791	81.25
410.014	92.25
410.238	91.25
410.461	100.25
410.685	80.25
410.908	117.25
411.132	103.25
411.355	110.25
411.578	83.25
411.802	81.25
412.025	86.25
412.249	101.25
412.472	90.25
412.695	96.25
412.919	84.25
413.142	88.25
413.365	78.25
413.589	94.25
413.812	91.25
414.035	92.25
414.258	88.25
414.482	84.25
414.705	90.25
414.928	80.25
415.151	81.25
415.374	85.25
415.597	94.25
415.821	86.25
416.044	67.25
416.267	80.25
416.49	94.25
416.713	90.25
416.936	93.25
417.159	88.25
417.382	79.25
417.605	96.25
417.828	105.25
418.051	101.25
418.274	81.25
418.497	92.25
418.72	88.25
418.943	85.25
419.166	86.25
419.389	89.25
419.611	88.25
419.834	83.25
420.057	86.25
420.28	81.25
420.503	96.25
420.726	84.25
420.948	85.25
421.171	98.25
421.394	91.25
421.617	92.25
421.839	94.25
422.062	92.25
422.285	91.25
422.507	85.25
422.73	101.25
422.953	102.25
423.175	97.25
423.398	80.25
423.621	92.25
423.843	85.25
424.066	91.25
424.288	83.25
424.511	96.25
424.733	88.25
424.956	100.25
425.178	91.25
425.401	96.25
425.623	98.25
425.846	100.25
426.068	80.25
426.291	93.25
426.513	93.25
426.735	93.25
426.958	89.25
427.18	107.25
427.402	124.25
427.625	149.25
427.847	133.25
428.069	128.25
428.292	101.25
428.514	85.25
428.736	93.25
428.958	87.25
429.181	88.25
429.403	70.25
429.625	78.25
429.847	88.25
430.069	109.25
430.292	95.25
430.514	90.25
430.736	90.25
430.958	90.25
431.18	94.25
431.402	82.25
431.624	89.25
431.846	75.25
432.068	72.25
432.29	82.25
432.512	90.25
432.734	80.25
432.956	98.25
433.178	89.25
433.4	100.25
433.622	78.25
433.844	83.25
434.066	85.25
434.287	94.25
434.509	90.25
434.731	85.25
434.953	81.25
435.175	76.25
435.397	81.25
435.618	97.25
435.84	94.25
436.062	115.25
436.284	115.25
436.505	96.25
436.727	95.25
436.949	84.25
437.17	101.25
437.392	84.25
437.614	88.25
437.835	115.25
438.057	106.25
438.278	101.25
438.5	92.25
438.721	120.25
438.943	90.25
439.165	101.25
439.386	82.25
439.608	81.25
439.829	93.25
440.05	116.25
440.272	133.25
440.493	97.25
440.715	90.25
440.936	105.25
441.158	108.25
441.379	90.25
441.6	99.25
441.822	104.25
442.043	99.25
442.264	110.25
442.486	97.25
442.707	102.25
442.928	105.25
443.149	134.25
443.371	117.25
443.592	104.25
443.813	113.25
444.034	101.25
444.255	76.25
444.476	85.25
444.698	84.25
444.919	93.25
445.14	121.25
445.361	108.25
445.582	116.25
445.803	139.25
446.024	153.25
446.245	144.25
446.466	97.25
446.687	96.25
446.908	84.25
447.129	72.25
447.35	86.25
447.571	78.25
447.792	94.25
448.013	96.25
448.234	108.25
448.455	104.25
448.675	110.25
448.896	124.25
449.117	89.25
449.338	115.25
449.559	132.25
449.779	119.25
450	97.25
450.221	75.25
450.442	91.25
450.662	90.25
450.883	96.25
451.104	101.25
451.324	100.25
451.545	84.25
451.766	92.25
451.986	87.25
452.207	88.25
452.428	99.25
452.648	88.25
452.869	108.25
453.089	121.25
453.31	114.25
453.53	88.25
453.751	91.25
453.971	94.25
454.192	111.25
454.412	81.25
454.633	92.25
454.853	97.25
455.073	71.25
455.294	81.25
455.514	89.25
455.734	77.25
455.955	74.25
456.175	91.25
456.395	88.25
456.616	86.25
456.836	79.25
457.056	91.25
457.276	82.25
457.497	93.25
457.717	94.25
457.937	83.25
458.157	89.25
458.377	89.25
458.598	110.25
458.818	143.25
459.038	160.25
459.258	114.25
459.478	97.25
459.698	91.25
459.918	83.25
460.138	78.25
460.358	97.25
460.578	82.25
460.798	75.25
461.018	95.25
461.238	77.25
461.458	61.25
461.678	90.25
461.898	86.25
462.118	90.25
462.338	84.25
462.558	74.25
462.777	96.25
462.997	99.25
463.217	75.25
463.437	82.25
463.657	79.25
463.876	93.25
464.096	97.25
464.316	93.25
464.536	82.25
464.755	105.25
464.975	105.25
465.195	166.25
465.414	152.25
465.634	100.25
465.854	90.25
466.073	98.25
466.293	71.25
466.512	91.25
466.732	77.25
466.951	91.25
467.171	90.25
467.391	89.25
467.61	112.25
467.829	114.25
468.049	186.25
468.268	215.25
468.488	104.25
468.707	89.25
468.927	90.25
469.146	85.25
469.365	76.25
469.585	104.25
469.804	96.25
470.023	92.25
470.243	85.25
470.462	104.25
470.681	98.25
470.901	105.25
471.12	63.25
471.339	82.25
471.558	80.25
471.777	120.25
471.997	119.25
472.216	305.25
472.435	549.25
472.654	166.25
472.873	109.25
473.092	94.25
473.311	77.25
473.53	91.25
473.749	90.25
473.968	89.25
474.187	101.25
474.406	89.25
474.625	80.25
474.844	81.25
475.063	75.25
475.282	100.25
475.501	100.25
475.72	101.25
475.939	80.25
476.158	88.25
476.377	77.25
476.596	95.25
476.814	101.25
477.033	91.25
477.252	96.25
477.471	99.25
477.69	95.25
477.908	88.25
478.127	90.25
478.346	83.25
478.564	86.25
478.783	95.25
479.002	90.25
479.22	76.25
479.439	93.25
479.658	104.25
479.876	104.25
480.095	89.25
480.313	110.25
480.532	99.25
480.751	132.25
480.969	288.25
481.188	958.25
481.406	590.25
481.624	150.25
481.843	74.25
482.061	89.25
482.28	82.25
482.498	95.25
482.717	91.25
482.935	72.25
483.153	89.25
483.372	85.25
483.59	81.25
483.808	85.25
484.027	91.25
484.245	83.25
484.463	101.25
484.681	85.25
484.9	97.25
485.118	93.25
485.336	85.25
485.554	101.25
485.772	99.25
485.99	113.25
486.209	108.25
486.427	91.25
486.645	109.25
486.863	117.25
487.081	103.25
487.299	93.25
487.517	107.25
487.735	84.25
487.953	92.25
488.171	95.25
488.389	103.25
488.607	86.25
488.825	86.25
489.043	79.25
489.261	97.25
489.479	87.25
489.696	97.25
489.914	79.25
490.132	79.25
490.35	89.25
490.568	93.25
490.786	99.25
491.003	92.25
491.221	94.25
491.439	75.25
491.657	94.25
491.874	96.25
492.092	94.25
492.31	83.25
492.527	89.25
492.745	82.25
492.963	90.25
493.18	91.25
493.398	90.25
493.615	97.25
493.833	81.25
494.05	81.25
494.268	89.25
494.485	84.25
494.703	85.25
494.92	97.25
495.138	68.25
495.355	94.25
495.573	94.25
495.79	80.25
496.008	82.25
496.225	89.25
496.442	76.25
496.66	96.25
496.877	77.25
497.094	84.25
497.312	84.25
497.529	89.25
497.746	78.25
497.963	74.25
498.181	88.25
498.398	97.25
498.615	109.25
498.832	101.25
499.049	93.25
499.267	97.25
499.484	95.25
499.701	97.25
499.918	91.25
500.135	98.25
500.352	107.25
500.569	90.25
500.786	89.25
501.003	89.25
501.22	87.25
501.437	80.25
501.654	99.25
501.871	99.25
502.088	92.25
502.305	74.25
502.522	83.25
502.739	97.25
502.956	94.25
503.172	82.25
503.389	97.25
503.606	97.25
503.823	102.25
504.04	88.25
504.256	95.25
504.473	94.25
504.69	94.25
504.907	86.25
505.123	95.25
505.34	72.25
505.557	82.25
505.773	97.25
505.99	83.25
506.207	88.25
506.423	97.25
506.64	98.25
506.856	83.25
507.073	94.25
507.289	90.25
507.506	82.25
507.722	105.25
507.939	111.25
508.155	86.25
508.372	97.25
508.588	69.25
508.805	90.25
509.021	92.25
509.238	103.25
509.454	94.25
509.67	78.25
509.887	94.25
510.103	118.25
510.319	194.25
510.536	700.25
510.752	2232.25
510.968	591.25
511.184	146.25
511.401	116.25
511.617	96.25
511.833	101.25
512.049	104.25
512.265	79.25
512.481	90.25
512.698	88.25
512.914	88.25
513.13	87.25
513.346	95.25
513.562	92.25
513.778	103.25
513.994	84.25
514.21	80.25
514.426	117.25
514.642	124.25
514.858	126.25
515.074	160.25
515.29	431.25
515.506	1468.25
515.721	522.25
515.937	142.25
