Data from Circ_1993_H10_HRD10591_00087.txt Node
Date: Wed Jan 03 11:44:19 EST 2024
User: Yrep
Spectrometer: HR+D1059
Trigger mode: 1
Integration Time (sec): 1.000000E-1
Scans to average: 1
Electric dark correction enabled: true
Nonlinearity correction enabled: false
Boxcar width: 0
XAxis mode: Wavelengths
Number of Pixels in Spectrum: 2048
>>>>>Begin Spectral Data<<<<<
223.165	-29.31
223.4	-29.31
223.635	-29.31
223.869	-21.31
224.104	-12.31
224.338	-17.31
224.573	-16.31
224.808	-1.31
225.042	4.69
225.277	-5.31
225.511	-12.31
225.746	1.69
225.98	-6.31
226.215	2.69
226.449	18.69
226.683	17.69
226.918	40.69
227.152	35.69
227.387	40.69
227.621	50.69
227.856	43.69
228.09	37.69
228.324	51.69
228.559	59.69
228.793	198.69
229.027	440.69
229.262	536.69
229.496	615.69
229.73	815.69
229.964	821.69
230.199	537.69
230.433	497.69
230.667	472.69
230.901	443.69
231.136	454.69
231.37	454.69
231.604	462.69
231.838	468.69
232.072	475.69
232.306	512.69
232.541	495.69
232.775	472.69
233.009	476.69
233.243	515.69
233.477	514.69
233.711	502.69
233.945	533.69
234.179	531.69
234.413	521.69
234.647	526.69
234.881	524.69
235.115	542.69
235.349	559.69
235.583	547.69
235.817	636.69
236.051	654.69
236.285	602.69
236.519	629.69
236.753	732.69
236.987	912.69
237.221	1401.69
237.455	1500.69
237.689	926.69
237.922	748.69
238.156	725.69
238.39	701.69
238.624	697.69
238.858	700.69
239.091	678.69
239.325	679.69
239.559	705.69
239.793	739.69
240.027	799.69
240.26	951.69
240.494	990.69
240.728	977.69
240.961	936.69
241.195	833.69
241.429	814.69
241.662	820.69
241.896	822.69
242.13	803.69
242.363	816.69
242.597	877.69
242.83	898.69
243.064	884.69
243.298	861.69
243.531	907.69
243.765	909.69
243.998	937.69
244.232	902.69
244.465	952.69
244.699	964.69
244.932	946.69
245.166	954.69
245.399	963.69
245.633	958.69
245.866	981.69
246.099	980.69
246.333	979.69
246.566	1018.69
246.8	1016.69
247.033	1052.69
247.266	1102.69
247.5	1128.69
247.733	1189.69
247.966	1165.69
248.2	1179.69
248.433	1216.69
248.666	1302.69
248.899	1406.69
249.133	1503.69
249.366	1509.69
249.599	1413.69
249.832	1326.69
250.066	1448.69
250.299	1612.69
250.532	1922.69
250.765	2056.69
250.998	1996.69
251.231	1824.69
251.465	1598.69
251.698	1501.69
251.931	1513.69
252.164	1492.69
252.397	1508.69
252.63	1595.69
252.863	1624.69
253.096	1786.69
253.329	1788.69
253.562	1701.69
253.795	1637.69
254.028	1647.69
254.261	1704.69
254.494	1941.69
254.727	2248.69
254.96	2311.69
255.193	2102.69
255.426	1996.69
255.659	2105.69
255.892	2538.69
256.124	3018.69
256.357	2750.69
256.59	2260.69
256.823	1979.69
257.056	1836.69
257.289	1781.69
257.521	1746.69
257.754	1725.69
257.987	1696.69
258.22	1675.69
258.452	1669.69
258.685	1681.69
258.918	1677.69
259.151	1716.69
259.383	1779.69
259.616	1789.69
259.849	1856.69
260.081	2008.69
260.314	2186.69
260.547	2149.69
260.779	1914.69
261.012	1875.69
261.244	1800.69
261.477	1803.69
261.71	1763.69
261.942	1854.69
262.175	1826.69
262.407	1777.69
262.64	1740.69
262.872	1765.69
263.105	1728.69
263.337	1726.69
263.57	1745.69
263.802	1751.69
264.035	1774.69
264.267	1758.69
264.499	1780.69
264.732	1769.69
264.964	1785.69
265.197	1808.69
265.429	1814.69
265.661	1823.69
265.894	1820.69
266.126	1825.69
266.358	1874.69
266.591	1890.69
266.823	1984.69
267.055	1968.69
267.287	1957.69
267.52	1924.69
267.752	1950.69
267.984	1997.69
268.216	1993.69
268.448	2047.69
268.681	2105.69
268.913	2277.69
269.145	2404.69
269.377	2486.69
269.609	2350.69
269.841	2330.69
270.073	2476.69
270.306	2726.69
270.538	2905.69
270.77	2684.69
271.002	2578.69
271.234	2565.69
271.466	2700.69
271.698	2831.69
271.93	2826.69
272.162	2850.69
272.394	2783.69
272.626	2620.69
272.858	2475.69
273.09	2392.69
273.322	2381.69
273.553	2344.69
273.785	2369.69
274.017	2323.69
274.249	2350.69
274.481	2377.69
274.713	2379.69
274.945	2444.69
275.176	2437.69
275.408	2449.69
275.64	2448.69
275.872	2433.69
276.104	2458.69
276.335	2492.69
276.567	2592.69
276.799	2720.69
277.031	3025.69
277.262	3107.69
277.494	2982.69
277.726	2824.69
277.957	2688.69
278.189	2639.69
278.421	2626.69
278.652	2575.69
278.884	2527.69
279.115	2531.69
279.347	2586.69
279.579	2565.69
279.81	2644.69
280.042	2616.69
280.273	2692.69
280.505	2675.69
280.736	2648.69
280.968	2651.69
281.199	2625.69
281.431	2637.69
281.662	2644.69
281.894	2643.69
282.125	2690.69
282.356	2883.69
282.588	3018.69
282.819	2824.69
283.051	2782.69
283.282	2712.69
283.513	2693.69
283.745	2764.69
283.976	2818.69
284.207	2829.69
284.439	2756.69
284.67	2755.69
284.901	2827.69
285.132	2809.69
285.364	2776.69
285.595	2792.69
285.826	2829.69
286.057	2847.69
286.288	2835.69
286.52	2856.69
286.751	2865.69
286.982	2881.69
287.213	2880.69
287.444	2960.69
287.675	2996.69
287.906	3101.69
288.138	3052.69
288.369	3056.69
288.6	3068.69
288.831	3028.69
289.062	3018.69
289.293	3045.69
289.524	2996.69
289.755	2960.69
289.986	2997.69
290.217	2977.69
290.448	2964.69
290.679	2988.69
290.91	2982.69
291.141	2982.69
291.371	3004.69
291.602	2997.69
291.833	2915.69
292.064	2987.69
292.295	2992.69
292.526	2998.69
292.757	2958.69
292.987	2959.69
293.218	3006.69
293.449	3027.69
293.68	2997.69
293.91	2982.69
294.141	3029.69
294.372	2971.69
294.603	3037.69
294.833	3056.69
295.064	3034.69
295.295	3076.69
295.525	3096.69
295.756	3097.69
295.987	3195.69
296.217	3365.69
296.448	3264.69
296.679	3100.69
296.909	3102.69
297.14	3101.69
297.37	3216.69
297.601	3217.69
297.831	3248.69
298.062	3191.69
298.292	3189.69
298.523	3302.69
298.753	3321.69
298.984	3250.69
299.214	3306.69
299.445	3232.69
299.675	3284.69
299.905	3390.69
300.136	3284.69
300.366	3328.69
300.597	3312.69
300.827	3447.69
301.057	3494.69
301.288	3581.69
301.518	3549.69
301.748	3611.69
301.979	3617.69
302.209	3609.69
302.439	3593.69
302.669	3563.69
302.9	3526.69
303.13	3524.69
303.36	3508.69
303.59	3537.69
303.82	3608.69
304.051	3589.69
304.281	3577.69
304.511	3443.69
304.741	3520.69
304.971	3532.69
305.201	3432.69
305.431	3437.69
305.661	3547.69
305.891	3475.69
306.121	3452.69
306.352	3574.69
306.582	3497.69
306.812	3454.69
307.042	3468.69
307.272	3536.69
307.502	3525.69
307.731	3505.69
307.961	3457.69
308.191	3472.69
308.421	3480.69
308.651	3442.69
308.881	3490.69
309.111	3546.69
309.341	3573.69
309.571	3688.69
309.8	3703.69
310.03	3763.69
310.26	3805.69
310.49	3860.69
310.72	3962.69
310.949	3983.69
311.179	3950.69
311.409	3848.69
311.639	3907.69
311.868	3860.69
312.098	3875.69
312.328	3991.69
312.557	4138.69
312.787	4226.69
313.017	4088.69
313.246	3998.69
313.476	3941.69
313.706	4012.69
313.935	4034.69
314.165	4186.69
314.394	4211.69
314.624	4147.69
314.853	4057.69
315.083	4024.69
315.312	3937.69
315.542	3962.69
315.771	3881.69
316.001	3879.69
316.23	3947.69
316.46	3988.69
316.689	3980.69
316.919	3989.69
317.148	4010.69
317.377	4012.69
317.607	4018.69
317.836	3950.69
318.065	3969.69
318.295	3933.69
318.524	3876.69
318.753	3934.69
318.983	3975.69
319.212	3895.69
319.441	3971.69
319.67	4066.69
319.9	3969.69
320.129	3955.69
320.358	4012.69
320.587	3962.69
320.816	4050.69
321.046	4096.69
321.275	4109.69
321.504	4096.69
321.733	4140.69
321.962	4203.69
322.191	4272.69
322.42	4378.69
322.649	4481.69
322.878	4530.69
323.108	4620.69
323.337	4802.69
323.566	5083.69
323.795	5317.69
324.024	6008.69
324.253	7830.69
324.482	11499.69
324.71	15529.69
324.939	15622.69
325.168	13378.69
325.397	6961.69
325.626	5636.69
325.855	5270.69
326.084	5125.69
326.313	5181.69
326.542	5372.69
326.77	5979.69
326.999	7567.69
327.228	10969.69
327.457	14753.69
327.686	14094.69
327.914	8207.69
328.143	7120.69
328.372	6866.69
328.6	6364.69
328.829	5970.69
329.058	6218.69
329.287	6193.69
329.515	6045.69
329.744	6117.69
329.972	6889.69
330.201	7849.69
330.43	8510.69
330.658	7460.69
330.887	6888.69
331.115	6228.69
331.344	5687.69
331.572	5649.69
331.801	5690.69
332.03	5609.69
332.258	5566.69
332.486	5564.69
332.715	5749.69
332.943	5908.69
333.172	6168.69
333.4	6397.69
333.629	6632.69
333.857	7228.69
334.085	7931.69
334.314	9091.69
334.542	10501.69
334.771	9713.69
334.999	7306.69
335.227	6418.69
335.455	6101.69
335.684	5859.69
335.912	5690.69
336.14	5534.69
336.369	5408.69
336.597	5567.69
336.825	5480.69
337.053	5272.69
337.281	5165.69
337.51	5157.69
337.738	5147.69
337.966	5098.69
338.194	5056.69
338.422	4984.69
338.65	4854.69
338.878	4872.69
339.106	4845.69
339.334	4823.69
339.562	4789.69
339.79	4686.69
340.018	4694.69
340.246	4750.69
340.474	4805.69
340.702	4697.69
340.93	4692.69
341.158	4678.69
341.386	4693.69
341.614	4703.69
341.842	4664.69
342.07	4601.69
342.298	4618.69
342.526	4571.69
342.754	4642.69
342.981	4648.69
343.209	4782.69
343.437	4912.69
343.665	5146.69
343.893	5403.69
344.12	5412.69
344.348	5259.69
344.576	5064.69
344.804	5021.69
345.031	4872.69
345.259	4845.69
345.487	4771.69
345.714	4659.69
345.942	4449.69
346.17	4495.69
346.397	4459.69
346.625	4468.69
346.853	4355.69
347.08	4432.69
347.308	4534.69
347.535	4559.69
347.763	4587.69
347.99	4580.69
348.218	4575.69
348.445	4584.69
348.673	4486.69
348.9	4402.69
349.128	4374.69
349.355	4325.69
349.583	4343.69
349.81	4346.69
350.037	4288.69
350.265	4272.69
350.492	4307.69
350.72	4253.69
350.947	4298.69
351.174	4464.69
351.402	4520.69
351.629	4383.69
351.856	4439.69
352.083	4525.69
352.311	4532.69
352.538	4500.69
352.765	4454.69
352.992	4394.69
353.22	4378.69
353.447	4324.69
353.674	4276.69
353.901	4245.69
354.128	4170.69
354.355	4184.69
354.583	4221.69
354.81	4228.69
355.037	4197.69
355.264	4130.69
355.491	4187.69
355.718	4096.69
355.945	4223.69
356.172	4190.69
356.399	4191.69
356.626	4237.69
356.853	4235.69
357.08	4172.69
357.307	4222.69
357.534	4152.69
357.761	4220.69
357.988	4258.69
358.215	4223.69
358.441	4205.69
358.668	4217.69
358.895	4297.69
359.122	4320.69
359.349	4405.69
359.576	4532.69
359.802	4703.69
360.029	4894.69
360.256	4838.69
360.483	4641.69
360.709	4474.69
360.936	4388.69
361.163	4477.69
361.39	4536.69
361.616	4466.69
361.843	4424.69
362.07	4467.69
362.296	4449.69
362.523	4416.69
362.749	4473.69
362.976	4413.69
363.203	4278.69
363.429	4315.69
363.656	4277.69
363.882	4333.69
364.109	4295.69
364.335	4299.69
364.562	4302.69
364.788	4310.69
365.015	4292.69
365.241	4275.69
365.468	4351.69
365.694	4356.69
365.92	4327.69
366.147	4325.69
366.373	4347.69
366.599	4312.69
366.826	4321.69
367.052	4220.69
367.278	4322.69
367.505	4350.69
367.731	4367.69
367.957	4333.69
368.184	4305.69
368.41	4488.69
368.636	4468.69
368.862	4520.69
369.089	4422.69
369.315	4396.69
369.541	4387.69
369.767	4446.69
369.993	4435.69
370.219	4425.69
370.445	4430.69
370.672	4490.69
370.898	4468.69
371.124	4484.69
371.35	4589.69
371.576	4569.69
371.802	4527.69
372.028	4563.69
372.254	4557.69
372.48	4616.69
372.706	4680.69
372.932	4750.69
373.158	4731.69
373.384	4627.69
373.61	4622.69
373.835	4641.69
374.061	4591.69
374.287	4667.69
374.513	4758.69
374.739	4837.69
374.965	5006.69
375.191	4976.69
375.416	4959.69
375.642	4765.69
375.868	4716.69
376.094	4635.69
376.319	4645.69
376.545	4605.69
376.771	4587.69
376.997	4625.69
377.222	4569.69
377.448	4522.69
377.674	4511.69
377.899	4535.69
378.125	4547.69
378.35	4466.69
378.576	4462.69
378.802	4504.69
379.027	4543.69
379.253	4547.69
379.478	4517.69
379.704	4481.69
379.929	4559.69
380.155	4581.69
380.38	4586.69
380.606	4560.69
380.831	4559.69
381.057	4614.69
381.282	4611.69
381.507	4619.69
381.733	4679.69
381.958	4645.69
382.184	4712.69
382.409	4764.69
382.634	4765.69
382.86	4781.69
383.085	4842.69
383.31	4908.69
383.535	5008.69
383.761	5077.69
383.986	5144.69
384.211	5189.69
384.436	5258.69
384.662	5369.69
384.887	5473.69
385.112	5384.69
385.337	5509.69
385.562	5440.69
385.787	5516.69
386.013	5669.69
386.238	5558.69
386.463	5597.69
386.688	5542.69
386.913	5450.69
387.138	5476.69
387.363	5531.69
387.588	5385.69
387.813	5479.69
388.038	5416.69
388.263	5466.69
388.488	5448.69
388.713	5440.69
388.938	5430.69
389.163	5349.69
389.387	5403.69
389.612	5306.69
389.837	5368.69
390.062	5293.69
390.287	5396.69
390.512	5330.69
390.736	5420.69
390.961	5601.69
391.186	5689.69
391.411	5713.69
391.636	5890.69
391.86	6138.69
392.085	6088.69
392.31	5955.69
392.534	5882.69
392.759	5785.69
392.984	5797.69
393.208	5701.69
393.433	5681.69
393.658	5698.69
393.882	5654.69
394.107	5683.69
394.331	5761.69
394.556	5757.69
394.78	5814.69
395.005	5777.69
395.229	5886.69
395.454	6029.69
395.678	6159.69
395.903	6160.69
396.127	6160.69
396.352	5899.69
396.576	5794.69
396.801	5776.69
397.025	5880.69
397.249	6000.69
397.474	6146.69
397.698	6181.69
397.922	6332.69
398.147	6453.69
398.371	6490.69
398.595	6658.69
398.82	6916.69
399.044	7505.69
399.268	8322.69
399.492	9352.69
399.717	9972.69
399.941	9692.69
400.165	9183.69
400.389	8450.69
400.613	7608.69
400.837	7160.69
401.062	6981.69
401.286	6924.69
401.51	6893.69
401.734	6800.69
401.958	6991.69
402.182	7153.69
402.406	7162.69
402.63	7340.69
402.854	7389.69
403.078	7372.69
403.302	7624.69
403.526	7704.69
403.75	7775.69
403.974	7739.69
404.198	7793.69
404.422	8062.69
404.645	7974.69
404.869	8174.69
405.093	8626.69
405.317	9117.69
405.541	8994.69
405.765	8187.69
405.988	7822.69
406.212	7914.69
406.436	8059.69
406.66	8203.69
406.883	8214.69
407.107	8694.69
407.331	9229.69
407.555	9765.69
407.778	9449.69
408.002	8674.69
408.226	8310.69
408.449	8252.69
408.673	8133.69
408.896	8180.69
409.12	8328.69
409.344	7876.69
409.567	7596.69
409.791	7569.69
410.014	7468.69
410.238	7407.69
410.461	7398.69
410.685	7472.69
410.908	7514.69
411.132	7733.69
411.355	7795.69
411.578	7397.69
411.802	7285.69
412.025	7437.69
412.249	7854.69
412.472	8227.69
412.695	8708.69
412.919	8053.69
413.142	7482.69
413.365	7224.69
413.589	7201.69
413.812	6985.69
414.035	6921.69
414.258	6872.69
414.482	6933.69
414.705	6895.69
414.928	6941.69
415.151	6826.69
415.374	6858.69
415.597	6670.69
415.821	6663.69
416.044	6713.69
416.267	6666.69
416.49	6694.69
416.713	6560.69
416.936	6667.69
417.159	6672.69
417.382	6778.69
417.605	6925.69
417.828	6929.69
418.051	7072.69
418.274	6861.69
418.497	6739.69
418.72	6991.69
418.943	6921.69
419.166	7377.69
419.389	7769.69
419.611	7621.69
419.834	7508.69
420.057	7560.69
420.28	7690.69
420.503	7445.69
420.726	7304.69
420.948	7329.69
421.171	7616.69
421.394	7442.69
421.617	7056.69
421.839	6956.69
422.062	7020.69
422.285	7222.69
422.507	7889.69
422.73	8464.69
422.953	7731.69
423.175	7238.69
423.398	7389.69
423.621	7352.69
423.843	7636.69
424.066	7576.69
424.288	7394.69
424.511	7640.69
424.733	8114.69
424.956	8536.69
425.178	8053.69
425.401	8212.69
425.623	7989.69
425.846	7107.69
426.068	6992.69
426.291	6840.69
426.513	6934.69
426.735	7018.69
426.958	7451.69
427.18	8214.69
427.402	9427.69
427.625	9707.69
427.847	8628.69
428.069	8186.69
428.292	7158.69
428.514	6649.69
428.736	6426.69
428.958	6393.69
429.181	6132.69
429.403	6150.69
429.625	6343.69
429.847	6607.69
430.069	7168.69
430.292	6667.69
430.514	6168.69
430.736	6079.69
430.958	6017.69
431.18	5945.69
431.402	5986.69
431.624	5938.69
431.846	6009.69
432.068	6108.69
432.29	6187.69
432.512	6028.69
432.734	6143.69
432.956	6048.69
433.178	6156.69
433.4	6133.69
433.622	6083.69
433.844	6088.69
434.066	6152.69
434.287	6204.69
434.509	6446.69
434.731	6685.69
434.953	6817.69
435.175	6881.69
435.397	7055.69
435.618	6843.69
435.84	7328.69
436.062	8136.69
436.284	8090.69
436.505	6906.69
436.727	6590.69
436.949	6248.69
437.17	6128.69
437.392	6187.69
437.614	6246.69
437.835	6685.69
438.057	7638.69
438.278	8259.69
438.5	8226.69
438.721	9105.69
438.943	7812.69
439.165	6637.69
439.386	6458.69
439.608	6548.69
439.829	6691.69
440.05	7028.69
440.272	7400.69
440.493	6786.69
440.715	6442.69
440.936	6418.69
441.158	6460.69
441.379	6660.69
441.6	6928.69
441.822	7194.69
442.043	7592.69
442.264	8404.69
442.486	8019.69
442.707	7162.69
442.928	7085.69
443.149	7252.69
443.371	7473.69
443.592	8064.69
443.813	9011.69
444.034	9002.69
444.255	7849.69
444.476	7639.69
444.698	7802.69
444.919	7939.69
445.14	7694.69
445.361	7528.69
445.582	7724.69
445.803	8442.69
446.024	9082.69
446.245	8637.69
446.466	7774.69
446.687	6735.69
446.908	6424.69
447.129	6039.69
447.35	5914.69
447.571	5913.69
447.792	5831.69
448.013	5926.69
448.234	6102.69
448.455	6836.69
448.675	8076.69
448.896	8433.69
449.117	6948.69
449.338	7223.69
449.559	8616.69
449.779	8741.69
450	6709.69
450.221	5964.69
450.442	5871.69
450.662	5731.69
450.883	5834.69
451.104	5940.69
451.324	5729.69
451.545	5598.69
451.766	5508.69
451.986	5349.69
452.207	5322.69
452.428	5337.69
452.648	5338.69
452.869	5401.69
453.089	5456.69
453.31	5578.69
453.53	5404.69
453.751	5280.69
453.971	5340.69
454.192	5354.69
454.412	5177.69
454.633	5227.69
454.853	5110.69
455.073	5162.69
455.294	5576.69
455.514	6162.69
455.734	5580.69
455.955	5048.69
456.175	4997.69
456.395	4870.69
456.616	4856.69
456.836	4911.69
457.056	4850.69
457.276	4841.69
457.497	5019.69
457.717	5012.69
457.937	5094.69
458.157	5077.69
458.377	5195.69
458.598	5621.69
458.818	6275.69
459.038	7075.69
459.258	6924.69
459.478	6262.69
459.698	6100.69
459.918	6188.69
460.138	6365.69
460.358	6548.69
460.578	6602.69
460.798	6634.69
461.018	6625.69
461.238	6554.69
461.458	6521.69
461.678	6452.69
461.898	6660.69
462.118	6725.69
462.338	7148.69
462.558	7317.69
462.777	7520.69
462.997	8156.69
463.217	8473.69
463.437	8297.69
463.657	7768.69
463.876	7516.69
464.096	7543.69
464.316	7555.69
464.536	7581.69
464.755	7338.69
464.975	7295.69
465.195	7422.69
465.414	7381.69
465.634	6552.69
465.854	6234.69
466.073	5988.69
466.293	5806.69
466.512	5706.69
466.732	5612.69
466.951	5562.69
467.171	5561.69
467.391	5698.69
467.61	5691.69
467.829	5737.69
468.049	6040.69
468.268	6176.69
468.488	5640.69
468.707	5509.69
468.927	5420.69
469.146	5414.69
469.365	5409.69
469.585	5446.69
469.804	5604.69
470.023	5848.69
470.243	5793.69
470.462	5964.69
470.681	5926.69
470.901	5902.69
471.12	5731.69
471.339	5695.69
471.558	5676.69
471.777	5608.69
471.997	5813.69
472.216	6597.69
472.435	8234.69
472.654	6844.69
472.873	6002.69
473.092	5778.69
473.311	5660.69
473.53	5684.69
473.749	5695.69
473.968	6177.69
474.187	7230.69
474.406	6570.69
474.625	5773.69
474.844	5468.69
475.063	5403.69
475.282	5441.69
475.501	5493.69
475.72	5509.69
475.939	5526.69
476.158	5636.69
476.377	5571.69
476.596	5558.69
476.814	5747.69
477.033	5822.69
477.252	5862.69
477.471	5987.69
477.69	6125.69
477.908	6202.69
478.127	6380.69
478.346	6372.69
478.564	6545.69
478.783	6565.69
479.002	6772.69
479.22	6826.69
479.439	6861.69
479.658	7000.69
479.876	7170.69
480.095	7345.69
480.313	7726.69
480.532	7737.69
480.751	7859.69
480.969	8613.69
481.188	11681.69
481.406	11384.69
481.624	8717.69
481.843	7719.69
482.061	7311.69
482.28	6988.69
482.498	6795.69
482.717	6681.69
482.935	6568.69
483.153	6576.69
483.372	6542.69
483.59	6458.69
483.808	6508.69
484.027	6482.69
484.245	6595.69
484.463	6501.69
484.681	6699.69
484.9	6657.69
485.118	6666.69
485.336	6707.69
485.554	6747.69
485.772	6796.69
485.99	6799.69
486.209	6953.69
486.427	6917.69
486.645	6914.69
486.863	7083.69
487.081	7039.69
487.299	6987.69
487.517	6892.69
487.735	6888.69
