Data from Circ_1993_H10_HRD10591_00022.txt Node
Date: Wed Jan 03 11:44:06 EST 2024
User: Yrep
Spectrometer: HR+D1059
Trigger mode: 1
Integration Time (sec): 1.000000E-1
Scans to average: 1
Electric dark correction enabled: true
Nonlinearity correction enabled: false
Boxcar width: 0
XAxis mode: Wavelengths
Number of Pixels in Spectrum: 2048
>>>>>Begin Spectral Data<<<<<
223.165	-9.81
223.4	-9.81
223.635	-9.81
223.869	-18.81
224.104	-29.81
224.338	-16.81
224.573	-19.81
224.808	-19.81
225.042	-2.81
225.277	9.19
225.511	0.19
225.746	9.19
225.98	15.19
226.215	13.19
226.449	11.19
226.683	13.19
226.918	19.19
227.152	27.19
227.387	35.19
227.621	48.19
227.856	50.19
228.09	39.19
228.324	52.19
228.559	56.19
228.793	53.19
229.027	71.19
229.262	55.19
229.496	81.19
229.73	58.19
229.964	79.19
230.199	66.19
230.433	80.19
230.667	74.19
230.901	86.19
231.136	75.19
231.37	85.19
231.604	80.19
231.838	71.19
232.072	84.19
232.306	81.19
232.541	75.19
232.775	80.19
233.009	75.19
233.243	78.19
233.477	95.19
233.711	79.19
233.945	90.19
234.179	74.19
234.413	91.19
234.647	84.19
234.881	76.19
235.115	71.19
235.349	63.19
235.583	77.19
235.817	76.19
236.051	87.19
236.285	94.19
236.519	84.19
236.753	68.19
236.987	94.19
237.221	78.19
237.455	77.19
237.689	80.19
237.922	79.19
238.156	77.19
238.39	68.19
238.624	86.19
238.858	72.19
239.091	74.19
239.325	82.19
239.559	74.19
239.793	75.19
240.027	86.19
240.26	79.19
240.494	78.19
240.728	80.19
240.961	69.19
241.195	73.19
241.429	79.19
241.662	82.19
241.896	86.19
242.13	71.19
242.363	61.19
242.597	69.19
242.83	74.19
243.064	85.19
243.298	77.19
243.531	69.19
243.765	81.19
243.998	97.19
244.232	70.19
244.465	90.19
244.699	67.19
244.932	69.19
245.166	73.19
245.399	86.19
245.633	93.19
245.866	83.19
246.099	73.19
246.333	85.19
246.566	82.19
246.8	89.19
247.033	75.19
247.266	77.19
247.5	83.19
247.733	86.19
247.966	96.19
248.2	73.19
248.433	75.19
248.666	74.19
248.899	91.19
249.133	82.19
249.366	88.19
249.599	84.19
249.832	84.19
250.066	86.19
250.299	94.19
250.532	87.19
250.765	85.19
250.998	66.19
251.231	78.19
251.465	77.19
251.698	81.19
251.931	78.19
252.164	82.19
252.397	79.19
252.63	88.19
252.863	89.19
253.096	94.19
253.329	84.19
253.562	79.19
253.795	81.19
254.028	87.19
254.261	77.19
254.494	84.19
254.727	76.19
254.96	73.19
255.193	81.19
255.426	89.19
255.659	90.19
255.892	87.19
256.124	80.19
256.357	79.19
256.59	69.19
256.823	81.19
257.056	85.19
257.289	81.19
257.521	80.19
257.754	74.19
257.987	68.19
258.22	87.19
258.452	92.19
258.685	85.19
258.918	84.19
259.151	84.19
259.383	74.19
259.616	76.19
259.849	87.19
260.081	74.19
260.314	83.19
260.547	71.19
260.779	95.19
261.012	85.19
261.244	88.19
261.477	71.19
261.71	95.19
261.942	99.19
262.175	106.19
262.407	84.19
262.64	83.19
262.872	83.19
263.105	86.19
263.337	77.19
263.57	83.19
263.802	91.19
264.035	81.19
264.267	92.19
264.499	86.19
264.732	85.19
264.964	89.19
265.197	84.19
265.429	85.19
265.661	84.19
265.894	90.19
266.126	85.19
266.358	89.19
266.591	86.19
266.823	85.19
267.055	73.19
267.287	76.19
267.52	77.19
267.752	100.19
267.984	79.19
268.216	79.19
268.448	81.19
268.681	80.19
268.913	100.19
269.145	82.19
269.377	70.19
269.609	86.19
269.841	92.19
270.073	83.19
270.306	68.19
270.538	97.19
270.77	84.19
271.002	80.19
271.234	90.19
271.466	92.19
271.698	99.19
271.93	89.19
272.162	77.19
272.394	71.19
272.626	94.19
272.858	91.19
273.09	82.19
273.322	91.19
273.553	79.19
273.785	86.19
274.017	90.19
274.249	75.19
274.481	95.19
274.713	89.19
274.945	96.19
275.176	88.19
275.408	88.19
275.64	92.19
275.872	92.19
276.104	91.19
276.335	101.19
276.567	110.19
276.799	95.19
277.031	101.19
277.262	93.19
277.494	95.19
277.726	78.19
277.957	81.19
278.189	84.19
278.421	98.19
278.652	90.19
278.884	84.19
279.115	89.19
279.347	77.19
279.579	83.19
279.81	84.19
280.042	96.19
280.273	98.19
280.505	100.19
280.736	69.19
280.968	96.19
281.199	98.19
281.431	84.19
281.662	91.19
281.894	95.19
282.125	97.19
282.356	118.19
282.588	138.19
282.819	109.19
283.051	77.19
283.282	89.19
283.513	84.19
283.745	66.19
283.976	69.19
284.207	90.19
284.439	96.19
284.67	97.19
284.901	81.19
285.132	89.19
285.364	87.19
285.595	80.19
285.826	90.19
286.057	84.19
286.288	79.19
286.52	79.19
286.751	97.19
286.982	103.19
287.213	80.19
287.444	100.19
287.675	75.19
287.906	73.19
288.138	69.19
288.369	96.19
288.6	89.19
288.831	101.19
289.062	83.19
289.293	93.19
289.524	89.19
289.755	90.19
289.986	99.19
290.217	93.19
290.448	88.19
290.679	98.19
290.91	105.19
291.141	93.19
291.371	82.19
291.602	82.19
291.833	83.19
292.064	102.19
292.295	95.19
292.526	98.19
292.757	91.19
292.987	100.19
293.218	84.19
293.449	105.19
293.68	74.19
293.91	103.19
294.141	86.19
294.372	85.19
294.603	77.19
294.833	83.19
295.064	95.19
295.295	111.19
295.525	103.19
295.756	101.19
295.987	119.19
296.217	128.19
296.448	114.19
296.679	100.19
296.909	98.19
297.14	104.19
297.37	90.19
297.601	85.19
297.831	81.19
298.062	95.19
298.292	101.19
298.523	99.19
298.753	91.19
298.984	86.19
299.214	95.19
299.445	92.19
299.675	86.19
299.905	102.19
300.136	80.19
300.366	87.19
300.597	93.19
300.827	93.19
301.057	91.19
301.288	111.19
301.518	96.19
301.748	87.19
301.979	97.19
302.209	70.19
302.439	90.19
302.669	92.19
302.9	85.19
303.13	91.19
303.36	103.19
303.59	103.19
303.82	99.19
304.051	96.19
304.281	87.19
304.511	95.19
304.741	94.19
304.971	90.19
305.201	86.19
305.431	95.19
305.661	85.19
305.891	75.19
306.121	86.19
306.352	102.19
306.582	98.19
306.812	99.19
307.042	100.19
307.272	92.19
307.502	98.19
307.731	96.19
307.961	92.19
308.191	93.19
308.421	89.19
308.651	101.19
308.881	81.19
309.111	84.19
309.341	94.19
309.571	103.19
309.8	91.19
310.03	102.19
310.26	95.19
310.49	90.19
310.72	101.19
310.949	90.19
311.179	95.19
311.409	87.19
311.639	91.19
311.868	85.19
312.098	88.19
312.328	95.19
312.557	100.19
312.787	103.19
313.017	103.19
313.246	109.19
313.476	87.19
313.706	91.19
313.935	100.19
314.165	109.19
314.394	95.19
314.624	102.19
314.853	100.19
315.083	108.19
315.312	106.19
315.542	91.19
315.771	83.19
316.001	99.19
316.23	77.19
316.46	89.19
316.689	99.19
316.919	90.19
317.148	86.19
317.377	87.19
317.607	96.19
317.836	84.19
318.065	89.19
318.295	88.19
318.524	97.19
318.753	94.19
318.983	95.19
319.212	89.19
319.441	107.19
319.67	94.19
319.9	81.19
320.129	93.19
320.358	92.19
320.587	88.19
320.816	99.19
321.046	86.19
321.275	93.19
321.504	93.19
321.733	80.19
321.962	84.19
322.191	95.19
322.42	94.19
322.649	102.19
322.878	103.19
323.108	113.19
323.337	118.19
323.566	112.19
323.795	122.19
324.024	179.19
324.253	329.19
324.482	646.19
324.71	1343.19
324.939	1719.19
325.168	656.19
325.397	209.19
325.626	144.19
325.855	121.19
326.084	120.19
326.313	127.19
326.542	130.19
326.77	224.19
326.999	403.19
327.228	790.19
327.457	1365.19
327.686	1077.19
327.914	310.19
328.143	177.19
328.372	133.19
328.6	107.19
328.829	110.19
329.058	117.19
329.287	110.19
329.515	109.19
329.744	104.19
329.972	113.19
330.201	123.19
330.43	137.19
330.658	125.19
330.887	131.19
331.115	122.19
331.344	101.19
331.572	95.19
331.801	95.19
332.03	97.19
332.258	90.19
332.486	93.19
332.715	111.19
332.943	103.19
333.172	95.19
333.4	93.19
333.629	107.19
333.857	90.19
334.085	106.19
334.314	116.19
334.542	138.19
334.771	122.19
334.999	102.19
335.227	98.19
335.455	100.19
335.684	103.19
335.912	90.19
336.14	99.19
336.369	103.19
336.597	107.19
336.825	96.19
337.053	96.19
337.281	98.19
337.51	97.19
337.738	109.19
337.966	92.19
338.194	108.19
338.422	90.19
338.65	92.19
338.878	91.19
339.106	86.19
339.334	86.19
339.562	83.19
339.79	80.19
340.018	93.19
340.246	91.19
340.474	98.19
340.702	91.19
340.93	91.19
341.158	85.19
341.386	92.19
341.614	101.19
341.842	92.19
342.07	94.19
342.298	90.19
342.526	82.19
342.754	66.19
342.981	81.19
343.209	85.19
343.437	109.19
343.665	92.19
343.893	96.19
344.12	89.19
344.348	87.19
344.576	80.19
344.804	99.19
345.031	95.19
345.259	99.19
345.487	97.19
345.714	108.19
345.942	97.19
346.17	80.19
346.397	107.19
346.625	88.19
346.853	100.19
347.08	88.19
347.308	103.19
347.535	93.19
347.763	96.19
347.99	92.19
348.218	109.19
348.445	94.19
348.673	91.19
348.9	100.19
349.128	87.19
349.355	95.19
349.583	101.19
349.81	100.19
350.037	108.19
350.265	102.19
350.492	96.19
350.72	99.19
350.947	112.19
351.174	107.19
351.402	104.19
351.629	110.19
351.856	94.19
352.083	98.19
352.311	99.19
352.538	110.19
352.765	105.19
352.992	121.19
353.22	98.19
353.447	103.19
353.674	98.19
353.901	110.19
354.128	98.19
354.355	91.19
354.583	90.19
354.81	95.19
355.037	106.19
355.264	94.19
355.491	121.19
355.718	80.19
355.945	92.19
356.172	87.19
356.399	88.19
356.626	94.19
356.853	86.19
357.08	88.19
357.307	97.19
357.534	91.19
357.761	99.19
357.988	100.19
358.215	91.19
358.441	106.19
358.668	103.19
358.895	101.19
359.122	106.19
359.349	98.19
359.576	100.19
359.802	91.19
360.029	98.19
360.256	106.19
360.483	89.19
360.709	90.19
360.936	91.19
361.163	103.19
361.39	95.19
361.616	90.19
361.843	99.19
362.07	93.19
362.296	90.19
362.523	98.19
362.749	82.19
362.976	91.19
363.203	90.19
363.429	93.19
363.656	87.19
363.882	93.19
364.109	86.19
364.335	81.19
364.562	99.19
364.788	89.19
365.015	78.19
365.241	94.19
365.468	95.19
365.694	121.19
365.92	99.19
366.147	89.19
366.373	87.19
366.599	87.19
366.826	86.19
367.052	88.19
367.278	101.19
367.505	90.19
367.731	83.19
367.957	85.19
368.184	81.19
368.41	95.19
368.636	95.19
368.862	118.19
369.089	101.19
369.315	83.19
369.541	83.19
369.767	89.19
369.993	90.19
370.219	86.19
370.445	80.19
370.672	91.19
370.898	102.19
371.124	89.19
371.35	97.19
371.576	85.19
371.802	73.19
372.028	90.19
372.254	90.19
372.48	89.19
372.706	88.19
372.932	90.19
373.158	90.19
373.384	98.19
373.61	77.19
373.835	83.19
374.061	81.19
374.287	80.19
374.513	78.19
374.739	60.19
374.965	97.19
375.191	83.19
375.416	96.19
375.642	111.19
375.868	87.19
376.094	89.19
376.319	89.19
376.545	89.19
376.771	79.19
376.997	89.19
377.222	94.19
377.448	81.19
377.674	86.19
377.899	99.19
378.125	94.19
378.35	84.19
378.576	97.19
378.802	95.19
379.027	103.19
379.253	86.19
379.478	101.19
379.704	93.19
379.929	87.19
380.155	99.19
380.38	94.19
380.606	102.19
380.831	87.19
381.057	108.19
381.282	102.19
381.507	94.19
381.733	104.19
381.958	108.19
382.184	98.19
382.409	104.19
382.634	125.19
382.86	115.19
383.085	131.19
383.31	110.19
383.535	111.19
383.761	114.19
383.986	112.19
384.211	117.19
384.436	105.19
384.662	125.19
384.887	106.19
385.112	117.19
385.337	122.19
385.562	130.19
385.787	105.19
386.013	117.19
386.238	139.19
386.463	121.19
386.688	118.19
386.913	111.19
387.138	134.19
387.363	127.19
387.588	105.19
387.813	114.19
388.038	148.19
388.263	130.19
388.488	129.19
388.713	109.19
388.938	98.19
389.163	89.19
389.387	105.19
389.612	93.19
389.837	100.19
390.062	95.19
390.287	77.19
390.512	95.19
390.736	94.19
390.961	101.19
391.186	103.19
391.411	99.19
391.636	98.19
391.86	83.19
392.085	90.19
392.31	89.19
392.534	77.19
392.759	87.19
392.984	100.19
393.208	115.19
393.433	169.19
393.658	128.19
393.882	111.19
394.107	93.19
394.331	82.19
394.556	85.19
394.78	97.19
395.005	96.19
395.229	86.19
395.454	98.19
395.678	85.19
395.903	98.19
396.127	93.19
396.352	95.19
396.576	85.19
396.801	117.19
397.025	126.19
397.249	88.19
397.474	101.19
397.698	83.19
397.922	98.19
398.147	103.19
398.371	93.19
398.595	81.19
398.82	79.19
399.044	89.19
399.268	96.19
399.492	75.19
399.717	86.19
399.941	101.19
400.165	107.19
400.389	94.19
400.613	100.19
400.837	104.19
401.062	89.19
401.286	74.19
401.51	90.19
401.734	97.19
401.958	84.19
402.182	116.19
402.406	131.19
402.63	114.19
402.854	103.19
403.078	82.19
403.302	83.19
403.526	90.19
403.75	106.19
403.974	74.19
404.198	95.19
404.422	99.19
404.645	68.19
404.869	81.19
405.093	89.19
405.317	95.19
405.541	94.19
405.765	89.19
405.988	111.19
406.212	141.19
406.436	186.19
406.66	115.19
406.883	94.19
407.107	83.19
407.331	96.19
407.555	97.19
407.778	105.19
408.002	94.19
408.226	79.19
408.449	82.19
408.673	84.19
408.896	108.19
409.12	99.19
409.344	71.19
409.567	94.19
409.791	105.19
410.014	87.19
410.238	98.19
410.461	102.19
410.685	80.19
410.908	81.19
411.132	93.19
411.355	97.19
411.578	90.19
411.802	92.19
412.025	89.19
412.249	95.19
412.472	111.19
412.695	105.19
412.919	85.19
413.142	92.19
413.365	78.19
413.589	83.19
413.812	101.19
414.035	81.19
414.258	86.19
414.482	83.19
414.705	86.19
414.928	89.19
415.151	79.19
415.374	96.19
415.597	92.19
415.821	85.19
416.044	82.19
416.267	110.19
416.49	75.19
416.713	106.19
416.936	86.19
417.159	82.19
417.382	94.19
417.605	79.19
417.828	98.19
418.051	94.19
418.274	91.19
418.497	82.19
418.72	94.19
418.943	67.19
419.166	77.19
419.389	83.19
419.611	85.19
419.834	101.19
420.057	98.19
420.28	93.19
420.503	81.19
420.726	84.19
420.948	84.19
421.171	90.19
421.394	91.19
421.617	85.19
421.839	92.19
422.062	97.19
422.285	96.19
422.507	96.19
422.73	120.19
422.953	107.19
423.175	97.19
423.398	84.19
423.621	88.19
423.843	98.19
424.066	86.19
424.288	79.19
424.511	86.19
424.733	83.19
424.956	90.19
425.178	88.19
425.401	108.19
425.623	90.19
425.846	94.19
426.068	85.19
426.291	83.19
426.513	93.19
426.735	102.19
426.958	89.19
427.18	95.19
427.402	114.19
427.625	139.19
427.847	122.19
428.069	114.19
428.292	93.19
428.514	93.19
428.736	91.19
428.958	88.19
429.181	81.19
429.403	85.19
429.625	91.19
429.847	95.19
430.069	100.19
430.292	96.19
430.514	75.19
430.736	83.19
430.958	97.19
431.18	80.19
431.402	81.19
431.624	94.19
431.846	81.19
432.068	87.19
432.29	91.19
432.512	84.19
432.734	74.19
432.956	92.19
433.178	103.19
433.4	102.19
433.622	93.19
433.844	74.19
434.066	99.19
434.287	108.19
434.509	87.19
434.731	94.19
434.953	100.19
435.175	96.19
435.397	79.19
435.618	88.19
435.84	100.19
436.062	110.19
436.284	94.19
436.505	86.19
436.727	98.19
436.949	94.19
437.17	90.19
437.392	99.19
437.614	92.19
437.835	89.19
438.057	103.19
438.278	105.19
438.5	106.19
438.721	112.19
438.943	97.19
439.165	78.19
439.386	92.19
439.608	95.19
439.829	101.19
440.05	101.19
440.272	127.19
440.493	100.19
440.715	88.19
440.936	103.19
441.158	91.19
441.379	93.19
441.6	83.19
441.822	89.19
442.043	97.19
442.264	109.19
442.486	96.19
442.707	94.19
442.928	104.19
443.149	122.19
443.371	111.19
443.592	84.19
443.813	109.19
444.034	103.19
444.255	85.19
444.476	84.19
444.698	87.19
444.919	90.19
445.14	118.19
445.361	107.19
445.582	121.19
445.803	121.19
446.024	117.19
446.245	126.19
446.466	91.19
446.687	94.19
446.908	86.19
447.129	91.19
447.35	82.19
447.571	98.19
447.792	76.19
448.013	95.19
448.234	95.19
448.455	104.19
448.675	108.19
448.896	109.19
449.117	95.19
449.338	91.19
449.559	111.19
449.779	125.19
450	98.19
450.221	83.19
450.442	93.19
450.662	85.19
450.883	91.19
451.104	102.19
451.324	87.19
451.545	84.19
451.766	75.19
451.986	91.19
452.207	99.19
452.428	88.19
452.648	99.19
452.869	98.19
453.089	110.19
453.31	108.19
453.53	93.19
453.751	98.19
453.971	88.19
454.192	93.19
454.412	85.19
454.633	74.19
454.853	89.19
455.073	110.19
455.294	92.19
455.514	92.19
455.734	84.19
455.955	74.19
456.175	79.19
456.395	108.19
456.616	91.19
456.836	88.19
457.056	90.19
457.276	95.19
457.497	97.19
457.717	75.19
457.937	79.19
458.157	84.19
458.377	97.19
458.598	111.19
458.818	131.19
459.038	138.19
459.258	99.19
459.478	86.19
459.698	97.19
459.918	86.19
460.138	83.19
460.358	84.19
460.578	87.19
460.798	92.19
461.018	104.19
461.238	82.19
461.458	64.19
461.678	83.19
461.898	78.19
462.118	85.19
462.338	94.19
462.558	80.19
462.777	89.19
462.997	89.19
463.217	84.19
463.437	86.19
463.657	80.19
463.876	90.19
464.096	91.19
464.316	92.19
464.536	96.19
464.755	93.19
464.975	106.19
465.195	142.19
465.414	135.19
465.634	101.19
465.854	70.19
466.073	77.19
466.293	76.19
466.512	93.19
466.732	85.19
466.951	82.19
467.171	103.19
467.391	91.19
467.61	100.19
467.829	85.19
468.049	103.19
468.268	117.19
468.488	93.19
468.707	93.19
468.927	70.19
469.146	73.19
469.365	79.19
469.585	86.19
469.804	94.19
470.023	101.19
470.243	79.19
470.462	95.19
470.681	120.19
470.901	89.19
471.12	82.19
471.339	90.19
471.558	87.19
471.777	93.19
471.997	91.19
472.216	116.19
472.435	137.19
472.654	109.19
472.873	91.19
473.092	83.19
473.311	86.19
473.53	87.19
473.749	77.19
473.968	83.19
474.187	97.19
474.406	100.19
474.625	96.19
474.844	81.19
475.063	87.19
475.282	83.19
475.501	83.19
475.72	77.19
475.939	95.19
476.158	83.19
476.377	91.19
476.596	95.19
476.814	82.19
477.033	81.19
477.252	80.19
477.471	99.19
477.69	95.19
477.908	97.19
478.127	90.19
478.346	90.19
478.564	92.19
478.783	83.19
479.002	94.19
479.22	98.19
479.439	103.19
479.658	110.19
479.876	100.19
480.095	92.19
480.313	91.19
480.532	92.19
480.751	74.19
480.969	104.19
481.188	201.19
481.406	155.19
481.624	92.19
481.843	93.19
482.061	99.19
482.28	99.19
482.498	101.19
482.717	94.19
482.935	92.19
483.153	103.19
483.372	77.19
483.59	90.19
483.808	104.19
484.027	92.19
484.245	90.19
484.463	102.19
484.681	92.19
484.9	90.19
485.118	96.19
485.336	101.19
485.554	92.19
485.772	110.19
485.99	99.19
486.209	109.19
486.427	108.19
486.645	124.19
486.863	115.19
487.081	128.19
487.299	96.19
487.517	99.19
487.735	103.19
487.953	106.19
488.171	97.19
488.389	89.19
488.607	112.19
488.825	100.19
489.043	85.19
489.261	90.19
489.479	96.19
489.696	82.19
489.914	90.19
490.132	80.19
490.35	89.19
490.568	91.19
490.786	89.19
491.003	99.19
491.221	94.19
491.439	104.19
491.657	86.19
491.874	83.19
492.092	100.19
492.31	91.19
492.527	82.19
492.745	94.19
492.963	82.19
493.18	93.19
493.398	99.19
493.615	105.19
493.833	93.19
494.05	91.19
494.268	89.19
494.485	74.19
494.703	69.19
494.92	96.19
495.138	93.19
495.355	95.19
495.573	90.19
495.79	92.19
496.008	98.19
496.225	82.19
496.442	76.19
496.66	84.19
496.877	93.19
497.094	96.19
497.312	76.19
497.529	93.19
497.746	79.19
497.963	73.19
498.181	96.19
498.398	82.19
498.615	97.19
498.832	96.19
499.049	93.19
499.267	79.19
499.484	94.19
499.701	107.19
499.918	84.19
500.135	80.19
500.352	92.19
500.569	84.19
500.786	71.19
501.003	91.19
501.22	98.19
501.437	94.19
501.654	93.19
501.871	107.19
502.088	100.19
502.305	93.19
502.522	91.19
502.739	82.19
502.956	100.19
503.172	75.19
503.389	89.19
503.606	85.19
503.823	103.19
504.04	87.19
504.256	91.19
504.473	84.19
504.69	86.19
504.907	99.19
505.123	84.19
505.34	76.19
505.557	81.19
505.773	87.19
505.99	80.19
506.207	103.19
506.423	99.19
506.64	91.19
506.856	87.19
507.073	94.19
507.289	96.19
507.506	101.19
507.722	98.19
507.939	97.19
508.155	100.19
508.372	102.19
508.588	109.19
508.805	92.19
509.021	95.19
509.238	92.19
509.454	85.19
509.67	96.19
509.887	110.19
510.103	122.19
510.319	180.19
510.536	608.19
510.752	1815.19
510.968	509.19
511.184	131.19
511.401	98.19
511.617	92.19
511.833	92.19
512.049	92.19
512.265	98.19
512.481	78.19
512.698	91.19
512.914	107.19
513.13	96.19
513.346	89.19
513.562	107.19
513.778	90.19
513.994	100.19
514.21	101.19
514.426	117.19
514.642	129.19
514.858	102.19
515.074	129.19
515.29	345.19
515.506	1053.19
