Data from Circ_1993_H10_HRD10591_00026.txt Node
Date: Wed Jan 03 11:44:07 EST 2024
User: Yrep
Spectrometer: HR+D1059
Trigger mode: 1
Integration Time (sec): 1.000000E-1
Scans to average: 1
Electric dark correction enabled: true
Nonlinearity correction enabled: false
Boxcar width: 0
XAxis mode: Wavelengths
Number of Pixels in Spectrum: 2048
>>>>>Begin Spectral Data<<<<<
223.165	-6.81
223.4	-6.81
223.635	-6.81
223.869	-18.81
224.104	-18.81
224.338	-14.81
224.573	-14.81
224.808	-8.81
225.042	-12.81
225.277	-6.81
225.511	-2.81
225.746	9.19
225.98	1.19
226.215	-1.81
226.449	18.19
226.683	23.19
226.918	20.19
227.152	35.19
227.387	43.19
227.621	55.19
227.856	52.19
228.09	47.19
228.324	63.19
228.559	60.19
228.793	67.19
229.027	55.19
229.262	58.19
229.496	52.19
229.73	73.19
229.964	81.19
230.199	77.19
230.433	79.19
230.667	71.19
230.901	76.19
231.136	71.19
231.37	79.19
231.604	86.19
231.838	74.19
232.072	80.19
232.306	73.19
232.541	65.19
232.775	75.19
233.009	79.19
233.243	93.19
233.477	85.19
233.711	85.19
233.945	71.19
234.179	80.19
234.413	92.19
234.647	70.19
234.881	78.19
235.115	82.19
235.349	77.19
235.583	75.19
235.817	88.19
236.051	90.19
236.285	77.19
236.519	91.19
236.753	81.19
236.987	60.19
237.221	75.19
237.455	81.19
237.689	75.19
237.922	71.19
238.156	66.19
238.39	87.19
238.624	65.19
238.858	76.19
239.091	74.19
239.325	91.19
239.559	80.19
239.793	83.19
240.027	84.19
240.26	69.19
240.494	71.19
240.728	70.19
240.961	65.19
241.195	85.19
241.429	67.19
241.662	72.19
241.896	75.19
242.13	79.19
242.363	77.19
242.597	80.19
242.83	69.19
243.064	86.19
243.298	78.19
243.531	85.19
243.765	82.19
243.998	72.19
244.232	77.19
244.465	85.19
244.699	75.19
244.932	71.19
245.166	78.19
245.399	79.19
245.633	83.19
245.866	72.19
246.099	76.19
246.333	78.19
246.566	84.19
246.8	60.19
247.033	80.19
247.266	80.19
247.5	75.19
247.733	81.19
247.966	73.19
248.2	73.19
248.433	76.19
248.666	87.19
248.899	77.19
249.133	81.19
249.366	98.19
249.599	87.19
249.832	79.19
250.066	76.19
250.299	75.19
250.532	72.19
250.765	64.19
250.998	85.19
251.231	75.19
251.465	78.19
251.698	82.19
251.931	81.19
252.164	87.19
252.397	83.19
252.63	94.19
252.863	71.19
253.096	86.19
253.329	91.19
253.562	82.19
253.795	87.19
254.028	88.19
254.261	71.19
254.494	76.19
254.727	73.19
254.96	79.19
255.193	64.19
255.426	81.19
255.659	83.19
255.892	69.19
256.124	71.19
256.357	75.19
256.59	81.19
256.823	78.19
257.056	65.19
257.289	83.19
257.521	79.19
257.754	95.19
257.987	77.19
258.22	73.19
258.452	82.19
258.685	74.19
258.918	86.19
259.151	90.19
259.383	74.19
259.616	83.19
259.849	88.19
260.081	71.19
260.314	93.19
260.547	73.19
260.779	85.19
261.012	72.19
261.244	90.19
261.477	92.19
261.71	75.19
261.942	91.19
262.175	108.19
262.407	82.19
262.64	93.19
262.872	91.19
263.105	82.19
263.337	89.19
263.57	85.19
263.802	74.19
264.035	81.19
264.267	97.19
264.499	85.19
264.732	83.19
264.964	80.19
265.197	76.19
265.429	57.19
265.661	77.19
265.894	75.19
266.126	91.19
266.358	83.19
266.591	83.19
266.823	83.19
267.055	76.19
267.287	81.19
267.52	69.19
267.752	81.19
267.984	85.19
268.216	78.19
268.448	86.19
268.681	93.19
268.913	75.19
269.145	83.19
269.377	68.19
269.609	83.19
269.841	87.19
270.073	93.19
270.306	88.19
270.538	75.19
270.77	66.19
271.002	76.19
271.234	83.19
271.466	84.19
271.698	86.19
271.93	79.19
272.162	82.19
272.394	88.19
272.626	74.19
272.858	84.19
273.09	85.19
273.322	78.19
273.553	77.19
273.785	81.19
274.017	90.19
274.249	79.19
274.481	95.19
274.713	77.19
274.945	87.19
275.176	75.19
275.408	88.19
275.64	74.19
275.872	99.19
276.104	85.19
276.335	79.19
276.567	81.19
276.799	92.19
277.031	73.19
277.262	91.19
277.494	100.19
277.726	75.19
277.957	83.19
278.189	92.19
278.421	84.19
278.652	92.19
278.884	88.19
279.115	92.19
279.347	77.19
279.579	80.19
279.81	82.19
280.042	80.19
280.273	96.19
280.505	85.19
280.736	69.19
280.968	93.19
281.199	92.19
281.431	81.19
281.662	75.19
281.894	101.19
282.125	108.19
282.356	107.19
282.588	113.19
282.819	100.19
283.051	99.19
283.282	87.19
283.513	81.19
283.745	75.19
283.976	86.19
284.207	87.19
284.439	83.19
284.67	90.19
284.901	81.19
285.132	89.19
285.364	75.19
285.595	97.19
285.826	85.19
286.057	87.19
286.288	82.19
286.52	71.19
286.751	71.19
286.982	85.19
287.213	95.19
287.444	86.19
287.675	87.19
287.906	91.19
288.138	76.19
288.369	90.19
288.6	96.19
288.831	94.19
289.062	86.19
289.293	82.19
289.524	83.19
289.755	82.19
289.986	87.19
290.217	73.19
290.448	85.19
290.679	89.19
290.91	90.19
291.141	96.19
291.371	86.19
291.602	80.19
291.833	88.19
292.064	92.19
292.295	85.19
292.526	89.19
292.757	86.19
292.987	80.19
293.218	75.19
293.449	86.19
293.68	83.19
293.91	72.19
294.141	87.19
294.372	87.19
294.603	94.19
294.833	81.19
295.064	89.19
295.295	77.19
295.525	89.19
295.756	105.19
295.987	109.19
296.217	123.19
296.448	107.19
296.679	99.19
296.909	90.19
297.14	75.19
297.37	84.19
297.601	98.19
297.831	100.19
298.062	75.19
298.292	79.19
298.523	87.19
298.753	82.19
298.984	76.19
299.214	83.19
299.445	93.19
299.675	92.19
299.905	99.19
300.136	86.19
300.366	86.19
300.597	81.19
300.827	100.19
301.057	102.19
301.288	87.19
301.518	82.19
301.748	73.19
301.979	84.19
302.209	92.19
302.439	88.19
302.669	84.19
302.9	87.19
303.13	100.19
303.36	88.19
303.59	96.19
303.82	88.19
304.051	91.19
304.281	95.19
304.511	88.19
304.741	86.19
304.971	92.19
305.201	88.19
305.431	94.19
305.661	87.19
305.891	84.19
306.121	94.19
306.352	100.19
306.582	96.19
306.812	96.19
307.042	90.19
307.272	94.19
307.502	100.19
307.731	101.19
307.961	88.19
308.191	84.19
308.421	84.19
308.651	97.19
308.881	77.19
309.111	95.19
309.341	82.19
309.571	95.19
309.8	97.19
310.03	88.19
310.26	92.19
310.49	94.19
310.72	84.19
310.949	98.19
311.179	96.19
311.409	92.19
311.639	78.19
311.868	95.19
312.098	92.19
312.328	93.19
312.557	109.19
312.787	101.19
313.017	95.19
313.246	74.19
313.476	83.19
313.706	87.19
313.935	107.19
314.165	104.19
314.394	95.19
314.624	92.19
314.853	83.19
315.083	85.19
315.312	97.19
315.542	90.19
315.771	84.19
316.001	76.19
316.23	77.19
316.46	87.19
316.689	92.19
316.919	83.19
317.148	89.19
317.377	100.19
317.607	92.19
317.836	83.19
318.065	94.19
318.295	81.19
318.524	97.19
318.753	81.19
318.983	99.19
319.212	99.19
319.441	90.19
319.67	99.19
319.9	88.19
320.129	85.19
320.358	83.19
320.587	96.19
320.816	80.19
321.046	98.19
321.275	90.19
321.504	93.19
321.733	83.19
321.962	98.19
322.191	95.19
322.42	97.19
322.649	108.19
322.878	107.19
323.108	105.19
323.337	113.19
323.566	105.19
323.795	133.19
324.024	174.19
324.253	312.19
324.482	645.19
324.71	1311.19
324.939	1762.19
325.168	664.19
325.397	197.19
325.626	116.19
325.855	125.19
326.084	121.19
326.313	114.19
326.542	131.19
326.77	190.19
326.999	358.19
327.228	728.19
327.457	1367.19
327.686	1062.19
327.914	295.19
328.143	171.19
328.372	156.19
328.6	111.19
328.829	104.19
329.058	109.19
329.287	123.19
329.515	95.19
329.744	90.19
329.972	107.19
330.201	119.19
330.43	144.19
330.658	138.19
330.887	117.19
331.115	110.19
331.344	84.19
331.572	89.19
331.801	91.19
332.03	100.19
332.258	93.19
332.486	67.19
332.715	92.19
332.943	95.19
333.172	82.19
333.4	90.19
333.629	96.19
333.857	86.19
334.085	98.19
334.314	100.19
334.542	158.19
334.771	128.19
334.999	113.19
335.227	86.19
335.455	89.19
335.684	89.19
335.912	106.19
336.14	85.19
336.369	106.19
336.597	109.19
336.825	91.19
337.053	98.19
337.281	93.19
337.51	101.19
337.738	90.19
337.966	85.19
338.194	91.19
338.422	105.19
338.65	94.19
338.878	87.19
339.106	93.19
339.334	94.19
339.562	86.19
339.79	100.19
340.018	85.19
340.246	94.19
340.474	94.19
340.702	84.19
340.93	71.19
341.158	76.19
341.386	89.19
341.614	95.19
341.842	93.19
342.07	76.19
342.298	79.19
342.526	92.19
342.754	90.19
342.981	92.19
343.209	81.19
343.437	81.19
343.665	81.19
343.893	75.19
344.12	87.19
344.348	83.19
344.576	77.19
344.804	92.19
345.031	89.19
345.259	97.19
345.487	80.19
345.714	93.19
345.942	84.19
346.17	96.19
346.397	81.19
346.625	92.19
346.853	97.19
347.08	92.19
347.308	92.19
347.535	89.19
347.763	94.19
347.99	95.19
348.218	88.19
348.445	99.19
348.673	99.19
348.9	105.19
349.128	106.19
349.355	79.19
349.583	85.19
349.81	84.19
350.037	97.19
350.265	92.19
350.492	95.19
350.72	84.19
350.947	103.19
351.174	103.19
351.402	89.19
351.629	98.19
351.856	107.19
352.083	97.19
352.311	98.19
352.538	104.19
352.765	114.19
352.992	107.19
353.22	87.19
353.447	94.19
353.674	107.19
353.901	93.19
354.128	89.19
354.355	100.19
354.583	109.19
354.81	93.19
355.037	100.19
355.264	110.19
355.491	97.19
355.718	88.19
355.945	89.19
356.172	97.19
356.399	93.19
356.626	97.19
356.853	78.19
357.08	85.19
357.307	96.19
357.534	77.19
357.761	85.19
357.988	77.19
358.215	99.19
358.441	91.19
358.668	92.19
358.895	89.19
359.122	92.19
359.349	79.19
359.576	86.19
359.802	93.19
360.029	98.19
360.256	92.19
360.483	97.19
360.709	76.19
360.936	94.19
361.163	98.19
361.39	95.19
361.616	87.19
361.843	88.19
362.07	96.19
362.296	89.19
362.523	87.19
362.749	80.19
362.976	87.19
363.203	94.19
363.429	76.19
363.656	75.19
363.882	87.19
364.109	87.19
364.335	108.19
364.562	78.19
364.788	82.19
365.015	88.19
365.241	96.19
365.468	100.19
365.694	97.19
365.92	89.19
366.147	82.19
366.373	76.19
366.599	86.19
366.826	81.19
367.052	74.19
367.278	91.19
367.505	80.19
367.731	93.19
367.957	79.19
368.184	83.19
368.41	111.19
368.636	85.19
368.862	107.19
369.089	96.19
369.315	89.19
369.541	86.19
369.767	94.19
369.993	84.19
370.219	92.19
370.445	85.19
370.672	80.19
370.898	98.19
371.124	84.19
371.35	89.19
371.576	76.19
371.802	85.19
372.028	92.19
372.254	85.19
372.48	82.19
372.706	88.19
372.932	90.19
373.158	95.19
373.384	93.19
373.61	74.19
373.835	95.19
374.061	77.19
374.287	87.19
374.513	83.19
374.739	95.19
374.965	103.19
375.191	73.19
375.416	83.19
375.642	97.19
375.868	87.19
376.094	86.19
376.319	81.19
376.545	84.19
376.771	96.19
376.997	73.19
377.222	97.19
377.448	104.19
377.674	85.19
377.899	93.19
378.125	84.19
378.35	86.19
378.576	94.19
378.802	76.19
379.027	91.19
379.253	102.19
379.478	89.19
379.704	82.19
379.929	110.19
380.155	101.19
380.38	95.19
380.606	108.19
380.831	110.19
381.057	93.19
381.282	115.19
381.507	94.19
381.733	92.19
381.958	103.19
382.184	98.19
382.409	97.19
382.634	113.19
382.86	101.19
383.085	110.19
383.31	117.19
383.535	101.19
383.761	101.19
383.986	101.19
384.211	119.19
384.436	118.19
384.662	120.19
384.887	88.19
385.112	117.19
385.337	122.19
385.562	107.19
385.787	116.19
386.013	115.19
386.238	119.19
386.463	110.19
386.688	129.19
386.913	112.19
387.138	126.19
387.363	110.19
387.588	103.19
387.813	99.19
388.038	111.19
388.263	115.19
388.488	122.19
388.713	97.19
388.938	79.19
389.163	103.19
389.387	103.19
389.612	95.19
389.837	96.19
390.062	96.19
390.287	98.19
390.512	103.19
390.736	100.19
390.961	95.19
391.186	82.19
391.411	92.19
391.636	85.19
391.86	85.19
392.085	80.19
392.31	80.19
392.534	77.19
392.759	87.19
392.984	87.19
393.208	104.19
393.433	162.19
393.658	122.19
393.882	93.19
394.107	90.19
394.331	86.19
394.556	98.19
394.78	99.19
395.005	104.19
395.229	83.19
395.454	85.19
395.678	80.19
395.903	91.19
396.127	92.19
396.352	91.19
396.576	96.19
396.801	107.19
397.025	139.19
397.249	84.19
397.474	84.19
397.698	77.19
397.922	98.19
398.147	83.19
398.371	77.19
398.595	90.19
398.82	71.19
399.044	68.19
399.268	77.19
399.492	80.19
399.717	83.19
399.941	80.19
400.165	105.19
400.389	75.19
400.613	97.19
400.837	77.19
401.062	83.19
401.286	92.19
401.51	86.19
401.734	92.19
401.958	80.19
402.182	98.19
402.406	133.19
402.63	115.19
402.854	99.19
403.078	99.19
403.302	87.19
403.526	88.19
403.75	97.19
403.974	79.19
404.198	80.19
404.422	72.19
404.645	85.19
404.869	82.19
405.093	89.19
405.317	93.19
405.541	91.19
405.765	90.19
405.988	107.19
406.212	148.19
406.436	180.19
406.66	127.19
406.883	98.19
407.107	92.19
407.331	80.19
407.555	98.19
407.778	83.19
408.002	106.19
408.226	82.19
408.449	96.19
408.673	95.19
408.896	79.19
409.12	91.19
409.344	91.19
409.567	85.19
409.791	96.19
410.014	94.19
410.238	93.19
410.461	88.19
410.685	98.19
410.908	81.19
411.132	89.19
411.355	95.19
411.578	91.19
411.802	95.19
412.025	80.19
412.249	83.19
412.472	87.19
412.695	96.19
412.919	91.19
413.142	89.19
413.365	84.19
413.589	87.19
413.812	87.19
414.035	97.19
414.258	94.19
414.482	94.19
414.705	89.19
414.928	80.19
415.151	86.19
415.374	96.19
415.597	103.19
415.821	99.19
416.044	87.19
416.267	81.19
416.49	84.19
416.713	93.19
416.936	99.19
417.159	89.19
417.382	83.19
417.605	91.19
417.828	105.19
418.051	106.19
418.274	103.19
418.497	99.19
418.72	99.19
418.943	92.19
419.166	95.19
419.389	91.19
419.611	97.19
419.834	101.19
420.057	95.19
420.28	74.19
420.503	84.19
420.726	97.19
420.948	94.19
421.171	92.19
421.394	94.19
421.617	99.19
421.839	93.19
422.062	77.19
422.285	95.19
422.507	109.19
422.73	127.19
422.953	100.19
423.175	106.19
423.398	91.19
423.621	79.19
423.843	98.19
424.066	66.19
424.288	90.19
424.511	84.19
424.733	77.19
424.956	99.19
425.178	83.19
425.401	87.19
425.623	95.19
425.846	81.19
426.068	86.19
426.291	96.19
426.513	95.19
426.735	85.19
426.958	92.19
427.18	87.19
427.402	120.19
427.625	144.19
427.847	128.19
428.069	115.19
428.292	81.19
428.514	84.19
428.736	87.19
428.958	99.19
429.181	91.19
429.403	87.19
429.625	88.19
429.847	78.19
430.069	86.19
430.292	88.19
430.514	83.19
430.736	93.19
430.958	76.19
431.18	78.19
431.402	92.19
431.624	82.19
431.846	94.19
432.068	104.19
432.29	79.19
432.512	80.19
432.734	88.19
432.956	85.19
433.178	94.19
433.4	85.19
433.622	80.19
433.844	87.19
434.066	80.19
434.287	93.19
434.509	92.19
434.731	82.19
434.953	84.19
435.175	89.19
435.397	87.19
435.618	87.19
435.84	94.19
436.062	117.19
436.284	115.19
436.505	99.19
436.727	97.19
436.949	102.19
437.17	91.19
437.392	79.19
437.614	79.19
437.835	103.19
438.057	107.19
438.278	81.19
438.5	89.19
438.721	108.19
438.943	100.19
439.165	66.19
439.386	89.19
439.608	93.19
439.829	97.19
440.05	108.19
440.272	125.19
440.493	101.19
440.715	90.19
440.936	95.19
441.158	87.19
441.379	80.19
441.6	100.19
441.822	84.19
442.043	95.19
442.264	92.19
442.486	91.19
442.707	88.19
442.928	100.19
443.149	91.19
443.371	108.19
443.592	78.19
443.813	99.19
444.034	110.19
444.255	94.19
444.476	95.19
444.698	95.19
444.919	61.19
445.14	124.19
445.361	115.19
445.582	110.19
445.803	108.19
446.024	105.19
446.245	108.19
446.466	87.19
446.687	91.19
446.908	83.19
447.129	82.19
447.35	75.19
447.571	85.19
447.792	86.19
448.013	92.19
448.234	91.19
448.455	90.19
448.675	109.19
448.896	105.19
449.117	73.19
449.338	93.19
449.559	139.19
449.779	115.19
450	83.19
450.221	93.19
450.442	93.19
450.662	91.19
450.883	90.19
451.104	90.19
451.324	77.19
451.545	94.19
451.766	92.19
451.986	90.19
452.207	79.19
452.428	84.19
452.648	103.19
452.869	96.19
453.089	101.19
453.31	112.19
453.53	89.19
453.751	85.19
453.971	80.19
454.192	102.19
454.412	79.19
454.633	89.19
454.853	77.19
455.073	94.19
455.294	93.19
455.514	101.19
455.734	84.19
455.955	82.19
456.175	72.19
456.395	91.19
456.616	105.19
456.836	76.19
457.056	95.19
457.276	91.19
457.497	100.19
457.717	88.19
457.937	88.19
458.157	80.19
458.377	89.19
458.598	98.19
458.818	132.19
459.038	129.19
459.258	121.19
459.478	90.19
459.698	66.19
459.918	93.19
460.138	90.19
460.358	66.19
460.578	79.19
460.798	80.19
461.018	93.19
461.238	80.19
461.458	83.19
461.678	83.19
461.898	87.19
462.118	79.19
462.338	81.19
462.558	72.19
462.777	75.19
462.997	92.19
463.217	88.19
463.437	84.19
463.657	86.19
463.876	75.19
464.096	92.19
464.316	84.19
464.536	76.19
464.755	78.19
464.975	102.19
465.195	133.19
465.414	120.19
465.634	83.19
465.854	92.19
466.073	89.19
466.293	81.19
466.512	84.19
466.732	84.19
466.951	93.19
467.171	79.19
467.391	84.19
467.61	95.19
467.829	94.19
468.049	108.19
468.268	125.19
468.488	91.19
468.707	91.19
468.927	89.19
469.146	85.19
469.365	68.19
469.585	80.19
469.804	88.19
470.023	74.19
470.243	75.19
470.462	91.19
470.681	87.19
470.901	90.19
471.12	88.19
471.339	87.19
471.558	71.19
471.777	96.19
471.997	88.19
472.216	124.19
472.435	172.19
472.654	92.19
472.873	84.19
473.092	88.19
473.311	72.19
473.53	87.19
473.749	116.19
473.968	79.19
474.187	99.19
474.406	101.19
474.625	92.19
474.844	88.19
475.063	78.19
475.282	82.19
475.501	87.19
475.72	90.19
475.939	94.19
476.158	75.19
476.377	71.19
476.596	95.19
476.814	77.19
477.033	87.19
477.252	88.19
477.471	82.19
477.69	94.19
477.908	89.19
478.127	72.19
478.346	83.19
478.564	89.19
478.783	76.19
479.002	83.19
479.22	95.19
479.439	99.19
479.658	93.19
479.876	105.19
480.095	89.19
480.313	89.19
480.532	79.19
480.751	96.19
480.969	128.19
481.188	244.19
481.406	183.19
481.624	95.19
481.843	88.19
482.061	81.19
482.28	81.19
482.498	82.19
482.717	101.19
482.935	89.19
483.153	96.19
483.372	93.19
483.59	100.19
483.808	98.19
484.027	103.19
484.245	91.19
484.463	81.19
484.681	97.19
484.9	92.19
485.118	93.19
485.336	91.19
485.554	104.19
485.772	103.19
485.99	110.19
486.209	108.19
486.427	108.19
486.645	103.19
486.863	107.19
487.081	107.19
487.299	106.19
487.517	101.19
487.735	107.19
487.953	99.19
488.171	101.19
488.389	96.19
488.607	97.19
488.825	84.19
489.043	108.19
489.261	91.19
489.479	81.19
489.696	106.19
489.914	93.19
490.132	80.19
490.35	100.19
490.568	87.19
490.786	90.19
491.003	91.19
491.221	87.19
491.439	97.19
491.657	90.19
491.874	92.19
492.092	86.19
492.31	91.19
492.527	90.19
492.745	88.19
492.963	85.19
493.18	77.19
493.398	91.19
493.615	83.19
493.833	89.19
494.05	77.19
494.268	84.19
494.485	96.19
494.703	86.19
494.92	95.19
495.138	93.19
495.355	100.19
495.573	78.19
495.79	96.19
496.008	94.19
496.225	92.19
496.442	89.19
496.66	99.19
496.877	98.19
497.094	88.19
497.312	76.19
497.529	69.19
497.746	85.19
497.963	100.19
498.181	103.19
498.398	95.19
498.615	103.19
498.832	99.19
499.049	90.19
499.267	90.19
499.484	88.19
499.701	87.19
499.918	77.19
500.135	100.19
500.352	83.19
500.569	85.19
500.786	100.19
501.003	104.19
501.22	94.19
501.437	81.19
501.654	90.19
501.871	101.19
502.088	106.19
502.305	98.19
502.522	87.19
502.739	99.19
502.956	94.19
503.172	92.19
503.389	86.19
503.606	95.19
503.823	94.19
504.04	95.19
504.256	93.19
504.473	92.19
504.69	89.19
504.907	95.19
505.123	80.19
505.34	91.19
505.557	85.19
505.773	79.19
505.99	79.19
506.207	103.19
506.423	77.19
506.64	90.19
506.856	85.19
507.073	98.19
507.289	76.19
507.506	116.19
507.722	111.19
507.939	95.19
508.155	94.19
508.372	93.19
508.588	89.19
508.805	101.19
509.021	84.19
509.238	88.19
509.454	93.19
509.67	105.19
509.887	113.19
510.103	137.19
510.319	194.19
510.536	605.19
510.752	1850.19
510.968	508.19
511.184	141.19
511.401	89.19
511.617	102.19
511.833	87.19
512.049	82.19
512.265	107.19
512.481	91.19
512.698	111.19
512.914	99.19
513.13	84.19
513.346	85.19
513.562	90.19
513.778	93.19
513.994	104.19
514.21	95.19
514.426	109.19
514.642	111.19
514.858	116.19
515.074	139.19
515.29	333.19
515.506	1095.19
515.721	404.19
515.937	131.19
516.153	98.19
516.369	83.19
516.585	97.19
