Data from Circ_1993_H10_HRD10591_00056.txt Node
Date: Wed Jan 03 11:44:13 EST 2024
User: Yrep
Spectrometer: HR+D1059
Trigger mode: 1
Integration Time (sec): 1.000000E-1
Scans to average: 1
Electric dark correction enabled: true
Nonlinearity correction enabled: false
Boxcar width: 0
XAxis mode: Wavelengths
Number of Pixels in Spectrum: 2048
>>>>>Begin Spectral Data<<<<<
223.165	-22.88
223.4	-22.88
223.635	-22.88
223.869	-26.88
224.104	-29.88
224.338	-3.88
224.573	-17.88
224.808	6.12
225.042	-10.88
225.277	-5.88
225.511	2.12
225.746	1.12
225.98	1.12
226.215	5.12
226.449	19.12
226.683	26.12
226.918	31.12
227.152	26.12
227.387	42.12
227.621	37.12
227.856	50.12
228.09	47.12
228.324	69.12
228.559	60.12
228.793	52.12
229.027	59.12
229.262	62.12
229.496	75.12
229.73	86.12
229.964	75.12
230.199	76.12
230.433	75.12
230.667	69.12
230.901	71.12
231.136	77.12
231.37	84.12
231.604	82.12
231.838	82.12
232.072	91.12
232.306	80.12
232.541	78.12
232.775	85.12
233.009	94.12
233.243	93.12
233.477	84.12
233.711	92.12
233.945	84.12
234.179	90.12
234.413	86.12
234.647	92.12
234.881	75.12
235.115	79.12
235.349	74.12
235.583	88.12
235.817	90.12
236.051	87.12
236.285	67.12
236.519	67.12
236.753	59.12
236.987	72.12
237.221	91.12
237.455	87.12
237.689	96.12
237.922	90.12
238.156	97.12
238.39	83.12
238.624	79.12
238.858	82.12
239.091	85.12
239.325	80.12
239.559	87.12
239.793	70.12
240.027	60.12
240.26	83.12
240.494	66.12
240.728	80.12
240.961	67.12
241.195	79.12
241.429	84.12
241.662	71.12
241.896	72.12
242.13	87.12
242.363	71.12
242.597	71.12
242.83	86.12
243.064	76.12
243.298	79.12
243.531	67.12
243.765	76.12
243.998	68.12
244.232	82.12
244.465	83.12
244.699	77.12
244.932	81.12
245.166	67.12
245.399	72.12
245.633	86.12
245.866	73.12
246.099	82.12
246.333	64.12
246.566	92.12
246.8	78.12
247.033	59.12
247.266	92.12
247.5	98.12
247.733	85.12
247.966	85.12
248.2	90.12
248.433	88.12
248.666	81.12
248.899	87.12
249.133	86.12
249.366	101.12
249.599	85.12
249.832	86.12
250.066	78.12
250.299	84.12
250.532	87.12
250.765	84.12
250.998	88.12
251.231	87.12
251.465	77.12
251.698	91.12
251.931	71.12
252.164	87.12
252.397	67.12
252.63	81.12
252.863	87.12
253.096	88.12
253.329	92.12
253.562	75.12
253.795	77.12
254.028	92.12
254.261	86.12
254.494	78.12
254.727	82.12
254.96	87.12
255.193	94.12
255.426	84.12
255.659	84.12
255.892	94.12
256.124	86.12
256.357	81.12
256.59	95.12
256.823	92.12
257.056	78.12
257.289	90.12
257.521	79.12
257.754	86.12
257.987	79.12
258.22	85.12
258.452	84.12
258.685	89.12
258.918	78.12
259.151	88.12
259.383	78.12
259.616	87.12
259.849	80.12
260.081	83.12
260.314	101.12
260.547	86.12
260.779	83.12
261.012	80.12
261.244	84.12
261.477	96.12
261.71	100.12
261.942	98.12
262.175	109.12
262.407	86.12
262.64	71.12
262.872	69.12
263.105	85.12
263.337	85.12
263.57	78.12
263.802	88.12
264.035	88.12
264.267	91.12
264.499	84.12
264.732	78.12
264.964	86.12
265.197	84.12
265.429	86.12
265.661	68.12
265.894	93.12
266.126	90.12
266.358	74.12
266.591	82.12
266.823	76.12
267.055	80.12
267.287	82.12
267.52	77.12
267.752	76.12
267.984	84.12
268.216	82.12
268.448	86.12
268.681	93.12
268.913	77.12
269.145	84.12
269.377	83.12
269.609	78.12
269.841	85.12
270.073	88.12
270.306	84.12
270.538	91.12
270.77	90.12
271.002	79.12
271.234	88.12
271.466	94.12
271.698	98.12
271.93	86.12
272.162	86.12
272.394	97.12
272.626	91.12
272.858	61.12
273.09	79.12
273.322	83.12
273.553	85.12
273.785	87.12
274.017	70.12
274.249	95.12
274.481	85.12
274.713	82.12
274.945	85.12
275.176	83.12
275.408	80.12
275.64	95.12
275.872	92.12
276.104	74.12
276.335	91.12
276.567	108.12
276.799	99.12
277.031	112.12
277.262	90.12
277.494	85.12
277.726	84.12
277.957	84.12
278.189	96.12
278.421	80.12
278.652	98.12
278.884	80.12
279.115	75.12
279.347	94.12
279.579	89.12
279.81	94.12
280.042	97.12
280.273	90.12
280.505	104.12
280.736	89.12
280.968	70.12
281.199	96.12
281.431	87.12
281.662	95.12
281.894	80.12
282.125	90.12
282.356	108.12
282.588	138.12
282.819	115.12
283.051	94.12
283.282	84.12
283.513	82.12
283.745	71.12
283.976	77.12
284.207	84.12
284.439	98.12
284.67	86.12
284.901	87.12
285.132	86.12
285.364	88.12
285.595	82.12
285.826	96.12
286.057	91.12
286.288	96.12
286.52	77.12
286.751	74.12
286.982	91.12
287.213	76.12
287.444	85.12
287.675	103.12
287.906	89.12
288.138	92.12
288.369	86.12
288.6	99.12
288.831	92.12
289.062	80.12
289.293	92.12
289.524	91.12
289.755	86.12
289.986	98.12
290.217	88.12
290.448	97.12
290.679	92.12
290.91	75.12
291.141	95.12
291.371	93.12
291.602	86.12
291.833	92.12
292.064	86.12
292.295	76.12
292.526	101.12
292.757	84.12
292.987	96.12
293.218	87.12
293.449	84.12
293.68	98.12
293.91	100.12
294.141	96.12
294.372	101.12
294.603	82.12
294.833	86.12
295.064	97.12
295.295	101.12
295.525	79.12
295.756	100.12
295.987	101.12
296.217	132.12
296.448	112.12
296.679	84.12
296.909	83.12
297.14	98.12
297.37	85.12
297.601	97.12
297.831	82.12
298.062	91.12
298.292	98.12
298.523	92.12
298.753	104.12
298.984	107.12
299.214	85.12
299.445	76.12
299.675	95.12
299.905	92.12
300.136	99.12
300.366	93.12
300.597	86.12
300.827	85.12
301.057	95.12
301.288	100.12
301.518	98.12
301.748	111.12
301.979	82.12
302.209	99.12
302.439	102.12
302.669	91.12
302.9	85.12
303.13	101.12
303.36	103.12
303.59	92.12
303.82	94.12
304.051	94.12
304.281	96.12
304.511	85.12
304.741	86.12
304.971	101.12
305.201	91.12
305.431	100.12
305.661	79.12
305.891	82.12
306.121	93.12
306.352	102.12
306.582	103.12
306.812	85.12
307.042	88.12
307.272	101.12
307.502	88.12
307.731	98.12
307.961	82.12
308.191	92.12
308.421	83.12
308.651	86.12
308.881	91.12
309.111	89.12
309.341	98.12
309.571	96.12
309.8	101.12
310.03	103.12
310.26	102.12
310.49	100.12
310.72	88.12
310.949	100.12
311.179	99.12
311.409	97.12
311.639	90.12
311.868	102.12
312.098	106.12
312.328	92.12
312.557	99.12
312.787	99.12
313.017	94.12
313.246	106.12
313.476	86.12
313.706	102.12
313.935	85.12
314.165	100.12
314.394	86.12
314.624	92.12
314.853	95.12
315.083	91.12
315.312	101.12
315.542	94.12
315.771	94.12
316.001	92.12
316.23	99.12
316.46	94.12
316.689	78.12
316.919	78.12
317.148	86.12
317.377	87.12
317.607	97.12
317.836	103.12
318.065	94.12
318.295	83.12
318.524	85.12
318.753	91.12
318.983	86.12
319.212	89.12
319.441	87.12
319.67	118.12
319.9	93.12
320.129	97.12
320.358	97.12
320.587	79.12
320.816	107.12
321.046	94.12
321.275	90.12
321.504	93.12
321.733	102.12
321.962	78.12
322.191	105.12
322.42	99.12
322.649	115.12
322.878	91.12
323.108	124.12
323.337	112.12
323.566	131.12
323.795	141.12
324.024	179.12
324.253	323.12
324.482	668.12
324.71	1365.12
324.939	1778.12
325.168	696.12
325.397	216.12
325.626	123.12
325.855	132.12
326.084	125.12
326.313	125.12
326.542	148.12
326.77	199.12
326.999	363.12
327.228	756.12
327.457	1393.12
327.686	1101.12
327.914	316.12
328.143	175.12
328.372	162.12
328.6	143.12
328.829	121.12
329.058	106.12
329.287	115.12
329.515	113.12
329.744	109.12
329.972	131.12
330.201	173.12
330.43	215.12
330.658	161.12
330.887	145.12
331.115	119.12
331.344	85.12
331.572	100.12
331.801	88.12
332.03	101.12
332.258	94.12
332.486	101.12
332.715	92.12
332.943	96.12
333.172	99.12
333.4	96.12
333.629	105.12
333.857	131.12
334.085	129.12
334.314	167.12
334.542	240.12
334.771	231.12
334.999	127.12
335.227	89.12
335.455	99.12
335.684	108.12
335.912	108.12
336.14	105.12
336.369	107.12
336.597	100.12
336.825	103.12
337.053	88.12
337.281	96.12
337.51	105.12
337.738	100.12
337.966	88.12
338.194	80.12
338.422	101.12
338.65	100.12
338.878	107.12
339.106	95.12
339.334	107.12
339.562	88.12
339.79	100.12
340.018	92.12
340.246	86.12
340.474	103.12
340.702	93.12
340.93	83.12
341.158	79.12
341.386	96.12
341.614	91.12
341.842	99.12
342.07	88.12
342.298	96.12
342.526	91.12
342.754	100.12
342.981	96.12
343.209	108.12
343.437	102.12
343.665	97.12
343.893	76.12
344.12	98.12
344.348	85.12
344.576	86.12
344.804	94.12
345.031	102.12
345.259	84.12
345.487	95.12
345.714	85.12
345.942	100.12
346.17	103.12
346.397	96.12
346.625	106.12
346.853	96.12
347.08	92.12
347.308	88.12
347.535	96.12
347.763	99.12
347.99	88.12
348.218	92.12
348.445	104.12
348.673	99.12
348.9	86.12
349.128	94.12
349.355	81.12
349.583	90.12
349.81	89.12
350.037	99.12
350.265	93.12
350.492	89.12
350.72	90.12
350.947	88.12
351.174	111.12
351.402	107.12
351.629	92.12
351.856	108.12
352.083	89.12
352.311	104.12
352.538	111.12
352.765	94.12
352.992	104.12
353.22	109.12
353.447	90.12
353.674	87.12
353.901	98.12
354.128	92.12
354.355	98.12
354.583	99.12
354.81	100.12
355.037	101.12
355.264	106.12
355.491	94.12
355.718	90.12
355.945	98.12
356.172	116.12
356.399	99.12
356.626	99.12
356.853	104.12
357.08	104.12
357.307	89.12
357.534	110.12
357.761	90.12
357.988	90.12
358.215	92.12
358.441	102.12
358.668	105.12
358.895	89.12
359.122	96.12
359.349	98.12
359.576	86.12
359.802	99.12
360.029	97.12
360.256	114.12
360.483	95.12
360.709	79.12
360.936	105.12
361.163	84.12
361.39	101.12
361.616	97.12
361.843	95.12
362.07	106.12
362.296	99.12
362.523	99.12
362.749	86.12
362.976	94.12
363.203	72.12
363.429	79.12
363.656	96.12
363.882	95.12
364.109	95.12
364.335	86.12
364.562	85.12
364.788	98.12
365.015	100.12
365.241	112.12
365.468	76.12
365.694	113.12
365.92	89.12
366.147	98.12
366.373	92.12
366.599	88.12
366.826	79.12
367.052	88.12
367.278	90.12
367.505	94.12
367.731	110.12
367.957	83.12
368.184	96.12
368.41	103.12
368.636	106.12
368.862	114.12
369.089	103.12
369.315	90.12
369.541	95.12
369.767	88.12
369.993	95.12
370.219	86.12
370.445	94.12
370.672	94.12
370.898	95.12
371.124	88.12
371.35	87.12
371.576	94.12
371.802	92.12
372.028	97.12
372.254	104.12
372.48	91.12
372.706	97.12
372.932	101.12
373.158	91.12
373.384	79.12
373.61	93.12
373.835	102.12
374.061	83.12
374.287	93.12
374.513	90.12
374.739	89.12
374.965	85.12
375.191	86.12
375.416	94.12
375.642	94.12
375.868	107.12
376.094	98.12
376.319	106.12
376.545	95.12
376.771	85.12
376.997	94.12
377.222	81.12
377.448	81.12
377.674	72.12
377.899	89.12
378.125	101.12
378.35	93.12
378.576	93.12
378.802	101.12
379.027	97.12
379.253	100.12
379.478	81.12
379.704	90.12
379.929	91.12
380.155	101.12
380.38	102.12
380.606	97.12
380.831	79.12
381.057	97.12
381.282	98.12
381.507	97.12
381.733	90.12
381.958	106.12
382.184	99.12
382.409	103.12
382.634	103.12
382.86	116.12
383.085	96.12
383.31	111.12
383.535	107.12
383.761	96.12
383.986	113.12
384.211	106.12
384.436	111.12
384.662	89.12
384.887	105.12
385.112	100.12
385.337	115.12
385.562	93.12
385.787	111.12
386.013	112.12
386.238	116.12
386.463	110.12
386.688	111.12
386.913	103.12
387.138	110.12
387.363	104.12
387.588	99.12
387.813	111.12
388.038	82.12
388.263	127.12
388.488	119.12
388.713	104.12
388.938	110.12
389.163	112.12
389.387	107.12
389.612	85.12
389.837	85.12
390.062	81.12
390.287	89.12
390.512	93.12
390.736	71.12
390.961	92.12
391.186	102.12
391.411	91.12
391.636	86.12
391.86	81.12
392.085	91.12
392.31	98.12
392.534	78.12
392.759	96.12
392.984	97.12
393.208	101.12
393.433	122.12
393.658	111.12
393.882	106.12
394.107	81.12
394.331	80.12
394.556	83.12
394.78	85.12
395.005	110.12
395.229	86.12
395.454	86.12
395.678	87.12
395.903	98.12
396.127	84.12
396.352	84.12
396.576	89.12
396.801	106.12
397.025	106.12
397.249	84.12
397.474	95.12
397.698	78.12
397.922	83.12
398.147	88.12
398.371	95.12
398.595	95.12
398.82	70.12
399.044	78.12
399.268	90.12
399.492	99.12
399.717	95.12
399.941	87.12
400.165	88.12
400.389	100.12
400.613	80.12
400.837	98.12
401.062	82.12
401.286	82.12
401.51	105.12
401.734	91.12
401.958	98.12
402.182	116.12
402.406	138.12
402.63	112.12
402.854	94.12
403.078	98.12
403.302	83.12
403.526	94.12
403.75	108.12
403.974	84.12
404.198	90.12
404.422	90.12
404.645	85.12
404.869	88.12
405.093	100.12
405.317	101.12
405.541	111.12
405.765	90.12
405.988	116.12
406.212	155.12
406.436	178.12
406.66	131.12
406.883	85.12
407.107	80.12
407.331	96.12
407.555	104.12
407.778	102.12
408.002	87.12
408.226	102.12
408.449	93.12
408.673	91.12
408.896	86.12
409.12	94.12
409.344	84.12
409.567	95.12
409.791	88.12
410.014	90.12
410.238	97.12
410.461	110.12
410.685	102.12
410.908	100.12
411.132	118.12
411.355	106.12
411.578	101.12
411.802	92.12
412.025	84.12
412.249	100.12
412.472	81.12
412.695	101.12
412.919	92.12
413.142	86.12
413.365	89.12
413.589	94.12
413.812	105.12
414.035	100.12
414.258	93.12
414.482	107.12
414.705	94.12
414.928	92.12
415.151	96.12
415.374	93.12
415.597	100.12
415.821	94.12
416.044	99.12
416.267	84.12
416.49	84.12
416.713	105.12
416.936	92.12
417.159	82.12
417.382	104.12
417.605	100.12
417.828	90.12
418.051	102.12
418.274	100.12
418.497	85.12
418.72	89.12
418.943	90.12
419.166	83.12
419.389	96.12
419.611	104.12
419.834	109.12
420.057	100.12
420.28	95.12
420.503	79.12
420.726	85.12
420.948	96.12
421.171	83.12
421.394	114.12
421.617	96.12
421.839	96.12
422.062	104.12
422.285	100.12
422.507	98.12
422.73	96.12
422.953	95.12
423.175	98.12
423.398	97.12
423.621	88.12
423.843	103.12
424.066	82.12
424.288	82.12
424.511	78.12
424.733	99.12
424.956	109.12
425.178	88.12
425.401	96.12
425.623	113.12
425.846	78.12
426.068	87.12
426.291	111.12
426.513	90.12
426.735	90.12
426.958	93.12
427.18	110.12
427.402	116.12
427.625	133.12
427.847	126.12
428.069	109.12
428.292	92.12
428.514	93.12
428.736	93.12
428.958	86.12
429.181	88.12
429.403	86.12
429.625	102.12
429.847	91.12
430.069	88.12
430.292	89.12
430.514	76.12
430.736	94.12
430.958	86.12
431.18	95.12
431.402	87.12
431.624	87.12
431.846	99.12
432.068	91.12
432.29	81.12
432.512	91.12
432.734	75.12
432.956	88.12
433.178	99.12
433.4	96.12
433.622	77.12
433.844	91.12
434.066	99.12
434.287	86.12
434.509	89.12
434.731	74.12
434.953	83.12
435.175	94.12
435.397	87.12
435.618	85.12
435.84	102.12
436.062	110.12
436.284	110.12
436.505	108.12
436.727	107.12
436.949	91.12
437.17	94.12
437.392	86.12
437.614	91.12
437.835	108.12
438.057	101.12
438.278	115.12
438.5	85.12
438.721	104.12
438.943	102.12
439.165	89.12
439.386	99.12
439.608	84.12
439.829	94.12
440.05	91.12
440.272	119.12
440.493	94.12
440.715	91.12
440.936	103.12
441.158	89.12
441.379	85.12
441.6	84.12
441.822	107.12
442.043	97.12
442.264	82.12
442.486	110.12
442.707	93.12
442.928	102.12
443.149	136.12
443.371	117.12
443.592	100.12
443.813	110.12
444.034	101.12
444.255	93.12
444.476	110.12
444.698	85.12
444.919	85.12
445.14	130.12
445.361	127.12
445.582	112.12
445.803	122.12
446.024	133.12
446.245	131.12
446.466	102.12
446.687	92.12
446.908	99.12
447.129	90.12
447.35	96.12
447.571	98.12
447.792	99.12
448.013	100.12
448.234	99.12
448.455	96.12
448.675	95.12
448.896	111.12
449.117	98.12
449.338	89.12
449.559	113.12
449.779	126.12
450	90.12
450.221	81.12
450.442	93.12
450.662	90.12
450.883	91.12
451.104	101.12
451.324	99.12
451.545	94.12
451.766	98.12
451.986	97.12
452.207	95.12
452.428	79.12
452.648	97.12
452.869	89.12
453.089	100.12
453.31	112.12
453.53	79.12
453.751	85.12
453.971	114.12
454.192	101.12
454.412	90.12
454.633	83.12
454.853	100.12
455.073	87.12
455.294	97.12
455.514	89.12
455.734	92.12
455.955	85.12
456.175	86.12
456.395	79.12
456.616	85.12
456.836	95.12
457.056	82.12
457.276	99.12
457.497	87.12
457.717	76.12
457.937	85.12
458.157	83.12
458.377	90.12
458.598	103.12
458.818	132.12
459.038	142.12
459.258	114.12
459.478	83.12
459.698	79.12
459.918	106.12
460.138	92.12
460.358	93.12
460.578	103.12
460.798	81.12
461.018	68.12
461.238	70.12
461.458	79.12
461.678	82.12
461.898	75.12
462.118	85.12
462.338	79.12
462.558	83.12
462.777	94.12
462.997	90.12
463.217	76.12
463.437	85.12
463.657	90.12
463.876	78.12
464.096	96.12
464.316	94.12
464.536	94.12
464.755	100.12
464.975	101.12
465.195	143.12
465.414	145.12
465.634	101.12
465.854	94.12
466.073	85.12
466.293	92.12
466.512	87.12
466.732	80.12
466.951	92.12
467.171	86.12
467.391	97.12
467.61	120.12
467.829	106.12
468.049	145.12
468.268	150.12
468.488	102.12
468.707	78.12
468.927	87.12
469.146	94.12
469.365	94.12
469.585	92.12
469.804	99.12
470.023	94.12
470.243	94.12
470.462	100.12
470.681	110.12
470.901	88.12
471.12	92.12
471.339	95.12
471.558	85.12
471.777	90.12
471.997	118.12
472.216	189.12
472.435	311.12
472.654	133.12
472.873	90.12
473.092	74.12
473.311	91.12
473.53	90.12
473.749	89.12
473.968	85.12
474.187	106.12
474.406	98.12
474.625	79.12
474.844	85.12
475.063	87.12
475.282	90.12
475.501	89.12
475.72	90.12
475.939	94.12
476.158	93.12
476.377	107.12
476.596	95.12
476.814	91.12
477.033	87.12
477.252	98.12
477.471	78.12
477.69	88.12
477.908	94.12
478.127	92.12
478.346	62.12
478.564	76.12
478.783	96.12
479.002	84.12
479.22	92.12
479.439	100.12
479.658	88.12
479.876	84.12
480.095	77.12
480.313	96.12
480.532	101.12
480.751	121.12
480.969	180.12
481.188	487.12
481.406	317.12
481.624	115.12
481.843	95.12
482.061	90.12
482.28	71.12
482.498	93.12
482.717	74.12
482.935	103.12
483.153	85.12
483.372	81.12
483.59	99.12
483.808	86.12
484.027	93.12
484.245	104.12
484.463	91.12
484.681	87.12
484.9	88.12
485.118	97.12
485.336	107.12
485.554	111.12
485.772	98.12
485.99	112.12
486.209	96.12
486.427	111.12
486.645	110.12
486.863	113.12
487.081	102.12
487.299	100.12
487.517	98.12
487.735	94.12
487.953	95.12
488.171	94.12
488.389	98.12
488.607	97.12
488.825	99.12
489.043	98.12
489.261	96.12
489.479	99.12
489.696	104.12
489.914	96.12
490.132	89.12
490.35	85.12
490.568	113.12
490.786	102.12
491.003	89.12
491.221	86.12
491.439	90.12
491.657	91.12
491.874	92.12
492.092	94.12
492.31	103.12
492.527	86.12
492.745	92.12
492.963	94.12
493.18	88.12
493.398	95.12
493.615	111.12
493.833	95.12
494.05	88.12
494.268	81.12
494.485	99.12
494.703	97.12
494.92	86.12
495.138	88.12
495.355	92.12
495.573	82.12
495.79	99.12
496.008	101.12
496.225	78.12
496.442	92.12
496.66	99.12
496.877	86.12
497.094	93.12
497.312	100.12
497.529	94.12
497.746	94.12
497.963	84.12
498.181	107.12
498.398	96.12
498.615	99.12
498.832	96.12
499.049	95.12
499.267	111.12
499.484	98.12
499.701	89.12
499.918	92.12
500.135	104.12
500.352	83.12
500.569	96.12
500.786	98.12
501.003	96.12
501.22	85.12
501.437	95.12
501.654	97.12
501.871	103.12
502.088	94.12
502.305	103.12
502.522	111.12
502.739	90.12
502.956	87.12
503.172	103.12
503.389	98.12
503.606	87.12
503.823	101.12
504.04	90.12
504.256	96.12
504.473	91.12
504.69	99.12
504.907	94.12
505.123	93.12
505.34	94.12
505.557	96.12
505.773	98.12
505.99	96.12
506.207	96.12
506.423	87.12
506.64	99.12
506.856	84.12
507.073	83.12
507.289	95.12
507.506	93.12
507.722	106.12
507.939	109.12
508.155	109.12
508.372	96.12
508.588	92.12
508.805	91.12
509.021	83.12
509.238	95.12
509.454	98.12
509.67	94.12
509.887	111.12
510.103	126.12
510.319	179.12
510.536	635.12
510.752	1946.12
510.968	550.12
511.184	143.12
511.401	102.12
511.617	96.12
511.833	110.12
512.049	94.12
512.265	90.12
512.481	90.12
512.698	79.12
512.914	91.12
513.13	93.12
513.346	83.12
513.562	92.12
513.778	94.12
513.994	95.12
514.21	96.12
514.426	112.12
514.642	127.12
514.858	104.12
515.074	142.12
