Data from Circ_1993_H10_HRD10591_00015.txt Node
Date: Wed Jan 03 11:44:05 EST 2024
User: Yrep
Spectrometer: HR+D1059
Trigger mode: 1
Integration Time (sec): 1.000000E-1
Scans to average: 1
Electric dark correction enabled: true
Nonlinearity correction enabled: false
Boxcar width: 0
XAxis mode: Wavelengths
Number of Pixels in Spectrum: 2048
>>>>>Begin Spectral Data<<<<<
223.165	-13.06
223.4	-13.06
223.635	-13.06
223.869	-2.06
224.104	-9.06
224.338	-21.06
224.573	-16.06
224.808	-8.06
225.042	-3.06
225.277	-3.06
225.511	-6.06
225.746	-6.06
225.98	10.94
226.215	9.94
226.449	8.94
226.683	13.94
226.918	14.94
227.152	28.94
227.387	37.94
227.621	42.94
227.856	35.94
228.09	45.94
228.324	39.94
228.559	54.94
228.793	47.94
229.027	63.94
229.262	75.94
229.496	72.94
229.73	68.94
229.964	74.94
230.199	77.94
230.433	75.94
230.667	89.94
230.901	75.94
231.136	77.94
231.37	73.94
231.604	69.94
231.838	73.94
232.072	70.94
232.306	77.94
232.541	90.94
232.775	86.94
233.009	82.94
233.243	81.94
233.477	74.94
233.711	79.94
233.945	74.94
234.179	70.94
234.413	83.94
234.647	89.94
234.881	97.94
235.115	82.94
235.349	78.94
235.583	65.94
235.817	87.94
236.051	93.94
236.285	88.94
236.519	80.94
236.753	75.94
236.987	73.94
237.221	78.94
237.455	77.94
237.689	62.94
237.922	79.94
238.156	73.94
238.39	70.94
238.624	77.94
238.858	79.94
239.091	81.94
239.325	83.94
239.559	79.94
239.793	59.94
240.027	78.94
240.26	79.94
240.494	87.94
240.728	81.94
240.961	75.94
241.195	72.94
241.429	77.94
241.662	68.94
241.896	62.94
242.13	77.94
242.363	72.94
242.597	64.94
242.83	68.94
243.064	75.94
243.298	70.94
243.531	74.94
243.765	63.94
243.998	73.94
244.232	78.94
244.465	83.94
244.699	69.94
244.932	73.94
245.166	78.94
245.399	83.94
245.633	73.94
245.866	84.94
246.099	69.94
246.333	66.94
246.566	66.94
246.8	77.94
247.033	76.94
247.266	81.94
247.5	70.94
247.733	73.94
247.966	86.94
248.2	87.94
248.433	89.94
248.666	79.94
248.899	75.94
249.133	71.94
249.366	97.94
249.599	90.94
249.832	81.94
250.066	81.94
250.299	86.94
250.532	77.94
250.765	78.94
250.998	72.94
251.231	74.94
251.465	61.94
251.698	78.94
251.931	73.94
252.164	81.94
252.397	58.94
252.63	73.94
252.863	77.94
253.096	81.94
253.329	79.94
253.562	74.94
253.795	77.94
254.028	69.94
254.261	74.94
254.494	79.94
254.727	85.94
254.96	78.94
255.193	79.94
255.426	75.94
255.659	67.94
255.892	78.94
256.124	71.94
256.357	91.94
256.59	74.94
256.823	65.94
257.056	66.94
257.289	93.94
257.521	80.94
257.754	66.94
257.987	84.94
258.22	82.94
258.452	86.94
258.685	65.94
258.918	81.94
259.151	87.94
259.383	85.94
259.616	72.94
259.849	76.94
260.081	89.94
260.314	83.94
260.547	76.94
260.779	81.94
261.012	79.94
261.244	74.94
261.477	87.94
261.71	88.94
261.942	87.94
262.175	92.94
262.407	77.94
262.64	80.94
262.872	66.94
263.105	75.94
263.337	86.94
263.57	75.94
263.802	76.94
264.035	81.94
264.267	85.94
264.499	81.94
264.732	92.94
264.964	92.94
265.197	88.94
265.429	79.94
265.661	77.94
265.894	76.94
266.126	78.94
266.358	88.94
266.591	75.94
266.823	83.94
267.055	82.94
267.287	81.94
267.52	77.94
267.752	92.94
267.984	80.94
268.216	77.94
268.448	86.94
268.681	77.94
268.913	77.94
269.145	82.94
269.377	81.94
269.609	86.94
269.841	94.94
270.073	78.94
270.306	84.94
270.538	91.94
270.77	88.94
271.002	89.94
271.234	93.94
271.466	90.94
271.698	87.94
271.93	87.94
272.162	73.94
272.394	71.94
272.626	82.94
272.858	76.94
273.09	81.94
273.322	63.94
273.553	78.94
273.785	74.94
274.017	93.94
274.249	79.94
274.481	66.94
274.713	94.94
274.945	81.94
275.176	86.94
275.408	79.94
275.64	84.94
275.872	85.94
276.104	75.94
276.335	81.94
276.567	77.94
276.799	89.94
277.031	89.94
277.262	80.94
277.494	86.94
277.726	85.94
277.957	96.94
278.189	73.94
278.421	81.94
278.652	81.94
278.884	105.94
279.115	89.94
279.347	83.94
279.579	80.94
279.81	80.94
280.042	83.94
280.273	76.94
280.505	75.94
280.736	77.94
280.968	75.94
281.199	66.94
281.431	96.94
281.662	94.94
281.894	91.94
282.125	83.94
282.356	105.94
282.588	105.94
282.819	99.94
283.051	84.94
283.282	83.94
283.513	87.94
283.745	91.94
283.976	89.94
284.207	82.94
284.439	85.94
284.67	90.94
284.901	89.94
285.132	86.94
285.364	86.94
285.595	81.94
285.826	73.94
286.057	79.94
286.288	79.94
286.52	90.94
286.751	61.94
286.982	75.94
287.213	82.94
287.444	85.94
287.675	102.94
287.906	83.94
288.138	87.94
288.369	89.94
288.6	95.94
288.831	95.94
289.062	88.94
289.293	85.94
289.524	82.94
289.755	78.94
289.986	79.94
290.217	86.94
290.448	91.94
290.679	74.94
290.91	78.94
291.141	79.94
291.371	83.94
291.602	79.94
291.833	84.94
292.064	77.94
292.295	99.94
292.526	82.94
292.757	74.94
292.987	83.94
293.218	86.94
293.449	78.94
293.68	80.94
293.91	92.94
294.141	93.94
294.372	75.94
294.603	81.94
294.833	84.94
295.064	86.94
295.295	81.94
295.525	86.94
295.756	76.94
295.987	100.94
296.217	119.94
296.448	110.94
296.679	93.94
296.909	94.94
297.14	86.94
297.37	80.94
297.601	87.94
297.831	85.94
298.062	99.94
298.292	87.94
298.523	95.94
298.753	87.94
298.984	89.94
299.214	80.94
299.445	92.94
299.675	105.94
299.905	83.94
300.136	101.94
300.366	80.94
300.597	91.94
300.827	92.94
301.057	91.94
301.288	83.94
301.518	92.94
301.748	95.94
301.979	99.94
302.209	90.94
302.439	90.94
302.669	83.94
302.9	85.94
303.13	93.94
303.36	93.94
303.59	95.94
303.82	95.94
304.051	89.94
304.281	94.94
304.511	93.94
304.741	64.94
304.971	85.94
305.201	91.94
305.431	94.94
305.661	86.94
305.891	78.94
306.121	83.94
306.352	90.94
306.582	95.94
306.812	96.94
307.042	86.94
307.272	83.94
307.502	83.94
307.731	85.94
307.961	100.94
308.191	85.94
308.421	91.94
308.651	79.94
308.881	79.94
309.111	85.94
309.341	90.94
309.571	98.94
309.8	100.94
310.03	95.94
310.26	77.94
310.49	92.94
310.72	93.94
310.949	93.94
311.179	85.94
311.409	85.94
311.639	94.94
311.868	102.94
312.098	88.94
312.328	95.94
312.557	96.94
312.787	89.94
313.017	99.94
313.246	94.94
313.476	81.94
313.706	89.94
313.935	94.94
314.165	96.94
314.394	94.94
314.624	89.94
314.853	84.94
315.083	97.94
315.312	99.94
315.542	81.94
315.771	79.94
316.001	85.94
316.23	99.94
316.46	84.94
316.689	98.94
316.919	89.94
317.148	90.94
317.377	91.94
317.607	80.94
317.836	85.94
318.065	83.94
318.295	86.94
318.524	87.94
318.753	82.94
318.983	83.94
319.212	105.94
319.441	108.94
319.67	99.94
319.9	98.94
320.129	73.94
320.358	98.94
320.587	104.94
320.816	88.94
321.046	95.94
321.275	88.94
321.504	105.94
321.733	101.94
321.962	96.94
322.191	94.94
322.42	89.94
322.649	105.94
322.878	94.94
323.108	114.94
323.337	104.94
323.566	117.94
323.795	125.94
324.024	184.94
324.253	336.94
324.482	681.94
324.71	1343.94
324.939	1784.94
325.168	665.94
325.397	223.94
325.626	122.94
325.855	133.94
326.084	123.94
326.313	121.94
326.542	137.94
326.77	189.94
326.999	381.94
327.228	809.94
327.457	1402.94
327.686	1130.94
327.914	338.94
328.143	175.94
328.372	134.94
328.6	116.94
328.829	103.94
329.058	110.94
329.287	116.94
329.515	117.94
329.744	85.94
329.972	106.94
330.201	111.94
330.43	118.94
330.658	101.94
330.887	113.94
331.115	100.94
331.344	95.94
331.572	105.94
331.801	94.94
332.03	81.94
332.258	81.94
332.486	74.94
332.715	73.94
332.943	96.94
333.172	91.94
333.4	84.94
333.629	105.94
333.857	86.94
334.085	102.94
334.314	103.94
334.542	122.94
334.771	110.94
334.999	103.94
335.227	85.94
335.455	93.94
335.684	84.94
335.912	90.94
336.14	122.94
336.369	94.94
336.597	99.94
336.825	77.94
337.053	89.94
337.281	88.94
337.51	83.94
337.738	91.94
337.966	93.94
338.194	77.94
338.422	89.94
338.65	79.94
338.878	104.94
339.106	91.94
339.334	81.94
339.562	99.94
339.79	97.94
340.018	79.94
340.246	90.94
340.474	98.94
340.702	77.94
340.93	73.94
341.158	78.94
341.386	86.94
341.614	90.94
341.842	84.94
342.07	87.94
342.298	72.94
342.526	92.94
342.754	85.94
342.981	78.94
343.209	83.94
343.437	102.94
343.665	77.94
343.893	91.94
344.12	84.94
344.348	83.94
344.576	93.94
344.804	79.94
345.031	90.94
345.259	97.94
345.487	93.94
345.714	87.94
345.942	87.94
346.17	98.94
346.397	85.94
346.625	92.94
346.853	88.94
347.08	76.94
347.308	98.94
347.535	79.94
347.763	94.94
347.99	91.94
348.218	94.94
348.445	94.94
348.673	87.94
348.9	80.94
349.128	90.94
349.355	88.94
349.583	88.94
349.81	85.94
350.037	93.94
350.265	93.94
350.492	90.94
350.72	87.94
350.947	90.94
351.174	99.94
351.402	103.94
351.629	98.94
351.856	91.94
352.083	95.94
352.311	102.94
352.538	106.94
352.765	97.94
352.992	103.94
353.22	93.94
353.447	96.94
353.674	104.94
353.901	106.94
354.128	98.94
354.355	103.94
354.583	103.94
354.81	86.94
355.037	93.94
355.264	93.94
355.491	102.94
355.718	105.94
355.945	87.94
356.172	81.94
356.399	89.94
356.626	109.94
356.853	88.94
357.08	96.94
357.307	88.94
357.534	90.94
357.761	94.94
357.988	95.94
358.215	101.94
358.441	97.94
358.668	103.94
358.895	99.94
359.122	92.94
359.349	86.94
359.576	79.94
359.802	102.94
360.029	108.94
360.256	103.94
360.483	83.94
360.709	88.94
360.936	85.94
361.163	74.94
361.39	80.94
361.616	85.94
361.843	81.94
362.07	75.94
362.296	84.94
362.523	86.94
362.749	93.94
362.976	93.94
363.203	102.94
363.429	79.94
363.656	96.94
363.882	93.94
364.109	90.94
364.335	81.94
364.562	92.94
364.788	104.94
365.015	103.94
365.241	68.94
365.468	103.94
365.694	89.94
365.92	99.94
366.147	81.94
366.373	86.94
366.599	91.94
366.826	81.94
367.052	78.94
367.278	78.94
367.505	78.94
367.731	93.94
367.957	82.94
368.184	96.94
368.41	96.94
368.636	98.94
368.862	91.94
369.089	86.94
369.315	82.94
369.541	84.94
369.767	89.94
369.993	99.94
370.219	87.94
370.445	82.94
370.672	88.94
370.898	80.94
371.124	92.94
371.35	64.94
371.576	93.94
371.802	94.94
372.028	86.94
372.254	86.94
372.48	97.94
372.706	79.94
372.932	93.94
373.158	103.94
373.384	103.94
373.61	101.94
373.835	96.94
374.061	81.94
374.287	87.94
374.513	103.94
374.739	87.94
374.965	97.94
375.191	87.94
375.416	73.94
375.642	96.94
375.868	101.94
376.094	91.94
376.319	79.94
376.545	82.94
376.771	80.94
376.997	79.94
377.222	94.94
377.448	97.94
377.674	85.94
377.899	78.94
378.125	89.94
378.35	90.94
378.576	92.94
378.802	102.94
379.027	102.94
379.253	96.94
379.478	106.94
379.704	87.94
379.929	104.94
380.155	91.94
380.38	109.94
380.606	109.94
380.831	103.94
381.057	101.94
381.282	105.94
381.507	111.94
381.733	94.94
381.958	126.94
382.184	93.94
382.409	107.94
382.634	127.94
382.86	114.94
383.085	109.94
383.31	111.94
383.535	121.94
383.761	111.94
383.986	121.94
384.211	105.94
384.436	116.94
384.662	121.94
384.887	126.94
385.112	140.94
385.337	137.94
385.562	130.94
385.787	142.94
386.013	138.94
386.238	147.94
386.463	126.94
386.688	134.94
386.913	133.94
387.138	155.94
387.363	124.94
387.588	107.94
387.813	101.94
388.038	136.94
388.263	151.94
388.488	142.94
388.713	102.94
388.938	104.94
389.163	82.94
389.387	84.94
389.612	80.94
389.837	86.94
390.062	97.94
390.287	85.94
390.512	76.94
390.736	96.94
390.961	90.94
391.186	91.94
391.411	102.94
391.636	102.94
391.86	86.94
392.085	88.94
392.31	82.94
392.534	88.94
392.759	89.94
392.984	91.94
393.208	124.94
393.433	187.94
393.658	158.94
393.882	76.94
394.107	81.94
394.331	84.94
394.556	92.94
394.78	83.94
395.005	75.94
395.229	98.94
395.454	83.94
395.678	88.94
395.903	85.94
396.127	81.94
396.352	98.94
396.576	96.94
396.801	113.94
397.025	140.94
397.249	112.94
397.474	87.94
397.698	84.94
397.922	96.94
398.147	91.94
398.371	89.94
398.595	94.94
398.82	86.94
399.044	97.94
399.268	98.94
399.492	86.94
399.717	94.94
399.941	93.94
400.165	88.94
400.389	87.94
400.613	82.94
400.837	81.94
401.062	72.94
401.286	77.94
401.51	99.94
401.734	91.94
401.958	102.94
402.182	96.94
402.406	129.94
402.63	93.94
402.854	82.94
403.078	80.94
403.302	80.94
403.526	94.94
403.75	90.94
403.974	74.94
404.198	79.94
404.422	85.94
404.645	79.94
404.869	84.94
405.093	98.94
405.317	95.94
405.541	95.94
405.765	105.94
405.988	105.94
406.212	135.94
406.436	181.94
406.66	122.94
406.883	97.94
407.107	92.94
407.331	79.94
407.555	97.94
407.778	85.94
408.002	80.94
408.226	89.94
408.449	89.94
408.673	81.94
408.896	92.94
409.12	74.94
409.344	92.94
409.567	99.94
409.791	97.94
410.014	97.94
410.238	106.94
410.461	87.94
410.685	96.94
410.908	103.94
411.132	104.94
411.355	87.94
411.578	88.94
411.802	72.94
412.025	86.94
412.249	98.94
412.472	108.94
412.695	101.94
412.919	96.94
413.142	92.94
413.365	91.94
413.589	80.94
413.812	75.94
414.035	90.94
414.258	84.94
414.482	89.94
414.705	95.94
414.928	90.94
415.151	98.94
415.374	97.94
415.597	82.94
415.821	78.94
416.044	89.94
416.267	89.94
416.49	79.94
416.713	98.94
416.936	81.94
417.159	73.94
417.382	90.94
417.605	90.94
417.828	98.94
418.051	89.94
418.274	91.94
418.497	70.94
418.72	86.94
418.943	93.94
419.166	82.94
419.389	87.94
419.611	87.94
419.834	78.94
420.057	88.94
420.28	90.94
420.503	90.94
420.726	84.94
420.948	86.94
421.171	105.94
421.394	92.94
421.617	96.94
421.839	88.94
422.062	83.94
422.285	97.94
422.507	107.94
422.73	122.94
422.953	117.94
423.175	96.94
423.398	75.94
423.621	96.94
423.843	83.94
424.066	85.94
424.288	89.94
424.511	90.94
424.733	89.94
424.956	105.94
425.178	96.94
425.401	85.94
425.623	89.94
425.846	81.94
426.068	79.94
426.291	93.94
426.513	87.94
426.735	95.94
426.958	89.94
427.18	91.94
427.402	121.94
427.625	136.94
427.847	105.94
428.069	100.94
428.292	77.94
428.514	78.94
428.736	84.94
428.958	84.94
429.181	88.94
429.403	81.94
429.625	85.94
429.847	89.94
430.069	87.94
430.292	82.94
430.514	88.94
430.736	73.94
430.958	86.94
431.18	75.94
431.402	89.94
431.624	68.94
431.846	73.94
432.068	88.94
432.29	97.94
432.512	80.94
432.734	77.94
432.956	86.94
433.178	89.94
433.4	93.94
433.622	81.94
433.844	77.94
434.066	98.94
434.287	96.94
434.509	86.94
434.731	90.94
434.953	73.94
435.175	83.94
435.397	87.94
435.618	91.94
435.84	93.94
436.062	117.94
436.284	101.94
436.505	111.94
436.727	100.94
436.949	109.94
437.17	99.94
437.392	97.94
437.614	81.94
437.835	92.94
438.057	106.94
438.278	95.94
438.5	111.94
438.721	114.94
438.943	90.94
439.165	80.94
439.386	77.94
439.608	72.94
439.829	97.94
440.05	101.94
440.272	109.94
440.493	76.94
440.715	89.94
440.936	102.94
441.158	79.94
441.379	70.94
441.6	85.94
441.822	89.94
442.043	85.94
442.264	89.94
442.486	97.94
442.707	87.94
442.928	94.94
443.149	105.94
443.371	97.94
443.592	94.94
443.813	97.94
444.034	83.94
444.255	85.94
444.476	86.94
444.698	85.94
444.919	91.94
445.14	139.94
445.361	121.94
445.582	108.94
445.803	122.94
446.024	106.94
446.245	110.94
446.466	104.94
446.687	83.94
446.908	79.94
447.129	83.94
447.35	82.94
447.571	83.94
447.792	89.94
448.013	108.94
448.234	92.94
448.455	70.94
448.675	93.94
448.896	88.94
449.117	93.94
449.338	92.94
449.559	117.94
449.779	106.94
450	86.94
450.221	77.94
450.442	93.94
450.662	86.94
450.883	98.94
451.104	95.94
451.324	84.94
451.545	63.94
451.766	91.94
451.986	86.94
452.207	73.94
452.428	91.94
452.648	102.94
452.869	81.94
453.089	87.94
453.31	97.94
453.53	84.94
453.751	85.94
453.971	82.94
454.192	97.94
454.412	75.94
454.633	74.94
454.853	79.94
455.073	81.94
455.294	89.94
455.514	76.94
455.734	90.94
455.955	86.94
456.175	81.94
456.395	81.94
456.616	79.94
456.836	71.94
457.056	87.94
457.276	88.94
457.497	90.94
457.717	94.94
457.937	95.94
458.157	77.94
458.377	83.94
458.598	101.94
458.818	107.94
459.038	126.94
459.258	102.94
459.478	81.94
459.698	89.94
459.918	85.94
460.138	75.94
460.358	77.94
460.578	86.94
460.798	94.94
461.018	92.94
461.238	87.94
461.458	92.94
461.678	88.94
461.898	84.94
462.118	82.94
462.338	73.94
462.558	90.94
462.777	89.94
462.997	71.94
463.217	81.94
463.437	79.94
463.657	89.94
463.876	76.94
464.096	82.94
464.316	74.94
464.536	77.94
464.755	91.94
464.975	89.94
465.195	138.94
465.414	122.94
465.634	64.94
465.854	79.94
466.073	89.94
466.293	98.94
466.512	91.94
466.732	86.94
466.951	72.94
467.171	85.94
467.391	78.94
467.61	106.94
467.829	84.94
468.049	90.94
468.268	79.94
468.488	70.94
468.707	72.94
468.927	82.94
469.146	77.94
469.365	95.94
469.585	83.94
469.804	73.94
470.023	79.94
470.243	80.94
470.462	92.94
470.681	88.94
470.901	88.94
471.12	98.94
471.339	86.94
471.558	106.94
471.777	92.94
471.997	81.94
472.216	118.94
472.435	121.94
472.654	88.94
472.873	81.94
473.092	84.94
473.311	71.94
473.53	87.94
473.749	89.94
473.968	93.94
474.187	94.94
474.406	80.94
474.625	88.94
474.844	77.94
475.063	90.94
475.282	87.94
475.501	82.94
475.72	81.94
475.939	79.94
476.158	94.94
476.377	79.94
476.596	70.94
476.814	78.94
477.033	73.94
477.252	90.94
477.471	85.94
477.69	83.94
477.908	78.94
478.127	87.94
478.346	91.94
478.564	105.94
478.783	90.94
479.002	89.94
479.22	82.94
479.439	97.94
479.658	81.94
479.876	82.94
480.095	80.94
480.313	96.94
480.532	88.94
480.751	82.94
480.969	103.94
481.188	198.94
481.406	149.94
481.624	95.94
481.843	90.94
482.061	94.94
482.28	89.94
482.498	80.94
482.717	85.94
482.935	82.94
483.153	94.94
483.372	74.94
483.59	80.94
483.808	89.94
484.027	85.94
484.245	89.94
484.463	88.94
484.681	110.94
484.9	89.94
485.118	105.94
485.336	105.94
485.554	113.94
485.772	117.94
485.99	105.94
486.209	118.94
486.427	107.94
486.645	118.94
486.863	105.94
487.081	92.94
487.299	96.94
487.517	93.94
487.735	85.94
487.953	84.94
488.171	104.94
488.389	99.94
488.607	93.94
488.825	92.94
489.043	88.94
489.261	96.94
489.479	71.94
489.696	93.94
489.914	85.94
490.132	94.94
490.35	92.94
490.568	94.94
490.786	87.94
491.003	87.94
491.221	84.94
491.439	85.94
491.657	86.94
491.874	94.94
492.092	87.94
492.31	90.94
492.527	89.94
492.745	94.94
492.963	84.94
493.18	88.94
493.398	84.94
493.615	91.94
493.833	112.94
494.05	96.94
494.268	82.94
494.485	84.94
494.703	89.94
494.92	85.94
495.138	80.94
495.355	92.94
495.573	92.94
495.79	91.94
496.008	89.94
496.225	88.94
496.442	102.94
496.66	99.94
496.877	69.94
497.094	72.94
497.312	83.94
497.529	77.94
497.746	88.94
497.963	83.94
498.181	77.94
498.398	100.94
498.615	98.94
498.832	94.94
499.049	84.94
499.267	103.94
499.484	80.94
499.701	74.94
499.918	80.94
500.135	86.94
500.352	89.94
500.569	97.94
500.786	82.94
501.003	73.94
501.22	89.94
501.437	86.94
501.654	75.94
501.871	86.94
502.088	96.94
502.305	96.94
502.522	77.94
502.739	79.94
502.956	98.94
503.172	93.94
503.389	83.94
503.606	108.94
503.823	95.94
504.04	89.94
504.256	94.94
504.473	76.94
504.69	81.94
504.907	82.94
505.123	97.94
505.34	93.94
505.557	99.94
505.773	91.94
505.99	81.94
506.207	80.94
506.423	78.94
506.64	83.94
506.856	91.94
507.073	104.94
507.289	90.94
507.506	83.94
507.722	106.94
507.939	125.94
508.155	101.94
508.372	83.94
508.588	87.94
508.805	76.94
509.021	109.94
509.238	104.94
509.454	89.94
509.67	91.94
509.887	90.94
510.103	112.94
510.319	176.94
510.536	597.94
510.752	1760.94
510.968	511.94
511.184	129.94
511.401	98.94
511.617	94.94
511.833	84.94
512.049	85.94
512.265	75.94
512.481	94.94
512.698	98.94
512.914	83.94
513.13	81.94
513.346	75.94
513.562	79.94
513.778	94.94
513.994	82.94
514.21	103.94
514.426	102.94
514.642	105.94
514.858	107.94
515.074	136.94
515.29	341.94
515.506	1047.94
515.721	402.94
515.937	123.94
516.153	104.94
516.369	83.94
516.585	89.94
516.801	91.94
