Data from Circ_1993_H10_HRD10591_00075.txt Node
Date: Wed Jan 03 11:44:17 EST 2024
User: Yrep
Spectrometer: HR+D1059
Trigger mode: 1
Integration Time (sec): 1.000000E-1
Scans to average: 1
Electric dark correction enabled: true
Nonlinearity correction enabled: false
Boxcar width: 0
XAxis mode: Wavelengths
Number of Pixels in Spectrum: 2048
>>>>>Begin Spectral Data<<<<<
223.165	-20.81
223.4	-20.81
223.635	-20.81
223.869	-22.81
224.104	-22.81
224.338	-29.81
224.573	-4.81
224.808	1.19
225.042	-10.81
225.277	-14.81
225.511	-5.81
225.746	15.19
225.98	14.19
226.215	-4.81
226.449	15.19
226.683	17.19
226.918	47.19
227.152	27.19
227.387	25.19
227.621	33.19
227.856	50.19
228.09	40.19
228.324	47.19
228.559	54.19
228.793	155.19
229.027	489.19
229.262	527.19
229.496	611.19
229.73	784.19
229.964	803.19
230.199	549.19
230.433	503.19
230.667	487.19
230.901	468.19
231.136	463.19
231.37	453.19
231.604	461.19
231.838	481.19
232.072	476.19
232.306	493.19
232.541	496.19
232.775	488.19
233.009	507.19
233.243	489.19
233.477	508.19
233.711	506.19
233.945	532.19
234.179	545.19
234.413	533.19
234.647	530.19
234.881	542.19
235.115	535.19
235.349	561.19
235.583	566.19
235.817	608.19
236.051	641.19
236.285	619.19
236.519	623.19
236.753	698.19
236.987	912.19
237.221	1353.19
237.455	1483.19
237.689	932.19
237.922	720.19
238.156	768.19
238.39	734.19
238.624	673.19
238.858	686.19
239.091	700.19
239.325	691.19
239.559	694.19
239.793	727.19
240.027	781.19
240.26	918.19
240.494	982.19
240.728	965.19
240.961	943.19
241.195	854.19
241.429	817.19
241.662	790.19
241.896	823.19
242.13	811.19
242.363	834.19
242.597	828.19
242.83	866.19
243.064	871.19
243.298	874.19
243.531	921.19
243.765	858.19
243.998	911.19
244.232	930.19
244.465	921.19
244.699	946.19
244.932	965.19
245.166	958.19
245.399	936.19
245.633	957.19
245.866	979.19
246.099	984.19
246.333	978.19
246.566	1046.19
246.8	1001.19
247.033	1081.19
247.266	1101.19
247.5	1130.19
247.733	1186.19
247.966	1213.19
248.2	1193.19
248.433	1237.19
248.666	1279.19
248.899	1398.19
249.133	1508.19
249.366	1476.19
249.599	1420.19
249.832	1357.19
250.066	1433.19
250.299	1567.19
250.532	1871.19
250.765	1951.19
250.998	1950.19
251.231	1771.19
251.465	1648.19
251.698	1532.19
251.931	1473.19
252.164	1450.19
252.397	1494.19
252.63	1546.19
252.863	1606.19
253.096	1760.19
253.329	1795.19
253.562	1712.19
253.795	1640.19
254.028	1628.19
254.261	1696.19
254.494	1898.19
254.727	2201.19
254.96	2306.19
255.193	2097.19
255.426	1957.19
255.659	2075.19
255.892	2389.19
256.124	2836.19
256.357	2561.19
256.59	2165.19
256.823	1916.19
257.056	1797.19
257.289	1768.19
257.521	1761.19
257.754	1707.19
257.987	1698.19
258.22	1636.19
258.452	1664.19
258.685	1693.19
258.918	1659.19
259.151	1742.19
259.383	1797.19
259.616	1814.19
259.849	1888.19
260.081	2024.19
260.314	2174.19
260.547	2087.19
260.779	1941.19
261.012	1862.19
261.244	1773.19
261.477	1796.19
261.71	1795.19
261.942	1827.19
262.175	1838.19
262.407	1807.19
262.64	1738.19
262.872	1772.19
263.105	1727.19
263.337	1726.19
263.57	1730.19
263.802	1757.19
264.035	1758.19
264.267	1787.19
264.499	1790.19
264.732	1778.19
264.964	1798.19
265.197	1781.19
265.429	1835.19
265.661	1811.19
265.894	1859.19
266.126	1845.19
266.358	1833.19
266.591	1902.19
266.823	1961.19
267.055	1974.19
267.287	1963.19
267.52	1968.19
267.752	1901.19
267.984	1936.19
268.216	1988.19
268.448	2048.19
268.681	2109.19
268.913	2227.19
269.145	2382.19
269.377	2425.19
269.609	2367.19
269.841	2390.19
270.073	2463.19
270.306	2698.19
270.538	2831.19
270.77	2696.19
271.002	2579.19
271.234	2562.19
271.466	2667.19
271.698	2817.19
271.93	2791.19
272.162	2769.19
272.394	2734.19
272.626	2610.19
272.858	2524.19
273.09	2455.19
273.322	2418.19
273.553	2352.19
273.785	2347.19
274.017	2324.19
274.249	2371.19
274.481	2403.19
274.713	2430.19
274.945	2419.19
275.176	2443.19
275.408	2430.19
275.64	2404.19
275.872	2441.19
276.104	2511.19
276.335	2473.19
276.567	2560.19
276.799	2743.19
277.031	2966.19
277.262	3101.19
277.494	2917.19
277.726	2785.19
277.957	2672.19
278.189	2603.19
278.421	2574.19
278.652	2530.19
278.884	2554.19
279.115	2545.19
279.347	2606.19
279.579	2548.19
279.81	2580.19
280.042	2606.19
280.273	2645.19
280.505	2629.19
280.736	2598.19
280.968	2636.19
281.199	2661.19
281.431	2659.19
281.662	2654.19
281.894	2670.19
282.125	2730.19
282.356	2861.19
282.588	2962.19
282.819	2819.19
283.051	2691.19
283.282	2701.19
283.513	2726.19
283.745	2763.19
283.976	2866.19
284.207	2825.19
284.439	2746.19
284.67	2774.19
284.901	2851.19
285.132	2809.19
285.364	2770.19
285.595	2814.19
285.826	2792.19
286.057	2865.19
286.288	2875.19
286.52	2859.19
286.751	2889.19
286.982	2921.19
287.213	2886.19
287.444	2915.19
287.675	3014.19
287.906	3088.19
288.138	3112.19
288.369	3068.19
288.6	3099.19
288.831	3037.19
289.062	3007.19
289.293	2980.19
289.524	2991.19
289.755	3035.19
289.986	2966.19
290.217	2982.19
290.448	3002.19
290.679	3023.19
290.91	3046.19
291.141	2983.19
291.371	2995.19
291.602	2965.19
291.833	2942.19
292.064	2969.19
292.295	2996.19
292.526	3041.19
292.757	3052.19
292.987	3071.19
293.218	2977.19
293.449	3048.19
293.68	2991.19
293.91	3087.19
294.141	3050.19
294.372	2959.19
294.603	3002.19
294.833	3102.19
295.064	3075.19
295.295	3087.19
295.525	3099.19
295.756	3149.19
295.987	3197.19
296.217	3353.19
296.448	3283.19
296.679	3208.19
296.909	3128.19
297.14	3136.19
297.37	3194.19
297.601	3182.19
297.831	3155.19
298.062	3247.19
298.292	3235.19
298.523	3309.19
298.753	3287.19
298.984	3313.19
299.214	3366.19
299.445	3301.19
299.675	3304.19
299.905	3390.19
300.136	3317.19
300.366	3341.19
300.597	3397.19
300.827	3475.19
301.057	3534.19
301.288	3570.19
301.518	3495.19
301.748	3549.19
301.979	3613.19
302.209	3629.19
302.439	3580.19
302.669	3511.19
302.9	3507.19
303.13	3499.19
303.36	3548.19
303.59	3641.19
303.82	3659.19
304.051	3582.19
304.281	3559.19
304.511	3535.19
304.741	3522.19
304.971	3444.19
305.201	3522.19
305.431	3471.19
305.661	3491.19
305.891	3422.19
306.121	3523.19
306.352	3540.19
306.582	3481.19
306.812	3464.19
307.042	3477.19
307.272	3571.19
307.502	3504.19
307.731	3579.19
307.961	3544.19
308.191	3546.19
308.421	3533.19
308.651	3562.19
308.881	3570.19
309.111	3600.19
309.341	3597.19
309.571	3694.19
309.8	3753.19
310.03	3787.19
310.26	3839.19
310.49	3811.19
310.72	3901.19
310.949	4009.19
311.179	3926.19
311.409	3834.19
311.639	3904.19
311.868	3919.19
312.098	3959.19
312.328	3998.19
312.557	4090.19
312.787	4181.19
313.017	4084.19
313.246	3983.19
313.476	3937.19
313.706	4007.19
313.935	4122.19
314.165	4213.19
314.394	4178.19
314.624	4132.19
314.853	4053.19
315.083	4066.19
315.312	4015.19
315.542	3924.19
315.771	3901.19
316.001	3932.19
316.23	3983.19
316.46	3972.19
316.689	3974.19
316.919	3971.19
317.148	4005.19
317.377	3994.19
317.607	4021.19
317.836	3989.19
318.065	3916.19
318.295	3911.19
318.524	3917.19
318.753	3936.19
318.983	3938.19
319.212	3916.19
319.441	4027.19
319.67	4030.19
319.9	3957.19
320.129	3942.19
320.358	3982.19
320.587	4012.19
320.816	4029.19
321.046	4112.19
321.275	4084.19
321.504	4093.19
321.733	4127.19
321.962	4175.19
322.191	4251.19
322.42	4409.19
322.649	4476.19
322.878	4566.19
323.108	4683.19
323.337	4872.19
323.566	5014.19
323.795	5271.19
324.024	5900.19
324.253	7554.19
324.482	11193.19
324.71	15275.19
324.939	15623.19
325.168	13122.19
325.397	6722.19
325.626	5574.19
325.855	5218.19
326.084	5075.19
326.313	5104.19
326.542	5231.19
326.77	5984.19
326.999	7424.19
327.228	10653.19
327.457	14476.19
327.686	13769.19
327.914	8038.19
328.143	6858.19
328.372	6688.19
328.6	6118.19
328.829	5973.19
329.058	6046.19
329.287	6013.19
329.515	5887.19
329.744	5940.19
329.972	6473.19
330.201	7408.19
330.43	7975.19
330.658	7075.19
330.887	6668.19
331.115	6073.19
331.344	5641.19
331.572	5494.19
331.801	5554.19
332.03	5598.19
332.258	5458.19
332.486	5542.19
332.715	5698.19
332.943	5885.19
333.172	6150.19
333.4	6353.19
333.629	6557.19
333.857	7069.19
334.085	7654.19
334.314	8548.19
334.542	9569.19
334.771	9007.19
334.999	7089.19
335.227	6407.19
335.455	5993.19
335.684	5724.19
335.912	5669.19
336.14	5504.19
336.369	5513.19
336.597	5493.19
336.825	5453.19
337.053	5284.19
337.281	5236.19
337.51	5144.19
337.738	5173.19
337.966	5077.19
338.194	5027.19
338.422	4977.19
338.65	4852.19
338.878	4884.19
339.106	4796.19
339.334	4879.19
339.562	4828.19
339.79	4738.19
340.018	4714.19
340.246	4724.19
340.474	4742.19
340.702	4660.19
340.93	4759.19
341.158	4707.19
341.386	4694.19
341.614	4734.19
341.842	4694.19
342.07	4573.19
342.298	4643.19
342.526	4576.19
342.754	4570.19
342.981	4661.19
343.209	4713.19
343.437	4943.19
343.665	5214.19
343.893	5487.19
344.12	5515.19
344.348	5210.19
344.576	5085.19
344.804	4987.19
345.031	4889.19
345.259	4858.19
345.487	4765.19
345.714	4608.19
345.942	4563.19
346.17	4480.19
346.397	4541.19
346.625	4439.19
346.853	4451.19
347.08	4444.19
347.308	4513.19
347.535	4518.19
347.763	4579.19
347.99	4581.19
348.218	4563.19
348.445	4619.19
348.673	4565.19
348.9	4535.19
349.128	4409.19
349.355	4324.19
349.583	4345.19
349.81	4326.19
350.037	4345.19
350.265	4302.19
350.492	4251.19
350.72	4338.19
350.947	4399.19
351.174	4447.19
351.402	4494.19
351.629	4408.19
351.856	4450.19
352.083	4525.19
352.311	4516.19
352.538	4551.19
352.765	4506.19
352.992	4374.19
353.22	4355.19
353.447	4329.19
353.674	4333.19
353.901	4271.19
354.128	4235.19
354.355	4193.19
354.583	4239.19
354.81	4202.19
355.037	4220.19
355.264	4227.19
355.491	4249.19
355.718	4171.19
355.945	4226.19
356.172	4233.19
356.399	4254.19
356.626	4262.19
356.853	4256.19
357.08	4199.19
357.307	4250.19
357.534	4147.19
357.761	4187.19
357.988	4246.19
358.215	4227.19
358.441	4268.19
358.668	4218.19
358.895	4321.19
359.122	4384.19
359.349	4447.19
359.576	4581.19
359.802	4737.19
360.029	4781.19
360.256	4833.19
360.483	4658.19
360.709	4462.19
360.936	4449.19
361.163	4429.19
361.39	4468.19
361.616	4445.19
361.843	4456.19
362.07	4478.19
362.296	4513.19
362.523	4465.19
362.749	4455.19
362.976	4397.19
363.203	4422.19
363.429	4335.19
363.656	4315.19
363.882	4246.19
364.109	4307.19
364.335	4260.19
364.562	4311.19
364.788	4334.19
365.015	4335.19
365.241	4313.19
365.468	4335.19
365.694	4438.19
365.92	4290.19
366.147	4271.19
366.373	4324.19
366.599	4315.19
366.826	4271.19
367.052	4314.19
367.278	4322.19
367.505	4306.19
367.731	4303.19
367.957	4329.19
368.184	4343.19
368.41	4453.19
368.636	4487.19
368.862	4496.19
369.089	4458.19
369.315	4469.19
369.541	4420.19
369.767	4418.19
369.993	4416.19
370.219	4479.19
370.445	4481.19
370.672	4510.19
370.898	4495.19
371.124	4567.19
371.35	4583.19
371.576	4622.19
371.802	4531.19
372.028	4472.19
372.254	4545.19
372.48	4646.19
372.706	4679.19
372.932	4842.19
373.158	4703.19
373.384	4594.19
373.61	4580.19
373.835	4712.19
374.061	4608.19
374.287	4738.19
374.513	4835.19
374.739	4938.19
374.965	5048.19
375.191	5051.19
375.416	4891.19
375.642	4802.19
375.868	4772.19
376.094	4678.19
376.319	4711.19
376.545	4613.19
376.771	4593.19
376.997	4631.19
377.222	4644.19
377.448	4558.19
377.674	4560.19
377.899	4481.19
378.125	4492.19
378.35	4486.19
378.576	4548.19
378.802	4515.19
379.027	4620.19
379.253	4570.19
379.478	4543.19
379.704	4526.19
379.929	4546.19
380.155	4542.19
380.38	4640.19
380.606	4583.19
380.831	4546.19
381.057	4632.19
381.282	4582.19
381.507	4517.19
381.733	4602.19
381.958	4661.19
382.184	4748.19
382.409	4746.19
382.634	4827.19
382.86	4881.19
383.085	4872.19
383.31	4975.19
383.535	5030.19
383.761	5089.19
383.986	5169.19
384.211	5228.19
384.436	5329.19
384.662	5331.19
384.887	5467.19
385.112	5529.19
385.337	5498.19
385.562	5530.19
385.787	5577.19
386.013	5580.19
386.238	5656.19
386.463	5626.19
386.688	5538.19
386.913	5520.19
387.138	5462.19
387.363	5478.19
387.588	5381.19
387.813	5447.19
388.038	5417.19
388.263	5473.19
388.488	5549.19
388.713	5471.19
388.938	5506.19
389.163	5485.19
389.387	5427.19
389.612	5370.19
389.837	5356.19
390.062	5360.19
390.287	5413.19
390.512	5409.19
390.736	5493.19
390.961	5508.19
391.186	5688.19
391.411	5795.19
391.636	6046.19
391.86	6111.19
392.085	6143.19
392.31	6007.19
392.534	5953.19
392.759	5851.19
392.984	5785.19
393.208	5739.19
393.433	5717.19
393.658	5715.19
393.882	5701.19
394.107	5633.19
394.331	5721.19
394.556	5749.19
394.78	5837.19
395.005	5876.19
395.229	5840.19
395.454	6019.19
395.678	6160.19
395.903	6234.19
396.127	6201.19
396.352	5943.19
396.576	5796.19
396.801	5867.19
397.025	5951.19
397.249	6009.19
397.474	6185.19
397.698	6209.19
397.922	6322.19
398.147	6457.19
398.371	6581.19
398.595	6658.19
398.82	7030.19
399.044	7620.19
399.268	8363.19
399.492	9325.19
399.717	10203.19
399.941	9734.19
400.165	9167.19
400.389	8434.19
400.613	7667.19
400.837	7141.19
401.062	7033.19
401.286	6988.19
401.51	6937.19
401.734	6884.19
401.958	6988.19
402.182	7102.19
402.406	7260.19
402.63	7278.19
402.854	7426.19
403.078	7450.19
403.302	7593.19
403.526	7726.19
403.75	7716.19
403.974	7878.19
404.198	7865.19
404.422	7989.19
404.645	8007.19
404.869	8101.19
405.093	8570.19
405.317	8935.19
405.541	8951.19
405.765	8093.19
405.988	7910.19
406.212	7921.19
406.436	7999.19
406.66	8282.19
406.883	8145.19
407.107	8832.19
407.331	9212.19
407.555	9788.19
407.778	9470.19
408.002	8764.19
408.226	8387.19
408.449	8247.19
408.673	8061.19
408.896	8194.19
409.12	8275.19
409.344	7924.19
409.567	7506.19
409.791	7553.19
410.014	7446.19
410.238	7406.19
410.461	7454.19
410.685	7538.19
410.908	7600.19
411.132	7842.19
411.355	7781.19
411.578	7447.19
411.802	7241.19
412.025	7355.19
412.249	7755.19
412.472	8145.19
412.695	8478.19
412.919	7930.19
413.142	7403.19
413.365	7203.19
413.589	7156.19
413.812	6998.19
414.035	6885.19
414.258	6873.19
414.482	6914.19
414.705	6971.19
414.928	6905.19
415.151	6885.19
415.374	6907.19
415.597	6767.19
415.821	6744.19
416.044	6681.19
416.267	6690.19
416.49	6567.19
416.713	6656.19
416.936	6721.19
417.159	6677.19
417.382	6807.19
417.605	6892.19
417.828	7041.19
418.051	7092.19
418.274	6902.19
418.497	6853.19
418.72	6954.19
418.943	6903.19
419.166	7376.19
419.389	7779.19
419.611	7711.19
419.834	7525.19
420.057	7497.19
420.28	7577.19
420.503	7410.19
420.726	7291.19
420.948	7280.19
421.171	7553.19
421.394	7565.19
421.617	6982.19
421.839	6945.19
422.062	6990.19
422.285	7162.19
422.507	7802.19
422.73	8285.19
422.953	7751.19
423.175	7325.19
423.398	7487.19
423.621	7373.19
423.843	7648.19
424.066	7559.19
424.288	7526.19
424.511	7654.19
424.733	8092.19
424.956	8546.19
425.178	8030.19
425.401	8277.19
425.623	8060.19
425.846	7072.19
426.068	7019.19
426.291	6885.19
426.513	6848.19
426.735	6924.19
426.958	7399.19
427.18	8154.19
427.402	9333.19
427.625	9466.19
427.847	8461.19
428.069	8082.19
428.292	7132.19
428.514	6593.19
428.736	6393.19
428.958	6411.19
429.181	6225.19
429.403	6190.19
429.625	6323.19
429.847	6642.19
430.069	7147.19
430.292	6651.19
430.514	6133.19
430.736	6195.19
430.958	6093.19
431.18	6000.19
431.402	6064.19
431.624	6071.19
431.846	6032.19
432.068	6034.19
432.29	6122.19
432.512	6053.19
432.734	6177.19
432.956	6101.19
433.178	6175.19
433.4	6153.19
433.622	6029.19
433.844	6108.19
434.066	6140.19
434.287	6247.19
434.509	6444.19
434.731	6737.19
434.953	6848.19
435.175	6831.19
435.397	6988.19
435.618	6922.19
435.84	7323.19
436.062	8023.19
436.284	7972.19
436.505	6768.19
436.727	6554.19
436.949	6375.19
437.17	6154.19
437.392	6075.19
437.614	6229.19
437.835	6587.19
438.057	7537.19
438.278	8137.19
438.5	8054.19
438.721	8834.19
438.943	7813.19
439.165	6653.19
439.386	6567.19
439.608	6690.19
439.829	6674.19
440.05	7019.19
440.272	7292.19
440.493	6685.19
440.715	6409.19
440.936	6458.19
441.158	6444.19
441.379	6643.19
441.6	6993.19
441.822	7072.19
442.043	7598.19
442.264	8337.19
442.486	7992.19
442.707	7215.19
442.928	7048.19
443.149	7286.19
443.371	7487.19
443.592	7965.19
443.813	8921.19
444.034	8826.19
444.255	7821.19
444.476	7734.19
444.698	7903.19
444.919	7873.19
445.14	7789.19
445.361	7593.19
445.582	7665.19
445.803	8344.19
446.024	8913.19
446.245	8662.19
446.466	7672.19
446.687	6754.19
446.908	6446.19
447.129	6177.19
447.35	5982.19
447.571	5953.19
447.792	5886.19
448.013	5902.19
448.234	6157.19
448.455	6727.19
448.675	7986.19
448.896	8332.19
449.117	6854.19
449.338	7197.19
449.559	8463.19
449.779	8593.19
450	6637.19
450.221	6073.19
450.442	5826.19
450.662	5762.19
450.883	5846.19
451.104	5829.19
451.324	5810.19
451.545	5579.19
451.766	5445.19
451.986	5355.19
452.207	5327.19
452.428	5305.19
452.648	5364.19
452.869	5374.19
453.089	5451.19
453.31	5508.19
453.53	5435.19
453.751	5279.19
453.971	5317.19
454.192	5483.19
454.412	5250.19
454.633	5228.19
454.853	5181.19
455.073	5270.19
455.294	5615.19
455.514	6123.19
455.734	5637.19
455.955	5089.19
456.175	5006.19
456.395	4921.19
456.616	4906.19
456.836	4897.19
457.056	4911.19
457.276	4805.19
457.497	5029.19
457.717	4974.19
457.937	5130.19
458.157	5201.19
458.377	5250.19
458.598	5583.19
458.818	6294.19
459.038	7034.19
459.258	6901.19
459.478	6257.19
459.698	6158.19
459.918	6243.19
460.138	6434.19
460.358	6588.19
460.578	6679.19
460.798	6693.19
461.018	6722.19
461.238	6697.19
461.458	6654.19
461.678	6579.19
461.898	6706.19
462.118	6803.19
462.338	7190.19
462.558	7222.19
462.777	7564.19
462.997	8163.19
463.217	8550.19
463.437	8403.19
463.657	7762.19
463.876	7578.19
464.096	7558.19
464.316	7540.19
464.536	7663.19
464.755	7450.19
464.975	7308.19
465.195	7484.19
465.414	7303.19
465.634	6590.19
465.854	6340.19
466.073	6043.19
466.293	5868.19
466.512	5731.19
466.732	5652.19
466.951	5559.19
467.171	5642.19
467.391	5710.19
467.61	5743.19
467.829	5763.19
468.049	5915.19
468.268	6008.19
468.488	5702.19
468.707	5482.19
468.927	5477.19
469.146	5368.19
469.365	5450.19
469.585	5409.19
469.804	5702.19
470.023	5846.19
470.243	5753.19
470.462	5922.19
470.681	6018.19
470.901	5954.19
471.12	5780.19
471.339	5673.19
471.558	5729.19
471.777	5586.19
471.997	5681.19
472.216	6330.19
472.435	7605.19
472.654	6622.19
472.873	5931.19
473.092	5780.19
473.311	5579.19
473.53	5546.19
473.749	5673.19
473.968	6170.19
474.187	7097.19
474.406	6555.19
474.625	5671.19
474.844	5476.19
475.063	5393.19
475.282	5394.19
475.501	5536.19
475.72	5491.19
475.939	5464.19
476.158	5534.19
476.377	5675.19
476.596	5594.19
476.814	5698.19
477.033	5744.19
477.252	5811.19
477.471	6054.19
477.69	6107.19
477.908	6140.19
478.127	6322.19
478.346	6403.19
478.564	6578.19
478.783	6639.19
479.002	6733.19
479.22	6710.19
479.439	6867.19
479.658	6971.19
479.876	7070.19
480.095	7286.19
480.313	7763.19
480.532	7734.19
480.751	7730.19
480.969	8327.19
481.188	10813.19
481.406	10496.19
481.624	8351.19
481.843	7563.19
482.061	7174.19
482.28	6882.19
482.498	6786.19
482.717	6683.19
482.935	6564.19
483.153	6446.19
483.372	6400.19
483.59	6445.19
483.808	6470.19
484.027	6513.19
484.245	6511.19
484.463	6543.19
484.681	6618.19
484.9	6685.19
485.118	6695.19
485.336	6706.19
485.554	6830.19
485.772	6902.19
485.99	6789.19
486.209	6864.19
486.427	6837.19
486.645	7005.19
486.863	7113.19
487.081	6943.19
487.299	6911.19
487.517	6844.19
487.735	6888.19
