Data from Circ_1993_H10_HRD10591_00069.txt Node
Date: Wed Jan 03 11:44:15 EST 2024
User: Yrep
Spectrometer: HR+D1059
Trigger mode: 1
Integration Time (sec): 1.000000E-1
Scans to average: 1
Electric dark correction enabled: true
Nonlinearity correction enabled: false
Boxcar width: 0
XAxis mode: Wavelengths
Number of Pixels in Spectrum: 2048
>>>>>Begin Spectral Data<<<<<
223.165	-38.75
223.4	-38.75
223.635	-38.75
223.869	-6.75
224.104	-20.75
224.338	-10.75
224.573	-15.75
224.808	-4.75
225.042	-11.75
225.277	-4.75
225.511	13.25
225.746	6.25
225.98	-0.75
226.215	7.25
226.449	14.25
226.683	33.25
226.918	6.25
227.152	34.25
227.387	30.25
227.621	41.25
227.856	42.25
228.09	32.25
228.324	50.25
228.559	62.25
228.793	56.25
229.027	71.25
229.262	75.25
229.496	67.25
229.73	81.25
229.964	82.25
230.199	68.25
230.433	72.25
230.667	74.25
230.901	86.25
231.136	78.25
231.37	78.25
231.604	79.25
231.838	85.25
232.072	83.25
232.306	73.25
232.541	84.25
232.775	82.25
233.009	84.25
233.243	82.25
233.477	70.25
233.711	83.25
233.945	92.25
234.179	69.25
234.413	82.25
234.647	87.25
234.881	85.25
235.115	82.25
235.349	87.25
235.583	72.25
235.817	78.25
236.051	73.25
236.285	81.25
236.519	73.25
236.753	88.25
236.987	76.25
237.221	79.25
237.455	86.25
237.689	91.25
237.922	79.25
238.156	73.25
238.39	60.25
238.624	76.25
238.858	65.25
239.091	64.25
239.325	74.25
239.559	85.25
239.793	84.25
240.027	72.25
240.26	70.25
240.494	72.25
240.728	69.25
240.961	73.25
241.195	82.25
241.429	69.25
241.662	70.25
241.896	86.25
242.13	60.25
242.363	87.25
242.597	69.25
242.83	84.25
243.064	64.25
243.298	77.25
243.531	69.25
243.765	82.25
243.998	82.25
244.232	88.25
244.465	98.25
244.699	84.25
244.932	95.25
245.166	92.25
245.399	68.25
245.633	75.25
245.866	66.25
246.099	83.25
246.333	88.25
246.566	80.25
246.8	83.25
247.033	66.25
247.266	84.25
247.5	84.25
247.733	80.25
247.966	74.25
248.2	70.25
248.433	82.25
248.666	75.25
248.899	80.25
249.133	76.25
249.366	83.25
249.599	100.25
249.832	82.25
250.066	81.25
250.299	76.25
250.532	95.25
250.765	83.25
250.998	79.25
251.231	84.25
251.465	72.25
251.698	80.25
251.931	77.25
252.164	75.25
252.397	81.25
252.63	78.25
252.863	77.25
253.096	75.25
253.329	73.25
253.562	81.25
253.795	77.25
254.028	96.25
254.261	77.25
254.494	82.25
254.727	73.25
254.96	82.25
255.193	79.25
255.426	83.25
255.659	84.25
255.892	80.25
256.124	73.25
256.357	79.25
256.59	82.25
256.823	79.25
257.056	89.25
257.289	82.25
257.521	70.25
257.754	81.25
257.987	92.25
258.22	102.25
258.452	79.25
258.685	72.25
258.918	80.25
259.151	87.25
259.383	81.25
259.616	80.25
259.849	94.25
260.081	83.25
260.314	93.25
260.547	81.25
260.779	83.25
261.012	96.25
261.244	79.25
261.477	76.25
261.71	70.25
261.942	78.25
262.175	95.25
262.407	78.25
262.64	78.25
262.872	74.25
263.105	81.25
263.337	81.25
263.57	96.25
263.802	84.25
264.035	74.25
264.267	78.25
264.499	75.25
264.732	84.25
264.964	78.25
265.197	89.25
265.429	86.25
265.661	70.25
265.894	69.25
266.126	89.25
266.358	66.25
266.591	86.25
266.823	83.25
267.055	83.25
267.287	94.25
267.52	89.25
267.752	84.25
267.984	78.25
268.216	75.25
268.448	83.25
268.681	81.25
268.913	80.25
269.145	80.25
269.377	86.25
269.609	76.25
269.841	80.25
270.073	83.25
270.306	68.25
270.538	72.25
270.77	81.25
271.002	80.25
271.234	91.25
271.466	83.25
271.698	76.25
271.93	95.25
272.162	105.25
272.394	88.25
272.626	92.25
272.858	77.25
273.09	92.25
273.322	82.25
273.553	85.25
273.785	97.25
274.017	83.25
274.249	75.25
274.481	92.25
274.713	88.25
274.945	93.25
275.176	84.25
275.408	99.25
275.64	99.25
275.872	84.25
276.104	99.25
276.335	81.25
276.567	84.25
276.799	92.25
277.031	100.25
277.262	97.25
277.494	92.25
277.726	97.25
277.957	81.25
278.189	81.25
278.421	86.25
278.652	93.25
278.884	86.25
279.115	74.25
279.347	73.25
279.579	73.25
279.81	86.25
280.042	83.25
280.273	96.25
280.505	80.25
280.736	77.25
280.968	103.25
281.199	82.25
281.431	68.25
281.662	84.25
281.894	91.25
282.125	77.25
282.356	116.25
282.588	120.25
282.819	112.25
283.051	84.25
283.282	84.25
283.513	97.25
283.745	89.25
283.976	94.25
284.207	84.25
284.439	82.25
284.67	87.25
284.901	78.25
285.132	96.25
285.364	89.25
285.595	72.25
285.826	81.25
286.057	85.25
286.288	88.25
286.52	75.25
286.751	84.25
286.982	103.25
287.213	84.25
287.444	95.25
287.675	96.25
287.906	96.25
288.138	84.25
288.369	99.25
288.6	82.25
288.831	90.25
289.062	88.25
289.293	91.25
289.524	86.25
289.755	81.25
289.986	83.25
290.217	85.25
290.448	89.25
290.679	83.25
290.91	86.25
291.141	88.25
291.371	82.25
291.602	84.25
291.833	80.25
292.064	88.25
292.295	95.25
292.526	78.25
292.757	103.25
292.987	90.25
293.218	84.25
293.449	93.25
293.68	85.25
293.91	86.25
294.141	99.25
294.372	80.25
294.603	81.25
294.833	85.25
295.064	86.25
295.295	87.25
295.525	90.25
295.756	104.25
295.987	110.25
296.217	129.25
296.448	112.25
296.679	98.25
296.909	87.25
297.14	73.25
297.37	80.25
297.601	86.25
297.831	88.25
298.062	69.25
298.292	80.25
298.523	76.25
298.753	94.25
298.984	73.25
299.214	86.25
299.445	97.25
299.675	103.25
299.905	101.25
300.136	91.25
300.366	94.25
300.597	96.25
300.827	93.25
301.057	77.25
301.288	96.25
301.518	88.25
301.748	92.25
301.979	101.25
302.209	80.25
302.439	74.25
302.669	69.25
302.9	80.25
303.13	86.25
303.36	97.25
303.59	88.25
303.82	92.25
304.051	88.25
304.281	117.25
304.511	103.25
304.741	81.25
304.971	93.25
305.201	96.25
305.431	76.25
305.661	97.25
305.891	94.25
306.121	95.25
306.352	100.25
306.582	110.25
306.812	85.25
307.042	93.25
307.272	106.25
307.502	87.25
307.731	97.25
307.961	97.25
308.191	80.25
308.421	99.25
308.651	84.25
308.881	94.25
309.111	90.25
309.341	86.25
309.571	94.25
309.8	85.25
310.03	89.25
310.26	93.25
310.49	92.25
310.72	94.25
310.949	100.25
311.179	86.25
311.409	87.25
311.639	94.25
311.868	92.25
312.098	92.25
312.328	91.25
312.557	102.25
312.787	105.25
313.017	100.25
313.246	89.25
313.476	85.25
313.706	90.25
313.935	82.25
314.165	90.25
314.394	100.25
314.624	93.25
314.853	90.25
315.083	86.25
315.312	87.25
315.542	93.25
315.771	99.25
316.001	94.25
316.23	73.25
316.46	83.25
316.689	96.25
316.919	104.25
317.148	97.25
317.377	103.25
317.607	99.25
317.836	91.25
318.065	88.25
318.295	102.25
318.524	88.25
318.753	92.25
318.983	93.25
319.212	98.25
319.441	97.25
319.67	123.25
319.9	95.25
320.129	85.25
320.358	103.25
320.587	95.25
320.816	88.25
321.046	97.25
321.275	101.25
321.504	85.25
321.733	105.25
321.962	86.25
322.191	100.25
322.42	90.25
322.649	94.25
322.878	110.25
323.108	101.25
323.337	110.25
323.566	119.25
323.795	128.25
324.024	196.25
324.253	300.25
324.482	694.25
324.71	1358.25
324.939	1792.25
325.168	688.25
325.397	230.25
325.626	145.25
325.855	121.25
326.084	125.25
326.313	115.25
326.542	138.25
326.77	187.25
326.999	401.25
327.228	789.25
327.457	1428.25
327.686	1122.25
327.914	317.25
328.143	196.25
328.372	166.25
328.6	131.25
328.829	117.25
329.058	112.25
329.287	135.25
329.515	102.25
329.744	106.25
329.972	140.25
330.201	197.25
330.43	219.25
330.658	169.25
330.887	148.25
331.115	99.25
331.344	95.25
331.572	91.25
331.801	89.25
332.03	97.25
332.258	93.25
332.486	96.25
332.715	102.25
332.943	83.25
333.172	92.25
333.4	93.25
333.629	102.25
333.857	106.25
334.085	131.25
334.314	203.25
334.542	274.25
334.771	266.25
334.999	125.25
335.227	110.25
335.455	96.25
335.684	94.25
335.912	108.25
336.14	101.25
336.369	96.25
336.597	94.25
336.825	94.25
337.053	106.25
337.281	99.25
337.51	82.25
337.738	86.25
337.966	91.25
338.194	86.25
338.422	84.25
338.65	98.25
338.878	83.25
339.106	83.25
339.334	96.25
339.562	100.25
339.79	98.25
340.018	73.25
340.246	73.25
340.474	94.25
340.702	94.25
340.93	92.25
341.158	98.25
341.386	90.25
341.614	92.25
341.842	89.25
342.07	90.25
342.298	86.25
342.526	79.25
342.754	89.25
342.981	96.25
343.209	94.25
343.437	95.25
343.665	96.25
343.893	95.25
344.12	95.25
344.348	87.25
344.576	97.25
344.804	89.25
345.031	92.25
345.259	94.25
345.487	110.25
345.714	98.25
345.942	81.25
346.17	97.25
346.397	75.25
346.625	100.25
346.853	99.25
347.08	67.25
347.308	87.25
347.535	99.25
347.763	87.25
347.99	86.25
348.218	96.25
348.445	90.25
348.673	81.25
348.9	94.25
349.128	101.25
349.355	92.25
349.583	91.25
349.81	92.25
350.037	93.25
350.265	89.25
350.492	91.25
350.72	89.25
350.947	96.25
351.174	111.25
351.402	105.25
351.629	86.25
351.856	106.25
352.083	103.25
352.311	102.25
352.538	102.25
352.765	103.25
352.992	120.25
353.22	113.25
353.447	91.25
353.674	100.25
353.901	97.25
354.128	100.25
354.355	104.25
354.583	100.25
354.81	90.25
355.037	88.25
355.264	82.25
355.491	91.25
355.718	99.25
355.945	104.25
356.172	94.25
356.399	104.25
356.626	85.25
356.853	80.25
357.08	99.25
357.307	99.25
357.534	93.25
357.761	107.25
357.988	85.25
358.215	103.25
358.441	98.25
358.668	97.25
358.895	102.25
359.122	92.25
359.349	96.25
359.576	103.25
359.802	95.25
360.029	96.25
360.256	100.25
360.483	106.25
360.709	99.25
360.936	108.25
361.163	100.25
361.39	102.25
361.616	102.25
361.843	89.25
362.07	100.25
362.296	95.25
362.523	94.25
362.749	88.25
362.976	111.25
363.203	88.25
363.429	96.25
363.656	82.25
363.882	96.25
364.109	84.25
364.335	73.25
364.562	83.25
364.788	97.25
365.015	97.25
365.241	95.25
365.468	89.25
365.694	97.25
365.92	100.25
366.147	82.25
366.373	85.25
366.599	90.25
366.826	88.25
367.052	79.25
367.278	96.25
367.505	94.25
367.731	96.25
367.957	84.25
368.184	103.25
368.41	97.25
368.636	96.25
368.862	121.25
369.089	97.25
369.315	90.25
369.541	98.25
369.767	86.25
369.993	70.25
370.219	80.25
370.445	83.25
370.672	84.25
370.898	94.25
371.124	95.25
371.35	77.25
371.576	84.25
371.802	82.25
372.028	93.25
372.254	89.25
372.48	75.25
372.706	81.25
372.932	90.25
373.158	82.25
373.384	101.25
373.61	92.25
373.835	93.25
374.061	80.25
374.287	93.25
374.513	85.25
374.739	85.25
374.965	98.25
375.191	84.25
375.416	86.25
375.642	85.25
375.868	81.25
376.094	86.25
376.319	74.25
376.545	96.25
376.771	108.25
376.997	106.25
377.222	89.25
377.448	81.25
377.674	86.25
377.899	94.25
378.125	93.25
378.35	94.25
378.576	77.25
378.802	85.25
379.027	91.25
379.253	94.25
379.478	81.25
379.704	101.25
379.929	86.25
380.155	86.25
380.38	87.25
380.606	75.25
380.831	106.25
381.057	105.25
381.282	104.25
381.507	84.25
381.733	92.25
381.958	90.25
382.184	100.25
382.409	115.25
382.634	104.25
382.86	88.25
383.085	106.25
383.31	98.25
383.535	88.25
383.761	98.25
383.986	95.25
384.211	92.25
384.436	116.25
384.662	105.25
384.887	103.25
385.112	88.25
385.337	115.25
385.562	110.25
385.787	102.25
386.013	114.25
386.238	102.25
386.463	109.25
386.688	116.25
386.913	108.25
387.138	108.25
387.363	87.25
387.588	100.25
387.813	108.25
388.038	113.25
388.263	129.25
388.488	101.25
388.713	97.25
388.938	89.25
389.163	97.25
389.387	89.25
389.612	90.25
389.837	90.25
390.062	97.25
390.287	91.25
390.512	95.25
390.736	114.25
390.961	86.25
391.186	79.25
391.411	84.25
391.636	106.25
391.86	76.25
392.085	98.25
392.31	85.25
392.534	95.25
392.759	76.25
392.984	88.25
393.208	107.25
393.433	110.25
393.658	113.25
393.882	84.25
394.107	96.25
394.331	89.25
394.556	101.25
394.78	92.25
395.005	68.25
395.229	68.25
395.454	93.25
395.678	91.25
395.903	68.25
396.127	85.25
396.352	81.25
396.576	76.25
396.801	81.25
397.025	82.25
397.249	102.25
397.474	102.25
397.698	73.25
397.922	99.25
398.147	80.25
398.371	95.25
398.595	85.25
398.82	87.25
399.044	94.25
399.268	80.25
399.492	95.25
399.717	81.25
399.941	86.25
400.165	87.25
400.389	96.25
400.613	78.25
400.837	92.25
401.062	96.25
401.286	91.25
401.51	92.25
401.734	69.25
401.958	82.25
402.182	109.25
402.406	129.25
402.63	121.25
402.854	100.25
403.078	96.25
403.302	89.25
403.526	96.25
403.75	101.25
403.974	82.25
404.198	86.25
404.422	100.25
404.645	88.25
404.869	90.25
405.093	101.25
405.317	94.25
405.541	102.25
405.765	92.25
405.988	111.25
406.212	142.25
406.436	175.25
406.66	125.25
406.883	88.25
407.107	102.25
407.331	89.25
407.555	93.25
407.778	101.25
408.002	94.25
408.226	80.25
408.449	76.25
408.673	93.25
408.896	75.25
409.12	84.25
409.344	96.25
409.567	80.25
409.791	92.25
410.014	92.25
410.238	94.25
410.461	97.25
410.685	92.25
410.908	105.25
411.132	101.25
411.355	91.25
411.578	92.25
411.802	92.25
412.025	92.25
412.249	93.25
412.472	95.25
412.695	101.25
412.919	81.25
413.142	87.25
413.365	82.25
413.589	80.25
413.812	81.25
414.035	96.25
414.258	70.25
414.482	91.25
414.705	88.25
414.928	97.25
415.151	80.25
415.374	102.25
415.597	91.25
415.821	84.25
416.044	90.25
416.267	88.25
416.49	85.25
416.713	94.25
416.936	90.25
417.159	96.25
417.382	91.25
417.605	81.25
417.828	85.25
418.051	89.25
418.274	84.25
418.497	85.25
418.72	84.25
418.943	96.25
419.166	84.25
419.389	91.25
419.611	86.25
419.834	80.25
420.057	105.25
420.28	88.25
420.503	81.25
420.726	96.25
420.948	74.25
421.171	96.25
421.394	92.25
421.617	84.25
421.839	91.25
422.062	102.25
422.285	93.25
422.507	97.25
422.73	115.25
422.953	98.25
423.175	92.25
423.398	98.25
423.621	76.25
423.843	88.25
424.066	87.25
424.288	84.25
424.511	101.25
424.733	98.25
424.956	104.25
425.178	106.25
425.401	106.25
425.623	109.25
425.846	100.25
426.068	82.25
426.291	97.25
426.513	89.25
426.735	96.25
426.958	87.25
427.18	91.25
427.402	133.25
427.625	155.25
427.847	140.25
428.069	127.25
428.292	94.25
428.514	88.25
428.736	84.25
428.958	74.25
429.181	77.25
429.403	92.25
429.625	89.25
429.847	97.25
430.069	82.25
430.292	83.25
430.514	65.25
430.736	89.25
430.958	101.25
431.18	72.25
431.402	92.25
431.624	85.25
431.846	84.25
432.068	91.25
432.29	79.25
432.512	98.25
432.734	88.25
432.956	90.25
433.178	98.25
433.4	84.25
433.622	83.25
433.844	86.25
434.066	94.25
434.287	100.25
434.509	92.25
434.731	85.25
434.953	96.25
435.175	87.25
435.397	94.25
435.618	85.25
435.84	96.25
436.062	115.25
436.284	116.25
436.505	98.25
436.727	104.25
436.949	97.25
437.17	88.25
437.392	78.25
437.614	109.25
437.835	107.25
438.057	107.25
438.278	111.25
438.5	98.25
438.721	113.25
438.943	99.25
439.165	107.25
439.386	85.25
439.608	95.25
439.829	87.25
440.05	105.25
440.272	100.25
440.493	98.25
440.715	87.25
440.936	100.25
441.158	95.25
441.379	86.25
441.6	97.25
441.822	91.25
442.043	93.25
442.264	90.25
442.486	92.25
442.707	91.25
442.928	106.25
443.149	119.25
443.371	100.25
443.592	104.25
443.813	100.25
444.034	124.25
444.255	93.25
444.476	76.25
444.698	82.25
444.919	86.25
445.14	127.25
445.361	121.25
445.582	101.25
445.803	128.25
446.024	124.25
446.245	112.25
446.466	98.25
446.687	81.25
446.908	102.25
447.129	103.25
447.35	86.25
447.571	93.25
447.792	110.25
448.013	92.25
448.234	97.25
448.455	94.25
448.675	89.25
448.896	120.25
449.117	102.25
449.338	100.25
449.559	115.25
449.779	127.25
450	90.25
450.221	100.25
450.442	92.25
450.662	97.25
450.883	88.25
451.104	100.25
451.324	93.25
451.545	82.25
451.766	88.25
451.986	93.25
452.207	97.25
452.428	87.25
452.648	85.25
452.869	90.25
453.089	113.25
453.31	104.25
453.53	85.25
453.751	99.25
453.971	88.25
454.192	90.25
454.412	79.25
454.633	94.25
454.853	82.25
455.073	84.25
455.294	79.25
455.514	89.25
455.734	86.25
455.955	89.25
456.175	77.25
456.395	80.25
456.616	83.25
456.836	78.25
457.056	87.25
457.276	78.25
457.497	85.25
457.717	92.25
457.937	76.25
458.157	84.25
458.377	95.25
458.598	120.25
458.818	118.25
459.038	136.25
459.258	101.25
459.478	92.25
459.698	72.25
459.918	82.25
460.138	82.25
460.358	97.25
460.578	89.25
460.798	90.25
461.018	107.25
461.238	96.25
461.458	88.25
461.678	96.25
461.898	94.25
462.118	79.25
462.338	66.25
462.558	89.25
462.777	85.25
462.997	89.25
463.217	91.25
463.437	86.25
463.657	80.25
463.876	84.25
464.096	86.25
464.316	82.25
464.536	87.25
464.755	89.25
464.975	84.25
465.195	160.25
465.414	138.25
465.634	93.25
465.854	86.25
466.073	92.25
466.293	96.25
466.512	89.25
466.732	88.25
466.951	74.25
467.171	97.25
467.391	88.25
467.61	107.25
467.829	99.25
468.049	130.25
468.268	151.25
468.488	94.25
468.707	86.25
468.927	78.25
469.146	89.25
469.365	77.25
469.585	87.25
469.804	109.25
470.023	93.25
470.243	90.25
470.462	89.25
470.681	99.25
470.901	83.25
471.12	94.25
471.339	87.25
471.558	89.25
471.777	96.25
471.997	133.25
472.216	206.25
472.435	346.25
472.654	133.25
472.873	95.25
473.092	80.25
473.311	98.25
473.53	96.25
473.749	93.25
473.968	95.25
474.187	92.25
474.406	95.25
474.625	92.25
474.844	83.25
475.063	90.25
475.282	79.25
475.501	77.25
475.72	107.25
475.939	94.25
476.158	95.25
476.377	76.25
476.596	84.25
476.814	104.25
477.033	87.25
477.252	86.25
477.471	89.25
477.69	87.25
477.908	85.25
478.127	98.25
478.346	85.25
478.564	82.25
478.783	102.25
479.002	96.25
479.22	84.25
479.439	94.25
479.658	91.25
479.876	106.25
480.095	89.25
480.313	101.25
480.532	95.25
480.751	108.25
480.969	186.25
481.188	591.25
481.406	354.25
481.624	116.25
481.843	83.25
482.061	88.25
482.28	87.25
482.498	102.25
482.717	94.25
482.935	98.25
483.153	83.25
483.372	88.25
483.59	91.25
483.808	93.25
484.027	84.25
484.245	83.25
484.463	87.25
484.681	99.25
484.9	96.25
485.118	107.25
485.336	91.25
485.554	101.25
485.772	100.25
485.99	90.25
486.209	108.25
486.427	110.25
486.645	121.25
486.863	113.25
487.081	101.25
487.299	107.25
487.517	109.25
487.735	104.25
487.953	105.25
488.171	89.25
488.389	110.25
488.607	90.25
488.825	86.25
489.043	107.25
489.261	92.25
489.479	93.25
489.696	102.25
489.914	85.25
490.132	91.25
490.35	91.25
490.568	91.25
490.786	84.25
491.003	92.25
491.221	102.25
491.439	90.25
491.657	86.25
491.874	75.25
492.092	82.25
492.31	87.25
492.527	92.25
492.745	91.25
492.963	82.25
493.18	80.25
493.398	88.25
493.615	91.25
493.833	100.25
494.05	90.25
494.268	94.25
494.485	85.25
494.703	70.25
494.92	90.25
495.138	84.25
495.355	80.25
495.573	84.25
495.79	90.25
496.008	94.25
496.225	89.25
496.442	76.25
496.66	80.25
496.877	82.25
497.094	98.25
497.312	70.25
497.529	80.25
497.746	97.25
497.963	87.25
498.181	85.25
498.398	93.25
498.615	86.25
498.832	89.25
499.049	88.25
499.267	108.25
499.484	107.25
499.701	94.25
499.918	80.25
500.135	72.25
500.352	93.25
500.569	90.25
500.786	109.25
501.003	90.25
501.22	89.25
501.437	91.25
501.654	103.25
501.871	101.25
502.088	85.25
502.305	89.25
502.522	109.25
502.739	89.25
502.956	91.25
503.172	96.25
503.389	88.25
503.606	96.25
503.823	89.25
504.04	89.25
504.256	108.25
504.473	85.25
504.69	94.25
504.907	96.25
505.123	83.25
505.34	90.25
505.557	82.25
505.773	89.25
505.99	87.25
506.207	96.25
506.423	103.25
506.64	86.25
506.856	86.25
507.073	90.25
507.289	97.25
507.506	97.25
507.722	105.25
507.939	108.25
508.155	100.25
508.372	97.25
508.588	89.25
508.805	93.25
509.021	88.25
509.238	85.25
509.454	84.25
509.67	100.25
509.887	110.25
510.103	129.25
510.319	181.25
510.536	635.25
510.752	1897.25
510.968	536.25
511.184	120.25
511.401	115.25
511.617	109.25
511.833	100.25
512.049	93.25
512.265	105.25
512.481	96.25
512.698	94.25
512.914	98.25
513.13	84.25
513.346	83.25
513.562	89.25
513.778	81.25
513.994	91.25
514.21	102.25
514.426	120.25
514.642	120.25
514.858	125.25
515.074	155.25
515.29	358.25
515.506	1139.25
515.721	426.25
515.937	132.25
