Data from Circ_1993_H10_HRD10591_00046.txt Node
Date: Wed Jan 03 11:44:11 EST 2024
User: Yrep
Spectrometer: HR+D1059
Trigger mode: 1
Integration Time (sec): 1.000000E-1
Scans to average: 1
Electric dark correction enabled: true
Nonlinearity correction enabled: false
Boxcar width: 0
XAxis mode: Wavelengths
Number of Pixels in Spectrum: 2048
>>>>>Begin Spectral Data<<<<<
223.165	-27.38
223.4	-27.38
223.635	-27.38
223.869	-5.38
224.104	-13.38
224.338	-17.38
224.573	-18.38
224.808	-16.38
225.042	-2.38
225.277	-4.38
225.511	2.62
225.746	-4.38
225.98	-6.38
226.215	-4.38
226.449	20.62
226.683	31.62
226.918	29.62
227.152	35.62
227.387	25.62
227.621	29.62
227.856	41.62
228.09	39.62
228.324	65.62
228.559	50.62
228.793	50.62
229.027	58.62
229.262	70.62
229.496	70.62
229.73	89.62
229.964	84.62
230.199	57.62
230.433	71.62
230.667	78.62
230.901	70.62
231.136	85.62
231.37	81.62
231.604	79.62
231.838	86.62
232.072	79.62
232.306	69.62
232.541	77.62
232.775	84.62
233.009	79.62
233.243	82.62
233.477	91.62
233.711	76.62
233.945	68.62
234.179	82.62
234.413	81.62
234.647	71.62
234.881	97.62
235.115	77.62
235.349	79.62
235.583	76.62
235.817	90.62
236.051	69.62
236.285	88.62
236.519	84.62
236.753	67.62
236.987	90.62
237.221	82.62
237.455	75.62
237.689	75.62
237.922	69.62
238.156	67.62
238.39	74.62
238.624	65.62
238.858	94.62
239.091	83.62
239.325	80.62
239.559	76.62
239.793	78.62
240.027	75.62
240.26	78.62
240.494	87.62
240.728	87.62
240.961	69.62
241.195	86.62
241.429	66.62
241.662	83.62
241.896	69.62
242.13	72.62
242.363	70.62
242.597	81.62
242.83	67.62
243.064	73.62
243.298	66.62
243.531	71.62
243.765	77.62
243.998	83.62
244.232	65.62
244.465	79.62
244.699	85.62
244.932	70.62
245.166	81.62
245.399	88.62
245.633	87.62
245.866	79.62
246.099	76.62
246.333	84.62
246.566	90.62
246.8	71.62
247.033	80.62
247.266	65.62
247.5	87.62
247.733	79.62
247.966	82.62
248.2	81.62
248.433	81.62
248.666	79.62
248.899	89.62
249.133	93.62
249.366	90.62
249.599	91.62
249.832	101.62
250.066	87.62
250.299	74.62
250.532	79.62
250.765	65.62
250.998	80.62
251.231	91.62
251.465	78.62
251.698	96.62
251.931	78.62
252.164	71.62
252.397	79.62
252.63	65.62
252.863	84.62
253.096	85.62
253.329	83.62
253.562	74.62
253.795	81.62
254.028	73.62
254.261	86.62
254.494	73.62
254.727	75.62
254.96	93.62
255.193	81.62
255.426	86.62
255.659	86.62
255.892	86.62
256.124	89.62
256.357	70.62
256.59	80.62
256.823	97.62
257.056	76.62
257.289	87.62
257.521	79.62
257.754	76.62
257.987	77.62
258.22	95.62
258.452	73.62
258.685	73.62
258.918	74.62
259.151	89.62
259.383	81.62
259.616	69.62
259.849	73.62
260.081	69.62
260.314	75.62
260.547	75.62
260.779	80.62
261.012	90.62
261.244	70.62
261.477	73.62
261.71	81.62
261.942	98.62
262.175	107.62
262.407	82.62
262.64	63.62
262.872	89.62
263.105	85.62
263.337	91.62
263.57	91.62
263.802	70.62
264.035	77.62
264.267	81.62
264.499	84.62
264.732	88.62
264.964	100.62
265.197	85.62
265.429	100.62
265.661	67.62
265.894	87.62
266.126	76.62
266.358	75.62
266.591	77.62
266.823	79.62
267.055	79.62
267.287	79.62
267.52	94.62
267.752	87.62
267.984	90.62
268.216	83.62
268.448	100.62
268.681	82.62
268.913	77.62
269.145	85.62
269.377	84.62
269.609	82.62
269.841	76.62
270.073	86.62
270.306	74.62
270.538	80.62
270.77	76.62
271.002	79.62
271.234	79.62
271.466	84.62
271.698	86.62
271.93	90.62
272.162	87.62
272.394	90.62
272.626	87.62
272.858	92.62
273.09	83.62
273.322	86.62
273.553	87.62
273.785	84.62
274.017	81.62
274.249	75.62
274.481	93.62
274.713	82.62
274.945	86.62
275.176	71.62
275.408	76.62
275.64	87.62
275.872	90.62
276.104	96.62
276.335	88.62
276.567	100.62
276.799	78.62
277.031	93.62
277.262	81.62
277.494	77.62
277.726	100.62
277.957	84.62
278.189	69.62
278.421	74.62
278.652	91.62
278.884	90.62
279.115	95.62
279.347	90.62
279.579	86.62
279.81	83.62
280.042	100.62
280.273	91.62
280.505	92.62
280.736	90.62
280.968	92.62
281.199	83.62
281.431	91.62
281.662	85.62
281.894	96.62
282.125	78.62
282.356	122.62
282.588	122.62
282.819	123.62
283.051	100.62
283.282	87.62
283.513	76.62
283.745	98.62
283.976	81.62
284.207	77.62
284.439	94.62
284.67	78.62
284.901	86.62
285.132	98.62
285.364	72.62
285.595	91.62
285.826	85.62
286.057	95.62
286.288	83.62
286.52	93.62
286.751	89.62
286.982	85.62
287.213	77.62
287.444	88.62
287.675	86.62
287.906	77.62
288.138	100.62
288.369	89.62
288.6	100.62
288.831	97.62
289.062	104.62
289.293	79.62
289.524	89.62
289.755	82.62
289.986	83.62
290.217	86.62
290.448	79.62
290.679	81.62
290.91	94.62
291.141	89.62
291.371	73.62
291.602	81.62
291.833	73.62
292.064	102.62
292.295	78.62
292.526	83.62
292.757	89.62
292.987	94.62
293.218	83.62
293.449	90.62
293.68	85.62
293.91	75.62
294.141	101.62
294.372	93.62
294.603	81.62
294.833	74.62
295.064	83.62
295.295	95.62
295.525	82.62
295.756	80.62
295.987	106.62
296.217	120.62
296.448	111.62
296.679	81.62
296.909	81.62
297.14	89.62
297.37	91.62
297.601	94.62
297.831	92.62
298.062	76.62
298.292	93.62
298.523	83.62
298.753	98.62
298.984	91.62
299.214	99.62
299.445	81.62
299.675	93.62
299.905	96.62
300.136	98.62
300.366	88.62
300.597	83.62
300.827	84.62
301.057	103.62
301.288	94.62
301.518	91.62
301.748	106.62
301.979	103.62
302.209	84.62
302.439	95.62
302.669	94.62
302.9	95.62
303.13	85.62
303.36	89.62
303.59	95.62
303.82	101.62
304.051	98.62
304.281	81.62
304.511	79.62
304.741	79.62
304.971	86.62
305.201	83.62
305.431	86.62
305.661	92.62
305.891	90.62
306.121	86.62
306.352	91.62
306.582	99.62
306.812	84.62
307.042	88.62
307.272	93.62
307.502	97.62
307.731	106.62
307.961	90.62
308.191	87.62
308.421	99.62
308.651	103.62
308.881	93.62
309.111	102.62
309.341	95.62
309.571	88.62
309.8	102.62
310.03	101.62
310.26	102.62
310.49	84.62
310.72	99.62
310.949	99.62
311.179	104.62
311.409	91.62
311.639	103.62
311.868	107.62
312.098	102.62
312.328	84.62
312.557	109.62
312.787	86.62
313.017	105.62
313.246	98.62
313.476	82.62
313.706	97.62
313.935	94.62
314.165	78.62
314.394	99.62
314.624	88.62
314.853	91.62
315.083	97.62
315.312	106.62
315.542	87.62
315.771	97.62
316.001	73.62
316.23	90.62
316.46	97.62
316.689	84.62
316.919	93.62
317.148	93.62
317.377	98.62
317.607	99.62
317.836	80.62
318.065	85.62
318.295	95.62
318.524	94.62
318.753	99.62
318.983	82.62
319.212	85.62
319.441	101.62
319.67	90.62
319.9	98.62
320.129	92.62
320.358	90.62
320.587	99.62
320.816	90.62
321.046	97.62
321.275	102.62
321.504	89.62
321.733	88.62
321.962	98.62
322.191	99.62
322.42	114.62
322.649	94.62
322.878	105.62
323.108	117.62
323.337	111.62
323.566	129.62
323.795	132.62
324.024	174.62
324.253	320.62
324.482	658.62
324.71	1292.62
324.939	1671.62
325.168	617.62
325.397	201.62
325.626	142.62
325.855	121.62
326.084	122.62
326.313	127.62
326.542	141.62
326.77	194.62
326.999	390.62
327.228	741.62
327.457	1274.62
327.686	1033.62
327.914	307.62
328.143	203.62
328.372	161.62
328.6	140.62
328.829	115.62
329.058	117.62
329.287	109.62
329.515	102.62
329.744	110.62
329.972	131.62
330.201	168.62
330.43	189.62
330.658	140.62
330.887	107.62
331.115	118.62
331.344	97.62
331.572	106.62
331.801	98.62
332.03	89.62
332.258	87.62
332.486	93.62
332.715	94.62
332.943	93.62
333.172	102.62
333.4	91.62
333.629	96.62
333.857	113.62
334.085	126.62
334.314	160.62
334.542	214.62
334.771	185.62
334.999	126.62
335.227	105.62
335.455	96.62
335.684	97.62
335.912	103.62
336.14	110.62
336.369	101.62
336.597	101.62
336.825	100.62
337.053	87.62
337.281	100.62
337.51	93.62
337.738	90.62
337.966	96.62
338.194	87.62
338.422	85.62
338.65	104.62
338.878	92.62
339.106	99.62
339.334	101.62
339.562	89.62
339.79	84.62
340.018	84.62
340.246	86.62
340.474	83.62
340.702	87.62
340.93	87.62
341.158	103.62
341.386	89.62
341.614	99.62
341.842	83.62
342.07	93.62
342.298	106.62
342.526	83.62
342.754	86.62
342.981	87.62
343.209	87.62
343.437	108.62
343.665	91.62
343.893	100.62
344.12	97.62
344.348	96.62
344.576	94.62
344.804	77.62
345.031	85.62
345.259	89.62
345.487	95.62
345.714	86.62
345.942	79.62
346.17	85.62
346.397	97.62
346.625	86.62
346.853	95.62
347.08	93.62
347.308	86.62
347.535	82.62
347.763	101.62
347.99	109.62
348.218	101.62
348.445	112.62
348.673	89.62
348.9	98.62
349.128	86.62
349.355	83.62
349.583	95.62
349.81	103.62
350.037	93.62
350.265	102.62
350.492	106.62
350.72	96.62
350.947	109.62
351.174	104.62
351.402	84.62
351.629	97.62
351.856	114.62
352.083	85.62
352.311	93.62
352.538	104.62
352.765	112.62
352.992	112.62
353.22	102.62
353.447	99.62
353.674	100.62
353.901	109.62
354.128	103.62
354.355	103.62
354.583	98.62
354.81	92.62
355.037	85.62
355.264	94.62
355.491	84.62
355.718	85.62
355.945	93.62
356.172	93.62
356.399	99.62
356.626	91.62
356.853	110.62
357.08	95.62
357.307	96.62
357.534	91.62
357.761	98.62
357.988	87.62
358.215	109.62
358.441	88.62
358.668	88.62
358.895	74.62
359.122	85.62
359.349	88.62
359.576	79.62
359.802	98.62
360.029	101.62
360.256	99.62
360.483	87.62
360.709	90.62
360.936	95.62
361.163	98.62
361.39	105.62
361.616	91.62
361.843	91.62
362.07	75.62
362.296	108.62
362.523	99.62
362.749	85.62
362.976	81.62
363.203	92.62
363.429	78.62
363.656	90.62
363.882	92.62
364.109	79.62
364.335	86.62
364.562	80.62
364.788	94.62
365.015	96.62
365.241	83.62
365.468	99.62
365.694	108.62
365.92	107.62
366.147	102.62
366.373	103.62
366.599	79.62
366.826	89.62
367.052	88.62
367.278	83.62
367.505	94.62
367.731	95.62
367.957	93.62
368.184	89.62
368.41	89.62
368.636	98.62
368.862	108.62
369.089	103.62
369.315	95.62
369.541	88.62
369.767	98.62
369.993	95.62
370.219	89.62
370.445	90.62
370.672	100.62
370.898	91.62
371.124	88.62
371.35	78.62
371.576	79.62
371.802	101.62
372.028	90.62
372.254	83.62
372.48	99.62
372.706	91.62
372.932	67.62
373.158	82.62
373.384	81.62
373.61	77.62
373.835	89.62
374.061	99.62
374.287	83.62
374.513	83.62
374.739	83.62
374.965	95.62
375.191	102.62
375.416	100.62
375.642	89.62
375.868	98.62
376.094	84.62
376.319	82.62
376.545	93.62
376.771	71.62
376.997	86.62
377.222	87.62
377.448	92.62
377.674	75.62
377.899	87.62
378.125	88.62
378.35	91.62
378.576	95.62
378.802	104.62
379.027	86.62
379.253	97.62
379.478	75.62
379.704	75.62
379.929	97.62
380.155	90.62
380.38	99.62
380.606	95.62
380.831	98.62
381.057	90.62
381.282	111.62
381.507	92.62
381.733	92.62
381.958	101.62
382.184	95.62
382.409	96.62
382.634	97.62
382.86	97.62
383.085	94.62
383.31	111.62
383.535	108.62
383.761	125.62
383.986	100.62
384.211	101.62
384.436	100.62
384.662	101.62
384.887	97.62
385.112	127.62
385.337	113.62
385.562	111.62
385.787	109.62
386.013	116.62
386.238	117.62
386.463	114.62
386.688	110.62
386.913	122.62
387.138	114.62
387.363	85.62
387.588	109.62
387.813	107.62
388.038	117.62
388.263	122.62
388.488	108.62
388.713	96.62
388.938	99.62
389.163	101.62
389.387	102.62
389.612	99.62
389.837	96.62
390.062	91.62
390.287	92.62
390.512	102.62
390.736	96.62
390.961	85.62
391.186	97.62
391.411	97.62
391.636	87.62
391.86	94.62
392.085	87.62
392.31	94.62
392.534	97.62
392.759	83.62
392.984	92.62
393.208	119.62
393.433	131.62
393.658	114.62
393.882	86.62
394.107	85.62
394.331	91.62
394.556	91.62
394.78	88.62
395.005	98.62
395.229	78.62
395.454	70.62
395.678	81.62
395.903	95.62
396.127	73.62
396.352	81.62
396.576	89.62
396.801	107.62
397.025	118.62
397.249	89.62
397.474	97.62
397.698	90.62
397.922	100.62
398.147	89.62
398.371	82.62
398.595	73.62
398.82	91.62
399.044	69.62
399.268	74.62
399.492	66.62
399.717	89.62
399.941	89.62
400.165	92.62
400.389	86.62
400.613	97.62
400.837	87.62
401.062	84.62
401.286	100.62
401.51	81.62
401.734	81.62
401.958	99.62
402.182	113.62
402.406	134.62
402.63	118.62
402.854	108.62
403.078	74.62
403.302	92.62
403.526	90.62
403.75	84.62
403.974	94.62
404.198	77.62
404.422	94.62
404.645	99.62
404.869	87.62
405.093	98.62
405.317	105.62
405.541	90.62
405.765	95.62
405.988	101.62
406.212	139.62
406.436	195.62
406.66	126.62
406.883	93.62
407.107	94.62
407.331	84.62
407.555	87.62
407.778	87.62
408.002	96.62
408.226	97.62
408.449	64.62
408.673	85.62
408.896	85.62
409.12	87.62
409.344	103.62
409.567	92.62
409.791	105.62
410.014	97.62
410.238	101.62
410.461	82.62
410.685	89.62
410.908	105.62
411.132	116.62
411.355	104.62
411.578	100.62
411.802	92.62
412.025	84.62
412.249	90.62
412.472	97.62
412.695	96.62
412.919	83.62
413.142	101.62
413.365	95.62
413.589	86.62
413.812	87.62
414.035	97.62
414.258	97.62
414.482	83.62
414.705	95.62
414.928	106.62
415.151	109.62
415.374	97.62
415.597	83.62
415.821	87.62
416.044	82.62
416.267	99.62
416.49	85.62
416.713	83.62
416.936	86.62
417.159	83.62
417.382	73.62
417.605	84.62
417.828	77.62
418.051	79.62
418.274	102.62
418.497	84.62
418.72	84.62
418.943	90.62
419.166	91.62
419.389	89.62
419.611	98.62
419.834	85.62
420.057	81.62
420.28	89.62
420.503	84.62
420.726	78.62
420.948	93.62
421.171	93.62
421.394	97.62
421.617	86.62
421.839	99.62
422.062	63.62
422.285	93.62
422.507	99.62
422.73	99.62
422.953	101.62
423.175	81.62
423.398	79.62
423.621	94.62
423.843	86.62
424.066	87.62
424.288	82.62
424.511	89.62
424.733	92.62
424.956	101.62
425.178	97.62
425.401	93.62
425.623	86.62
425.846	83.62
426.068	98.62
426.291	92.62
426.513	96.62
426.735	107.62
426.958	97.62
427.18	90.62
427.402	115.62
427.625	159.62
427.847	117.62
428.069	108.62
428.292	84.62
428.514	84.62
428.736	93.62
428.958	91.62
429.181	85.62
429.403	91.62
429.625	85.62
429.847	109.62
430.069	88.62
430.292	88.62
430.514	78.62
430.736	87.62
430.958	87.62
431.18	80.62
431.402	89.62
431.624	77.62
431.846	86.62
432.068	91.62
432.29	94.62
432.512	85.62
432.734	91.62
432.956	98.62
433.178	85.62
433.4	85.62
433.622	96.62
433.844	88.62
434.066	90.62
434.287	102.62
434.509	94.62
434.731	79.62
434.953	91.62
435.175	98.62
435.397	90.62
435.618	83.62
435.84	95.62
436.062	109.62
436.284	102.62
436.505	94.62
436.727	94.62
436.949	94.62
437.17	91.62
437.392	93.62
437.614	80.62
437.835	85.62
438.057	98.62
438.278	100.62
438.5	106.62
438.721	109.62
438.943	99.62
439.165	90.62
439.386	82.62
439.608	87.62
439.829	92.62
440.05	115.62
440.272	117.62
440.493	114.62
440.715	83.62
440.936	83.62
441.158	82.62
441.379	80.62
441.6	83.62
441.822	88.62
442.043	91.62
442.264	102.62
442.486	100.62
442.707	91.62
442.928	108.62
443.149	125.62
443.371	122.62
443.592	102.62
443.813	99.62
444.034	107.62
444.255	112.62
444.476	97.62
444.698	93.62
444.919	89.62
445.14	130.62
445.361	123.62
445.582	110.62
445.803	112.62
446.024	107.62
446.245	121.62
446.466	113.62
446.687	91.62
446.908	87.62
447.129	104.62
447.35	107.62
447.571	94.62
447.792	87.62
448.013	92.62
448.234	106.62
448.455	92.62
448.675	111.62
448.896	93.62
449.117	92.62
449.338	108.62
449.559	118.62
449.779	120.62
450	100.62
450.221	99.62
450.442	84.62
450.662	82.62
450.883	91.62
451.104	98.62
451.324	91.62
451.545	81.62
451.766	92.62
451.986	75.62
452.207	97.62
452.428	93.62
452.648	102.62
452.869	110.62
453.089	97.62
453.31	95.62
453.53	90.62
453.751	90.62
453.971	99.62
454.192	102.62
454.412	89.62
454.633	89.62
454.853	89.62
455.073	89.62
455.294	90.62
455.514	99.62
455.734	84.62
455.955	75.62
456.175	74.62
456.395	93.62
456.616	97.62
456.836	82.62
457.056	68.62
457.276	78.62
457.497	97.62
457.717	90.62
457.937	89.62
458.157	83.62
458.377	77.62
458.598	102.62
458.818	137.62
459.038	129.62
459.258	103.62
459.478	87.62
459.698	95.62
459.918	93.62
460.138	78.62
460.358	78.62
460.578	68.62
460.798	90.62
461.018	79.62
461.238	115.62
461.458	86.62
461.678	89.62
461.898	103.62
462.118	97.62
462.338	82.62
462.558	87.62
462.777	70.62
462.997	73.62
463.217	110.62
463.437	78.62
463.657	85.62
463.876	85.62
464.096	93.62
464.316	78.62
464.536	96.62
464.755	85.62
464.975	109.62
465.195	145.62
465.414	135.62
465.634	93.62
465.854	99.62
466.073	66.62
466.293	95.62
466.512	90.62
466.732	77.62
466.951	73.62
467.171	95.62
467.391	100.62
467.61	110.62
467.829	101.62
468.049	113.62
468.268	122.62
468.488	99.62
468.707	77.62
468.927	93.62
469.146	89.62
469.365	98.62
469.585	86.62
469.804	98.62
470.023	101.62
470.243	98.62
470.462	79.62
470.681	91.62
470.901	74.62
471.12	76.62
471.339	81.62
471.558	82.62
471.777	77.62
471.997	102.62
472.216	169.62
472.435	265.62
472.654	131.62
472.873	93.62
473.092	85.62
473.311	89.62
473.53	100.62
473.749	84.62
473.968	94.62
474.187	103.62
474.406	93.62
474.625	90.62
474.844	85.62
475.063	81.62
475.282	91.62
475.501	91.62
475.72	89.62
475.939	79.62
476.158	84.62
476.377	82.62
476.596	77.62
476.814	93.62
477.033	96.62
477.252	97.62
477.471	98.62
477.69	91.62
477.908	82.62
478.127	86.62
478.346	78.62
478.564	82.62
478.783	103.62
479.002	92.62
479.22	92.62
479.439	108.62
479.658	113.62
479.876	98.62
480.095	104.62
480.313	89.62
480.532	93.62
480.751	104.62
480.969	162.62
481.188	433.62
481.406	277.62
481.624	106.62
481.843	93.62
482.061	85.62
482.28	93.62
482.498	105.62
482.717	96.62
482.935	90.62
483.153	97.62
483.372	102.62
483.59	98.62
483.808	93.62
484.027	85.62
484.245	88.62
484.463	91.62
484.681	102.62
484.9	86.62
485.118	105.62
485.336	101.62
485.554	81.62
485.772	104.62
485.99	93.62
486.209	118.62
486.427	138.62
486.645	104.62
486.863	112.62
487.081	105.62
487.299	83.62
487.517	90.62
487.735	88.62
487.953	84.62
488.171	91.62
488.389	102.62
488.607	103.62
488.825	92.62
489.043	77.62
489.261	104.62
489.479	99.62
489.696	103.62
489.914	80.62
490.132	95.62
490.35	83.62
490.568	83.62
490.786	83.62
491.003	93.62
491.221	87.62
491.439	87.62
491.657	96.62
491.874	91.62
492.092	100.62
492.31	96.62
492.527	86.62
492.745	98.62
492.963	100.62
493.18	89.62
493.398	93.62
493.615	105.62
493.833	113.62
494.05	99.62
494.268	84.62
494.485	90.62
494.703	97.62
494.92	108.62
495.138	93.62
495.355	90.62
495.573	89.62
495.79	82.62
496.008	86.62
496.225	91.62
496.442	97.62
496.66	93.62
496.877	81.62
497.094	94.62
497.312	93.62
497.529	89.62
497.746	84.62
497.963	91.62
498.181	99.62
498.398	89.62
498.615	104.62
498.832	83.62
499.049	82.62
499.267	106.62
499.484	92.62
499.701	91.62
499.918	100.62
500.135	91.62
500.352	92.62
500.569	112.62
500.786	102.62
501.003	69.62
501.22	105.62
501.437	102.62
501.654	97.62
501.871	110.62
502.088	95.62
502.305	85.62
502.522	106.62
502.739	95.62
502.956	64.62
503.172	85.62
503.389	93.62
503.606	93.62
503.823	83.62
504.04	97.62
504.256	86.62
504.473	102.62
504.69	80.62
504.907	84.62
505.123	100.62
505.34	85.62
505.557	88.62
505.773	100.62
505.99	90.62
506.207	100.62
506.423	89.62
506.64	100.62
506.856	90.62
507.073	90.62
507.289	94.62
507.506	108.62
507.722	97.62
507.939	109.62
508.155	103.62
508.372	109.62
508.588	89.62
508.805	97.62
509.021	93.62
509.238	83.62
509.454	100.62
509.67	89.62
509.887	108.62
510.103	126.62
510.319	180.62
510.536	617.62
510.752	1903.62
510.968	532.62
511.184	139.62
511.401	103.62
511.617	95.62
511.833	78.62
512.049	89.62
512.265	85.62
512.481	90.62
512.698	99.62
512.914	92.62
513.13	75.62
513.346	85.62
513.562	89.62
513.778	84.62
513.994	87.62
514.21	92.62
514.426	106.62
514.642	114.62
514.858	106.62
515.074	143.62
515.29	354.62
515.506	1105.62
