Data from Circ_1993_H10_HRD10591_00054.txt Node
Date: Wed Jan 03 11:44:12 EST 2024
User: Yrep
Spectrometer: HR+D1059
Trigger mode: 1
Integration Time (sec): 1.000000E-1
Scans to average: 1
Electric dark correction enabled: true
Nonlinearity correction enabled: false
Boxcar width: 0
XAxis mode: Wavelengths
Number of Pixels in Spectrum: 2048
>>>>>Begin Spectral Data<<<<<
223.165	-15.94
223.4	-15.94
223.635	-15.94
223.869	-6.94
224.104	-13.94
224.338	-23.94
224.573	-14.94
224.808	0.06
225.042	2.06
225.277	-13.94
225.511	-1.94
225.746	0.06
225.98	-6.94
226.215	8.06
226.449	9.06
226.683	15.06
226.918	35.06
227.152	29.06
227.387	36.06
227.621	46.06
227.856	62.06
228.09	60.06
228.324	57.06
228.559	53.06
228.793	51.06
229.027	66.06
229.262	65.06
229.496	63.06
229.73	97.06
229.964	86.06
230.199	76.06
230.433	81.06
230.667	91.06
230.901	96.06
231.136	74.06
231.37	101.06
231.604	83.06
231.838	91.06
232.072	89.06
232.306	79.06
232.541	84.06
232.775	88.06
233.009	93.06
233.243	85.06
233.477	92.06
233.711	76.06
233.945	80.06
234.179	73.06
234.413	98.06
234.647	79.06
234.881	70.06
235.115	85.06
235.349	73.06
235.583	71.06
235.817	81.06
236.051	80.06
236.285	82.06
236.519	83.06
236.753	86.06
236.987	87.06
237.221	79.06
237.455	81.06
237.689	84.06
237.922	82.06
238.156	81.06
238.39	75.06
238.624	67.06
238.858	76.06
239.091	88.06
239.325	75.06
239.559	100.06
239.793	81.06
240.027	72.06
240.26	82.06
240.494	98.06
240.728	77.06
240.961	75.06
241.195	81.06
241.429	83.06
241.662	88.06
241.896	85.06
242.13	75.06
242.363	70.06
242.597	75.06
242.83	75.06
243.064	83.06
243.298	87.06
243.531	72.06
243.765	72.06
243.998	88.06
244.232	80.06
244.465	85.06
244.699	94.06
244.932	87.06
245.166	80.06
245.399	85.06
245.633	77.06
245.866	87.06
246.099	69.06
246.333	79.06
246.566	87.06
246.8	88.06
247.033	84.06
247.266	62.06
247.5	75.06
247.733	88.06
247.966	70.06
248.2	81.06
248.433	98.06
248.666	77.06
248.899	94.06
249.133	84.06
249.366	71.06
249.599	87.06
249.832	72.06
250.066	79.06
250.299	85.06
250.532	92.06
250.765	76.06
250.998	78.06
251.231	87.06
251.465	85.06
251.698	96.06
251.931	85.06
252.164	100.06
252.397	84.06
252.63	91.06
252.863	81.06
253.096	84.06
253.329	88.06
253.562	78.06
253.795	83.06
254.028	89.06
254.261	87.06
254.494	78.06
254.727	86.06
254.96	91.06
255.193	78.06
255.426	85.06
255.659	80.06
255.892	85.06
256.124	76.06
256.357	89.06
256.59	82.06
256.823	83.06
257.056	92.06
257.289	75.06
257.521	78.06
257.754	83.06
257.987	100.06
258.22	85.06
258.452	83.06
258.685	86.06
258.918	96.06
259.151	83.06
259.383	76.06
259.616	66.06
259.849	68.06
260.081	75.06
260.314	91.06
260.547	81.06
260.779	76.06
261.012	101.06
261.244	88.06
261.477	86.06
261.71	97.06
261.942	109.06
262.175	108.06
262.407	87.06
262.64	79.06
262.872	85.06
263.105	87.06
263.337	84.06
263.57	71.06
263.802	96.06
264.035	92.06
264.267	80.06
264.499	81.06
264.732	86.06
264.964	87.06
265.197	92.06
265.429	69.06
265.661	85.06
265.894	89.06
266.126	95.06
266.358	87.06
266.591	94.06
266.823	93.06
267.055	91.06
267.287	90.06
267.52	64.06
267.752	68.06
267.984	89.06
268.216	78.06
268.448	77.06
268.681	75.06
268.913	82.06
269.145	94.06
269.377	82.06
269.609	91.06
269.841	94.06
270.073	88.06
270.306	80.06
270.538	93.06
270.77	89.06
271.002	82.06
271.234	89.06
271.466	106.06
271.698	85.06
271.93	86.06
272.162	91.06
272.394	81.06
272.626	97.06
272.858	81.06
273.09	95.06
273.322	80.06
273.553	86.06
273.785	71.06
274.017	81.06
274.249	78.06
274.481	87.06
274.713	89.06
274.945	88.06
275.176	95.06
275.408	72.06
275.64	87.06
275.872	87.06
276.104	80.06
276.335	93.06
276.567	105.06
276.799	112.06
277.031	110.06
277.262	107.06
277.494	92.06
277.726	82.06
277.957	87.06
278.189	91.06
278.421	79.06
278.652	84.06
278.884	81.06
279.115	91.06
279.347	91.06
279.579	83.06
279.81	91.06
280.042	88.06
280.273	105.06
280.505	100.06
280.736	98.06
280.968	86.06
281.199	82.06
281.431	88.06
281.662	82.06
281.894	84.06
282.125	100.06
282.356	111.06
282.588	127.06
282.819	98.06
283.051	79.06
283.282	77.06
283.513	103.06
283.745	107.06
283.976	85.06
284.207	87.06
284.439	95.06
284.67	81.06
284.901	87.06
285.132	97.06
285.364	105.06
285.595	103.06
285.826	92.06
286.057	64.06
286.288	96.06
286.52	87.06
286.751	90.06
286.982	88.06
287.213	72.06
287.444	83.06
287.675	88.06
287.906	80.06
288.138	88.06
288.369	96.06
288.6	90.06
288.831	72.06
289.062	91.06
289.293	84.06
289.524	91.06
289.755	92.06
289.986	87.06
290.217	102.06
290.448	93.06
290.679	89.06
290.91	94.06
291.141	100.06
291.371	112.06
291.602	87.06
291.833	79.06
292.064	95.06
292.295	95.06
292.526	91.06
292.757	99.06
292.987	96.06
293.218	88.06
293.449	102.06
293.68	104.06
293.91	92.06
294.141	96.06
294.372	86.06
294.603	98.06
294.833	96.06
295.064	97.06
295.295	102.06
295.525	98.06
295.756	101.06
295.987	118.06
296.217	126.06
296.448	114.06
296.679	99.06
296.909	99.06
297.14	84.06
297.37	93.06
297.601	95.06
297.831	106.06
298.062	101.06
298.292	82.06
298.523	108.06
298.753	88.06
298.984	80.06
299.214	86.06
299.445	92.06
299.675	110.06
299.905	99.06
300.136	83.06
300.366	92.06
300.597	92.06
300.827	82.06
301.057	103.06
301.288	100.06
301.518	92.06
301.748	90.06
301.979	106.06
302.209	95.06
302.439	92.06
302.669	87.06
302.9	81.06
303.13	100.06
303.36	94.06
303.59	111.06
303.82	101.06
304.051	90.06
304.281	99.06
304.511	85.06
304.741	96.06
304.971	97.06
305.201	85.06
305.431	95.06
305.661	95.06
305.891	102.06
306.121	101.06
306.352	89.06
306.582	101.06
306.812	88.06
307.042	89.06
307.272	106.06
307.502	102.06
307.731	115.06
307.961	109.06
308.191	98.06
308.421	88.06
308.651	91.06
308.881	101.06
309.111	79.06
309.341	98.06
309.571	100.06
309.8	89.06
310.03	102.06
310.26	92.06
310.49	98.06
310.72	95.06
310.949	87.06
311.179	98.06
311.409	94.06
311.639	82.06
311.868	96.06
312.098	99.06
312.328	81.06
312.557	94.06
312.787	100.06
313.017	98.06
313.246	107.06
313.476	107.06
313.706	100.06
313.935	99.06
314.165	99.06
314.394	93.06
314.624	96.06
314.853	89.06
315.083	96.06
315.312	97.06
315.542	94.06
315.771	106.06
316.001	71.06
316.23	78.06
316.46	101.06
316.689	97.06
316.919	80.06
317.148	90.06
317.377	86.06
317.607	95.06
317.836	86.06
318.065	96.06
318.295	85.06
318.524	79.06
318.753	79.06
318.983	85.06
319.212	108.06
319.441	100.06
319.67	105.06
319.9	91.06
320.129	104.06
320.358	94.06
320.587	88.06
320.816	107.06
321.046	109.06
321.275	102.06
321.504	101.06
321.733	86.06
321.962	91.06
322.191	91.06
322.42	110.06
322.649	109.06
322.878	116.06
323.108	109.06
323.337	113.06
323.566	125.06
323.795	135.06
324.024	170.06
324.253	309.06
324.482	629.06
324.71	1352.06
324.939	1719.06
325.168	667.06
325.397	221.06
325.626	134.06
325.855	115.06
326.084	105.06
326.313	124.06
326.542	141.06
326.77	192.06
326.999	377.06
327.228	753.06
327.457	1393.06
327.686	1111.06
327.914	313.06
328.143	193.06
328.372	187.06
328.6	118.06
328.829	115.06
329.058	122.06
329.287	125.06
329.515	103.06
329.744	110.06
329.972	120.06
330.201	179.06
330.43	194.06
330.658	161.06
330.887	143.06
331.115	135.06
331.344	99.06
331.572	104.06
331.801	99.06
332.03	93.06
332.258	94.06
332.486	87.06
332.715	95.06
332.943	110.06
333.172	86.06
333.4	100.06
333.629	110.06
333.857	121.06
334.085	132.06
334.314	183.06
334.542	223.06
334.771	240.06
334.999	125.06
335.227	103.06
335.455	102.06
335.684	96.06
335.912	97.06
336.14	94.06
336.369	98.06
336.597	102.06
336.825	94.06
337.053	96.06
337.281	85.06
337.51	102.06
337.738	97.06
337.966	104.06
338.194	97.06
338.422	91.06
338.65	93.06
338.878	95.06
339.106	91.06
339.334	100.06
339.562	93.06
339.79	102.06
340.018	91.06
340.246	109.06
340.474	91.06
340.702	94.06
340.93	99.06
341.158	93.06
341.386	94.06
341.614	105.06
341.842	94.06
342.07	97.06
342.298	102.06
342.526	98.06
342.754	90.06
342.981	93.06
343.209	95.06
343.437	85.06
343.665	103.06
343.893	87.06
344.12	102.06
344.348	77.06
344.576	80.06
344.804	104.06
345.031	94.06
345.259	103.06
345.487	105.06
345.714	88.06
345.942	96.06
346.17	98.06
346.397	98.06
346.625	90.06
346.853	86.06
347.08	84.06
347.308	96.06
347.535	89.06
347.763	103.06
347.99	93.06
348.218	100.06
348.445	89.06
348.673	95.06
348.9	93.06
349.128	115.06
349.355	93.06
349.583	91.06
349.81	91.06
350.037	115.06
350.265	85.06
350.492	92.06
350.72	92.06
350.947	91.06
351.174	112.06
351.402	110.06
351.629	98.06
351.856	104.06
352.083	113.06
352.311	106.06
352.538	109.06
352.765	111.06
352.992	111.06
353.22	115.06
353.447	94.06
353.674	105.06
353.901	99.06
354.128	104.06
354.355	82.06
354.583	97.06
354.81	108.06
355.037	103.06
355.264	118.06
355.491	97.06
355.718	90.06
355.945	103.06
356.172	89.06
356.399	105.06
356.626	105.06
356.853	95.06
357.08	82.06
357.307	94.06
357.534	99.06
357.761	92.06
357.988	101.06
358.215	109.06
358.441	107.06
358.668	98.06
358.895	107.06
359.122	94.06
359.349	88.06
359.576	88.06
359.802	91.06
360.029	91.06
360.256	98.06
360.483	96.06
360.709	81.06
360.936	89.06
361.163	97.06
361.39	84.06
361.616	85.06
361.843	79.06
362.07	97.06
362.296	99.06
362.523	99.06
362.749	103.06
362.976	82.06
363.203	83.06
363.429	93.06
363.656	97.06
363.882	92.06
364.109	99.06
364.335	88.06
364.562	95.06
364.788	83.06
365.015	91.06
365.241	100.06
365.468	91.06
365.694	104.06
365.92	100.06
366.147	91.06
366.373	86.06
366.599	93.06
366.826	76.06
367.052	98.06
367.278	89.06
367.505	95.06
367.731	83.06
367.957	89.06
368.184	86.06
368.41	98.06
368.636	111.06
368.862	109.06
369.089	111.06
369.315	87.06
369.541	87.06
369.767	91.06
369.993	97.06
370.219	84.06
370.445	83.06
370.672	93.06
370.898	83.06
371.124	98.06
371.35	96.06
371.576	88.06
371.802	76.06
372.028	92.06
372.254	100.06
372.48	92.06
372.706	87.06
372.932	85.06
373.158	98.06
373.384	107.06
373.61	96.06
373.835	89.06
374.061	98.06
374.287	93.06
374.513	98.06
374.739	96.06
374.965	81.06
375.191	90.06
375.416	100.06
375.642	89.06
375.868	102.06
376.094	93.06
376.319	100.06
376.545	84.06
376.771	88.06
376.997	99.06
377.222	95.06
377.448	92.06
377.674	101.06
377.899	80.06
378.125	91.06
378.35	93.06
378.576	93.06
378.802	97.06
379.027	89.06
379.253	93.06
379.478	95.06
379.704	100.06
379.929	102.06
380.155	95.06
380.38	98.06
380.606	101.06
380.831	97.06
381.057	92.06
381.282	87.06
381.507	97.06
381.733	99.06
381.958	107.06
382.184	87.06
382.409	100.06
382.634	102.06
382.86	94.06
383.085	115.06
383.31	95.06
383.535	119.06
383.761	112.06
383.986	106.06
384.211	103.06
384.436	103.06
384.662	95.06
384.887	98.06
385.112	121.06
385.337	102.06
385.562	118.06
385.787	96.06
386.013	117.06
386.238	115.06
386.463	118.06
386.688	124.06
386.913	115.06
387.138	124.06
387.363	100.06
387.588	91.06
387.813	115.06
388.038	90.06
388.263	123.06
388.488	125.06
388.713	95.06
388.938	98.06
389.163	96.06
389.387	98.06
389.612	100.06
389.837	81.06
390.062	97.06
390.287	101.06
390.512	89.06
390.736	95.06
390.961	113.06
391.186	95.06
391.411	95.06
391.636	88.06
391.86	93.06
392.085	94.06
392.31	97.06
392.534	93.06
392.759	83.06
392.984	107.06
393.208	100.06
393.433	127.06
393.658	117.06
393.882	103.06
394.107	94.06
394.331	103.06
394.556	95.06
394.78	101.06
395.005	98.06
395.229	95.06
395.454	101.06
395.678	95.06
395.903	82.06
396.127	89.06
396.352	100.06
396.576	97.06
396.801	99.06
397.025	108.06
397.249	88.06
397.474	97.06
397.698	100.06
397.922	95.06
398.147	80.06
398.371	90.06
398.595	92.06
398.82	86.06
399.044	73.06
399.268	88.06
399.492	102.06
399.717	95.06
399.941	84.06
400.165	97.06
400.389	95.06
400.613	99.06
400.837	94.06
401.062	82.06
401.286	91.06
401.51	100.06
401.734	94.06
401.958	90.06
402.182	111.06
402.406	128.06
402.63	125.06
402.854	80.06
403.078	94.06
403.302	78.06
403.526	87.06
403.75	88.06
403.974	95.06
404.198	91.06
404.422	76.06
404.645	96.06
404.869	99.06
405.093	97.06
405.317	107.06
405.541	92.06
405.765	90.06
405.988	104.06
406.212	144.06
406.436	176.06
406.66	132.06
406.883	102.06
407.107	91.06
407.331	97.06
407.555	109.06
407.778	105.06
408.002	93.06
408.226	100.06
408.449	88.06
408.673	95.06
408.896	99.06
409.12	110.06
409.344	87.06
409.567	93.06
409.791	87.06
410.014	104.06
410.238	82.06
410.461	99.06
410.685	83.06
410.908	111.06
411.132	99.06
411.355	96.06
411.578	93.06
411.802	94.06
412.025	97.06
412.249	92.06
412.472	98.06
412.695	111.06
412.919	86.06
413.142	95.06
413.365	87.06
413.589	95.06
413.812	103.06
414.035	96.06
414.258	91.06
414.482	89.06
414.705	97.06
414.928	83.06
415.151	84.06
415.374	101.06
415.597	93.06
415.821	87.06
416.044	89.06
416.267	95.06
416.49	96.06
416.713	95.06
416.936	95.06
417.159	103.06
417.382	83.06
417.605	88.06
417.828	82.06
418.051	99.06
418.274	91.06
418.497	87.06
418.72	102.06
418.943	94.06
419.166	81.06
419.389	102.06
419.611	110.06
419.834	102.06
420.057	88.06
420.28	91.06
420.503	99.06
420.726	99.06
420.948	89.06
421.171	110.06
421.394	91.06
421.617	91.06
421.839	99.06
422.062	90.06
422.285	112.06
422.507	110.06
422.73	116.06
422.953	116.06
423.175	95.06
423.398	98.06
423.621	87.06
423.843	86.06
424.066	91.06
424.288	72.06
424.511	92.06
424.733	100.06
424.956	97.06
425.178	103.06
425.401	99.06
425.623	97.06
425.846	98.06
426.068	113.06
426.291	95.06
426.513	97.06
426.735	103.06
426.958	114.06
427.18	102.06
427.402	125.06
427.625	125.06
427.847	134.06
428.069	118.06
428.292	89.06
428.514	96.06
428.736	103.06
428.958	76.06
429.181	90.06
429.403	91.06
429.625	99.06
429.847	93.06
430.069	105.06
430.292	96.06
430.514	94.06
430.736	81.06
430.958	93.06
431.18	100.06
431.402	86.06
431.624	99.06
431.846	96.06
432.068	96.06
432.29	81.06
432.512	98.06
432.734	89.06
432.956	87.06
433.178	99.06
433.4	100.06
433.622	74.06
433.844	87.06
434.066	96.06
434.287	88.06
434.509	96.06
434.731	106.06
434.953	100.06
435.175	104.06
435.397	91.06
435.618	90.06
435.84	108.06
436.062	115.06
436.284	102.06
436.505	101.06
436.727	86.06
436.949	95.06
437.17	86.06
437.392	104.06
437.614	94.06
437.835	100.06
438.057	112.06
438.278	110.06
438.5	108.06
438.721	123.06
438.943	82.06
439.165	100.06
439.386	99.06
439.608	91.06
439.829	101.06
440.05	124.06
440.272	127.06
440.493	97.06
440.715	101.06
440.936	87.06
441.158	99.06
441.379	87.06
441.6	79.06
441.822	94.06
442.043	88.06
442.264	99.06
442.486	88.06
442.707	116.06
442.928	86.06
443.149	116.06
443.371	119.06
443.592	113.06
443.813	98.06
444.034	107.06
444.255	97.06
444.476	96.06
444.698	91.06
444.919	92.06
445.14	141.06
445.361	117.06
445.582	105.06
445.803	128.06
446.024	128.06
446.245	120.06
446.466	111.06
446.687	104.06
446.908	85.06
447.129	93.06
447.35	84.06
447.571	88.06
447.792	107.06
448.013	100.06
448.234	106.06
448.455	98.06
448.675	97.06
448.896	119.06
449.117	94.06
449.338	95.06
449.559	120.06
449.779	127.06
450	85.06
450.221	87.06
450.442	92.06
450.662	107.06
450.883	96.06
451.104	113.06
451.324	111.06
451.545	101.06
451.766	89.06
451.986	72.06
452.207	94.06
452.428	94.06
452.648	102.06
452.869	110.06
453.089	108.06
453.31	113.06
453.53	96.06
453.751	91.06
453.971	93.06
454.192	94.06
454.412	71.06
454.633	88.06
454.853	114.06
455.073	95.06
455.294	98.06
455.514	93.06
455.734	90.06
455.955	94.06
456.175	105.06
456.395	85.06
456.616	88.06
456.836	87.06
457.056	92.06
457.276	80.06
457.497	88.06
457.717	86.06
457.937	84.06
458.157	94.06
458.377	94.06
458.598	99.06
458.818	133.06
459.038	148.06
459.258	127.06
459.478	83.06
459.698	90.06
459.918	96.06
460.138	99.06
460.358	76.06
460.578	89.06
460.798	94.06
461.018	82.06
461.238	64.06
461.458	87.06
461.678	71.06
461.898	93.06
462.118	95.06
462.338	96.06
462.558	94.06
462.777	88.06
462.997	84.06
463.217	82.06
463.437	88.06
463.657	99.06
463.876	86.06
464.096	96.06
464.316	88.06
464.536	103.06
464.755	97.06
464.975	110.06
465.195	145.06
465.414	134.06
465.634	111.06
465.854	83.06
466.073	82.06
466.293	90.06
466.512	85.06
466.732	88.06
466.951	92.06
467.171	99.06
467.391	91.06
467.61	87.06
467.829	100.06
468.049	119.06
468.268	159.06
468.488	101.06
468.707	96.06
468.927	92.06
469.146	95.06
469.365	92.06
469.585	77.06
469.804	88.06
470.023	80.06
470.243	99.06
470.462	93.06
470.681	101.06
470.901	111.06
471.12	84.06
471.339	94.06
471.558	93.06
471.777	89.06
471.997	108.06
472.216	200.06
472.435	288.06
472.654	155.06
472.873	96.06
473.092	104.06
473.311	100.06
473.53	91.06
473.749	75.06
473.968	99.06
474.187	110.06
474.406	94.06
474.625	90.06
474.844	84.06
475.063	93.06
475.282	95.06
475.501	99.06
475.72	108.06
475.939	87.06
476.158	83.06
476.377	89.06
476.596	85.06
476.814	88.06
477.033	105.06
477.252	98.06
477.471	94.06
477.69	88.06
477.908	93.06
478.127	86.06
478.346	86.06
478.564	85.06
478.783	94.06
479.002	88.06
479.22	91.06
479.439	99.06
479.658	102.06
479.876	80.06
480.095	89.06
480.313	88.06
480.532	109.06
480.751	112.06
480.969	189.06
481.188	496.06
481.406	308.06
481.624	105.06
481.843	82.06
482.061	98.06
482.28	79.06
482.498	92.06
482.717	87.06
482.935	85.06
483.153	80.06
483.372	82.06
483.59	97.06
483.808	96.06
484.027	96.06
484.245	92.06
484.463	103.06
484.681	95.06
484.9	97.06
485.118	99.06
485.336	99.06
485.554	104.06
485.772	105.06
485.99	116.06
486.209	109.06
486.427	107.06
486.645	117.06
486.863	119.06
487.081	97.06
487.299	103.06
487.517	96.06
487.735	97.06
487.953	108.06
488.171	111.06
488.389	99.06
488.607	109.06
488.825	99.06
489.043	90.06
489.261	95.06
489.479	91.06
489.696	98.06
489.914	90.06
490.132	96.06
490.35	85.06
490.568	91.06
490.786	85.06
491.003	76.06
491.221	93.06
491.439	94.06
491.657	104.06
491.874	91.06
492.092	94.06
492.31	93.06
492.527	92.06
492.745	91.06
492.963	85.06
493.18	90.06
493.398	88.06
493.615	104.06
493.833	101.06
494.05	107.06
494.268	95.06
494.485	99.06
494.703	89.06
494.92	90.06
495.138	82.06
495.355	92.06
495.573	92.06
495.79	99.06
496.008	85.06
496.225	103.06
496.442	96.06
496.66	96.06
496.877	100.06
497.094	107.06
497.312	92.06
497.529	93.06
497.746	92.06
497.963	92.06
498.181	104.06
498.398	95.06
498.615	93.06
498.832	99.06
499.049	90.06
499.267	85.06
499.484	83.06
499.701	97.06
499.918	101.06
500.135	104.06
500.352	64.06
500.569	85.06
500.786	97.06
501.003	102.06
501.22	87.06
501.437	92.06
501.654	110.06
501.871	108.06
502.088	101.06
502.305	108.06
502.522	95.06
502.739	92.06
502.956	94.06
503.172	99.06
503.389	109.06
503.606	110.06
503.823	86.06
504.04	100.06
504.256	89.06
504.473	96.06
504.69	89.06
504.907	100.06
505.123	108.06
505.34	83.06
505.557	86.06
505.773	101.06
505.99	100.06
506.207	98.06
506.423	91.06
506.64	84.06
506.856	87.06
507.073	97.06
507.289	116.06
507.506	103.06
507.722	110.06
507.939	107.06
508.155	89.06
508.372	103.06
508.588	96.06
508.805	102.06
509.021	117.06
509.238	99.06
509.454	91.06
509.67	96.06
509.887	110.06
510.103	122.06
510.319	196.06
510.536	605.06
510.752	1853.06
510.968	525.06
511.184	151.06
511.401	120.06
511.617	103.06
511.833	92.06
512.049	87.06
512.265	89.06
512.481	92.06
512.698	88.06
512.914	109.06
513.13	101.06
513.346	89.06
513.562	84.06
513.778	100.06
513.994	103.06
514.21	91.06
514.426	121.06
514.642	119.06
