Data from Circ_1993_H10_HRD10591_00007.txt Node
Date: Wed Jan 03 11:44:03 EST 2024
User: Yrep
Spectrometer: HR+D1059
Trigger mode: 1
Integration Time (sec): 1.000000E-1
Scans to average: 1
Electric dark correction enabled: true
Nonlinearity correction enabled: false
Boxcar width: 0
XAxis mode: Wavelengths
Number of Pixels in Spectrum: 2048
>>>>>Begin Spectral Data<<<<<
223.165	-28.56
223.4	-28.56
223.635	-28.56
223.869	-12.56
224.104	-10.56
224.338	-2.56
224.573	-27.56
224.808	-10.56
225.042	1.44
225.277	-3.56
225.511	0.44
225.746	-2.56
225.98	5.44
226.215	21.44
226.449	9.44
226.683	13.44
226.918	19.44
227.152	27.44
227.387	26.44
227.621	50.44
227.856	46.44
228.09	50.44
228.324	57.44
228.559	55.44
228.793	76.44
229.027	66.44
229.262	64.44
229.496	75.44
229.73	77.44
229.964	87.44
230.199	73.44
230.433	84.44
230.667	80.44
230.901	62.44
231.136	80.44
231.37	81.44
231.604	78.44
231.838	69.44
232.072	92.44
232.306	72.44
232.541	69.44
232.775	69.44
233.009	88.44
233.243	83.44
233.477	71.44
233.711	82.44
233.945	72.44
234.179	75.44
234.413	94.44
234.647	68.44
234.881	87.44
235.115	83.44
235.349	78.44
235.583	75.44
235.817	82.44
236.051	94.44
236.285	69.44
236.519	80.44
236.753	80.44
236.987	63.44
237.221	60.44
237.455	81.44
237.689	80.44
237.922	70.44
238.156	88.44
238.39	61.44
238.624	70.44
238.858	74.44
239.091	73.44
239.325	75.44
239.559	82.44
239.793	80.44
240.027	66.44
240.26	66.44
240.494	79.44
240.728	81.44
240.961	77.44
241.195	66.44
241.429	98.44
241.662	79.44
241.896	76.44
242.13	75.44
242.363	73.44
242.597	62.44
242.83	76.44
243.064	75.44
243.298	76.44
243.531	77.44
243.765	75.44
243.998	74.44
244.232	64.44
244.465	88.44
244.699	84.44
244.932	69.44
245.166	61.44
245.399	60.44
245.633	75.44
245.866	70.44
246.099	67.44
246.333	77.44
246.566	76.44
246.8	84.44
247.033	69.44
247.266	68.44
247.5	63.44
247.733	78.44
247.966	83.44
248.2	72.44
248.433	84.44
248.666	77.44
248.899	71.44
249.133	77.44
249.366	82.44
249.599	94.44
249.832	86.44
250.066	85.44
250.299	84.44
250.532	89.44
250.765	67.44
250.998	86.44
251.231	88.44
251.465	76.44
251.698	78.44
251.931	82.44
252.164	81.44
252.397	74.44
252.63	83.44
252.863	89.44
253.096	82.44
253.329	65.44
253.562	91.44
253.795	80.44
254.028	78.44
254.261	69.44
254.494	76.44
254.727	86.44
254.96	79.44
255.193	78.44
255.426	77.44
255.659	75.44
255.892	76.44
256.124	79.44
256.357	82.44
256.59	82.44
256.823	88.44
257.056	100.44
257.289	88.44
257.521	86.44
257.754	75.44
257.987	91.44
258.22	90.44
258.452	77.44
258.685	82.44
258.918	91.44
259.151	76.44
259.383	84.44
259.616	79.44
259.849	81.44
260.081	93.44
260.314	64.44
260.547	90.44
260.779	80.44
261.012	95.44
261.244	75.44
261.477	97.44
261.71	78.44
261.942	105.44
262.175	90.44
262.407	86.44
262.64	68.44
262.872	78.44
263.105	80.44
263.337	90.44
263.57	80.44
263.802	77.44
264.035	75.44
264.267	67.44
264.499	72.44
264.732	90.44
264.964	79.44
265.197	84.44
265.429	76.44
265.661	74.44
265.894	95.44
266.126	96.44
266.358	79.44
266.591	80.44
266.823	73.44
267.055	75.44
267.287	87.44
267.52	66.44
267.752	80.44
267.984	85.44
268.216	83.44
268.448	80.44
268.681	86.44
268.913	82.44
269.145	93.44
269.377	79.44
269.609	75.44
269.841	84.44
270.073	85.44
270.306	82.44
270.538	77.44
270.77	80.44
271.002	78.44
271.234	91.44
271.466	90.44
271.698	68.44
271.93	74.44
272.162	90.44
272.394	105.44
272.626	76.44
272.858	82.44
273.09	84.44
273.322	67.44
273.553	76.44
273.785	71.44
274.017	83.44
274.249	85.44
274.481	80.44
274.713	89.44
274.945	83.44
275.176	84.44
275.408	92.44
275.64	105.44
275.872	77.44
276.104	94.44
276.335	86.44
276.567	74.44
276.799	94.44
277.031	83.44
277.262	79.44
277.494	71.44
277.726	77.44
277.957	85.44
278.189	82.44
278.421	74.44
278.652	88.44
278.884	86.44
279.115	97.44
279.347	83.44
279.579	78.44
279.81	89.44
280.042	86.44
280.273	102.44
280.505	90.44
280.736	72.44
280.968	87.44
281.199	93.44
281.431	88.44
281.662	70.44
281.894	92.44
282.125	97.44
282.356	104.44
282.588	110.44
282.819	100.44
283.051	90.44
283.282	79.44
283.513	86.44
283.745	88.44
283.976	95.44
284.207	86.44
284.439	94.44
284.67	82.44
284.901	102.44
285.132	83.44
285.364	83.44
285.595	98.44
285.826	75.44
286.057	88.44
286.288	85.44
286.52	90.44
286.751	92.44
286.982	76.44
287.213	69.44
287.444	92.44
287.675	90.44
287.906	80.44
288.138	80.44
288.369	68.44
288.6	91.44
288.831	82.44
289.062	86.44
289.293	94.44
289.524	85.44
289.755	78.44
289.986	81.44
290.217	79.44
290.448	78.44
290.679	89.44
290.91	84.44
291.141	78.44
291.371	81.44
291.602	76.44
291.833	85.44
292.064	73.44
292.295	72.44
292.526	72.44
292.757	85.44
292.987	71.44
293.218	85.44
293.449	66.44
293.68	85.44
293.91	78.44
294.141	87.44
294.372	86.44
294.603	80.44
294.833	86.44
295.064	86.44
295.295	98.44
295.525	85.44
295.756	85.44
295.987	100.44
296.217	115.44
296.448	108.44
296.679	77.44
296.909	89.44
297.14	100.44
297.37	104.44
297.601	84.44
297.831	72.44
298.062	95.44
298.292	91.44
298.523	85.44
298.753	102.44
298.984	80.44
299.214	87.44
299.445	85.44
299.675	93.44
299.905	97.44
300.136	82.44
300.366	91.44
300.597	81.44
300.827	90.44
301.057	94.44
301.288	95.44
301.518	96.44
301.748	83.44
301.979	82.44
302.209	91.44
302.439	64.44
302.669	92.44
302.9	82.44
303.13	79.44
303.36	86.44
303.59	92.44
303.82	108.44
304.051	82.44
304.281	94.44
304.511	84.44
304.741	85.44
304.971	83.44
305.201	97.44
305.431	90.44
305.661	84.44
305.891	83.44
306.121	68.44
306.352	94.44
306.582	94.44
306.812	97.44
307.042	82.44
307.272	95.44
307.502	86.44
307.731	84.44
307.961	76.44
308.191	81.44
308.421	91.44
308.651	96.44
308.881	93.44
309.111	96.44
309.341	93.44
309.571	81.44
309.8	96.44
310.03	98.44
310.26	89.44
310.49	95.44
310.72	100.44
310.949	99.44
311.179	98.44
311.409	91.44
311.639	93.44
311.868	99.44
312.098	88.44
312.328	85.44
312.557	102.44
312.787	92.44
313.017	104.44
313.246	93.44
313.476	89.44
313.706	89.44
313.935	89.44
314.165	99.44
314.394	94.44
314.624	100.44
314.853	92.44
315.083	101.44
315.312	99.44
315.542	86.44
315.771	87.44
316.001	96.44
316.23	95.44
316.46	74.44
316.689	85.44
316.919	91.44
317.148	106.44
317.377	106.44
317.607	86.44
317.836	99.44
318.065	97.44
318.295	98.44
318.524	87.44
318.753	86.44
318.983	88.44
319.212	96.44
319.441	91.44
319.67	99.44
319.9	91.44
320.129	93.44
320.358	100.44
320.587	84.44
320.816	94.44
321.046	108.44
321.275	95.44
321.504	105.44
321.733	96.44
321.962	84.44
322.191	94.44
322.42	92.44
322.649	101.44
322.878	102.44
323.108	103.44
323.337	106.44
323.566	114.44
323.795	131.44
324.024	159.44
324.253	274.44
324.482	588.44
324.71	1142.44
324.939	1485.44
325.168	552.44
325.397	182.44
325.626	114.44
325.855	103.44
326.084	113.44
326.313	126.44
326.542	138.44
326.77	177.44
326.999	355.44
327.228	677.44
327.457	1168.44
327.686	934.44
327.914	280.44
328.143	158.44
328.372	129.44
328.6	117.44
328.829	102.44
329.058	109.44
329.287	115.44
329.515	93.44
329.744	100.44
329.972	96.44
330.201	89.44
330.43	108.44
330.658	118.44
330.887	125.44
331.115	108.44
331.344	88.44
331.572	100.44
331.801	100.44
332.03	96.44
332.258	97.44
332.486	89.44
332.715	84.44
332.943	88.44
333.172	89.44
333.4	93.44
333.629	96.44
333.857	115.44
334.085	96.44
334.314	104.44
334.542	122.44
334.771	114.44
334.999	101.44
335.227	96.44
335.455	106.44
335.684	97.44
335.912	96.44
336.14	94.44
336.369	105.44
336.597	100.44
336.825	86.44
337.053	83.44
337.281	98.44
337.51	98.44
337.738	82.44
337.966	83.44
338.194	85.44
338.422	78.44
338.65	80.44
338.878	83.44
339.106	95.44
339.334	95.44
339.562	90.44
339.79	93.44
340.018	95.44
340.246	85.44
340.474	91.44
340.702	90.44
340.93	98.44
341.158	92.44
341.386	83.44
341.614	88.44
341.842	90.44
342.07	90.44
342.298	95.44
342.526	89.44
342.754	90.44
342.981	96.44
343.209	100.44
343.437	100.44
343.665	74.44
343.893	78.44
344.12	97.44
344.348	73.44
344.576	83.44
344.804	82.44
345.031	74.44
345.259	88.44
345.487	99.44
345.714	82.44
345.942	94.44
346.17	81.44
346.397	92.44
346.625	96.44
346.853	93.44
347.08	90.44
347.308	89.44
347.535	104.44
347.763	100.44
347.99	102.44
348.218	95.44
348.445	81.44
348.673	102.44
348.9	105.44
349.128	90.44
349.355	93.44
349.583	92.44
349.81	97.44
350.037	97.44
350.265	95.44
350.492	96.44
350.72	90.44
350.947	101.44
351.174	104.44
351.402	95.44
351.629	90.44
351.856	97.44
352.083	100.44
352.311	102.44
352.538	92.44
352.765	105.44
352.992	103.44
353.22	106.44
353.447	104.44
353.674	102.44
353.901	103.44
354.128	99.44
354.355	98.44
354.583	94.44
354.81	95.44
355.037	99.44
355.264	110.44
355.491	101.44
355.718	94.44
355.945	98.44
356.172	92.44
356.399	97.44
356.626	101.44
356.853	95.44
357.08	80.44
357.307	80.44
357.534	101.44
357.761	112.44
357.988	110.44
358.215	116.44
358.441	104.44
358.668	105.44
358.895	108.44
359.122	96.44
359.349	95.44
359.576	103.44
359.802	91.44
360.029	100.44
360.256	92.44
360.483	81.44
360.709	92.44
360.936	90.44
361.163	94.44
361.39	100.44
361.616	89.44
361.843	86.44
362.07	90.44
362.296	88.44
362.523	89.44
362.749	96.44
362.976	88.44
363.203	88.44
363.429	92.44
363.656	95.44
363.882	79.44
364.109	94.44
364.335	77.44
364.562	79.44
364.788	91.44
365.015	87.44
365.241	105.44
365.468	101.44
365.694	101.44
365.92	82.44
366.147	95.44
366.373	92.44
366.599	79.44
366.826	82.44
367.052	78.44
367.278	83.44
367.505	92.44
367.731	88.44
367.957	90.44
368.184	84.44
368.41	88.44
368.636	104.44
368.862	101.44
369.089	90.44
369.315	93.44
369.541	85.44
369.767	91.44
369.993	93.44
370.219	83.44
370.445	84.44
370.672	95.44
370.898	90.44
371.124	85.44
371.35	84.44
371.576	91.44
371.802	109.44
372.028	99.44
372.254	94.44
372.48	93.44
372.706	82.44
372.932	97.44
373.158	96.44
373.384	84.44
373.61	105.44
373.835	104.44
374.061	88.44
374.287	91.44
374.513	93.44
374.739	85.44
374.965	98.44
375.191	101.44
375.416	90.44
375.642	88.44
375.868	96.44
376.094	82.44
376.319	86.44
376.545	88.44
376.771	94.44
376.997	108.44
377.222	97.44
377.448	92.44
377.674	93.44
377.899	98.44
378.125	98.44
378.35	100.44
378.576	104.44
378.802	102.44
379.027	106.44
379.253	117.44
379.478	112.44
379.704	100.44
379.929	101.44
380.155	112.44
380.38	116.44
380.606	106.44
380.831	120.44
381.057	118.44
381.282	128.44
381.507	133.44
381.733	112.44
381.958	121.44
382.184	139.44
382.409	129.44
382.634	140.44
382.86	132.44
383.085	133.44
383.31	132.44
383.535	125.44
383.761	127.44
383.986	123.44
384.211	131.44
384.436	144.44
384.662	141.44
384.887	154.44
385.112	164.44
385.337	165.44
385.562	158.44
385.787	156.44
386.013	168.44
386.238	169.44
386.463	139.44
386.688	161.44
386.913	176.44
387.138	175.44
387.363	154.44
387.588	124.44
387.813	126.44
388.038	165.44
388.263	185.44
388.488	172.44
388.713	104.44
388.938	86.44
389.163	100.44
389.387	100.44
389.612	99.44
389.837	94.44
390.062	87.44
390.287	96.44
390.512	86.44
390.736	82.44
390.961	90.44
391.186	98.44
391.411	84.44
391.636	85.44
391.86	96.44
392.085	95.44
392.31	98.44
392.534	97.44
392.759	95.44
392.984	123.44
393.208	148.44
393.433	259.44
393.658	204.44
393.882	97.44
394.107	79.44
394.331	93.44
394.556	76.44
394.78	80.44
395.005	86.44
395.229	92.44
395.454	86.44
395.678	85.44
395.903	98.44
396.127	90.44
396.352	86.44
396.576	112.44
396.801	136.44
397.025	188.44
397.249	109.44
397.474	86.44
397.698	83.44
397.922	93.44
398.147	92.44
398.371	79.44
398.595	72.44
398.82	76.44
399.044	94.44
399.268	84.44
399.492	94.44
399.717	94.44
399.941	89.44
400.165	108.44
400.389	100.44
400.613	98.44
400.837	101.44
401.062	79.44
401.286	74.44
401.51	86.44
401.734	90.44
401.958	89.44
402.182	107.44
402.406	145.44
402.63	111.44
402.854	81.44
403.078	101.44
403.302	87.44
403.526	88.44
403.75	95.44
403.974	81.44
404.198	65.44
404.422	94.44
404.645	85.44
404.869	94.44
405.093	101.44
405.317	95.44
405.541	82.44
405.765	100.44
405.988	111.44
406.212	149.44
406.436	163.44
406.66	116.44
406.883	94.44
407.107	91.44
407.331	101.44
407.555	85.44
407.778	97.44
408.002	92.44
408.226	98.44
408.449	98.44
408.673	103.44
408.896	108.44
409.12	96.44
409.344	96.44
409.567	94.44
409.791	74.44
410.014	109.44
410.238	97.44
410.461	89.44
410.685	98.44
410.908	101.44
411.132	114.44
411.355	102.44
411.578	98.44
411.802	83.44
412.025	94.44
412.249	103.44
412.472	94.44
412.695	96.44
412.919	104.44
413.142	100.44
413.365	73.44
413.589	94.44
413.812	88.44
414.035	99.44
414.258	103.44
414.482	99.44
414.705	96.44
414.928	94.44
415.151	87.44
415.374	112.44
415.597	102.44
415.821	94.44
416.044	106.44
416.267	98.44
416.49	95.44
416.713	100.44
416.936	95.44
417.159	97.44
417.382	97.44
417.605	94.44
417.828	95.44
418.051	113.44
418.274	114.44
418.497	89.44
418.72	75.44
418.943	93.44
419.166	96.44
419.389	102.44
419.611	83.44
419.834	105.44
420.057	97.44
420.28	82.44
420.503	100.44
420.726	83.44
420.948	84.44
421.171	84.44
421.394	86.44
421.617	84.44
421.839	98.44
422.062	77.44
422.285	88.44
422.507	112.44
422.73	149.44
422.953	128.44
423.175	90.44
423.398	92.44
423.621	84.44
423.843	99.44
424.066	77.44
424.288	86.44
424.511	92.44
424.733	97.44
424.956	106.44
425.178	93.44
425.401	90.44
425.623	98.44
425.846	84.44
426.068	76.44
426.291	80.44
426.513	97.44
426.735	84.44
426.958	85.44
427.18	100.44
427.402	113.44
427.625	142.44
427.847	108.44
428.069	96.44
428.292	102.44
428.514	92.44
428.736	93.44
428.958	80.44
429.181	90.44
429.403	89.44
429.625	76.44
429.847	73.44
430.069	112.44
430.292	92.44
430.514	80.44
430.736	83.44
430.958	85.44
431.18	83.44
431.402	82.44
431.624	85.44
431.846	94.44
432.068	86.44
432.29	75.44
432.512	83.44
432.734	72.44
432.956	89.44
433.178	100.44
433.4	92.44
433.622	92.44
433.844	76.44
434.066	79.44
434.287	91.44
434.509	94.44
434.731	80.44
434.953	80.44
435.175	92.44
435.397	91.44
435.618	93.44
435.84	99.44
436.062	118.44
436.284	97.44
436.505	95.44
436.727	96.44
436.949	105.44
437.17	102.44
437.392	82.44
437.614	83.44
437.835	101.44
438.057	108.44
438.278	97.44
438.5	89.44
438.721	117.44
438.943	99.44
439.165	83.44
439.386	65.44
439.608	95.44
439.829	84.44
440.05	98.44
440.272	115.44
440.493	99.44
440.715	78.44
440.936	87.44
441.158	89.44
441.379	89.44
441.6	90.44
441.822	93.44
442.043	98.44
442.264	92.44
442.486	88.44
442.707	93.44
442.928	93.44
443.149	116.44
443.371	116.44
443.592	97.44
443.813	109.44
444.034	94.44
444.255	93.44
444.476	89.44
444.698	84.44
444.919	99.44
445.14	125.44
445.361	110.44
445.582	122.44
445.803	120.44
446.024	102.44
446.245	120.44
446.466	108.44
446.687	80.44
446.908	88.44
447.129	78.44
447.35	73.44
447.571	88.44
447.792	91.44
448.013	91.44
448.234	102.44
448.455	97.44
448.675	93.44
448.896	106.44
449.117	97.44
449.338	92.44
449.559	120.44
449.779	134.44
450	87.44
450.221	76.44
450.442	89.44
450.662	88.44
450.883	89.44
451.104	100.44
451.324	75.44
451.545	102.44
451.766	98.44
451.986	82.44
452.207	98.44
452.428	98.44
452.648	86.44
452.869	100.44
453.089	104.44
453.31	97.44
453.53	79.44
453.751	96.44
453.971	92.44
454.192	96.44
454.412	98.44
454.633	83.44
454.853	83.44
455.073	95.44
455.294	96.44
455.514	82.44
455.734	81.44
455.955	82.44
456.175	85.44
456.395	92.44
456.616	90.44
456.836	81.44
457.056	80.44
457.276	91.44
457.497	86.44
457.717	82.44
457.937	86.44
458.157	78.44
458.377	84.44
458.598	87.44
458.818	121.44
459.038	123.44
459.258	95.44
459.478	82.44
459.698	87.44
459.918	77.44
460.138	90.44
460.358	79.44
460.578	83.44
460.798	88.44
461.018	88.44
461.238	88.44
461.458	87.44
461.678	83.44
461.898	83.44
462.118	79.44
462.338	89.44
462.558	80.44
462.777	85.44
462.997	88.44
463.217	93.44
463.437	92.44
463.657	80.44
463.876	91.44
464.096	75.44
464.316	85.44
464.536	93.44
464.755	76.44
464.975	91.44
465.195	135.44
465.414	113.44
465.634	96.44
465.854	84.44
466.073	92.44
466.293	104.44
466.512	84.44
466.732	92.44
466.951	94.44
467.171	89.44
467.391	77.44
467.61	98.44
467.829	79.44
468.049	93.44
468.268	97.44
468.488	84.44
468.707	80.44
468.927	80.44
469.146	87.44
469.365	99.44
469.585	87.44
469.804	72.44
470.023	96.44
470.243	83.44
470.462	94.44
470.681	105.44
470.901	89.44
471.12	94.44
471.339	76.44
471.558	67.44
471.777	85.44
471.997	85.44
472.216	109.44
472.435	110.44
472.654	93.44
472.873	92.44
473.092	87.44
473.311	78.44
473.53	95.44
473.749	102.44
473.968	94.44
474.187	103.44
474.406	99.44
474.625	82.44
474.844	97.44
475.063	82.44
475.282	78.44
475.501	80.44
475.72	97.44
475.939	61.44
476.158	87.44
476.377	92.44
476.596	93.44
476.814	93.44
477.033	84.44
477.252	84.44
477.471	94.44
477.69	106.44
477.908	107.44
478.127	94.44
478.346	96.44
478.564	76.44
478.783	84.44
479.002	86.44
479.22	87.44
479.439	87.44
479.658	98.44
479.876	104.44
480.095	85.44
480.313	90.44
480.532	86.44
480.751	96.44
480.969	105.44
481.188	170.44
481.406	124.44
481.624	93.44
481.843	81.44
482.061	102.44
482.28	99.44
482.498	100.44
482.717	93.44
482.935	88.44
483.153	93.44
483.372	94.44
483.59	87.44
483.808	91.44
484.027	93.44
484.245	97.44
484.463	87.44
484.681	90.44
484.9	95.44
485.118	96.44
485.336	95.44
485.554	102.44
485.772	95.44
485.99	101.44
486.209	102.44
486.427	107.44
486.645	119.44
486.863	111.44
487.081	125.44
487.299	103.44
487.517	98.44
487.735	111.44
487.953	100.44
488.171	101.44
488.389	95.44
488.607	100.44
488.825	83.44
489.043	96.44
489.261	105.44
489.479	70.44
489.696	73.44
489.914	84.44
490.132	81.44
490.35	94.44
490.568	96.44
490.786	84.44
491.003	94.44
491.221	93.44
491.439	81.44
491.657	84.44
491.874	92.44
492.092	82.44
492.31	89.44
492.527	85.44
492.745	78.44
492.963	84.44
493.18	88.44
493.398	76.44
493.615	95.44
493.833	109.44
494.05	76.44
494.268	88.44
494.485	106.44
494.703	78.44
494.92	86.44
495.138	76.44
495.355	96.44
495.573	92.44
495.79	92.44
496.008	91.44
496.225	91.44
496.442	96.44
496.66	87.44
496.877	71.44
497.094	87.44
497.312	86.44
497.529	85.44
497.746	92.44
497.963	92.44
498.181	78.44
498.398	96.44
498.615	107.44
498.832	94.44
499.049	96.44
499.267	100.44
499.484	93.44
499.701	102.44
499.918	86.44
500.135	89.44
500.352	99.44
500.569	95.44
500.786	89.44
501.003	88.44
501.22	98.44
501.437	82.44
501.654	86.44
501.871	100.44
502.088	86.44
502.305	88.44
502.522	78.44
502.739	94.44
502.956	90.44
503.172	86.44
503.389	91.44
503.606	90.44
503.823	99.44
504.04	93.44
504.256	93.44
504.473	84.44
504.69	89.44
504.907	93.44
505.123	88.44
505.34	91.44
505.557	88.44
505.773	87.44
505.99	76.44
506.207	94.44
506.423	88.44
506.64	99.44
506.856	92.44
507.073	85.44
507.289	85.44
507.506	90.44
507.722	105.44
507.939	90.44
508.155	104.44
508.372	104.44
508.588	88.44
508.805	91.44
509.021	92.44
509.238	101.44
509.454	96.44
509.67	106.44
509.887	114.44
510.103	100.44
510.319	159.44
510.536	520.44
510.752	1544.44
510.968	434.44
511.184	136.44
511.401	113.44
511.617	104.44
511.833	97.44
512.049	88.44
512.265	95.44
512.481	88.44
512.698	113.44
512.914	88.44
513.13	72.44
513.346	89.44
513.562	107.44
513.778	97.44
513.994	85.44
514.21	107.44
514.426	107.44
514.642	125.44
514.858	116.44
515.074	126.44
515.29	286.44
515.506	868.44
515.721	337.44
515.937	125.44
