Data from Circ_1993_H10_HRD10591_00034.txt Node
Date: Wed Jan 03 11:44:08 EST 2024
User: Yrep
Spectrometer: HR+D1059
Trigger mode: 1
Integration Time (sec): 1.000000E-1
Scans to average: 1
Electric dark correction enabled: true
Nonlinearity correction enabled: false
Boxcar width: 0
XAxis mode: Wavelengths
Number of Pixels in Spectrum: 2048
>>>>>Begin Spectral Data<<<<<
223.165	-7.62
223.4	-7.62
223.635	-7.62
223.869	-12.62
224.104	-16.62
224.338	-12.62
224.573	-15.62
224.808	-8.62
225.042	-10.62
225.277	10.38
225.511	-3.62
225.746	-6.62
225.98	3.38
226.215	8.38
226.449	18.38
226.683	6.38
226.918	21.38
227.152	26.38
227.387	39.38
227.621	30.38
227.856	28.38
228.09	47.38
228.324	53.38
228.559	56.38
228.793	160.38
229.027	417.38
229.262	471.38
229.496	559.38
229.73	708.38
229.964	753.38
230.199	530.38
230.433	458.38
230.667	443.38
230.901	451.38
231.136	415.38
231.37	447.38
231.604	424.38
231.838	433.38
232.072	430.38
232.306	442.38
232.541	461.38
232.775	455.38
233.009	462.38
233.243	474.38
233.477	458.38
233.711	460.38
233.945	470.38
234.179	503.38
234.413	479.38
234.647	498.38
234.881	486.38
235.115	497.38
235.349	526.38
235.583	551.38
235.817	571.38
236.051	607.38
236.285	574.38
236.519	582.38
236.753	675.38
236.987	871.38
237.221	1271.38
237.455	1338.38
237.689	833.38
237.922	714.38
238.156	670.38
238.39	668.38
238.624	649.38
238.858	616.38
239.091	632.38
239.325	633.38
239.559	659.38
239.793	688.38
240.027	721.38
240.26	835.38
240.494	871.38
240.728	902.38
240.961	846.38
241.195	785.38
241.429	766.38
241.662	737.38
241.896	744.38
242.13	776.38
242.363	746.38
242.597	752.38
242.83	812.38
243.064	807.38
243.298	827.38
243.531	815.38
243.765	824.38
243.998	822.38
244.232	807.38
244.465	854.38
244.699	900.38
244.932	881.38
245.166	867.38
245.399	895.38
245.633	906.38
245.866	920.38
246.099	903.38
246.333	919.38
246.566	959.38
246.8	953.38
247.033	1012.38
247.266	1043.38
247.5	1108.38
247.733	1097.38
247.966	1103.38
248.2	1108.38
248.433	1100.38
248.666	1202.38
248.899	1268.38
249.133	1360.38
249.366	1401.38
249.599	1242.38
249.832	1196.38
250.066	1241.38
250.299	1308.38
250.532	1460.38
250.765	1610.38
250.998	1681.38
251.231	1574.38
251.465	1460.38
251.698	1388.38
251.931	1370.38
252.164	1335.38
252.397	1350.38
252.63	1443.38
252.863	1513.38
253.096	1602.38
253.329	1638.38
253.562	1556.38
253.795	1490.38
254.028	1496.38
254.261	1536.38
254.494	1716.38
254.727	2009.38
254.96	2085.38
255.193	1898.38
255.426	1723.38
255.659	1682.38
255.892	1862.38
256.124	1979.38
256.357	1890.38
256.59	1698.38
256.823	1622.38
257.056	1577.38
257.289	1555.38
257.521	1530.38
257.754	1548.38
257.987	1540.38
258.22	1513.38
258.452	1480.38
258.685	1526.38
258.918	1559.38
259.151	1612.38
259.383	1608.38
259.616	1671.38
259.849	1748.38
260.081	1881.38
260.314	1996.38
260.547	1918.38
260.779	1782.38
261.012	1723.38
261.244	1658.38
261.477	1630.38
261.71	1670.38
261.942	1681.38
262.175	1694.38
262.407	1674.38
262.64	1651.38
262.872	1592.38
263.105	1625.38
263.337	1598.38
263.57	1640.38
263.802	1683.38
264.035	1656.38
264.267	1622.38
264.499	1615.38
264.732	1676.38
264.964	1654.38
265.197	1687.38
265.429	1705.38
265.661	1686.38
265.894	1673.38
266.126	1700.38
266.358	1727.38
266.591	1783.38
266.823	1857.38
267.055	1835.38
267.287	1874.38
267.52	1832.38
267.752	1836.38
267.984	1838.38
268.216	1854.38
268.448	1903.38
268.681	1950.38
268.913	2070.38
269.145	2220.38
269.377	2273.38
269.609	2181.38
269.841	2131.38
270.073	2254.38
270.306	2556.38
270.538	2651.38
270.77	2523.38
271.002	2425.38
271.234	2374.38
271.466	2520.38
271.698	2571.38
271.93	2616.38
272.162	2638.38
272.394	2530.38
272.626	2413.38
272.858	2293.38
273.09	2246.38
273.322	2210.38
273.553	2187.38
273.785	2204.38
274.017	2190.38
274.249	2227.38
274.481	2223.38
274.713	2236.38
274.945	2277.38
275.176	2266.38
275.408	2241.38
275.64	2252.38
275.872	2253.38
276.104	2269.38
276.335	2295.38
276.567	2339.38
276.799	2470.38
277.031	2729.38
277.262	2795.38
277.494	2676.38
277.726	2490.38
277.957	2424.38
278.189	2390.38
278.421	2433.38
278.652	2388.38
278.884	2402.38
279.115	2365.38
279.347	2318.38
279.579	2401.38
279.81	2392.38
280.042	2374.38
280.273	2382.38
280.505	2370.38
280.736	2413.38
280.968	2365.38
281.199	2381.38
281.431	2413.38
281.662	2440.38
281.894	2446.38
282.125	2500.38
282.356	2622.38
282.588	2760.38
282.819	2682.38
283.051	2531.38
283.282	2534.38
283.513	2550.38
283.745	2571.38
283.976	2622.38
284.207	2632.38
284.439	2604.38
284.67	2561.38
284.901	2642.38
285.132	2600.38
285.364	2610.38
285.595	2651.38
285.826	2648.38
286.057	2633.38
286.288	2663.38
286.52	2668.38
286.751	2660.38
286.982	2684.38
287.213	2713.38
287.444	2749.38
287.675	2779.38
287.906	2860.38
288.138	2890.38
288.369	2911.38
288.6	2876.38
288.831	2840.38
289.062	2777.38
289.293	2736.38
289.524	2779.38
289.755	2798.38
289.986	2772.38
290.217	2803.38
290.448	2800.38
290.679	2761.38
290.91	2841.38
291.141	2820.38
291.371	2822.38
291.602	2839.38
291.833	2794.38
292.064	2809.38
292.295	2851.38
292.526	2875.38
292.757	2801.38
292.987	2848.38
293.218	2768.38
293.449	2840.38
293.68	2840.38
293.91	2801.38
294.141	2826.38
294.372	2807.38
294.603	2842.38
294.833	2874.38
295.064	2901.38
295.295	2900.38
295.525	2878.38
295.756	2957.38
295.987	2987.38
296.217	3126.38
296.448	3046.38
296.679	2909.38
296.909	2864.38
297.14	2967.38
297.37	2998.38
297.601	3049.38
297.831	3022.38
298.062	3051.38
298.292	3076.38
298.523	3104.38
298.753	3139.38
298.984	3102.38
299.214	3098.38
299.445	3093.38
299.675	3068.38
299.905	3171.38
300.136	3123.38
300.366	3143.38
300.597	3118.38
300.827	3244.38
301.057	3339.38
301.288	3346.38
301.518	3355.38
301.748	3329.38
301.979	3380.38
302.209	3374.38
302.439	3401.38
302.669	3306.38
302.9	3344.38
303.13	3283.38
303.36	3309.38
303.59	3346.38
303.82	3403.38
304.051	3350.38
304.281	3357.38
304.511	3302.38
304.741	3281.38
304.971	3243.38
305.201	3293.38
305.431	3257.38
305.661	3290.38
305.891	3255.38
306.121	3260.38
306.352	3304.38
306.582	3296.38
306.812	3250.38
307.042	3290.38
307.272	3335.38
307.502	3259.38
307.731	3280.38
307.961	3276.38
308.191	3263.38
308.421	3315.38
308.651	3327.38
308.881	3248.38
309.111	3340.38
309.341	3307.38
309.571	3389.38
309.8	3542.38
310.03	3526.38
310.26	3563.38
310.49	3525.38
310.72	3652.38
310.949	3706.38
311.179	3680.38
311.409	3542.38
311.639	3595.38
311.868	3587.38
312.098	3633.38
312.328	3791.38
312.557	3794.38
312.787	3890.38
313.017	3788.38
313.246	3730.38
313.476	3738.38
313.706	3727.38
313.935	3846.38
314.165	3912.38
314.394	3913.38
314.624	3913.38
314.853	3785.38
315.083	3775.38
315.312	3708.38
315.542	3722.38
315.771	3694.38
316.001	3701.38
316.23	3667.38
316.46	3651.38
316.689	3748.38
316.919	3726.38
317.148	3801.38
317.377	3728.38
317.607	3723.38
317.836	3707.38
318.065	3674.38
318.295	3613.38
318.524	3706.38
318.753	3647.38
318.983	3692.38
319.212	3646.38
319.441	3770.38
319.67	3725.38
319.9	3676.38
320.129	3635.38
320.358	3743.38
320.587	3716.38
320.816	3847.38
321.046	3816.38
321.275	3762.38
321.504	3813.38
321.733	3858.38
321.962	3828.38
322.191	4060.38
322.42	4016.38
322.649	4116.38
322.878	4197.38
323.108	4263.38
323.337	4476.38
323.566	4626.38
323.795	4849.38
324.024	5402.38
324.253	6980.38
324.482	10248.38
324.71	14651.38
324.939	15620.38
325.168	11346.38
325.397	6200.38
325.626	5148.38
325.855	4809.38
326.084	4704.38
326.313	4710.38
326.542	4887.38
326.77	5463.38
326.999	6771.38
327.228	9713.38
327.457	13752.38
327.686	12847.38
327.914	7007.38
328.143	5793.38
328.372	5600.38
328.6	5274.38
328.829	5177.38
329.058	5334.38
329.287	5237.38
329.515	5019.38
329.744	5007.38
329.972	5253.38
330.201	5537.38
330.43	5860.38
330.658	5749.38
330.887	5674.38
331.115	5355.38
331.344	5016.38
331.572	4958.38
331.801	5035.38
332.03	5046.38
332.258	4990.38
332.486	5039.38
332.715	5128.38
332.943	5357.38
333.172	5457.38
333.4	5608.38
333.629	5777.38
333.857	6060.38
334.085	6157.38
334.314	6560.38
334.542	6875.38
334.771	6579.38
334.999	5732.38
335.227	5561.38
335.455	5267.38
335.684	5154.38
335.912	5082.38
336.14	4975.38
336.369	4970.38
336.597	5074.38
336.825	4994.38
337.053	4842.38
337.281	4704.38
337.51	4782.38
337.738	4803.38
337.966	4675.38
338.194	4676.38
338.422	4607.38
338.65	4572.38
338.878	4557.38
339.106	4566.38
339.334	4511.38
339.562	4462.38
339.79	4348.38
340.018	4410.38
340.246	4375.38
340.474	4452.38
340.702	4363.38
340.93	4423.38
341.158	4369.38
341.386	4378.38
341.614	4395.38
341.842	4331.38
342.07	4354.38
342.298	4322.38
342.526	4318.38
342.754	4287.38
342.981	4353.38
343.209	4439.38
343.437	4643.38
343.665	4894.38
343.893	5116.38
344.12	5196.38
344.348	4945.38
344.576	4742.38
344.804	4676.38
345.031	4594.38
345.259	4567.38
345.487	4461.38
345.714	4405.38
345.942	4225.38
346.17	4225.38
346.397	4162.38
346.625	4196.38
346.853	4156.38
347.08	4191.38
347.308	4190.38
347.535	4322.38
347.763	4310.38
347.99	4243.38
348.218	4259.38
348.445	4331.38
348.673	4212.38
348.9	4169.38
349.128	4064.38
349.355	4043.38
349.583	4062.38
349.81	4099.38
350.037	4072.38
350.265	4043.38
350.492	4073.38
350.72	4102.38
350.947	4085.38
351.174	4147.38
351.402	4189.38
351.629	4130.38
351.856	4111.38
352.083	4202.38
352.311	4246.38
352.538	4261.38
352.765	4162.38
352.992	4110.38
353.22	4080.38
353.447	4043.38
353.674	4019.38
353.901	3934.38
354.128	3980.38
354.355	3957.38
354.583	3990.38
354.81	3971.38
355.037	3961.38
355.264	3913.38
355.491	3947.38
355.718	3966.38
355.945	3954.38
356.172	4016.38
356.399	3998.38
356.626	3966.38
356.853	3968.38
357.08	3914.38
357.307	3970.38
357.534	3988.38
357.761	3986.38
357.988	4010.38
358.215	3948.38
358.441	3965.38
358.668	4034.38
358.895	3998.38
359.122	4089.38
359.349	4158.38
359.576	4233.38
359.802	4381.38
360.029	4544.38
360.256	4546.38
360.483	4339.38
360.709	4193.38
360.936	4127.38
361.163	4180.38
361.39	4214.38
361.616	4196.38
361.843	4144.38
362.07	4138.38
362.296	4114.38
362.523	4145.38
362.749	4163.38
362.976	4065.38
363.203	4058.38
363.429	4078.38
363.656	4095.38
363.882	4044.38
364.109	4070.38
364.335	4010.38
364.562	4029.38
364.788	4080.38
365.015	4071.38
365.241	4051.38
365.468	4066.38
365.694	4091.38
365.92	4042.38
366.147	4058.38
366.373	4061.38
366.599	4024.38
366.826	3996.38
367.052	4031.38
367.278	4125.38
367.505	4066.38
367.731	4087.38
367.957	4137.38
368.184	4120.38
368.41	4178.38
368.636	4233.38
368.862	4266.38
369.089	4227.38
369.315	4149.38
369.541	4198.38
369.767	4154.38
369.993	4203.38
370.219	4204.38
370.445	4194.38
370.672	4222.38
370.898	4272.38
371.124	4303.38
371.35	4354.38
371.576	4333.38
371.802	4280.38
372.028	4341.38
372.254	4380.38
372.48	4378.38
372.706	4451.38
372.932	4444.38
373.158	4462.38
373.384	4388.38
373.61	4302.38
373.835	4379.38
374.061	4374.38
374.287	4462.38
374.513	4521.38
374.739	4626.38
374.965	4756.38
375.191	4795.38
375.416	4678.38
375.642	4513.38
375.868	4510.38
376.094	4433.38
376.319	4422.38
376.545	4356.38
376.771	4384.38
376.997	4416.38
377.222	4303.38
377.448	4386.38
377.674	4347.38
377.899	4262.38
378.125	4316.38
378.35	4285.38
378.576	4266.38
378.802	4279.38
379.027	4294.38
379.253	4275.38
379.478	4246.38
379.704	4327.38
379.929	4338.38
380.155	4338.38
380.38	4342.38
380.606	4348.38
380.831	4280.38
381.057	4395.38
381.282	4389.38
381.507	4363.38
381.733	4380.38
381.958	4471.38
382.184	4434.38
382.409	4526.38
382.634	4520.38
382.86	4591.38
383.085	4682.38
383.31	4713.38
383.535	4863.38
383.761	4790.38
383.986	4878.38
384.211	5036.38
384.436	5073.38
384.662	5148.38
384.887	5147.38
385.112	5198.38
385.337	5197.38
385.562	5355.38
385.787	5192.38
386.013	5370.38
386.238	5382.38
386.463	5321.38
386.688	5315.38
386.913	5183.38
387.138	5259.38
387.363	5170.38
387.588	5094.38
387.813	5160.38
388.038	5175.38
388.263	5259.38
388.488	5206.38
388.713	5204.38
388.938	5146.38
389.163	5187.38
389.387	5129.38
389.612	5031.38
389.837	5117.38
390.062	5077.38
390.287	5106.38
390.512	5071.38
390.736	5221.38
390.961	5341.38
391.186	5354.38
391.411	5528.38
391.636	5668.38
391.86	5793.38
392.085	5819.38
392.31	5781.38
392.534	5554.38
392.759	5565.38
392.984	5493.38
393.208	5437.38
393.433	5523.38
393.658	5594.38
393.882	5392.38
394.107	5448.38
394.331	5428.38
394.556	5527.38
394.78	5470.38
395.005	5609.38
395.229	5609.38
395.454	5734.38
395.678	5900.38
395.903	5810.38
396.127	5825.38
396.352	5658.38
396.576	5563.38
396.801	5538.38
397.025	5642.38
397.249	5705.38
397.474	5865.38
397.698	5954.38
397.922	5962.38
398.147	6078.38
398.371	6176.38
398.595	6325.38
398.82	6670.38
399.044	7202.38
399.268	7912.38
399.492	8992.38
399.717	9533.38
399.941	9314.38
400.165	8734.38
400.389	8042.38
400.613	7298.38
400.837	6859.38
401.062	6637.38
401.286	6621.38
401.51	6558.38
401.734	6492.38
401.958	6647.38
402.182	6710.38
402.406	6849.38
402.63	6908.38
402.854	6968.38
403.078	7177.38
403.302	7207.38
403.526	7350.38
403.75	7373.38
403.974	7490.38
404.198	7404.38
404.422	7582.38
404.645	7565.38
404.869	7553.38
405.093	7850.38
405.317	8197.38
405.541	8167.38
405.765	7541.38
405.988	7328.38
406.212	7457.38
406.436	7640.38
406.66	7710.38
406.883	7752.38
407.107	8310.38
407.331	8860.38
407.555	9299.38
407.778	8944.38
408.002	8212.38
408.226	7912.38
408.449	7790.38
408.673	7678.38
408.896	7743.38
409.12	7815.38
409.344	7546.38
409.567	7213.38
409.791	7159.38
410.014	7083.38
410.238	7030.38
410.461	7046.38
410.685	7065.38
410.908	7061.38
411.132	7349.38
411.355	7255.38
411.578	6957.38
411.802	6881.38
412.025	6872.38
412.249	7134.38
412.472	7334.38
412.695	7539.38
412.919	7120.38
413.142	6770.38
413.365	6656.38
413.589	6551.38
413.812	6479.38
414.035	6373.38
414.258	6472.38
414.482	6466.38
414.705	6590.38
414.928	6502.38
415.151	6414.38
415.374	6400.38
415.597	6316.38
415.821	6300.38
416.044	6363.38
416.267	6330.38
416.49	6359.38
416.713	6254.38
416.936	6286.38
417.159	6341.38
417.382	6374.38
417.605	6383.38
417.828	6520.38
418.051	6722.38
418.274	6614.38
418.497	6465.38
418.72	6623.38
418.943	6559.38
419.166	6923.38
419.389	7306.38
419.611	7246.38
419.834	7007.38
420.057	6879.38
420.28	6814.38
420.503	6725.38
420.726	6661.38
420.948	6786.38
421.171	7106.38
421.394	7110.38
421.617	6685.38
421.839	6553.38
422.062	6627.38
422.285	6858.38
422.507	7454.38
422.73	7834.38
422.953	7269.38
423.175	6908.38
423.398	7096.38
423.621	7008.38
423.843	7184.38
424.066	7177.38
424.288	7100.38
424.511	7266.38
424.733	7657.38
424.956	8066.38
425.178	7622.38
425.401	7737.38
425.623	7606.38
425.846	6746.38
426.068	6625.38
426.291	6512.38
426.513	6458.38
426.735	6591.38
426.958	7044.38
427.18	7818.38
427.402	8806.38
427.625	8795.38
427.847	7707.38
428.069	7136.38
428.292	6512.38
428.514	6116.38
428.736	6082.38
428.958	6004.38
429.181	5796.38
429.403	5749.38
429.625	6120.38
429.847	6303.38
430.069	6659.38
430.292	6315.38
430.514	5830.38
430.736	5898.38
430.958	5732.38
431.18	5655.38
431.402	5702.38
431.624	5615.38
431.846	5790.38
432.068	5771.38
432.29	5861.38
432.512	5679.38
432.734	5801.38
432.956	5750.38
433.178	5827.38
433.4	5775.38
433.622	5751.38
433.844	5729.38
434.066	5823.38
434.287	5924.38
434.509	6127.38
434.731	6345.38
434.953	6352.38
435.175	6539.38
435.397	6632.38
435.618	6580.38
435.84	6914.38
436.062	7676.38
436.284	7567.38
436.505	6433.38
436.727	6144.38
436.949	5953.38
437.17	5840.38
437.392	5806.38
437.614	5981.38
437.835	6224.38
438.057	7118.38
438.278	7720.38
438.5	7757.38
438.721	8350.38
438.943	7340.38
439.165	6303.38
439.386	6155.38
439.608	6193.38
439.829	6325.38
440.05	6531.38
440.272	6902.38
440.493	6371.38
440.715	6200.38
440.936	6078.38
441.158	6094.38
441.379	6230.38
441.6	6637.38
441.822	6806.38
442.043	7131.38
442.264	7889.38
442.486	7586.38
442.707	6752.38
442.928	6608.38
443.149	6828.38
443.371	6982.38
443.592	7587.38
443.813	8431.38
444.034	8333.38
444.255	7416.38
444.476	7290.38
444.698	7479.38
444.919	7547.38
445.14	7302.38
445.361	7250.38
445.582	7348.38
445.803	7777.38
446.024	8297.38
446.245	7962.38
446.466	7182.38
446.687	6326.38
446.908	6056.38
447.129	5792.38
447.35	5630.38
447.571	5602.38
447.792	5516.38
448.013	5623.38
448.234	5834.38
448.455	6408.38
448.675	7602.38
448.896	7859.38
449.117	6506.38
449.338	6648.38
449.559	8065.38
449.779	8114.38
450	6356.38
450.221	5716.38
450.442	5526.38
450.662	5406.38
450.883	5570.38
451.104	5556.38
451.324	5369.38
451.545	5336.38
451.766	5173.38
451.986	5075.38
452.207	4996.38
452.428	5038.38
452.648	5073.38
452.869	5052.38
453.089	5183.38
453.31	5192.38
453.53	5034.38
453.751	4980.38
453.971	5072.38
454.192	5078.38
454.412	4939.38
454.633	4937.38
454.853	4867.38
455.073	4903.38
455.294	5363.38
455.514	5682.38
455.734	5296.38
455.955	4788.38
456.175	4697.38
456.395	4662.38
456.616	4662.38
456.836	4612.38
457.056	4628.38
457.276	4569.38
457.497	4733.38
457.717	4734.38
457.937	4844.38
458.157	4787.38
458.377	4947.38
458.598	5303.38
458.818	5863.38
459.038	6571.38
459.258	6555.38
459.478	5883.38
459.698	5814.38
459.918	5905.38
460.138	6098.38
460.358	6334.38
460.578	6274.38
460.798	6369.38
461.018	6390.38
461.238	6285.38
461.458	6245.38
461.678	6196.38
461.898	6385.38
462.118	6391.38
462.338	6753.38
462.558	6866.38
462.777	7171.38
462.997	7755.38
463.217	8226.38
463.437	7946.38
463.657	7323.38
463.876	7183.38
464.096	7249.38
464.316	7230.38
464.536	7263.38
464.755	6990.38
464.975	6843.38
465.195	6923.38
465.414	6920.38
465.634	6150.38
465.854	5883.38
466.073	5686.38
466.293	5516.38
466.512	5307.38
466.732	5305.38
466.951	5253.38
467.171	5255.38
467.391	5331.38
467.61	5272.38
467.829	5284.38
468.049	5408.38
468.268	5250.38
468.488	5118.38
468.707	5029.38
468.927	5024.38
469.146	5013.38
469.365	5109.38
469.585	5088.38
469.804	5296.38
470.023	5424.38
470.243	5401.38
470.462	5534.38
470.681	5669.38
470.901	5542.38
471.12	5374.38
471.339	5328.38
471.558	5323.38
471.777	5222.38
471.997	5174.38
472.216	5407.38
472.435	5848.38
472.654	5532.38
472.873	5191.38
473.092	5083.38
473.311	5060.38
473.53	5069.38
473.749	5168.38
473.968	5658.38
474.187	6494.38
474.406	6030.38
474.625	5284.38
474.844	5111.38
475.063	5068.38
475.282	5037.38
475.501	5092.38
475.72	5127.38
475.939	5120.38
476.158	5202.38
476.377	5258.38
476.596	5178.38
476.814	5330.38
477.033	5377.38
477.252	5463.38
477.471	5602.38
477.69	5683.38
477.908	5879.38
478.127	6015.38
478.346	6020.38
478.564	6101.38
478.783	6195.38
479.002	6356.38
479.22	6305.38
479.439	6463.38
479.658	6451.38
479.876	6575.38
480.095	6836.38
480.313	7219.38
480.532	7125.38
480.751	7003.38
480.969	7202.38
481.188	8094.38
481.406	7848.38
481.624	6857.38
481.843	6499.38
482.061	6295.38
482.28	6178.38
482.498	6035.38
482.717	6016.38
482.935	6010.38
483.153	5883.38
483.372	5899.38
483.59	5932.38
483.808	5954.38
484.027	6019.38
484.245	6061.38
484.463	6055.38
484.681	6127.38
484.9	6120.38
485.118	6198.38
485.336	6211.38
485.554	6308.38
485.772	6388.38
485.99	6294.38
486.209	6364.38
486.427	6369.38
486.645	6411.38
486.863	6556.38
487.081	6395.38
487.299	6358.38
487.517	6412.38
487.735	6343.38
487.953	6370.38
