Data from Circ_1993_H10_HRD10591_00030.txt Node
Date: Wed Jan 03 11:44:08 EST 2024
User: Yrep
Spectrometer: HR+D1059
Trigger mode: 1
Integration Time (sec): 1.000000E-1
Scans to average: 1
Electric dark correction enabled: true
Nonlinearity correction enabled: false
Boxcar width: 0
XAxis mode: Wavelengths
Number of Pixels in Spectrum: 2048
>>>>>Begin Spectral Data<<<<<
223.165	-33.69
223.4	-33.69
223.635	-33.69
223.869	-12.69
224.104	-13.69
224.338	-27.69
224.573	-16.69
224.808	-12.69
225.042	-7.69
225.277	9.31
225.511	15.31
225.746	-12.69
225.98	-0.69
226.215	16.31
226.449	22.31
226.683	14.31
226.918	24.31
227.152	36.31
227.387	42.31
227.621	39.31
227.856	60.31
228.09	45.31
228.324	62.31
228.559	50.31
228.793	59.31
229.027	59.31
229.262	77.31
229.496	55.31
229.73	90.31
229.964	66.31
230.199	78.31
230.433	81.31
230.667	71.31
230.901	81.31
231.136	87.31
231.37	82.31
231.604	74.31
231.838	81.31
232.072	80.31
232.306	68.31
232.541	77.31
232.775	77.31
233.009	82.31
233.243	84.31
233.477	80.31
233.711	83.31
233.945	77.31
234.179	78.31
234.413	60.31
234.647	77.31
234.881	75.31
235.115	68.31
235.349	89.31
235.583	96.31
235.817	83.31
236.051	83.31
236.285	75.31
236.519	57.31
236.753	66.31
236.987	80.31
237.221	84.31
237.455	86.31
237.689	80.31
237.922	87.31
238.156	78.31
238.39	68.31
238.624	75.31
238.858	92.31
239.091	83.31
239.325	74.31
239.559	75.31
239.793	66.31
240.027	81.31
240.26	73.31
240.494	72.31
240.728	77.31
240.961	63.31
241.195	65.31
241.429	74.31
241.662	91.31
241.896	67.31
242.13	76.31
242.363	87.31
242.597	71.31
242.83	68.31
243.064	69.31
243.298	74.31
243.531	85.31
243.765	79.31
243.998	88.31
244.232	64.31
244.465	67.31
244.699	83.31
244.932	74.31
245.166	75.31
245.399	87.31
245.633	66.31
245.866	68.31
246.099	77.31
246.333	80.31
246.566	72.31
246.8	87.31
247.033	96.31
247.266	60.31
247.5	84.31
247.733	75.31
247.966	85.31
248.2	68.31
248.433	84.31
248.666	63.31
248.899	78.31
249.133	76.31
249.366	97.31
249.599	105.31
249.832	91.31
250.066	69.31
250.299	83.31
250.532	101.31
250.765	73.31
250.998	79.31
251.231	73.31
251.465	74.31
251.698	84.31
251.931	82.31
252.164	85.31
252.397	79.31
252.63	72.31
252.863	73.31
253.096	86.31
253.329	83.31
253.562	86.31
253.795	80.31
254.028	95.31
254.261	86.31
254.494	73.31
254.727	76.31
254.96	80.31
255.193	76.31
255.426	73.31
255.659	75.31
255.892	75.31
256.124	64.31
256.357	83.31
256.59	76.31
256.823	75.31
257.056	68.31
257.289	86.31
257.521	72.31
257.754	82.31
257.987	80.31
258.22	79.31
258.452	77.31
258.685	68.31
258.918	79.31
259.151	59.31
259.383	76.31
259.616	74.31
259.849	68.31
260.081	56.31
260.314	80.31
260.547	73.31
260.779	75.31
261.012	92.31
261.244	72.31
261.477	91.31
261.71	85.31
261.942	121.31
262.175	106.31
262.407	87.31
262.64	79.31
262.872	64.31
263.105	87.31
263.337	73.31
263.57	84.31
263.802	78.31
264.035	81.31
264.267	83.31
264.499	84.31
264.732	71.31
264.964	92.31
265.197	87.31
265.429	86.31
265.661	69.31
265.894	91.31
266.126	88.31
266.358	80.31
266.591	80.31
266.823	81.31
267.055	72.31
267.287	78.31
267.52	60.31
267.752	89.31
267.984	69.31
268.216	82.31
268.448	67.31
268.681	76.31
268.913	86.31
269.145	79.31
269.377	79.31
269.609	98.31
269.841	71.31
270.073	81.31
270.306	83.31
270.538	80.31
270.77	84.31
271.002	74.31
271.234	94.31
271.466	92.31
271.698	71.31
271.93	80.31
272.162	91.31
272.394	83.31
272.626	101.31
272.858	78.31
273.09	93.31
273.322	89.31
273.553	89.31
273.785	83.31
274.017	90.31
274.249	64.31
274.481	75.31
274.713	81.31
274.945	80.31
275.176	86.31
275.408	91.31
275.64	97.31
275.872	98.31
276.104	91.31
276.335	92.31
276.567	112.31
276.799	114.31
277.031	101.31
277.262	80.31
277.494	74.31
277.726	74.31
277.957	74.31
278.189	75.31
278.421	84.31
278.652	74.31
278.884	90.31
279.115	77.31
279.347	95.31
279.579	99.31
279.81	95.31
280.042	102.31
280.273	89.31
280.505	103.31
280.736	79.31
280.968	81.31
281.199	80.31
281.431	79.31
281.662	90.31
281.894	84.31
282.125	101.31
282.356	108.31
282.588	128.31
282.819	112.31
283.051	91.31
283.282	81.31
283.513	91.31
283.745	81.31
283.976	86.31
284.207	96.31
284.439	92.31
284.67	98.31
284.901	84.31
285.132	88.31
285.364	64.31
285.595	98.31
285.826	86.31
286.057	91.31
286.288	83.31
286.52	75.31
286.751	82.31
286.982	77.31
287.213	75.31
287.444	95.31
287.675	86.31
287.906	93.31
288.138	95.31
288.369	105.31
288.6	96.31
288.831	88.31
289.062	90.31
289.293	93.31
289.524	81.31
289.755	96.31
289.986	81.31
290.217	75.31
290.448	74.31
290.679	71.31
290.91	86.31
291.141	77.31
291.371	87.31
291.602	81.31
291.833	91.31
292.064	84.31
292.295	95.31
292.526	93.31
292.757	93.31
292.987	82.31
293.218	81.31
293.449	83.31
293.68	85.31
293.91	86.31
294.141	90.31
294.372	85.31
294.603	88.31
294.833	77.31
295.064	79.31
295.295	96.31
295.525	83.31
295.756	99.31
295.987	105.31
296.217	151.31
296.448	121.31
296.679	91.31
296.909	87.31
297.14	94.31
297.37	85.31
297.601	91.31
297.831	84.31
298.062	103.31
298.292	86.31
298.523	93.31
298.753	77.31
298.984	72.31
299.214	74.31
299.445	71.31
299.675	92.31
299.905	86.31
300.136	89.31
300.366	91.31
300.597	84.31
300.827	92.31
301.057	97.31
301.288	96.31
301.518	79.31
301.748	83.31
301.979	87.31
302.209	90.31
302.439	83.31
302.669	92.31
302.9	85.31
303.13	105.31
303.36	89.31
303.59	78.31
303.82	89.31
304.051	64.31
304.281	66.31
304.511	75.31
304.741	82.31
304.971	67.31
305.201	83.31
305.431	75.31
305.661	89.31
305.891	84.31
306.121	93.31
306.352	93.31
306.582	89.31
306.812	91.31
307.042	95.31
307.272	88.31
307.502	95.31
307.731	86.31
307.961	94.31
308.191	99.31
308.421	93.31
308.651	92.31
308.881	83.31
309.111	105.31
309.341	105.31
309.571	94.31
309.8	93.31
310.03	90.31
310.26	90.31
310.49	83.31
310.72	92.31
310.949	91.31
311.179	86.31
311.409	91.31
311.639	91.31
311.868	91.31
312.098	93.31
312.328	83.31
312.557	85.31
312.787	113.31
313.017	88.31
313.246	87.31
313.476	81.31
313.706	86.31
313.935	88.31
314.165	86.31
314.394	99.31
314.624	101.31
314.853	89.31
315.083	76.31
315.312	93.31
315.542	88.31
315.771	110.31
316.001	96.31
316.23	80.31
316.46	82.31
316.689	85.31
316.919	91.31
317.148	93.31
317.377	83.31
317.607	90.31
317.836	91.31
318.065	77.31
318.295	105.31
318.524	90.31
318.753	96.31
318.983	90.31
319.212	79.31
319.441	87.31
319.67	95.31
319.9	84.31
320.129	80.31
320.358	97.31
320.587	79.31
320.816	94.31
321.046	88.31
321.275	100.31
321.504	84.31
321.733	80.31
321.962	88.31
322.191	95.31
322.42	87.31
322.649	127.31
322.878	115.31
323.108	100.31
323.337	112.31
323.566	129.31
323.795	130.31
324.024	182.31
324.253	319.31
324.482	676.31
324.71	1390.31
324.939	1811.31
325.168	695.31
325.397	225.31
325.626	141.31
325.855	116.31
326.084	117.31
326.313	124.31
326.542	142.31
326.77	203.31
326.999	385.31
327.228	779.31
327.457	1435.31
327.686	1117.31
327.914	319.31
328.143	172.31
328.372	175.31
328.6	135.31
328.829	107.31
329.058	114.31
329.287	116.31
329.515	105.31
329.744	103.31
329.972	114.31
330.201	127.31
330.43	152.31
330.658	128.31
330.887	132.31
331.115	115.31
331.344	105.31
331.572	92.31
331.801	103.31
332.03	100.31
332.258	88.31
332.486	99.31
332.715	93.31
332.943	79.31
333.172	90.31
333.4	99.31
333.629	110.31
333.857	113.31
334.085	112.31
334.314	124.31
334.542	164.31
334.771	161.31
334.999	103.31
335.227	84.31
335.455	96.31
335.684	93.31
335.912	100.31
336.14	108.31
336.369	108.31
336.597	96.31
336.825	91.31
337.053	78.31
337.281	95.31
337.51	93.31
337.738	80.31
337.966	83.31
338.194	107.31
338.422	102.31
338.65	96.31
338.878	95.31
339.106	94.31
339.334	78.31
339.562	80.31
339.79	81.31
340.018	85.31
340.246	91.31
340.474	91.31
340.702	84.31
340.93	96.31
341.158	82.31
341.386	89.31
341.614	93.31
341.842	88.31
342.07	83.31
342.298	87.31
342.526	89.31
342.754	92.31
342.981	92.31
343.209	92.31
343.437	104.31
343.665	91.31
343.893	79.31
344.12	78.31
344.348	81.31
344.576	90.31
344.804	99.31
345.031	92.31
345.259	91.31
345.487	99.31
345.714	87.31
345.942	77.31
346.17	82.31
346.397	93.31
346.625	96.31
346.853	81.31
347.08	74.31
347.308	90.31
347.535	88.31
347.763	106.31
347.99	95.31
348.218	97.31
348.445	99.31
348.673	76.31
348.9	97.31
349.128	86.31
349.355	72.31
349.583	85.31
349.81	97.31
350.037	92.31
350.265	84.31
350.492	90.31
350.72	85.31
350.947	95.31
351.174	101.31
351.402	106.31
351.629	95.31
351.856	95.31
352.083	94.31
352.311	111.31
352.538	88.31
352.765	100.31
352.992	110.31
353.22	107.31
353.447	99.31
353.674	87.31
353.901	101.31
354.128	93.31
354.355	97.31
354.583	110.31
354.81	115.31
355.037	101.31
355.264	77.31
355.491	90.31
355.718	87.31
355.945	90.31
356.172	84.31
356.399	91.31
356.626	97.31
356.853	90.31
357.08	95.31
357.307	91.31
357.534	93.31
357.761	77.31
357.988	101.31
358.215	105.31
358.441	95.31
358.668	101.31
358.895	92.31
359.122	87.31
359.349	86.31
359.576	102.31
359.802	96.31
360.029	102.31
360.256	90.31
360.483	97.31
360.709	93.31
360.936	94.31
361.163	95.31
361.39	100.31
361.616	93.31
361.843	77.31
362.07	96.31
362.296	95.31
362.523	89.31
362.749	91.31
362.976	91.31
363.203	85.31
363.429	80.31
363.656	84.31
363.882	88.31
364.109	93.31
364.335	96.31
364.562	89.31
364.788	88.31
365.015	96.31
365.241	92.31
365.468	115.31
365.694	85.31
365.92	81.31
366.147	85.31
366.373	97.31
366.599	88.31
366.826	93.31
367.052	97.31
367.278	83.31
367.505	82.31
367.731	96.31
367.957	96.31
368.184	93.31
368.41	83.31
368.636	93.31
368.862	112.31
369.089	101.31
369.315	84.31
369.541	88.31
369.767	91.31
369.993	77.31
370.219	78.31
370.445	89.31
370.672	86.31
370.898	84.31
371.124	83.31
371.35	94.31
371.576	77.31
371.802	81.31
372.028	100.31
372.254	76.31
372.48	100.31
372.706	81.31
372.932	77.31
373.158	97.31
373.384	85.31
373.61	81.31
373.835	85.31
374.061	88.31
374.287	90.31
374.513	94.31
374.739	76.31
374.965	87.31
375.191	90.31
375.416	93.31
375.642	92.31
375.868	102.31
376.094	84.31
376.319	93.31
376.545	99.31
376.771	106.31
376.997	79.31
377.222	94.31
377.448	78.31
377.674	85.31
377.899	95.31
378.125	93.31
378.35	93.31
378.576	88.31
378.802	87.31
379.027	89.31
379.253	100.31
379.478	93.31
379.704	95.31
379.929	82.31
380.155	97.31
380.38	82.31
380.606	101.31
380.831	96.31
381.057	90.31
381.282	97.31
381.507	99.31
381.733	97.31
381.958	104.31
382.184	110.31
382.409	108.31
382.634	108.31
382.86	89.31
383.085	104.31
383.31	98.31
383.535	101.31
383.761	111.31
383.986	108.31
384.211	112.31
384.436	107.31
384.662	108.31
384.887	114.31
385.112	110.31
385.337	119.31
385.562	113.31
385.787	117.31
386.013	112.31
386.238	123.31
386.463	98.31
386.688	120.31
386.913	114.31
387.138	114.31
387.363	109.31
387.588	106.31
387.813	117.31
388.038	116.31
388.263	118.31
388.488	105.31
388.713	92.31
388.938	94.31
389.163	83.31
389.387	99.31
389.612	77.31
389.837	66.31
390.062	97.31
390.287	97.31
390.512	93.31
390.736	104.31
390.961	92.31
391.186	95.31
391.411	80.31
391.636	99.31
391.86	96.31
392.085	78.31
392.31	75.31
392.534	88.31
392.759	94.31
392.984	105.31
393.208	127.31
393.433	186.31
393.658	151.31
393.882	103.31
394.107	92.31
394.331	78.31
394.556	99.31
394.78	89.31
395.005	83.31
395.229	78.31
395.454	79.31
395.678	85.31
395.903	87.31
396.127	84.31
396.352	83.31
396.576	97.31
396.801	109.31
397.025	129.31
397.249	106.31
397.474	95.31
397.698	98.31
397.922	94.31
398.147	87.31
398.371	91.31
398.595	93.31
398.82	75.31
399.044	89.31
399.268	95.31
399.492	78.31
399.717	93.31
399.941	81.31
400.165	84.31
400.389	79.31
400.613	85.31
400.837	93.31
401.062	89.31
401.286	93.31
401.51	98.31
401.734	104.31
401.958	104.31
402.182	127.31
402.406	126.31
402.63	109.31
402.854	85.31
403.078	89.31
403.302	95.31
403.526	74.31
403.75	84.31
403.974	74.31
404.198	89.31
404.422	91.31
404.645	79.31
404.869	84.31
405.093	108.31
405.317	102.31
405.541	114.31
405.765	102.31
405.988	107.31
406.212	155.31
406.436	203.31
406.66	122.31
406.883	90.31
407.107	83.31
407.331	83.31
407.555	96.31
407.778	100.31
408.002	89.31
408.226	94.31
408.449	85.31
408.673	88.31
408.896	95.31
409.12	89.31
409.344	83.31
409.567	86.31
409.791	95.31
410.014	94.31
410.238	104.31
410.461	87.31
410.685	97.31
410.908	111.31
411.132	103.31
411.355	79.31
411.578	85.31
411.802	90.31
412.025	100.31
412.249	87.31
412.472	81.31
412.695	98.31
412.919	75.31
413.142	75.31
413.365	93.31
413.589	80.31
413.812	91.31
414.035	96.31
414.258	85.31
414.482	99.31
414.705	84.31
414.928	84.31
415.151	106.31
415.374	85.31
415.597	98.31
415.821	90.31
416.044	97.31
416.267	95.31
416.49	88.31
416.713	84.31
416.936	88.31
417.159	79.31
417.382	93.31
417.605	87.31
417.828	92.31
418.051	82.31
418.274	85.31
418.497	93.31
418.72	99.31
418.943	86.31
419.166	69.31
419.389	83.31
419.611	101.31
419.834	91.31
420.057	93.31
420.28	96.31
420.503	87.31
420.726	77.31
420.948	78.31
421.171	89.31
421.394	92.31
421.617	93.31
421.839	84.31
422.062	79.31
422.285	81.31
422.507	105.31
422.73	107.31
422.953	93.31
423.175	105.31
423.398	94.31
423.621	86.31
423.843	93.31
424.066	88.31
424.288	81.31
424.511	82.31
424.733	79.31
424.956	96.31
425.178	77.31
425.401	101.31
425.623	91.31
425.846	100.31
426.068	94.31
426.291	94.31
426.513	65.31
426.735	85.31
426.958	98.31
427.18	114.31
427.402	120.31
427.625	143.31
427.847	126.31
428.069	111.31
428.292	96.31
428.514	92.31
428.736	82.31
428.958	76.31
429.181	89.31
429.403	85.31
429.625	74.31
429.847	76.31
430.069	96.31
430.292	107.31
430.514	93.31
430.736	77.31
430.958	87.31
431.18	79.31
431.402	82.31
431.624	80.31
431.846	79.31
432.068	87.31
432.29	90.31
432.512	84.31
432.734	79.31
432.956	91.31
433.178	88.31
433.4	80.31
433.622	79.31
433.844	89.31
434.066	83.31
434.287	85.31
434.509	97.31
434.731	98.31
434.953	87.31
435.175	93.31
435.397	90.31
435.618	101.31
435.84	104.31
436.062	115.31
436.284	102.31
436.505	89.31
436.727	86.31
436.949	86.31
437.17	94.31
437.392	82.31
437.614	106.31
437.835	92.31
438.057	107.31
438.278	89.31
438.5	95.31
438.721	102.31
438.943	91.31
439.165	90.31
439.386	85.31
439.608	91.31
439.829	98.31
440.05	108.31
440.272	120.31
440.493	81.31
440.715	85.31
440.936	87.31
441.158	77.31
441.379	94.31
441.6	88.31
441.822	96.31
442.043	97.31
442.264	95.31
442.486	86.31
442.707	102.31
442.928	106.31
443.149	136.31
443.371	119.31
443.592	97.31
443.813	112.31
444.034	108.31
444.255	89.31
444.476	74.31
444.698	82.31
444.919	86.31
445.14	135.31
445.361	130.31
445.582	117.31
445.803	130.31
446.024	141.31
446.245	130.31
446.466	104.31
446.687	89.31
446.908	96.31
447.129	89.31
447.35	84.31
447.571	86.31
447.792	87.31
448.013	90.31
448.234	90.31
448.455	93.31
448.675	107.31
448.896	101.31
449.117	90.31
449.338	92.31
449.559	116.31
449.779	109.31
450	70.31
450.221	96.31
450.442	66.31
450.662	93.31
450.883	99.31
451.104	107.31
451.324	83.31
451.545	93.31
451.766	78.31
451.986	81.31
452.207	80.31
452.428	89.31
452.648	88.31
452.869	110.31
453.089	105.31
453.31	113.31
453.53	88.31
453.751	90.31
453.971	95.31
454.192	100.31
454.412	91.31
454.633	81.31
454.853	95.31
455.073	90.31
455.294	85.31
455.514	87.31
455.734	70.31
455.955	77.31
456.175	76.31
456.395	85.31
456.616	91.31
456.836	96.31
457.056	82.31
457.276	82.31
457.497	79.31
457.717	85.31
457.937	77.31
458.157	100.31
458.377	96.31
458.598	93.31
458.818	129.31
459.038	155.31
459.258	109.31
459.478	86.31
459.698	82.31
459.918	98.31
460.138	85.31
460.358	77.31
460.578	79.31
460.798	98.31
461.018	87.31
461.238	81.31
461.458	86.31
461.678	78.31
461.898	79.31
462.118	86.31
462.338	92.31
462.558	92.31
462.777	105.31
462.997	84.31
463.217	76.31
463.437	90.31
463.657	77.31
463.876	77.31
464.096	99.31
464.316	98.31
464.536	93.31
464.755	96.31
464.975	107.31
465.195	149.31
465.414	148.31
465.634	85.31
465.854	83.31
466.073	83.31
466.293	80.31
466.512	83.31
466.732	87.31
466.951	95.31
467.171	83.31
467.391	96.31
467.61	86.31
467.829	96.31
468.049	105.31
468.268	122.31
468.488	83.31
468.707	97.31
468.927	76.31
469.146	75.31
469.365	82.31
469.585	85.31
469.804	93.31
470.023	102.31
470.243	95.31
470.462	88.31
470.681	92.31
470.901	89.31
471.12	96.31
471.339	83.31
471.558	95.31
471.777	87.31
471.997	104.31
472.216	130.31
472.435	184.31
472.654	106.31
472.873	97.31
473.092	76.31
473.311	75.31
473.53	97.31
473.749	84.31
473.968	98.31
474.187	99.31
474.406	92.31
474.625	92.31
474.844	87.31
475.063	90.31
475.282	76.31
475.501	77.31
475.72	83.31
475.939	103.31
476.158	86.31
476.377	92.31
476.596	88.31
476.814	87.31
477.033	92.31
477.252	79.31
477.471	87.31
477.69	87.31
477.908	91.31
478.127	75.31
478.346	90.31
478.564	96.31
478.783	99.31
479.002	92.31
479.22	96.31
479.439	85.31
479.658	112.31
479.876	78.31
480.095	90.31
480.313	87.31
480.532	97.31
480.751	96.31
480.969	135.31
481.188	291.31
481.406	185.31
481.624	98.31
481.843	84.31
482.061	99.31
482.28	80.31
482.498	89.31
482.717	89.31
482.935	89.31
483.153	92.31
483.372	80.31
483.59	95.31
483.808	92.31
484.027	97.31
484.245	87.31
484.463	91.31
484.681	93.31
484.9	90.31
485.118	92.31
485.336	95.31
485.554	93.31
485.772	110.31
485.99	112.31
486.209	105.31
486.427	107.31
486.645	119.31
486.863	109.31
487.081	99.31
487.299	105.31
487.517	100.31
487.735	95.31
487.953	101.31
488.171	99.31
488.389	77.31
488.607	111.31
488.825	90.31
489.043	95.31
489.261	93.31
489.479	106.31
489.696	91.31
489.914	92.31
490.132	98.31
490.35	72.31
490.568	81.31
490.786	89.31
491.003	80.31
491.221	79.31
491.439	84.31
491.657	90.31
491.874	81.31
492.092	89.31
492.31	99.31
492.527	75.31
492.745	97.31
492.963	77.31
493.18	81.31
493.398	85.31
493.615	90.31
493.833	87.31
494.05	88.31
494.268	82.31
494.485	90.31
494.703	90.31
494.92	77.31
495.138	81.31
495.355	94.31
495.573	86.31
495.79	90.31
496.008	104.31
496.225	89.31
496.442	87.31
496.66	91.31
496.877	88.31
497.094	85.31
497.312	81.31
497.529	90.31
497.746	91.31
497.963	88.31
498.181	81.31
498.398	76.31
498.615	99.31
498.832	107.31
499.049	97.31
499.267	88.31
499.484	90.31
499.701	93.31
499.918	101.31
500.135	99.31
500.352	77.31
500.569	99.31
500.786	96.31
501.003	93.31
501.22	104.31
501.437	93.31
501.654	103.31
501.871	109.31
502.088	86.31
502.305	89.31
502.522	101.31
502.739	90.31
502.956	94.31
503.172	92.31
503.389	80.31
503.606	91.31
503.823	88.31
504.04	97.31
504.256	95.31
504.473	81.31
504.69	91.31
504.907	95.31
505.123	84.31
505.34	91.31
505.557	84.31
505.773	89.31
505.99	93.31
506.207	72.31
506.423	89.31
506.64	90.31
506.856	89.31
507.073	80.31
507.289	94.31
507.506	97.31
507.722	89.31
507.939	91.31
508.155	110.31
508.372	78.31
508.588	95.31
508.805	89.31
509.021	91.31
509.238	88.31
509.454	90.31
509.67	84.31
509.887	111.31
510.103	117.31
510.319	195.31
510.536	649.31
510.752	1975.31
510.968	553.31
511.184	132.31
511.401	95.31
511.617	94.31
511.833	91.31
512.049	92.31
512.265	98.31
512.481	97.31
512.698	83.31
512.914	98.31
513.13	95.31
513.346	95.31
513.562	93.31
513.778	87.31
513.994	89.31
514.21	99.31
514.426	118.31
514.642	119.31
514.858	112.31
515.074	140.31
515.29	392.31
515.506	1241.31
515.721	451.31
515.937	138.31
516.153	107.31
516.369	95.31
