Data from Circ_1993_H10_HRD10591_00005.txt Node
Date: Wed Jan 03 11:44:03 EST 2024
User: Yrep
Spectrometer: HR+D1059
Trigger mode: 1
Integration Time (sec): 1.000000E-1
Scans to average: 1
Electric dark correction enabled: true
Nonlinearity correction enabled: false
Boxcar width: 0
XAxis mode: Wavelengths
Number of Pixels in Spectrum: 2048
>>>>>Begin Spectral Data<<<<<
223.165	-12.06
223.4	-12.06
223.635	-12.06
223.869	-20.06
224.104	-17.06
224.338	-25.06
224.573	-24.06
224.808	-11.06
225.042	1.94
225.277	1.94
225.511	-9.06
225.746	3.94
225.98	14.94
226.215	12.94
226.449	18.94
226.683	20.94
226.918	18.94
227.152	23.94
227.387	30.94
227.621	48.94
227.856	51.94
228.09	62.94
228.324	57.94
228.559	60.94
228.793	54.94
229.027	66.94
229.262	82.94
229.496	72.94
229.73	73.94
229.964	75.94
230.199	67.94
230.433	80.94
230.667	77.94
230.901	69.94
231.136	72.94
231.37	85.94
231.604	89.94
231.838	77.94
232.072	74.94
232.306	71.94
232.541	78.94
232.775	65.94
233.009	80.94
233.243	82.94
233.477	80.94
233.711	85.94
233.945	69.94
234.179	76.94
234.413	86.94
234.647	78.94
234.881	79.94
235.115	83.94
235.349	76.94
235.583	96.94
235.817	81.94
236.051	79.94
236.285	61.94
236.519	89.94
236.753	70.94
236.987	65.94
237.221	76.94
237.455	70.94
237.689	70.94
237.922	78.94
238.156	65.94
238.39	85.94
238.624	81.94
238.858	79.94
239.091	68.94
239.325	67.94
239.559	73.94
239.793	97.94
240.027	83.94
240.26	76.94
240.494	74.94
240.728	77.94
240.961	68.94
241.195	77.94
241.429	75.94
241.662	75.94
241.896	85.94
242.13	86.94
242.363	82.94
242.597	78.94
242.83	67.94
243.064	73.94
243.298	82.94
243.531	71.94
243.765	70.94
243.998	68.94
244.232	74.94
244.465	75.94
244.699	74.94
244.932	68.94
245.166	77.94
245.399	78.94
245.633	88.94
245.866	71.94
246.099	81.94
246.333	80.94
246.566	71.94
246.8	75.94
247.033	77.94
247.266	93.94
247.5	86.94
247.733	98.94
247.966	90.94
248.2	86.94
248.433	82.94
248.666	77.94
248.899	81.94
249.133	81.94
249.366	83.94
249.599	76.94
249.832	89.94
250.066	99.94
250.299	87.94
250.532	85.94
250.765	76.94
250.998	78.94
251.231	54.94
251.465	66.94
251.698	90.94
251.931	77.94
252.164	74.94
252.397	73.94
252.63	69.94
252.863	75.94
253.096	79.94
253.329	97.94
253.562	77.94
253.795	64.94
254.028	80.94
254.261	81.94
254.494	81.94
254.727	85.94
254.96	85.94
255.193	65.94
255.426	78.94
255.659	77.94
255.892	79.94
256.124	87.94
256.357	94.94
256.59	83.94
256.823	85.94
257.056	78.94
257.289	85.94
257.521	73.94
257.754	77.94
257.987	85.94
258.22	77.94
258.452	90.94
258.685	77.94
258.918	70.94
259.151	73.94
259.383	79.94
259.616	71.94
259.849	74.94
260.081	74.94
260.314	86.94
260.547	75.94
260.779	85.94
261.012	87.94
261.244	81.94
261.477	86.94
261.71	95.94
261.942	99.94
262.175	93.94
262.407	100.94
262.64	87.94
262.872	89.94
263.105	83.94
263.337	78.94
263.57	82.94
263.802	86.94
264.035	85.94
264.267	83.94
264.499	97.94
264.732	81.94
264.964	84.94
265.197	72.94
265.429	77.94
265.661	67.94
265.894	79.94
266.126	89.94
266.358	91.94
266.591	74.94
266.823	91.94
267.055	93.94
267.287	91.94
267.52	70.94
267.752	74.94
267.984	91.94
268.216	88.94
268.448	94.94
268.681	80.94
268.913	91.94
269.145	81.94
269.377	84.94
269.609	87.94
269.841	71.94
270.073	88.94
270.306	89.94
270.538	94.94
270.77	70.94
271.002	86.94
271.234	86.94
271.466	77.94
271.698	78.94
271.93	73.94
272.162	62.94
272.394	83.94
272.626	79.94
272.858	79.94
273.09	59.94
273.322	75.94
273.553	66.94
273.785	81.94
274.017	76.94
274.249	98.94
274.481	90.94
274.713	75.94
274.945	77.94
275.176	79.94
275.408	86.94
275.64	89.94
275.872	75.94
276.104	85.94
276.335	84.94
276.567	92.94
276.799	93.94
277.031	88.94
277.262	69.94
277.494	86.94
277.726	82.94
277.957	82.94
278.189	83.94
278.421	88.94
278.652	103.94
278.884	85.94
279.115	65.94
279.347	87.94
279.579	82.94
279.81	82.94
280.042	76.94
280.273	93.94
280.505	96.94
280.736	95.94
280.968	79.94
281.199	85.94
281.431	96.94
281.662	78.94
281.894	86.94
282.125	85.94
282.356	97.94
282.588	107.94
282.819	101.94
283.051	91.94
283.282	93.94
283.513	98.94
283.745	97.94
283.976	97.94
284.207	82.94
284.439	91.94
284.67	91.94
284.901	88.94
285.132	85.94
285.364	70.94
285.595	89.94
285.826	81.94
286.057	81.94
286.288	82.94
286.52	93.94
286.751	93.94
286.982	84.94
287.213	81.94
287.444	89.94
287.675	73.94
287.906	80.94
288.138	85.94
288.369	83.94
288.6	94.94
288.831	94.94
289.062	81.94
289.293	86.94
289.524	75.94
289.755	92.94
289.986	86.94
290.217	90.94
290.448	83.94
290.679	83.94
290.91	83.94
291.141	86.94
291.371	98.94
291.602	92.94
291.833	86.94
292.064	94.94
292.295	85.94
292.526	94.94
292.757	84.94
292.987	95.94
293.218	96.94
293.449	78.94
293.68	82.94
293.91	76.94
294.141	93.94
294.372	92.94
294.603	85.94
294.833	95.94
295.064	85.94
295.295	91.94
295.525	82.94
295.756	108.94
295.987	85.94
296.217	109.94
296.448	107.94
296.679	97.94
296.909	90.94
297.14	88.94
297.37	89.94
297.601	82.94
297.831	81.94
298.062	84.94
298.292	95.94
298.523	91.94
298.753	92.94
298.984	99.94
299.214	87.94
299.445	101.94
299.675	90.94
299.905	88.94
300.136	75.94
300.366	93.94
300.597	98.94
300.827	95.94
301.057	94.94
301.288	101.94
301.518	93.94
301.748	83.94
301.979	101.94
302.209	90.94
302.439	79.94
302.669	85.94
302.9	84.94
303.13	85.94
303.36	94.94
303.59	96.94
303.82	90.94
304.051	96.94
304.281	75.94
304.511	85.94
304.741	93.94
304.971	96.94
305.201	100.94
305.431	96.94
305.661	83.94
305.891	65.94
306.121	97.94
306.352	107.94
306.582	100.94
306.812	93.94
307.042	88.94
307.272	95.94
307.502	97.94
307.731	97.94
307.961	71.94
308.191	93.94
308.421	93.94
308.651	93.94
308.881	86.94
309.111	90.94
309.341	100.94
309.571	91.94
309.8	105.94
310.03	93.94
310.26	98.94
310.49	94.94
310.72	96.94
310.949	91.94
311.179	89.94
311.409	80.94
311.639	84.94
311.868	98.94
312.098	111.94
312.328	94.94
312.557	96.94
312.787	103.94
313.017	105.94
313.246	85.94
313.476	99.94
313.706	88.94
313.935	80.94
314.165	80.94
314.394	101.94
314.624	103.94
314.853	96.94
315.083	81.94
315.312	94.94
315.542	89.94
315.771	86.94
316.001	79.94
316.23	97.94
316.46	102.94
316.689	93.94
316.919	100.94
317.148	103.94
317.377	106.94
317.607	91.94
317.836	94.94
318.065	95.94
318.295	86.94
318.524	88.94
318.753	106.94
318.983	97.94
319.212	102.94
319.441	95.94
319.67	98.94
319.9	83.94
320.129	82.94
320.358	80.94
320.587	87.94
320.816	95.94
321.046	91.94
321.275	85.94
321.504	93.94
321.733	101.94
321.962	87.94
322.191	100.94
322.42	101.94
322.649	97.94
322.878	95.94
323.108	109.94
323.337	116.94
323.566	107.94
323.795	126.94
324.024	161.94
324.253	269.94
324.482	540.94
324.71	1077.94
324.939	1450.94
325.168	553.94
325.397	172.94
325.626	121.94
325.855	105.94
326.084	108.94
326.313	111.94
326.542	141.94
326.77	189.94
326.999	313.94
327.228	630.94
327.457	1136.94
327.686	900.94
327.914	268.94
328.143	155.94
328.372	113.94
328.6	97.94
328.829	102.94
329.058	107.94
329.287	112.94
329.515	104.94
329.744	97.94
329.972	96.94
330.201	115.94
330.43	124.94
330.658	111.94
330.887	114.94
331.115	115.94
331.344	79.94
331.572	91.94
331.801	93.94
332.03	93.94
332.258	93.94
332.486	99.94
332.715	75.94
332.943	108.94
333.172	101.94
333.4	90.94
333.629	92.94
333.857	89.94
334.085	110.94
334.314	115.94
334.542	119.94
334.771	122.94
334.999	102.94
335.227	94.94
335.455	107.94
335.684	91.94
335.912	97.94
336.14	107.94
336.369	109.94
336.597	87.94
336.825	93.94
337.053	77.94
337.281	84.94
337.51	89.94
337.738	109.94
337.966	93.94
338.194	109.94
338.422	89.94
338.65	91.94
338.878	102.94
339.106	89.94
339.334	93.94
339.562	75.94
339.79	93.94
340.018	82.94
340.246	94.94
340.474	91.94
340.702	107.94
340.93	88.94
341.158	89.94
341.386	86.94
341.614	96.94
341.842	88.94
342.07	91.94
342.298	91.94
342.526	81.94
342.754	93.94
342.981	79.94
343.209	83.94
343.437	100.94
343.665	87.94
343.893	81.94
344.12	103.94
344.348	103.94
344.576	84.94
344.804	88.94
345.031	99.94
345.259	107.94
345.487	101.94
345.714	85.94
345.942	92.94
346.17	89.94
346.397	93.94
346.625	95.94
346.853	94.94
347.08	100.94
347.308	82.94
347.535	95.94
347.763	106.94
347.99	111.94
348.218	109.94
348.445	89.94
348.673	100.94
348.9	93.94
349.128	90.94
349.355	91.94
349.583	89.94
349.81	92.94
350.037	98.94
350.265	91.94
350.492	93.94
350.72	100.94
350.947	97.94
351.174	114.94
351.402	98.94
351.629	102.94
351.856	107.94
352.083	99.94
352.311	102.94
352.538	95.94
352.765	115.94
352.992	111.94
353.22	105.94
353.447	106.94
353.674	110.94
353.901	101.94
354.128	91.94
354.355	97.94
354.583	113.94
354.81	102.94
355.037	103.94
355.264	101.94
355.491	94.94
355.718	100.94
355.945	98.94
356.172	105.94
356.399	110.94
356.626	109.94
356.853	104.94
357.08	105.94
357.307	95.94
357.534	99.94
357.761	105.94
357.988	96.94
358.215	109.94
358.441	117.94
358.668	112.94
358.895	107.94
359.122	106.94
359.349	89.94
359.576	92.94
359.802	88.94
360.029	104.94
360.256	102.94
360.483	94.94
360.709	85.94
360.936	98.94
361.163	89.94
361.39	95.94
361.616	96.94
361.843	97.94
362.07	93.94
362.296	96.94
362.523	87.94
362.749	102.94
362.976	83.94
363.203	96.94
363.429	91.94
363.656	92.94
363.882	78.94
364.109	89.94
364.335	91.94
364.562	107.94
364.788	97.94
365.015	103.94
365.241	89.94
365.468	104.94
365.694	103.94
365.92	82.94
366.147	92.94
366.373	90.94
366.599	94.94
366.826	87.94
367.052	95.94
367.278	104.94
367.505	81.94
367.731	86.94
367.957	77.94
368.184	84.94
368.41	99.94
368.636	102.94
368.862	111.94
369.089	113.94
369.315	93.94
369.541	92.94
369.767	80.94
369.993	98.94
370.219	87.94
370.445	87.94
370.672	84.94
370.898	89.94
371.124	81.94
371.35	93.94
371.576	106.94
371.802	94.94
372.028	99.94
372.254	98.94
372.48	92.94
372.706	78.94
372.932	94.94
373.158	84.94
373.384	100.94
373.61	81.94
373.835	103.94
374.061	98.94
374.287	87.94
374.513	82.94
374.739	107.94
374.965	107.94
375.191	110.94
375.416	100.94
375.642	108.94
375.868	89.94
376.094	99.94
376.319	99.94
376.545	101.94
376.771	81.94
376.997	99.94
377.222	91.94
377.448	93.94
377.674	114.94
377.899	96.94
378.125	104.94
378.35	97.94
378.576	111.94
378.802	103.94
379.027	104.94
379.253	105.94
379.478	110.94
379.704	99.94
379.929	114.94
380.155	121.94
380.38	123.94
380.606	120.94
380.831	117.94
381.057	127.94
381.282	131.94
381.507	112.94
381.733	129.94
381.958	128.94
382.184	125.94
382.409	126.94
382.634	134.94
382.86	133.94
383.085	128.94
383.31	141.94
383.535	123.94
383.761	144.94
383.986	139.94
384.211	159.94
384.436	146.94
384.662	164.94
384.887	176.94
385.112	188.94
385.337	177.94
385.562	188.94
385.787	177.94
386.013	178.94
386.238	185.94
386.463	164.94
386.688	168.94
386.913	182.94
387.138	190.94
387.363	167.94
387.588	157.94
387.813	147.94
388.038	188.94
388.263	228.94
388.488	210.94
388.713	127.94
388.938	97.94
389.163	103.94
389.387	89.94
389.612	101.94
389.837	89.94
390.062	100.94
390.287	97.94
390.512	92.94
390.736	98.94
390.961	88.94
391.186	96.94
391.411	103.94
391.636	101.94
391.86	100.94
392.085	94.94
392.31	78.94
392.534	101.94
392.759	94.94
392.984	110.94
393.208	149.94
393.433	252.94
393.658	174.94
393.882	89.94
394.107	84.94
394.331	101.94
394.556	88.94
394.78	90.94
395.005	85.94
395.229	84.94
395.454	86.94
395.678	77.94
395.903	86.94
396.127	100.94
396.352	103.94
396.576	98.94
396.801	138.94
397.025	155.94
397.249	117.94
397.474	99.94
397.698	95.94
397.922	90.94
398.147	96.94
398.371	99.94
398.595	83.94
398.82	91.94
399.044	89.94
399.268	76.94
399.492	83.94
399.717	89.94
399.941	87.94
400.165	91.94
400.389	69.94
400.613	81.94
400.837	78.94
401.062	100.94
401.286	98.94
401.51	105.94
401.734	100.94
401.958	103.94
402.182	108.94
402.406	120.94
402.63	86.94
402.854	89.94
403.078	87.94
403.302	100.94
403.526	94.94
403.75	89.94
403.974	73.94
404.198	87.94
404.422	81.94
404.645	98.94
404.869	92.94
405.093	95.94
405.317	114.94
405.541	85.94
405.765	91.94
405.988	107.94
406.212	134.94
406.436	173.94
406.66	122.94
406.883	100.94
407.107	93.94
407.331	94.94
407.555	97.94
407.778	110.94
408.002	89.94
408.226	76.94
408.449	84.94
408.673	98.94
408.896	98.94
409.12	95.94
409.344	108.94
409.567	96.94
409.791	98.94
410.014	106.94
410.238	97.94
410.461	95.94
410.685	98.94
410.908	102.94
411.132	108.94
411.355	103.94
411.578	99.94
411.802	97.94
412.025	94.94
412.249	96.94
412.472	97.94
412.695	116.94
412.919	87.94
413.142	98.94
413.365	106.94
413.589	95.94
413.812	96.94
414.035	98.94
414.258	108.94
414.482	102.94
414.705	90.94
414.928	92.94
415.151	90.94
415.374	104.94
415.597	103.94
415.821	105.94
416.044	103.94
416.267	83.94
416.49	95.94
416.713	97.94
416.936	98.94
417.159	94.94
417.382	95.94
417.605	106.94
417.828	95.94
418.051	97.94
418.274	89.94
418.497	101.94
418.72	88.94
418.943	87.94
419.166	92.94
419.389	100.94
419.611	99.94
419.834	81.94
420.057	92.94
420.28	77.94
420.503	99.94
420.726	97.94
420.948	103.94
421.171	109.94
421.394	102.94
421.617	104.94
421.839	93.94
422.062	83.94
422.285	99.94
422.507	112.94
422.73	162.94
422.953	137.94
423.175	107.94
423.398	96.94
423.621	98.94
423.843	82.94
424.066	89.94
424.288	78.94
424.511	75.94
424.733	84.94
424.956	94.94
425.178	95.94
425.401	103.94
425.623	105.94
425.846	91.94
426.068	103.94
426.291	94.94
426.513	94.94
426.735	93.94
426.958	89.94
427.18	94.94
427.402	107.94
427.625	119.94
427.847	113.94
428.069	112.94
428.292	87.94
428.514	89.94
428.736	75.94
428.958	86.94
429.181	108.94
429.403	95.94
429.625	81.94
429.847	84.94
430.069	94.94
430.292	93.94
430.514	75.94
430.736	94.94
430.958	96.94
431.18	80.94
431.402	91.94
431.624	94.94
431.846	83.94
432.068	73.94
432.29	84.94
432.512	82.94
432.734	85.94
432.956	90.94
433.178	89.94
433.4	90.94
433.622	109.94
433.844	91.94
434.066	79.94
434.287	78.94
434.509	98.94
434.731	93.94
434.953	82.94
435.175	79.94
435.397	88.94
435.618	93.94
435.84	107.94
436.062	108.94
436.284	106.94
436.505	103.94
436.727	86.94
436.949	94.94
437.17	93.94
437.392	86.94
437.614	86.94
437.835	87.94
438.057	94.94
438.278	118.94
438.5	105.94
438.721	101.94
438.943	107.94
439.165	75.94
439.386	83.94
439.608	87.94
439.829	93.94
440.05	108.94
440.272	119.94
440.493	98.94
440.715	96.94
440.936	97.94
441.158	96.94
441.379	92.94
441.6	97.94
441.822	84.94
442.043	85.94
442.264	97.94
442.486	89.94
442.707	98.94
442.928	84.94
443.149	110.94
443.371	106.94
443.592	106.94
443.813	94.94
444.034	102.94
444.255	78.94
444.476	96.94
444.698	84.94
444.919	91.94
445.14	127.94
445.361	118.94
445.582	113.94
445.803	108.94
446.024	101.94
446.245	111.94
446.466	103.94
446.687	92.94
446.908	91.94
447.129	87.94
447.35	90.94
447.571	103.94
447.792	92.94
448.013	111.94
448.234	109.94
448.455	88.94
448.675	101.94
448.896	98.94
449.117	100.94
449.338	97.94
449.559	111.94
449.779	108.94
450	99.94
450.221	81.94
450.442	86.94
450.662	94.94
450.883	100.94
451.104	97.94
451.324	84.94
451.545	94.94
451.766	93.94
451.986	97.94
452.207	78.94
452.428	89.94
452.648	109.94
452.869	104.94
453.089	106.94
453.31	102.94
453.53	94.94
453.751	106.94
453.971	94.94
454.192	94.94
454.412	86.94
454.633	76.94
454.853	81.94
455.073	87.94
455.294	80.94
455.514	93.94
455.734	90.94
455.955	105.94
456.175	80.94
456.395	81.94
456.616	73.94
456.836	79.94
457.056	94.94
457.276	95.94
457.497	90.94
457.717	88.94
457.937	88.94
458.157	92.94
458.377	102.94
458.598	102.94
458.818	117.94
459.038	138.94
459.258	86.94
459.478	94.94
459.698	89.94
459.918	76.94
460.138	84.94
460.358	82.94
460.578	86.94
460.798	90.94
461.018	101.94
461.238	82.94
461.458	88.94
461.678	94.94
461.898	97.94
462.118	82.94
462.338	92.94
462.558	80.94
462.777	98.94
462.997	76.94
463.217	78.94
463.437	82.94
463.657	86.94
463.876	88.94
464.096	81.94
464.316	86.94
464.536	77.94
464.755	94.94
464.975	103.94
465.195	114.94
465.414	112.94
465.634	93.94
465.854	87.94
466.073	89.94
466.293	81.94
466.512	83.94
466.732	96.94
466.951	89.94
467.171	81.94
467.391	92.94
467.61	104.94
467.829	78.94
468.049	99.94
468.268	79.94
468.488	93.94
468.707	91.94
468.927	86.94
469.146	69.94
469.365	75.94
469.585	101.94
469.804	100.94
470.023	88.94
470.243	83.94
470.462	97.94
470.681	99.94
470.901	90.94
471.12	81.94
471.339	90.94
471.558	100.94
471.777	77.94
471.997	95.94
472.216	105.94
472.435	134.94
472.654	89.94
472.873	73.94
473.092	96.94
473.311	79.94
473.53	81.94
473.749	88.94
473.968	91.94
474.187	102.94
474.406	94.94
474.625	95.94
474.844	75.94
475.063	77.94
475.282	75.94
475.501	92.94
475.72	94.94
475.939	81.94
476.158	91.94
476.377	97.94
476.596	98.94
476.814	84.94
477.033	85.94
477.252	88.94
477.471	80.94
477.69	77.94
477.908	82.94
478.127	81.94
478.346	85.94
478.564	83.94
478.783	97.94
479.002	77.94
479.22	86.94
479.439	91.94
479.658	100.94
479.876	88.94
480.095	93.94
480.313	106.94
480.532	87.94
480.751	90.94
480.969	91.94
481.188	144.94
481.406	132.94
481.624	98.94
481.843	90.94
482.061	97.94
482.28	94.94
482.498	85.94
482.717	85.94
482.935	85.94
483.153	92.94
483.372	85.94
483.59	93.94
483.808	89.94
484.027	97.94
484.245	91.94
484.463	94.94
484.681	112.94
484.9	92.94
485.118	113.94
485.336	102.94
485.554	98.94
485.772	102.94
485.99	102.94
486.209	110.94
486.427	92.94
486.645	116.94
486.863	120.94
487.081	103.94
487.299	113.94
487.517	93.94
487.735	103.94
487.953	95.94
488.171	96.94
488.389	93.94
488.607	92.94
488.825	91.94
489.043	91.94
489.261	94.94
489.479	89.94
489.696	89.94
489.914	80.94
490.132	82.94
490.35	89.94
490.568	96.94
490.786	94.94
491.003	81.94
491.221	107.94
491.439	81.94
491.657	86.94
491.874	89.94
492.092	84.94
492.31	94.94
492.527	92.94
492.745	96.94
492.963	86.94
493.18	89.94
493.398	75.94
493.615	101.94
493.833	103.94
494.05	79.94
494.268	92.94
494.485	84.94
494.703	89.94
494.92	94.94
495.138	76.94
495.355	92.94
495.573	97.94
495.79	95.94
496.008	113.94
496.225	103.94
496.442	90.94
496.66	103.94
496.877	100.94
497.094	102.94
497.312	90.94
497.529	105.94
497.746	101.94
497.963	77.94
498.181	85.94
498.398	102.94
498.615	98.94
498.832	103.94
499.049	98.94
499.267	98.94
499.484	84.94
499.701	86.94
499.918	93.94
500.135	100.94
500.352	92.94
500.569	93.94
500.786	78.94
501.003	88.94
501.22	88.94
501.437	101.94
501.654	92.94
501.871	102.94
502.088	102.94
502.305	108.94
502.522	86.94
502.739	92.94
502.956	95.94
503.172	77.94
503.389	98.94
503.606	96.94
503.823	102.94
504.04	92.94
504.256	83.94
504.473	91.94
504.69	81.94
504.907	98.94
505.123	86.94
505.34	85.94
505.557	96.94
505.773	94.94
505.99	89.94
506.207	84.94
506.423	83.94
506.64	96.94
506.856	99.94
507.073	92.94
507.289	88.94
507.506	94.94
507.722	106.94
507.939	105.94
508.155	102.94
508.372	90.94
508.588	87.94
508.805	102.94
509.021	97.94
509.238	85.94
509.454	91.94
509.67	107.94
509.887	94.94
510.103	100.94
510.319	167.94
510.536	491.94
510.752	1411.94
510.968	418.94
511.184	133.94
511.401	95.94
511.617	91.94
511.833	100.94
512.049	99.94
512.265	85.94
512.481	83.94
512.698	106.94
512.914	94.94
513.13	97.94
513.346	106.94
513.562	96.94
513.778	101.94
513.994	96.94
514.21	105.94
514.426	89.94
514.642	121.94
514.858	114.94
515.074	129.94
