Data from Circ_1993_H10_HRD10591_00040.txt Node
Date: Wed Jan 03 11:44:10 EST 2024
User: Yrep
Spectrometer: HR+D1059
Trigger mode: 1
Integration Time (sec): 1.000000E-1
Scans to average: 1
Electric dark correction enabled: true
Nonlinearity correction enabled: false
Boxcar width: 0
XAxis mode: Wavelengths
Number of Pixels in Spectrum: 2048
>>>>>Begin Spectral Data<<<<<
223.165	-20.12
223.4	-20.12
223.635	-20.12
223.869	-22.12
224.104	-25.12
224.338	-22.12
224.573	-20.12
224.808	-13.12
225.042	-13.12
225.277	-17.12
225.511	0.88
225.746	1.88
225.98	17.88
226.215	13.88
226.449	22.88
226.683	27.88
226.918	35.88
227.152	31.88
227.387	31.88
227.621	41.88
227.856	34.88
228.09	50.88
228.324	55.88
228.559	44.88
228.793	57.88
229.027	49.88
229.262	81.88
229.496	62.88
229.73	88.88
229.964	83.88
230.199	74.88
230.433	69.88
230.667	90.88
230.901	86.88
231.136	77.88
231.37	72.88
231.604	86.88
231.838	74.88
232.072	94.88
232.306	85.88
232.541	81.88
232.775	95.88
233.009	80.88
233.243	81.88
233.477	80.88
233.711	85.88
233.945	86.88
234.179	92.88
234.413	82.88
234.647	69.88
234.881	83.88
235.115	87.88
235.349	71.88
235.583	79.88
235.817	83.88
236.051	87.88
236.285	85.88
236.519	83.88
236.753	83.88
236.987	88.88
237.221	98.88
237.455	77.88
237.689	82.88
237.922	79.88
238.156	97.88
238.39	68.88
238.624	61.88
238.858	82.88
239.091	87.88
239.325	88.88
239.559	81.88
239.793	80.88
240.027	86.88
240.26	87.88
240.494	73.88
240.728	82.88
240.961	84.88
241.195	77.88
241.429	93.88
241.662	78.88
241.896	69.88
242.13	80.88
242.363	88.88
242.597	89.88
242.83	90.88
243.064	78.88
243.298	70.88
243.531	96.88
243.765	90.88
243.998	77.88
244.232	79.88
244.465	87.88
244.699	93.88
244.932	91.88
245.166	91.88
245.399	86.88
245.633	79.88
245.866	79.88
246.099	89.88
246.333	81.88
246.566	85.88
246.8	86.88
247.033	93.88
247.266	94.88
247.5	77.88
247.733	81.88
247.966	76.88
248.2	96.88
248.433	83.88
248.666	94.88
248.899	87.88
249.133	98.88
249.366	104.88
249.599	95.88
249.832	94.88
250.066	86.88
250.299	83.88
250.532	94.88
250.765	89.88
250.998	73.88
251.231	85.88
251.465	97.88
251.698	70.88
251.931	82.88
252.164	100.88
252.397	72.88
252.63	97.88
252.863	90.88
253.096	85.88
253.329	80.88
253.562	104.88
253.795	95.88
254.028	81.88
254.261	79.88
254.494	66.88
254.727	78.88
254.96	85.88
255.193	81.88
255.426	83.88
255.659	85.88
255.892	80.88
256.124	79.88
256.357	81.88
256.59	78.88
256.823	79.88
257.056	85.88
257.289	78.88
257.521	89.88
257.754	88.88
257.987	90.88
258.22	95.88
258.452	81.88
258.685	90.88
258.918	99.88
259.151	79.88
259.383	80.88
259.616	77.88
259.849	99.88
260.081	88.88
260.314	76.88
260.547	74.88
260.779	81.88
261.012	85.88
261.244	80.88
261.477	104.88
261.71	83.88
261.942	100.88
262.175	105.88
262.407	93.88
262.64	89.88
262.872	87.88
263.105	73.88
263.337	70.88
263.57	97.88
263.802	79.88
264.035	84.88
264.267	99.88
264.499	80.88
264.732	90.88
264.964	90.88
265.197	85.88
265.429	84.88
265.661	85.88
265.894	89.88
266.126	97.88
266.358	91.88
266.591	93.88
266.823	90.88
267.055	76.88
267.287	85.88
267.52	93.88
267.752	76.88
267.984	93.88
268.216	80.88
268.448	92.88
268.681	79.88
268.913	90.88
269.145	98.88
269.377	97.88
269.609	77.88
269.841	90.88
270.073	80.88
270.306	103.88
270.538	75.88
270.77	94.88
271.002	95.88
271.234	83.88
271.466	81.88
271.698	82.88
271.93	98.88
272.162	82.88
272.394	87.88
272.626	83.88
272.858	81.88
273.09	80.88
273.322	84.88
273.553	91.88
273.785	93.88
274.017	86.88
274.249	84.88
274.481	98.88
274.713	80.88
274.945	92.88
275.176	84.88
275.408	95.88
275.64	89.88
275.872	77.88
276.104	79.88
276.335	89.88
276.567	99.88
276.799	100.88
277.031	97.88
277.262	101.88
277.494	104.88
277.726	101.88
277.957	90.88
278.189	112.88
278.421	82.88
278.652	90.88
278.884	91.88
279.115	98.88
279.347	96.88
279.579	93.88
279.81	96.88
280.042	88.88
280.273	104.88
280.505	97.88
280.736	97.88
280.968	78.88
281.199	71.88
281.431	79.88
281.662	93.88
281.894	100.88
282.125	100.88
282.356	115.88
282.588	109.88
282.819	107.88
283.051	92.88
283.282	87.88
283.513	104.88
283.745	97.88
283.976	88.88
284.207	87.88
284.439	83.88
284.67	85.88
284.901	94.88
285.132	98.88
285.364	102.88
285.595	94.88
285.826	92.88
286.057	88.88
286.288	90.88
286.52	84.88
286.751	88.88
286.982	104.88
287.213	90.88
287.444	96.88
287.675	95.88
287.906	104.88
288.138	103.88
288.369	81.88
288.6	106.88
288.831	87.88
289.062	84.88
289.293	97.88
289.524	93.88
289.755	93.88
289.986	91.88
290.217	92.88
290.448	101.88
290.679	88.88
290.91	93.88
291.141	90.88
291.371	103.88
291.602	90.88
291.833	85.88
292.064	99.88
292.295	96.88
292.526	92.88
292.757	87.88
292.987	93.88
293.218	82.88
293.449	95.88
293.68	101.88
293.91	95.88
294.141	97.88
294.372	92.88
294.603	96.88
294.833	98.88
295.064	94.88
295.295	102.88
295.525	78.88
295.756	89.88
295.987	108.88
296.217	111.88
296.448	104.88
296.679	98.88
296.909	93.88
297.14	98.88
297.37	89.88
297.601	100.88
297.831	102.88
298.062	97.88
298.292	83.88
298.523	104.88
298.753	90.88
298.984	98.88
299.214	103.88
299.445	97.88
299.675	95.88
299.905	111.88
300.136	95.88
300.366	89.88
300.597	93.88
300.827	79.88
301.057	88.88
301.288	100.88
301.518	91.88
301.748	101.88
301.979	110.88
302.209	89.88
302.439	77.88
302.669	91.88
302.9	90.88
303.13	79.88
303.36	106.88
303.59	88.88
303.82	80.88
304.051	90.88
304.281	104.88
304.511	103.88
304.741	91.88
304.971	100.88
305.201	74.88
305.431	109.88
305.661	96.88
305.891	92.88
306.121	92.88
306.352	97.88
306.582	101.88
306.812	109.88
307.042	96.88
307.272	90.88
307.502	109.88
307.731	101.88
307.961	104.88
308.191	97.88
308.421	87.88
308.651	74.88
308.881	105.88
309.111	112.88
309.341	93.88
309.571	105.88
309.8	84.88
310.03	101.88
310.26	100.88
310.49	99.88
310.72	96.88
310.949	96.88
311.179	101.88
311.409	101.88
311.639	94.88
311.868	97.88
312.098	100.88
312.328	96.88
312.557	98.88
312.787	95.88
313.017	88.88
313.246	93.88
313.476	86.88
313.706	91.88
313.935	85.88
314.165	100.88
314.394	100.88
314.624	111.88
314.853	104.88
315.083	97.88
315.312	101.88
315.542	94.88
315.771	100.88
316.001	73.88
316.23	92.88
316.46	80.88
316.689	87.88
316.919	85.88
317.148	101.88
317.377	103.88
317.607	99.88
317.836	90.88
318.065	92.88
318.295	95.88
318.524	109.88
318.753	95.88
318.983	99.88
319.212	106.88
319.441	110.88
319.67	102.88
319.9	100.88
320.129	83.88
320.358	94.88
320.587	89.88
320.816	108.88
321.046	107.88
321.275	105.88
321.504	99.88
321.733	97.88
321.962	112.88
322.191	110.88
322.42	111.88
322.649	103.88
322.878	116.88
323.108	111.88
323.337	105.88
323.566	125.88
323.795	133.88
324.024	166.88
324.253	283.88
324.482	581.88
324.71	1153.88
324.939	1519.88
325.168	571.88
325.397	192.88
325.626	141.88
325.855	114.88
326.084	118.88
326.313	121.88
326.542	126.88
326.77	179.88
326.999	346.88
327.228	673.88
327.457	1177.88
327.686	953.88
327.914	281.88
328.143	168.88
328.372	157.88
328.6	126.88
328.829	112.88
329.058	116.88
329.287	119.88
329.515	124.88
329.744	99.88
329.972	112.88
330.201	135.88
330.43	162.88
330.658	125.88
330.887	126.88
331.115	108.88
331.344	101.88
331.572	89.88
331.801	108.88
332.03	100.88
332.258	104.88
332.486	99.88
332.715	97.88
332.943	86.88
333.172	96.88
333.4	97.88
333.629	99.88
333.857	113.88
334.085	101.88
334.314	150.88
334.542	192.88
334.771	180.88
334.999	111.88
335.227	91.88
335.455	119.88
335.684	97.88
335.912	89.88
336.14	93.88
336.369	97.88
336.597	84.88
336.825	108.88
337.053	92.88
337.281	93.88
337.51	87.88
337.738	98.88
337.966	87.88
338.194	91.88
338.422	97.88
338.65	94.88
338.878	93.88
339.106	104.88
339.334	99.88
339.562	100.88
339.79	99.88
340.018	105.88
340.246	79.88
340.474	92.88
340.702	88.88
340.93	97.88
341.158	105.88
341.386	84.88
341.614	109.88
341.842	91.88
342.07	92.88
342.298	102.88
342.526	93.88
342.754	98.88
342.981	88.88
343.209	93.88
343.437	100.88
343.665	93.88
343.893	102.88
344.12	85.88
344.348	100.88
344.576	104.88
344.804	104.88
345.031	82.88
345.259	89.88
345.487	94.88
345.714	87.88
345.942	79.88
346.17	99.88
346.397	85.88
346.625	96.88
346.853	98.88
347.08	93.88
347.308	96.88
347.535	102.88
347.763	99.88
347.99	101.88
348.218	102.88
348.445	102.88
348.673	98.88
348.9	103.88
349.128	103.88
349.355	92.88
349.583	98.88
349.81	105.88
350.037	104.88
350.265	93.88
350.492	99.88
350.72	91.88
350.947	89.88
351.174	105.88
351.402	113.88
351.629	94.88
351.856	99.88
352.083	106.88
352.311	98.88
352.538	95.88
352.765	117.88
352.992	110.88
353.22	100.88
353.447	109.88
353.674	103.88
353.901	109.88
354.128	104.88
354.355	101.88
354.583	113.88
354.81	112.88
355.037	103.88
355.264	95.88
355.491	103.88
355.718	98.88
355.945	87.88
356.172	106.88
356.399	108.88
356.626	93.88
356.853	101.88
357.08	97.88
357.307	96.88
357.534	98.88
357.761	96.88
357.988	111.88
358.215	96.88
358.441	96.88
358.668	107.88
358.895	91.88
359.122	95.88
359.349	88.88
359.576	93.88
359.802	93.88
360.029	109.88
360.256	114.88
360.483	100.88
360.709	98.88
360.936	99.88
361.163	97.88
361.39	83.88
361.616	100.88
361.843	92.88
362.07	89.88
362.296	103.88
362.523	92.88
362.749	102.88
362.976	86.88
363.203	103.88
363.429	95.88
363.656	102.88
363.882	88.88
364.109	90.88
364.335	104.88
364.562	101.88
364.788	97.88
365.015	78.88
365.241	96.88
365.468	102.88
365.694	95.88
365.92	86.88
366.147	82.88
366.373	93.88
366.599	95.88
366.826	87.88
367.052	90.88
367.278	102.88
367.505	94.88
367.731	109.88
367.957	88.88
368.184	101.88
368.41	101.88
368.636	119.88
368.862	111.88
369.089	107.88
369.315	96.88
369.541	83.88
369.767	100.88
369.993	111.88
370.219	99.88
370.445	96.88
370.672	105.88
370.898	107.88
371.124	92.88
371.35	89.88
371.576	101.88
371.802	86.88
372.028	97.88
372.254	101.88
372.48	90.88
372.706	93.88
372.932	95.88
373.158	88.88
373.384	77.88
373.61	85.88
373.835	95.88
374.061	99.88
374.287	96.88
374.513	97.88
374.739	94.88
374.965	91.88
375.191	91.88
375.416	94.88
375.642	89.88
375.868	95.88
376.094	105.88
376.319	98.88
376.545	77.88
376.771	93.88
376.997	98.88
377.222	87.88
377.448	101.88
377.674	91.88
377.899	104.88
378.125	104.88
378.35	93.88
378.576	87.88
378.802	113.88
379.027	88.88
379.253	109.88
379.478	95.88
379.704	89.88
379.929	91.88
380.155	111.88
380.38	96.88
380.606	99.88
380.831	102.88
381.057	121.88
381.282	87.88
381.507	106.88
381.733	103.88
381.958	115.88
382.184	112.88
382.409	108.88
382.634	99.88
382.86	110.88
383.085	109.88
383.31	102.88
383.535	106.88
383.761	102.88
383.986	102.88
384.211	112.88
384.436	113.88
384.662	116.88
384.887	113.88
385.112	110.88
385.337	117.88
385.562	122.88
385.787	114.88
386.013	128.88
386.238	144.88
386.463	117.88
386.688	121.88
386.913	117.88
387.138	114.88
387.363	106.88
387.588	117.88
387.813	115.88
388.038	120.88
388.263	117.88
388.488	123.88
388.713	96.88
388.938	95.88
389.163	101.88
389.387	104.88
389.612	92.88
389.837	82.88
390.062	103.88
390.287	96.88
390.512	96.88
390.736	96.88
390.961	89.88
391.186	96.88
391.411	90.88
391.636	99.88
391.86	87.88
392.085	69.88
392.31	89.88
392.534	95.88
392.759	98.88
392.984	105.88
393.208	109.88
393.433	148.88
393.658	129.88
393.882	101.88
394.107	86.88
394.331	107.88
394.556	100.88
394.78	89.88
395.005	62.88
395.229	79.88
395.454	82.88
395.678	82.88
395.903	107.88
396.127	97.88
396.352	101.88
396.576	104.88
396.801	113.88
397.025	109.88
397.249	110.88
397.474	98.88
397.698	83.88
397.922	101.88
398.147	88.88
398.371	85.88
398.595	86.88
398.82	98.88
399.044	82.88
399.268	86.88
399.492	97.88
399.717	92.88
399.941	93.88
400.165	100.88
400.389	99.88
400.613	89.88
400.837	86.88
401.062	90.88
401.286	86.88
401.51	93.88
401.734	85.88
401.958	90.88
402.182	114.88
402.406	134.88
402.63	116.88
402.854	91.88
403.078	102.88
403.302	94.88
403.526	102.88
403.75	86.88
403.974	88.88
404.198	82.88
404.422	85.88
404.645	81.88
404.869	82.88
405.093	95.88
405.317	111.88
405.541	103.88
405.765	94.88
405.988	115.88
406.212	147.88
406.436	170.88
406.66	137.88
406.883	89.88
407.107	99.88
407.331	84.88
407.555	81.88
407.778	91.88
408.002	98.88
408.226	99.88
408.449	107.88
408.673	82.88
408.896	90.88
409.12	97.88
409.344	102.88
409.567	101.88
409.791	102.88
410.014	86.88
410.238	105.88
410.461	89.88
410.685	100.88
410.908	125.88
411.132	106.88
411.355	88.88
411.578	94.88
411.802	94.88
412.025	102.88
412.249	88.88
412.472	84.88
412.695	98.88
412.919	94.88
413.142	93.88
413.365	96.88
413.589	93.88
413.812	95.88
414.035	86.88
414.258	102.88
414.482	101.88
414.705	96.88
414.928	90.88
415.151	91.88
415.374	101.88
415.597	89.88
415.821	88.88
416.044	73.88
416.267	84.88
416.49	91.88
416.713	94.88
416.936	84.88
417.159	81.88
417.382	83.88
417.605	101.88
417.828	89.88
418.051	97.88
418.274	92.88
418.497	93.88
418.72	98.88
418.943	100.88
419.166	95.88
419.389	95.88
419.611	97.88
419.834	96.88
420.057	107.88
420.28	82.88
420.503	94.88
420.726	89.88
420.948	89.88
421.171	98.88
421.394	106.88
421.617	102.88
421.839	96.88
422.062	86.88
422.285	81.88
422.507	97.88
422.73	116.88
422.953	107.88
423.175	101.88
423.398	92.88
423.621	81.88
423.843	91.88
424.066	85.88
424.288	79.88
424.511	87.88
424.733	94.88
424.956	90.88
425.178	92.88
425.401	90.88
425.623	115.88
425.846	96.88
426.068	89.88
426.291	85.88
426.513	93.88
426.735	79.88
426.958	81.88
427.18	95.88
427.402	123.88
427.625	144.88
427.847	131.88
428.069	105.88
428.292	95.88
428.514	92.88
428.736	111.88
428.958	69.88
429.181	81.88
429.403	107.88
429.625	80.88
429.847	81.88
430.069	106.88
430.292	103.88
430.514	74.88
430.736	89.88
430.958	89.88
431.18	89.88
431.402	93.88
431.624	77.88
431.846	91.88
432.068	93.88
432.29	90.88
432.512	81.88
432.734	87.88
432.956	98.88
433.178	89.88
433.4	101.88
433.622	86.88
433.844	98.88
434.066	105.88
434.287	104.88
434.509	88.88
434.731	100.88
434.953	98.88
435.175	81.88
435.397	99.88
435.618	87.88
435.84	104.88
436.062	103.88
436.284	109.88
436.505	105.88
436.727	107.88
436.949	100.88
437.17	82.88
437.392	95.88
437.614	87.88
437.835	97.88
438.057	115.88
438.278	109.88
438.5	101.88
438.721	110.88
438.943	84.88
439.165	92.88
439.386	101.88
439.608	106.88
439.829	96.88
440.05	97.88
440.272	113.88
440.493	100.88
440.715	85.88
440.936	99.88
441.158	93.88
441.379	96.88
441.6	100.88
441.822	98.88
442.043	87.88
442.264	102.88
442.486	88.88
442.707	88.88
442.928	99.88
443.149	106.88
443.371	112.88
443.592	104.88
443.813	98.88
444.034	97.88
444.255	110.88
444.476	86.88
444.698	86.88
444.919	91.88
445.14	137.88
445.361	125.88
445.582	108.88
445.803	112.88
446.024	125.88
446.245	122.88
446.466	110.88
446.687	98.88
446.908	92.88
447.129	89.88
447.35	91.88
447.571	100.88
447.792	88.88
448.013	88.88
448.234	93.88
448.455	98.88
448.675	100.88
448.896	94.88
449.117	96.88
449.338	115.88
449.559	115.88
449.779	124.88
450	98.88
450.221	98.88
450.442	81.88
450.662	97.88
450.883	111.88
451.104	110.88
451.324	72.88
451.545	84.88
451.766	93.88
451.986	97.88
452.207	83.88
452.428	101.88
452.648	90.88
452.869	100.88
453.089	106.88
453.31	106.88
453.53	87.88
453.751	78.88
453.971	80.88
454.192	102.88
454.412	93.88
454.633	84.88
454.853	86.88
455.073	94.88
455.294	93.88
455.514	104.88
455.734	86.88
455.955	91.88
456.175	68.88
456.395	72.88
456.616	85.88
456.836	85.88
457.056	83.88
457.276	76.88
457.497	88.88
457.717	90.88
457.937	98.88
458.157	81.88
458.377	86.88
458.598	95.88
458.818	135.88
459.038	136.88
459.258	105.88
459.478	90.88
459.698	77.88
459.918	99.88
460.138	93.88
460.358	90.88
460.578	91.88
460.798	94.88
461.018	99.88
461.238	81.88
461.458	85.88
461.678	83.88
461.898	79.88
462.118	99.88
462.338	91.88
462.558	88.88
462.777	98.88
462.997	82.88
463.217	81.88
463.437	93.88
463.657	85.88
463.876	90.88
464.096	87.88
464.316	90.88
464.536	91.88
464.755	95.88
464.975	102.88
465.195	128.88
465.414	137.88
465.634	95.88
465.854	75.88
466.073	80.88
466.293	93.88
466.512	95.88
466.732	105.88
466.951	98.88
467.171	83.88
467.391	104.88
467.61	111.88
467.829	98.88
468.049	124.88
468.268	128.88
468.488	82.88
468.707	78.88
468.927	85.88
469.146	79.88
469.365	84.88
469.585	86.88
469.804	105.88
470.023	97.88
470.243	98.88
470.462	97.88
470.681	100.88
470.901	90.88
471.12	100.88
471.339	90.88
471.558	98.88
471.777	95.88
471.997	100.88
472.216	161.88
472.435	239.88
472.654	103.88
472.873	104.88
473.092	102.88
473.311	83.88
473.53	83.88
473.749	101.88
473.968	88.88
474.187	103.88
474.406	90.88
474.625	70.88
474.844	84.88
475.063	97.88
475.282	73.88
475.501	73.88
475.72	91.88
475.939	84.88
476.158	91.88
476.377	79.88
476.596	89.88
476.814	84.88
477.033	88.88
477.252	94.88
477.471	93.88
477.69	85.88
477.908	80.88
478.127	96.88
478.346	99.88
478.564	96.88
478.783	98.88
479.002	96.88
479.22	94.88
479.439	91.88
479.658	105.88
479.876	96.88
480.095	93.88
480.313	85.88
480.532	85.88
480.751	103.88
480.969	175.88
481.188	349.88
481.406	264.88
481.624	101.88
481.843	101.88
482.061	94.88
482.28	99.88
482.498	92.88
482.717	91.88
482.935	86.88
483.153	106.88
483.372	92.88
483.59	88.88
483.808	82.88
484.027	90.88
484.245	94.88
484.463	107.88
484.681	104.88
484.9	88.88
485.118	103.88
485.336	97.88
485.554	110.88
485.772	107.88
485.99	107.88
486.209	96.88
486.427	107.88
486.645	103.88
486.863	126.88
487.081	114.88
487.299	107.88
487.517	106.88
487.735	111.88
487.953	95.88
488.171	106.88
488.389	92.88
488.607	96.88
488.825	100.88
489.043	87.88
489.261	88.88
489.479	117.88
489.696	93.88
489.914	92.88
490.132	94.88
490.35	86.88
490.568	88.88
490.786	83.88
491.003	82.88
491.221	96.88
491.439	89.88
491.657	111.88
491.874	79.88
492.092	92.88
492.31	70.88
492.527	104.88
492.745	85.88
492.963	113.88
493.18	73.88
493.398	96.88
493.615	89.88
493.833	100.88
494.05	96.88
494.268	98.88
494.485	91.88
494.703	91.88
494.92	101.88
495.138	101.88
495.355	98.88
495.573	101.88
495.79	87.88
496.008	106.88
496.225	94.88
496.442	89.88
496.66	106.88
496.877	97.88
497.094	96.88
497.312	89.88
497.529	82.88
497.746	91.88
497.963	93.88
498.181	88.88
498.398	95.88
498.615	116.88
498.832	99.88
499.049	105.88
499.267	100.88
499.484	83.88
499.701	80.88
499.918	90.88
500.135	94.88
500.352	104.88
500.569	99.88
500.786	103.88
501.003	96.88
501.22	73.88
501.437	97.88
501.654	102.88
501.871	109.88
502.088	93.88
502.305	105.88
502.522	96.88
502.739	90.88
502.956	92.88
503.172	99.88
503.389	83.88
503.606	95.88
503.823	95.88
504.04	93.88
504.256	103.88
504.473	94.88
504.69	87.88
504.907	93.88
505.123	72.88
505.34	90.88
505.557	99.88
505.773	99.88
505.99	86.88
506.207	98.88
506.423	102.88
506.64	95.88
506.856	87.88
507.073	90.88
507.289	87.88
507.506	101.88
507.722	113.88
507.939	106.88
508.155	84.88
508.372	91.88
508.588	101.88
508.805	118.88
509.021	98.88
509.238	93.88
509.454	101.88
509.67	110.88
509.887	114.88
510.103	115.88
510.319	192.88
510.536	570.88
510.752	1735.88
510.968	513.88
511.184	137.88
511.401	102.88
511.617	101.88
511.833	81.88
512.049	87.88
512.265	89.88
512.481	89.88
512.698	94.88
512.914	95.88
513.13	93.88
513.346	83.88
513.562	105.88
513.778	94.88
513.994	107.88
514.21	110.88
