Data from Circ_1993_H10_HRD10591_00078.txt Node
Date: Wed Jan 03 11:44:17 EST 2024
User: Yrep
Spectrometer: HR+D1059
Trigger mode: 1
Integration Time (sec): 1.000000E-1
Scans to average: 1
Electric dark correction enabled: true
Nonlinearity correction enabled: false
Boxcar width: 0
XAxis mode: Wavelengths
Number of Pixels in Spectrum: 2048
>>>>>Begin Spectral Data<<<<<
223.165	-15.12
223.4	-15.12
223.635	-15.12
223.869	-26.12
224.104	-28.12
224.338	-15.12
224.573	-3.12
224.808	-2.12
225.042	-16.12
225.277	-20.12
225.511	-4.12
225.746	2.88
225.98	3.88
226.215	30.88
226.449	24.88
226.683	10.88
226.918	26.88
227.152	29.88
227.387	33.88
227.621	43.88
227.856	45.88
228.09	36.88
228.324	64.88
228.559	49.88
228.793	66.88
229.027	63.88
229.262	68.88
229.496	66.88
229.73	73.88
229.964	75.88
230.199	65.88
230.433	85.88
230.667	73.88
230.901	83.88
231.136	79.88
231.37	79.88
231.604	78.88
231.838	78.88
232.072	94.88
232.306	89.88
232.541	92.88
232.775	84.88
233.009	94.88
233.243	85.88
233.477	84.88
233.711	86.88
233.945	85.88
234.179	73.88
234.413	77.88
234.647	75.88
234.881	73.88
235.115	84.88
235.349	78.88
235.583	97.88
235.817	66.88
236.051	85.88
236.285	77.88
236.519	74.88
236.753	73.88
236.987	91.88
237.221	82.88
237.455	79.88
237.689	85.88
237.922	82.88
238.156	74.88
238.39	72.88
238.624	82.88
238.858	76.88
239.091	72.88
239.325	78.88
239.559	68.88
239.793	82.88
240.027	83.88
240.26	75.88
240.494	75.88
240.728	77.88
240.961	90.88
241.195	73.88
241.429	76.88
241.662	94.88
241.896	77.88
242.13	80.88
242.363	73.88
242.597	91.88
242.83	82.88
243.064	85.88
243.298	83.88
243.531	74.88
243.765	70.88
243.998	75.88
244.232	87.88
244.465	82.88
244.699	73.88
244.932	84.88
245.166	73.88
245.399	74.88
245.633	69.88
245.866	78.88
246.099	90.88
246.333	72.88
246.566	85.88
246.8	72.88
247.033	75.88
247.266	92.88
247.5	90.88
247.733	87.88
247.966	91.88
248.2	59.88
248.433	81.88
248.666	83.88
248.899	86.88
249.133	97.88
249.366	92.88
249.599	84.88
249.832	84.88
250.066	89.88
250.299	76.88
250.532	80.88
250.765	79.88
250.998	69.88
251.231	84.88
251.465	81.88
251.698	85.88
251.931	105.88
252.164	86.88
252.397	74.88
252.63	71.88
252.863	87.88
253.096	96.88
253.329	87.88
253.562	83.88
253.795	81.88
254.028	95.88
254.261	83.88
254.494	70.88
254.727	91.88
254.96	91.88
255.193	84.88
255.426	86.88
255.659	73.88
255.892	80.88
256.124	85.88
256.357	90.88
256.59	85.88
256.823	67.88
257.056	73.88
257.289	78.88
257.521	86.88
257.754	76.88
257.987	90.88
258.22	82.88
258.452	96.88
258.685	98.88
258.918	68.88
259.151	90.88
259.383	89.88
259.616	70.88
259.849	69.88
260.081	92.88
260.314	76.88
260.547	85.88
260.779	82.88
261.012	102.88
261.244	93.88
261.477	103.88
261.71	91.88
261.942	109.88
262.175	105.88
262.407	79.88
262.64	84.88
262.872	86.88
263.105	73.88
263.337	76.88
263.57	83.88
263.802	107.88
264.035	97.88
264.267	87.88
264.499	86.88
264.732	83.88
264.964	98.88
265.197	89.88
265.429	84.88
265.661	68.88
265.894	85.88
266.126	81.88
266.358	77.88
266.591	87.88
266.823	74.88
267.055	82.88
267.287	76.88
267.52	82.88
267.752	77.88
267.984	103.88
268.216	78.88
268.448	76.88
268.681	90.88
268.913	86.88
269.145	81.88
269.377	69.88
269.609	80.88
269.841	80.88
270.073	85.88
270.306	86.88
270.538	82.88
270.77	71.88
271.002	95.88
271.234	89.88
271.466	100.88
271.698	75.88
271.93	75.88
272.162	94.88
272.394	70.88
272.626	84.88
272.858	96.88
273.09	95.88
273.322	85.88
273.553	71.88
273.785	83.88
274.017	86.88
274.249	77.88
274.481	85.88
274.713	101.88
274.945	89.88
275.176	82.88
275.408	78.88
275.64	91.88
275.872	93.88
276.104	91.88
276.335	96.88
276.567	91.88
276.799	100.88
277.031	112.88
277.262	98.88
277.494	99.88
277.726	93.88
277.957	89.88
278.189	86.88
278.421	83.88
278.652	70.88
278.884	92.88
279.115	99.88
279.347	99.88
279.579	92.88
279.81	106.88
280.042	107.88
280.273	97.88
280.505	100.88
280.736	96.88
280.968	96.88
281.199	101.88
281.431	94.88
281.662	91.88
281.894	91.88
282.125	106.88
282.356	102.88
282.588	126.88
282.819	110.88
283.051	86.88
283.282	94.88
283.513	92.88
283.745	93.88
283.976	89.88
284.207	104.88
284.439	94.88
284.67	85.88
284.901	84.88
285.132	79.88
285.364	81.88
285.595	92.88
285.826	84.88
286.057	94.88
286.288	98.88
286.52	94.88
286.751	93.88
286.982	90.88
287.213	82.88
287.444	92.88
287.675	87.88
287.906	84.88
288.138	97.88
288.369	96.88
288.6	92.88
288.831	98.88
289.062	93.88
289.293	92.88
289.524	91.88
289.755	73.88
289.986	86.88
290.217	100.88
290.448	83.88
290.679	83.88
290.91	91.88
291.141	81.88
291.371	76.88
291.602	104.88
291.833	95.88
292.064	89.88
292.295	95.88
292.526	93.88
292.757	77.88
292.987	85.88
293.218	78.88
293.449	88.88
293.68	92.88
293.91	79.88
294.141	91.88
294.372	87.88
294.603	102.88
294.833	98.88
295.064	86.88
295.295	84.88
295.525	90.88
295.756	106.88
295.987	107.88
296.217	133.88
296.448	122.88
296.679	91.88
296.909	104.88
297.14	99.88
297.37	89.88
297.601	90.88
297.831	89.88
298.062	91.88
298.292	90.88
298.523	94.88
298.753	86.88
298.984	82.88
299.214	90.88
299.445	100.88
299.675	99.88
299.905	110.88
300.136	87.88
300.366	90.88
300.597	84.88
300.827	106.88
301.057	100.88
301.288	97.88
301.518	95.88
301.748	98.88
301.979	99.88
302.209	86.88
302.439	90.88
302.669	92.88
302.9	82.88
303.13	104.88
303.36	79.88
303.59	102.88
303.82	107.88
304.051	101.88
304.281	79.88
304.511	102.88
304.741	110.88
304.971	84.88
305.201	93.88
305.431	92.88
305.661	85.88
305.891	83.88
306.121	89.88
306.352	93.88
306.582	115.88
306.812	110.88
307.042	95.88
307.272	100.88
307.502	98.88
307.731	95.88
307.961	100.88
308.191	99.88
308.421	91.88
308.651	89.88
308.881	89.88
309.111	99.88
309.341	104.88
309.571	104.88
309.8	96.88
310.03	78.88
310.26	91.88
310.49	97.88
310.72	95.88
310.949	99.88
311.179	99.88
311.409	115.88
311.639	108.88
311.868	109.88
312.098	99.88
312.328	98.88
312.557	102.88
312.787	99.88
313.017	93.88
313.246	92.88
313.476	97.88
313.706	99.88
313.935	92.88
314.165	94.88
314.394	90.88
314.624	84.88
314.853	88.88
315.083	85.88
315.312	88.88
315.542	102.88
315.771	80.88
316.001	102.88
316.23	107.88
316.46	89.88
316.689	100.88
316.919	95.88
317.148	95.88
317.377	98.88
317.607	99.88
317.836	99.88
318.065	92.88
318.295	85.88
318.524	81.88
318.753	91.88
318.983	101.88
319.212	83.88
319.441	93.88
319.67	116.88
319.9	105.88
320.129	88.88
320.358	106.88
320.587	93.88
320.816	91.88
321.046	99.88
321.275	93.88
321.504	82.88
321.733	104.88
321.962	90.88
322.191	99.88
322.42	112.88
322.649	114.88
322.878	102.88
323.108	118.88
323.337	108.88
323.566	118.88
323.795	145.88
324.024	199.88
324.253	347.88
324.482	721.88
324.71	1475.88
324.939	1962.88
325.168	732.88
325.397	231.88
325.626	143.88
325.855	124.88
326.084	126.88
326.313	119.88
326.542	141.88
326.77	224.88
326.999	415.88
327.228	837.88
327.457	1534.88
327.686	1182.88
327.914	350.88
328.143	211.88
328.372	201.88
328.6	128.88
328.829	117.88
329.058	123.88
329.287	123.88
329.515	122.88
329.744	125.88
329.972	135.88
330.201	218.88
330.43	265.88
330.658	161.88
330.887	149.88
331.115	128.88
331.344	99.88
331.572	85.88
331.801	86.88
332.03	90.88
332.258	90.88
332.486	97.88
332.715	82.88
332.943	104.88
333.172	104.88
333.4	92.88
333.629	111.88
333.857	137.88
334.085	148.88
334.314	212.88
334.542	324.88
334.771	317.88
334.999	121.88
335.227	94.88
335.455	86.88
335.684	93.88
335.912	97.88
336.14	93.88
336.369	96.88
336.597	102.88
336.825	96.88
337.053	106.88
337.281	85.88
337.51	84.88
337.738	84.88
337.966	80.88
338.194	101.88
338.422	91.88
338.65	100.88
338.878	93.88
339.106	85.88
339.334	93.88
339.562	92.88
339.79	74.88
340.018	83.88
340.246	105.88
340.474	95.88
340.702	89.88
340.93	95.88
341.158	84.88
341.386	103.88
341.614	97.88
341.842	95.88
342.07	89.88
342.298	80.88
342.526	91.88
342.754	94.88
342.981	86.88
343.209	93.88
343.437	105.88
343.665	89.88
343.893	78.88
344.12	93.88
344.348	81.88
344.576	95.88
344.804	85.88
345.031	87.88
345.259	97.88
345.487	103.88
345.714	77.88
345.942	101.88
346.17	99.88
346.397	85.88
346.625	90.88
346.853	89.88
347.08	86.88
347.308	96.88
347.535	90.88
347.763	83.88
347.99	96.88
348.218	97.88
348.445	96.88
348.673	88.88
348.9	91.88
349.128	85.88
349.355	89.88
349.583	76.88
349.81	82.88
350.037	85.88
350.265	90.88
350.492	95.88
350.72	95.88
350.947	98.88
351.174	85.88
351.402	115.88
351.629	117.88
351.856	102.88
352.083	92.88
352.311	103.88
352.538	107.88
352.765	107.88
352.992	108.88
353.22	104.88
353.447	72.88
353.674	94.88
353.901	85.88
354.128	105.88
354.355	94.88
354.583	97.88
354.81	91.88
355.037	91.88
355.264	87.88
355.491	86.88
355.718	85.88
355.945	88.88
356.172	77.88
356.399	93.88
356.626	97.88
356.853	111.88
357.08	86.88
357.307	93.88
357.534	82.88
357.761	85.88
357.988	98.88
358.215	87.88
358.441	95.88
358.668	92.88
358.895	86.88
359.122	88.88
359.349	81.88
359.576	83.88
359.802	79.88
360.029	108.88
360.256	93.88
360.483	91.88
360.709	87.88
360.936	104.88
361.163	97.88
361.39	98.88
361.616	87.88
361.843	88.88
362.07	95.88
362.296	84.88
362.523	103.88
362.749	98.88
362.976	89.88
363.203	91.88
363.429	90.88
363.656	79.88
363.882	92.88
364.109	89.88
364.335	91.88
364.562	77.88
364.788	91.88
365.015	93.88
365.241	96.88
365.468	113.88
365.694	100.88
365.92	91.88
366.147	94.88
366.373	85.88
366.599	91.88
366.826	97.88
367.052	91.88
367.278	89.88
367.505	82.88
367.731	82.88
367.957	90.88
368.184	79.88
368.41	103.88
368.636	104.88
368.862	107.88
369.089	112.88
369.315	92.88
369.541	79.88
369.767	85.88
369.993	78.88
370.219	97.88
370.445	92.88
370.672	92.88
370.898	93.88
371.124	86.88
371.35	83.88
371.576	92.88
371.802	93.88
372.028	82.88
372.254	85.88
372.48	86.88
372.706	80.88
372.932	99.88
373.158	84.88
373.384	103.88
373.61	94.88
373.835	101.88
374.061	97.88
374.287	87.88
374.513	95.88
374.739	90.88
374.965	84.88
375.191	98.88
375.416	81.88
375.642	80.88
375.868	73.88
376.094	79.88
376.319	107.88
376.545	101.88
376.771	84.88
376.997	96.88
377.222	82.88
377.448	94.88
377.674	92.88
377.899	85.88
378.125	100.88
378.35	103.88
378.576	85.88
378.802	86.88
379.027	100.88
379.253	89.88
379.478	80.88
379.704	101.88
379.929	96.88
380.155	89.88
380.38	89.88
380.606	98.88
380.831	98.88
381.057	104.88
381.282	91.88
381.507	94.88
381.733	108.88
381.958	89.88
382.184	113.88
382.409	105.88
382.634	96.88
382.86	90.88
383.085	98.88
383.31	92.88
383.535	99.88
383.761	89.88
383.986	120.88
384.211	107.88
384.436	95.88
384.662	89.88
384.887	92.88
385.112	99.88
385.337	112.88
385.562	101.88
385.787	105.88
386.013	110.88
386.238	115.88
386.463	109.88
386.688	105.88
386.913	76.88
387.138	106.88
387.363	100.88
387.588	101.88
387.813	96.88
388.038	102.88
388.263	108.88
388.488	107.88
388.713	92.88
388.938	96.88
389.163	103.88
389.387	95.88
389.612	96.88
389.837	87.88
390.062	89.88
390.287	95.88
390.512	89.88
390.736	96.88
390.961	84.88
391.186	95.88
391.411	94.88
391.636	101.88
391.86	84.88
392.085	92.88
392.31	100.88
392.534	77.88
392.759	90.88
392.984	98.88
393.208	96.88
393.433	118.88
393.658	103.88
393.882	86.88
394.107	82.88
394.331	98.88
394.556	88.88
394.78	92.88
395.005	92.88
395.229	86.88
395.454	85.88
395.678	83.88
395.903	87.88
396.127	80.88
396.352	88.88
396.576	83.88
396.801	96.88
397.025	114.88
397.249	86.88
397.474	84.88
397.698	87.88
397.922	92.88
398.147	96.88
398.371	90.88
398.595	85.88
398.82	73.88
399.044	79.88
399.268	77.88
399.492	84.88
399.717	92.88
399.941	71.88
400.165	92.88
400.389	108.88
400.613	92.88
400.837	75.88
401.062	85.88
401.286	81.88
401.51	85.88
401.734	101.88
401.958	110.88
402.182	117.88
402.406	141.88
402.63	115.88
402.854	88.88
403.078	89.88
403.302	98.88
403.526	81.88
403.75	78.88
403.974	82.88
404.198	70.88
404.422	93.88
404.645	101.88
404.869	93.88
405.093	93.88
405.317	115.88
405.541	90.88
405.765	102.88
405.988	101.88
406.212	158.88
406.436	205.88
406.66	139.88
406.883	94.88
407.107	105.88
407.331	79.88
407.555	107.88
407.778	84.88
408.002	106.88
408.226	93.88
408.449	87.88
408.673	106.88
408.896	91.88
409.12	85.88
409.344	86.88
409.567	98.88
409.791	96.88
410.014	95.88
410.238	85.88
410.461	110.88
410.685	90.88
410.908	97.88
411.132	96.88
411.355	93.88
411.578	89.88
411.802	74.88
412.025	86.88
412.249	85.88
412.472	97.88
412.695	119.88
412.919	95.88
413.142	87.88
413.365	89.88
413.589	77.88
413.812	77.88
414.035	85.88
414.258	99.88
414.482	95.88
414.705	99.88
414.928	78.88
415.151	94.88
415.374	85.88
415.597	98.88
415.821	93.88
416.044	68.88
416.267	80.88
416.49	86.88
416.713	78.88
416.936	97.88
417.159	85.88
417.382	89.88
417.605	91.88
417.828	81.88
418.051	88.88
418.274	97.88
418.497	88.88
418.72	91.88
418.943	94.88
419.166	74.88
419.389	103.88
419.611	95.88
419.834	94.88
420.057	103.88
420.28	87.88
420.503	80.88
420.726	81.88
420.948	75.88
421.171	83.88
421.394	100.88
421.617	86.88
421.839	84.88
422.062	100.88
422.285	85.88
422.507	101.88
422.73	110.88
422.953	93.88
423.175	79.88
423.398	88.88
423.621	109.88
423.843	94.88
424.066	86.88
424.288	90.88
424.511	98.88
424.733	93.88
424.956	97.88
425.178	90.88
425.401	92.88
425.623	98.88
425.846	76.88
426.068	83.88
426.291	96.88
426.513	84.88
426.735	90.88
426.958	93.88
427.18	103.88
427.402	117.88
427.625	166.88
427.847	150.88
428.069	137.88
428.292	96.88
428.514	88.88
428.736	82.88
428.958	74.88
429.181	88.88
429.403	98.88
429.625	94.88
429.847	89.88
430.069	94.88
430.292	91.88
430.514	89.88
430.736	83.88
430.958	81.88
431.18	89.88
431.402	69.88
431.624	82.88
431.846	81.88
432.068	80.88
432.29	93.88
432.512	89.88
432.734	96.88
432.956	107.88
433.178	79.88
433.4	89.88
433.622	98.88
433.844	87.88
434.066	78.88
434.287	97.88
434.509	83.88
434.731	93.88
434.953	101.88
435.175	86.88
435.397	78.88
435.618	86.88
435.84	109.88
436.062	126.88
436.284	111.88
436.505	99.88
436.727	89.88
436.949	103.88
437.17	91.88
437.392	89.88
437.614	92.88
437.835	95.88
438.057	102.88
438.278	106.88
438.5	108.88
438.721	110.88
438.943	98.88
439.165	90.88
439.386	93.88
439.608	93.88
439.829	98.88
440.05	112.88
440.272	147.88
440.493	86.88
440.715	93.88
440.936	88.88
441.158	91.88
441.379	92.88
441.6	90.88
441.822	97.88
442.043	80.88
442.264	110.88
442.486	97.88
442.707	91.88
442.928	104.88
443.149	126.88
443.371	115.88
443.592	115.88
443.813	99.88
444.034	114.88
444.255	102.88
444.476	92.88
444.698	98.88
444.919	90.88
445.14	124.88
445.361	117.88
445.582	103.88
445.803	121.88
446.024	122.88
446.245	128.88
446.466	97.88
446.687	90.88
446.908	87.88
447.129	100.88
447.35	91.88
447.571	98.88
447.792	97.88
448.013	100.88
448.234	110.88
448.455	89.88
448.675	120.88
448.896	119.88
449.117	107.88
449.338	122.88
449.559	145.88
449.779	117.88
450	103.88
450.221	85.88
450.442	100.88
450.662	82.88
450.883	99.88
451.104	120.88
451.324	101.88
451.545	93.88
451.766	71.88
451.986	75.88
452.207	86.88
452.428	85.88
452.648	90.88
452.869	110.88
453.089	110.88
453.31	102.88
453.53	89.88
453.751	99.88
453.971	104.88
454.192	101.88
454.412	78.88
454.633	94.88
454.853	92.88
455.073	87.88
455.294	85.88
455.514	76.88
455.734	102.88
455.955	93.88
456.175	83.88
456.395	90.88
456.616	77.88
456.836	82.88
457.056	90.88
457.276	94.88
457.497	82.88
457.717	87.88
457.937	78.88
458.157	81.88
458.377	90.88
458.598	105.88
458.818	134.88
459.038	151.88
459.258	108.88
459.478	80.88
459.698	84.88
459.918	76.88
460.138	74.88
460.358	87.88
460.578	91.88
460.798	82.88
461.018	69.88
461.238	77.88
461.458	88.88
461.678	81.88
461.898	91.88
462.118	79.88
462.338	96.88
462.558	85.88
462.777	76.88
462.997	90.88
463.217	90.88
463.437	78.88
463.657	74.88
463.876	87.88
464.096	78.88
464.316	94.88
464.536	101.88
464.755	103.88
464.975	100.88
465.195	145.88
465.414	143.88
465.634	95.88
465.854	91.88
466.073	83.88
466.293	77.88
466.512	93.88
466.732	86.88
466.951	93.88
467.171	92.88
467.391	94.88
467.61	108.88
467.829	126.88
468.049	151.88
468.268	182.88
468.488	101.88
468.707	90.88
468.927	95.88
469.146	85.88
469.365	79.88
469.585	86.88
469.804	93.88
470.023	91.88
470.243	85.88
470.462	101.88
470.681	103.88
470.901	102.88
471.12	78.88
471.339	99.88
471.558	84.88
471.777	102.88
471.997	122.88
472.216	241.88
472.435	399.88
472.654	148.88
472.873	92.88
473.092	110.88
473.311	95.88
473.53	79.88
473.749	82.88
473.968	98.88
474.187	97.88
474.406	105.88
474.625	93.88
474.844	82.88
475.063	88.88
475.282	89.88
475.501	83.88
475.72	81.88
475.939	91.88
476.158	87.88
476.377	84.88
476.596	91.88
476.814	96.88
477.033	97.88
477.252	81.88
477.471	93.88
477.69	87.88
477.908	73.88
478.127	93.88
478.346	88.88
478.564	90.88
478.783	97.88
479.002	97.88
479.22	99.88
479.439	98.88
479.658	82.88
479.876	101.88
480.095	106.88
480.313	101.88
480.532	100.88
480.751	124.88
480.969	249.88
481.188	725.88
481.406	429.88
481.624	129.88
481.843	102.88
482.061	96.88
482.28	86.88
482.498	87.88
482.717	91.88
482.935	89.88
483.153	94.88
483.372	74.88
483.59	87.88
483.808	92.88
484.027	75.88
484.245	89.88
484.463	99.88
484.681	99.88
484.9	101.88
485.118	102.88
485.336	102.88
485.554	104.88
485.772	107.88
485.99	98.88
486.209	69.88
486.427	101.88
486.645	105.88
486.863	109.88
487.081	102.88
487.299	103.88
487.517	101.88
487.735	106.88
487.953	96.88
488.171	113.88
488.389	89.88
488.607	94.88
488.825	101.88
489.043	90.88
489.261	80.88
489.479	77.88
489.696	93.88
489.914	83.88
490.132	82.88
490.35	89.88
490.568	76.88
490.786	81.88
491.003	81.88
491.221	90.88
491.439	91.88
491.657	92.88
491.874	86.88
492.092	87.88
492.31	103.88
492.527	104.88
492.745	73.88
492.963	90.88
493.18	89.88
493.398	79.88
493.615	89.88
493.833	98.88
494.05	100.88
494.268	79.88
494.485	86.88
494.703	94.88
494.92	89.88
495.138	92.88
495.355	74.88
495.573	95.88
495.79	93.88
496.008	69.88
496.225	88.88
496.442	101.88
496.66	96.88
496.877	85.88
497.094	100.88
497.312	98.88
497.529	103.88
497.746	88.88
497.963	87.88
498.181	86.88
498.398	98.88
498.615	122.88
498.832	92.88
499.049	94.88
499.267	89.88
499.484	89.88
499.701	101.88
499.918	91.88
500.135	87.88
500.352	84.88
500.569	93.88
500.786	77.88
501.003	92.88
501.22	86.88
501.437	89.88
501.654	104.88
501.871	118.88
502.088	93.88
502.305	92.88
502.522	82.88
502.739	95.88
502.956	92.88
503.172	84.88
503.389	85.88
503.606	95.88
503.823	89.88
504.04	110.88
504.256	93.88
504.473	92.88
504.69	82.88
504.907	100.88
505.123	92.88
505.34	91.88
505.557	86.88
505.773	101.88
505.99	76.88
506.207	86.88
506.423	89.88
506.64	91.88
506.856	95.88
507.073	90.88
507.289	91.88
507.506	97.88
507.722	109.88
507.939	101.88
508.155	101.88
508.372	88.88
508.588	94.88
508.805	84.88
509.021	92.88
509.238	105.88
509.454	111.88
509.67	92.88
509.887	94.88
510.103	122.88
510.319	191.88
510.536	685.88
510.752	2080.88
510.968	587.88
511.184	137.88
511.401	111.88
511.617	110.88
511.833	90.88
512.049	86.88
512.265	88.88
512.481	87.88
512.698	87.88
512.914	97.88
513.13	93.88
513.346	87.88
513.562	94.88
513.778	90.88
513.994	86.88
514.21	98.88
514.426	116.88
514.642	130.88
514.858	121.88
515.074	154.88
515.29	386.88
515.506	1262.88
