Data from Circ_1993_H10_HRD10591_00045.txt Node
Date: Wed Jan 03 11:44:11 EST 2024
User: Yrep
Spectrometer: HR+D1059
Trigger mode: 1
Integration Time (sec): 1.000000E-1
Scans to average: 1
Electric dark correction enabled: true
Nonlinearity correction enabled: false
Boxcar width: 0
XAxis mode: Wavelengths
Number of Pixels in Spectrum: 2048
>>>>>Begin Spectral Data<<<<<
223.165	-22.62
223.4	-22.62
223.635	-22.62
223.869	-26.62
224.104	-23.62
224.338	4.38
224.573	-17.62
224.808	-16.62
225.042	-9.62
225.277	-8.62
225.511	2.38
225.746	12.38
225.98	6.38
226.215	11.38
226.449	14.38
226.683	19.38
226.918	25.38
227.152	29.38
227.387	34.38
227.621	33.38
227.856	33.38
228.09	56.38
228.324	47.38
228.559	57.38
228.793	61.38
229.027	65.38
229.262	61.38
229.496	78.38
229.73	75.38
229.964	73.38
230.199	73.38
230.433	89.38
230.667	84.38
230.901	64.38
231.136	94.38
231.37	65.38
231.604	78.38
231.838	75.38
232.072	82.38
232.306	72.38
232.541	77.38
232.775	73.38
233.009	86.38
233.243	92.38
233.477	78.38
233.711	90.38
233.945	76.38
234.179	83.38
234.413	69.38
234.647	66.38
234.881	66.38
235.115	73.38
235.349	84.38
235.583	84.38
235.817	90.38
236.051	83.38
236.285	78.38
236.519	79.38
236.753	68.38
236.987	74.38
237.221	91.38
237.455	79.38
237.689	92.38
237.922	69.38
238.156	77.38
238.39	86.38
238.624	63.38
238.858	74.38
239.091	68.38
239.325	81.38
239.559	81.38
239.793	82.38
240.027	84.38
240.26	66.38
240.494	77.38
240.728	75.38
240.961	73.38
241.195	81.38
241.429	81.38
241.662	83.38
241.896	76.38
242.13	94.38
242.363	89.38
242.597	78.38
242.83	77.38
243.064	65.38
243.298	75.38
243.531	81.38
243.765	65.38
243.998	88.38
244.232	77.38
244.465	73.38
244.699	82.38
244.932	64.38
245.166	77.38
245.399	69.38
245.633	73.38
245.866	74.38
246.099	78.38
246.333	68.38
246.566	82.38
246.8	74.38
247.033	81.38
247.266	88.38
247.5	69.38
247.733	79.38
247.966	81.38
248.2	90.38
248.433	85.38
248.666	91.38
248.899	87.38
249.133	96.38
249.366	93.38
249.599	87.38
249.832	79.38
250.066	66.38
250.299	85.38
250.532	90.38
250.765	66.38
250.998	85.38
251.231	79.38
251.465	80.38
251.698	68.38
251.931	93.38
252.164	81.38
252.397	80.38
252.63	77.38
252.863	86.38
253.096	76.38
253.329	95.38
253.562	96.38
253.795	99.38
254.028	81.38
254.261	86.38
254.494	87.38
254.727	92.38
254.96	89.38
255.193	90.38
255.426	74.38
255.659	81.38
255.892	83.38
256.124	75.38
256.357	85.38
256.59	77.38
256.823	78.38
257.056	71.38
257.289	75.38
257.521	81.38
257.754	79.38
257.987	79.38
258.22	86.38
258.452	88.38
258.685	84.38
258.918	78.38
259.151	85.38
259.383	66.38
259.616	78.38
259.849	102.38
260.081	77.38
260.314	81.38
260.547	77.38
260.779	92.38
261.012	83.38
261.244	91.38
261.477	81.38
261.71	92.38
261.942	89.38
262.175	106.38
262.407	88.38
262.64	89.38
262.872	78.38
263.105	71.38
263.337	85.38
263.57	73.38
263.802	73.38
264.035	88.38
264.267	88.38
264.499	79.38
264.732	90.38
264.964	76.38
265.197	78.38
265.429	95.38
265.661	78.38
265.894	68.38
266.126	96.38
266.358	100.38
266.591	69.38
266.823	75.38
267.055	80.38
267.287	93.38
267.52	90.38
267.752	75.38
267.984	77.38
268.216	85.38
268.448	101.38
268.681	86.38
268.913	92.38
269.145	87.38
269.377	83.38
269.609	68.38
269.841	92.38
270.073	85.38
270.306	80.38
270.538	89.38
270.77	87.38
271.002	95.38
271.234	87.38
271.466	87.38
271.698	80.38
271.93	73.38
272.162	86.38
272.394	86.38
272.626	76.38
272.858	104.38
273.09	90.38
273.322	91.38
273.553	90.38
273.785	93.38
274.017	85.38
274.249	82.38
274.481	87.38
274.713	86.38
274.945	93.38
275.176	79.38
275.408	76.38
275.64	87.38
275.872	93.38
276.104	85.38
276.335	87.38
276.567	115.38
276.799	97.38
277.031	79.38
277.262	89.38
277.494	82.38
277.726	90.38
277.957	94.38
278.189	83.38
278.421	86.38
278.652	84.38
278.884	92.38
279.115	86.38
279.347	93.38
279.579	89.38
279.81	86.38
280.042	89.38
280.273	85.38
280.505	86.38
280.736	90.38
280.968	81.38
281.199	84.38
281.431	82.38
281.662	91.38
281.894	79.38
282.125	98.38
282.356	99.38
282.588	113.38
282.819	111.38
283.051	87.38
283.282	93.38
283.513	89.38
283.745	82.38
283.976	70.38
284.207	89.38
284.439	107.38
284.67	89.38
284.901	87.38
285.132	75.38
285.364	81.38
285.595	90.38
285.826	74.38
286.057	85.38
286.288	83.38
286.52	77.38
286.751	75.38
286.982	86.38
287.213	96.38
287.444	97.38
287.675	95.38
287.906	84.38
288.138	86.38
288.369	95.38
288.6	96.38
288.831	83.38
289.062	76.38
289.293	97.38
289.524	79.38
289.755	84.38
289.986	86.38
290.217	78.38
290.448	76.38
290.679	96.38
290.91	88.38
291.141	97.38
291.371	95.38
291.602	93.38
291.833	91.38
292.064	94.38
292.295	89.38
292.526	90.38
292.757	99.38
292.987	74.38
293.218	76.38
293.449	87.38
293.68	94.38
293.91	77.38
294.141	87.38
294.372	91.38
294.603	94.38
294.833	88.38
295.064	78.38
295.295	84.38
295.525	94.38
295.756	99.38
295.987	109.38
296.217	122.38
296.448	104.38
296.679	94.38
296.909	83.38
297.14	81.38
297.37	100.38
297.601	81.38
297.831	88.38
298.062	85.38
298.292	86.38
298.523	90.38
298.753	100.38
298.984	100.38
299.214	98.38
299.445	95.38
299.675	95.38
299.905	106.38
300.136	68.38
300.366	93.38
300.597	88.38
300.827	97.38
301.057	89.38
301.288	91.38
301.518	93.38
301.748	92.38
301.979	93.38
302.209	82.38
302.439	93.38
302.669	107.38
302.9	93.38
303.13	101.38
303.36	107.38
303.59	102.38
303.82	101.38
304.051	94.38
304.281	90.38
304.511	92.38
304.741	85.38
304.971	89.38
305.201	80.38
305.431	99.38
305.661	85.38
305.891	91.38
306.121	91.38
306.352	92.38
306.582	115.38
306.812	91.38
307.042	89.38
307.272	93.38
307.502	104.38
307.731	101.38
307.961	86.38
308.191	94.38
308.421	93.38
308.651	83.38
308.881	105.38
309.111	103.38
309.341	91.38
309.571	99.38
309.8	92.38
310.03	91.38
310.26	113.38
310.49	98.38
310.72	90.38
310.949	101.38
311.179	100.38
311.409	101.38
311.639	98.38
311.868	101.38
312.098	106.38
312.328	105.38
312.557	100.38
312.787	91.38
313.017	90.38
313.246	97.38
313.476	83.38
313.706	87.38
313.935	98.38
314.165	86.38
314.394	98.38
314.624	90.38
314.853	96.38
315.083	81.38
315.312	93.38
315.542	91.38
315.771	81.38
316.001	97.38
316.23	96.38
316.46	84.38
316.689	89.38
316.919	87.38
317.148	91.38
317.377	94.38
317.607	97.38
317.836	84.38
318.065	82.38
318.295	91.38
318.524	84.38
318.753	99.38
318.983	92.38
319.212	96.38
319.441	92.38
319.67	99.38
319.9	97.38
320.129	89.38
320.358	90.38
320.587	85.38
320.816	101.38
321.046	105.38
321.275	110.38
321.504	97.38
321.733	97.38
321.962	90.38
322.191	86.38
322.42	107.38
322.649	102.38
322.878	111.38
323.108	106.38
323.337	106.38
323.566	119.38
323.795	141.38
324.024	185.38
324.253	330.38
324.482	653.38
324.71	1312.38
324.939	1711.38
325.168	644.38
325.397	214.38
325.626	143.38
325.855	117.38
326.084	127.38
326.313	114.38
326.542	140.38
326.77	214.38
326.999	366.38
327.228	742.38
327.457	1310.38
327.686	1067.38
327.914	317.38
328.143	193.38
328.372	149.38
328.6	114.38
328.829	107.38
329.058	111.38
329.287	111.38
329.515	109.38
329.744	105.38
329.972	109.38
330.201	158.38
330.43	188.38
330.658	126.38
330.887	119.38
331.115	114.38
331.344	108.38
331.572	99.38
331.801	97.38
332.03	105.38
332.258	102.38
332.486	100.38
332.715	94.38
332.943	110.38
333.172	83.38
333.4	112.38
333.629	117.38
333.857	116.38
334.085	129.38
334.314	151.38
334.542	212.38
334.771	201.38
334.999	118.38
335.227	110.38
335.455	110.38
335.684	95.38
335.912	101.38
336.14	94.38
336.369	97.38
336.597	110.38
336.825	96.38
337.053	84.38
337.281	105.38
337.51	96.38
337.738	89.38
337.966	96.38
338.194	90.38
338.422	89.38
338.65	85.38
338.878	99.38
339.106	88.38
339.334	107.38
339.562	93.38
339.79	91.38
340.018	88.38
340.246	90.38
340.474	91.38
340.702	83.38
340.93	92.38
341.158	98.38
341.386	99.38
341.614	94.38
341.842	93.38
342.07	99.38
342.298	84.38
342.526	91.38
342.754	99.38
342.981	81.38
343.209	95.38
343.437	107.38
343.665	100.38
343.893	91.38
344.12	101.38
344.348	92.38
344.576	95.38
344.804	103.38
345.031	100.38
345.259	91.38
345.487	93.38
345.714	90.38
345.942	84.38
346.17	86.38
346.397	92.38
346.625	90.38
346.853	88.38
347.08	102.38
347.308	109.38
347.535	100.38
347.763	98.38
347.99	84.38
348.218	93.38
348.445	102.38
348.673	111.38
348.9	84.38
349.128	96.38
349.355	70.38
349.583	94.38
349.81	111.38
350.037	100.38
350.265	103.38
350.492	99.38
350.72	99.38
350.947	96.38
351.174	101.38
351.402	92.38
351.629	96.38
351.856	107.38
352.083	113.38
352.311	101.38
352.538	99.38
352.765	118.38
352.992	113.38
353.22	99.38
353.447	103.38
353.674	101.38
353.901	100.38
354.128	89.38
354.355	100.38
354.583	95.38
354.81	89.38
355.037	88.38
355.264	103.38
355.491	87.38
355.718	83.38
355.945	94.38
356.172	97.38
356.399	94.38
356.626	95.38
356.853	99.38
357.08	93.38
357.307	92.38
357.534	100.38
357.761	85.38
357.988	90.38
358.215	102.38
358.441	98.38
358.668	91.38
358.895	95.38
359.122	89.38
359.349	81.38
359.576	97.38
359.802	73.38
360.029	110.38
360.256	101.38
360.483	93.38
360.709	81.38
360.936	76.38
361.163	91.38
361.39	85.38
361.616	91.38
361.843	90.38
362.07	99.38
362.296	99.38
362.523	93.38
362.749	98.38
362.976	89.38
363.203	84.38
363.429	87.38
363.656	95.38
363.882	89.38
364.109	77.38
364.335	91.38
364.562	82.38
364.788	101.38
365.015	82.38
365.241	95.38
365.468	103.38
365.694	92.38
365.92	91.38
366.147	90.38
366.373	80.38
366.599	91.38
366.826	80.38
367.052	81.38
367.278	101.38
367.505	84.38
367.731	102.38
367.957	94.38
368.184	88.38
368.41	99.38
368.636	112.38
368.862	95.38
369.089	102.38
369.315	91.38
369.541	93.38
369.767	96.38
369.993	96.38
370.219	106.38
370.445	91.38
370.672	92.38
370.898	92.38
371.124	90.38
371.35	89.38
371.576	90.38
371.802	83.38
372.028	84.38
372.254	98.38
372.48	91.38
372.706	88.38
372.932	79.38
373.158	93.38
373.384	96.38
373.61	102.38
373.835	90.38
374.061	101.38
374.287	111.38
374.513	84.38
374.739	94.38
374.965	101.38
375.191	93.38
375.416	69.38
375.642	93.38
375.868	79.38
376.094	93.38
376.319	89.38
376.545	101.38
376.771	92.38
376.997	107.38
377.222	89.38
377.448	97.38
377.674	89.38
377.899	103.38
378.125	89.38
378.35	89.38
378.576	95.38
378.802	99.38
379.027	95.38
379.253	103.38
379.478	89.38
379.704	98.38
379.929	113.38
380.155	102.38
380.38	102.38
380.606	101.38
380.831	91.38
381.057	97.38
381.282	79.38
381.507	101.38
381.733	114.38
381.958	96.38
382.184	91.38
382.409	98.38
382.634	105.38
382.86	92.38
383.085	101.38
383.31	114.38
383.535	97.38
383.761	109.38
383.986	97.38
384.211	83.38
384.436	103.38
384.662	105.38
384.887	105.38
385.112	96.38
385.337	93.38
385.562	94.38
385.787	93.38
386.013	121.38
386.238	102.38
386.463	103.38
386.688	96.38
386.913	112.38
387.138	108.38
387.363	110.38
387.588	96.38
387.813	107.38
388.038	104.38
388.263	110.38
388.488	103.38
388.713	106.38
388.938	99.38
389.163	87.38
389.387	95.38
389.612	73.38
389.837	85.38
390.062	95.38
390.287	83.38
390.512	92.38
390.736	96.38
390.961	90.38
391.186	104.38
391.411	100.38
391.636	86.38
391.86	105.38
392.085	85.38
392.31	84.38
392.534	87.38
392.759	87.38
392.984	87.38
393.208	116.38
393.433	125.38
393.658	119.38
393.882	96.38
394.107	88.38
394.331	95.38
394.556	75.38
394.78	92.38
395.005	94.38
395.229	93.38
395.454	85.38
395.678	74.38
395.903	82.38
396.127	90.38
396.352	89.38
396.576	83.38
396.801	114.38
397.025	107.38
397.249	85.38
397.474	93.38
397.698	107.38
397.922	71.38
398.147	89.38
398.371	94.38
398.595	94.38
398.82	90.38
399.044	97.38
399.268	87.38
399.492	106.38
399.717	95.38
399.941	92.38
400.165	94.38
400.389	83.38
400.613	101.38
400.837	101.38
401.062	101.38
401.286	92.38
401.51	80.38
401.734	77.38
401.958	98.38
402.182	129.38
402.406	141.38
402.63	113.38
402.854	95.38
403.078	96.38
403.302	80.38
403.526	85.38
403.75	82.38
403.974	95.38
404.198	85.38
404.422	83.38
404.645	101.38
404.869	83.38
405.093	90.38
405.317	125.38
405.541	84.38
405.765	102.38
405.988	100.38
406.212	156.38
406.436	191.38
406.66	134.38
406.883	94.38
407.107	105.38
407.331	87.38
407.555	105.38
407.778	97.38
408.002	88.38
408.226	90.38
408.449	103.38
408.673	91.38
408.896	86.38
409.12	81.38
409.344	85.38
409.567	98.38
409.791	96.38
410.014	76.38
410.238	84.38
410.461	106.38
410.685	106.38
410.908	81.38
411.132	103.38
411.355	89.38
411.578	83.38
411.802	91.38
412.025	89.38
412.249	104.38
412.472	99.38
412.695	105.38
412.919	87.38
413.142	94.38
413.365	71.38
413.589	79.38
413.812	91.38
414.035	96.38
414.258	87.38
414.482	94.38
414.705	84.38
414.928	102.38
415.151	107.38
415.374	99.38
415.597	91.38
415.821	94.38
416.044	69.38
416.267	101.38
416.49	96.38
416.713	100.38
416.936	100.38
417.159	90.38
417.382	92.38
417.605	95.38
417.828	90.38
418.051	89.38
418.274	82.38
418.497	81.38
418.72	78.38
418.943	86.38
419.166	74.38
419.389	88.38
419.611	74.38
419.834	84.38
420.057	90.38
420.28	91.38
420.503	98.38
420.726	81.38
420.948	83.38
421.171	97.38
421.394	97.38
421.617	90.38
421.839	89.38
422.062	82.38
422.285	102.38
422.507	101.38
422.73	100.38
422.953	101.38
423.175	91.38
423.398	89.38
423.621	87.38
423.843	87.38
424.066	96.38
424.288	90.38
424.511	80.38
424.733	111.38
424.956	98.38
425.178	86.38
425.401	97.38
425.623	105.38
425.846	91.38
426.068	97.38
426.291	100.38
426.513	108.38
426.735	80.38
426.958	81.38
427.18	103.38
427.402	123.38
427.625	153.38
427.847	126.38
428.069	104.38
428.292	86.38
428.514	88.38
428.736	86.38
428.958	93.38
429.181	81.38
429.403	91.38
429.625	98.38
429.847	87.38
430.069	93.38
430.292	102.38
430.514	85.38
430.736	84.38
430.958	91.38
431.18	86.38
431.402	81.38
431.624	92.38
431.846	86.38
432.068	86.38
432.29	87.38
432.512	83.38
432.734	76.38
432.956	85.38
433.178	97.38
433.4	103.38
433.622	97.38
433.844	87.38
434.066	88.38
434.287	93.38
434.509	84.38
434.731	107.38
434.953	93.38
435.175	81.38
435.397	97.38
435.618	98.38
435.84	98.38
436.062	99.38
436.284	100.38
436.505	92.38
436.727	97.38
436.949	94.38
437.17	93.38
437.392	74.38
437.614	86.38
437.835	93.38
438.057	97.38
438.278	109.38
438.5	89.38
438.721	106.38
438.943	92.38
439.165	82.38
439.386	91.38
439.608	102.38
439.829	109.38
440.05	125.38
440.272	129.38
440.493	96.38
440.715	78.38
440.936	86.38
441.158	93.38
441.379	90.38
441.6	81.38
441.822	103.38
442.043	86.38
442.264	96.38
442.486	102.38
442.707	86.38
442.928	100.38
443.149	114.38
443.371	108.38
443.592	98.38
443.813	90.38
444.034	95.38
444.255	81.38
444.476	91.38
444.698	78.38
444.919	89.38
445.14	146.38
445.361	116.38
445.582	106.38
445.803	135.38
446.024	113.38
446.245	132.38
446.466	100.38
446.687	76.38
446.908	74.38
447.129	84.38
447.35	70.38
447.571	104.38
447.792	87.38
448.013	108.38
448.234	100.38
448.455	97.38
448.675	117.38
448.896	109.38
449.117	94.38
449.338	92.38
449.559	121.38
449.779	107.38
450	90.38
450.221	78.38
450.442	96.38
450.662	97.38
450.883	99.38
451.104	98.38
451.324	82.38
451.545	87.38
451.766	78.38
451.986	79.38
452.207	90.38
452.428	86.38
452.648	86.38
452.869	118.38
453.089	106.38
453.31	100.38
453.53	81.38
453.751	79.38
453.971	96.38
454.192	113.38
454.412	93.38
454.633	84.38
454.853	86.38
455.073	101.38
455.294	76.38
455.514	95.38
455.734	102.38
455.955	90.38
456.175	95.38
456.395	78.38
456.616	83.38
456.836	82.38
457.056	95.38
457.276	73.38
457.497	80.38
457.717	76.38
457.937	82.38
458.157	79.38
458.377	92.38
458.598	105.38
458.818	120.38
459.038	130.38
459.258	103.38
459.478	92.38
459.698	79.38
459.918	88.38
460.138	75.38
460.358	83.38
460.578	100.38
460.798	97.38
461.018	88.38
461.238	94.38
461.458	95.38
461.678	85.38
461.898	101.38
462.118	82.38
462.338	84.38
462.558	94.38
462.777	94.38
462.997	94.38
463.217	79.38
463.437	85.38
463.657	84.38
463.876	84.38
464.096	100.38
464.316	89.38
464.536	81.38
464.755	83.38
464.975	92.38
465.195	146.38
465.414	134.38
465.634	99.38
465.854	84.38
466.073	88.38
466.293	89.38
466.512	83.38
466.732	94.38
466.951	75.38
467.171	96.38
467.391	88.38
467.61	106.38
467.829	82.38
468.049	113.38
468.268	127.38
468.488	97.38
468.707	81.38
468.927	104.38
469.146	92.38
469.365	90.38
469.585	85.38
469.804	82.38
470.023	92.38
470.243	76.38
470.462	85.38
470.681	111.38
470.901	98.38
471.12	78.38
471.339	81.38
471.558	80.38
471.777	89.38
471.997	104.38
472.216	172.38
472.435	251.38
472.654	121.38
472.873	91.38
473.092	97.38
473.311	79.38
473.53	79.38
473.749	90.38
473.968	89.38
474.187	92.38
474.406	99.38
474.625	77.38
474.844	87.38
475.063	90.38
475.282	76.38
475.501	85.38
475.72	103.38
475.939	93.38
476.158	93.38
476.377	77.38
476.596	84.38
476.814	92.38
477.033	80.38
477.252	76.38
477.471	84.38
477.69	94.38
477.908	76.38
478.127	90.38
478.346	85.38
478.564	88.38
478.783	98.38
479.002	78.38
479.22	103.38
479.439	97.38
479.658	107.38
479.876	85.38
480.095	81.38
480.313	91.38
480.532	101.38
480.751	110.38
480.969	162.38
481.188	394.38
481.406	267.38
481.624	115.38
481.843	87.38
482.061	96.38
482.28	97.38
482.498	82.38
482.717	81.38
482.935	82.38
483.153	74.38
483.372	94.38
483.59	99.38
483.808	92.38
484.027	98.38
484.245	87.38
484.463	94.38
484.681	96.38
484.9	105.38
485.118	85.38
485.336	105.38
485.554	93.38
485.772	103.38
485.99	117.38
486.209	113.38
486.427	113.38
486.645	106.38
486.863	98.38
487.081	93.38
487.299	92.38
487.517	100.38
487.735	96.38
487.953	101.38
488.171	106.38
488.389	91.38
488.607	102.38
488.825	93.38
489.043	92.38
489.261	104.38
489.479	101.38
489.696	92.38
489.914	89.38
490.132	95.38
490.35	95.38
490.568	87.38
490.786	92.38
491.003	88.38
491.221	80.38
491.439	106.38
491.657	99.38
491.874	87.38
492.092	101.38
492.31	94.38
492.527	89.38
492.745	86.38
492.963	88.38
493.18	100.38
493.398	95.38
493.615	108.38
493.833	95.38
494.05	84.38
494.268	79.38
494.485	91.38
494.703	81.38
494.92	78.38
495.138	87.38
495.355	85.38
495.573	85.38
495.79	97.38
496.008	89.38
496.225	83.38
496.442	93.38
496.66	91.38
496.877	93.38
497.094	110.38
497.312	79.38
497.529	92.38
497.746	91.38
497.963	84.38
498.181	75.38
498.398	89.38
498.615	88.38
498.832	96.38
499.049	97.38
499.267	88.38
499.484	102.38
499.701	103.38
499.918	84.38
500.135	83.38
500.352	87.38
500.569	95.38
500.786	92.38
501.003	87.38
501.22	85.38
501.437	85.38
501.654	90.38
501.871	95.38
502.088	92.38
502.305	94.38
502.522	92.38
502.739	85.38
502.956	84.38
503.172	94.38
503.389	92.38
503.606	97.38
503.823	107.38
504.04	86.38
504.256	100.38
504.473	87.38
504.69	85.38
504.907	87.38
505.123	91.38
505.34	93.38
505.557	88.38
505.773	99.38
505.99	86.38
506.207	81.38
506.423	82.38
506.64	98.38
506.856	71.38
507.073	97.38
507.289	85.38
507.506	89.38
507.722	97.38
507.939	121.38
508.155	91.38
508.372	89.38
508.588	91.38
508.805	91.38
509.021	94.38
509.238	93.38
509.454	97.38
509.67	105.38
509.887	98.38
510.103	129.38
510.319	196.38
510.536	647.38
510.752	1949.38
510.968	560.38
511.184	145.38
511.401	103.38
511.617	105.38
511.833	81.38
512.049	93.38
512.265	99.38
512.481	87.38
512.698	85.38
512.914	85.38
513.13	83.38
513.346	94.38
513.562	97.38
513.778	95.38
513.994	97.38
514.21	96.38
514.426	108.38
514.642	126.38
514.858	104.38
515.074	131.38
515.29	370.38
515.506	1111.38
515.721	419.38
