Data from Circ_1993_H10_HRD10591_00003.txt Node
Date: Wed Jan 03 11:44:02 EST 2024
User: Yrep
Spectrometer: HR+D1059
Trigger mode: 1
Integration Time (sec): 1.000000E-1
Scans to average: 1
Electric dark correction enabled: true
Nonlinearity correction enabled: false
Boxcar width: 0
XAxis mode: Wavelengths
Number of Pixels in Spectrum: 2048
>>>>>Begin Spectral Data<<<<<
223.165	-15.19
223.4	-15.19
223.635	-15.19
223.869	-26.19
224.104	-19.19
224.338	-19.19
224.573	-9.19
224.808	-24.19
225.042	2.81
225.277	-0.19
225.511	-12.19
225.746	6.81
225.98	6.81
226.215	14.81
226.449	13.81
226.683	18.81
226.918	27.81
227.152	33.81
227.387	25.81
227.621	28.81
227.856	30.81
228.09	36.81
228.324	45.81
228.559	50.81
228.793	49.81
229.027	55.81
229.262	57.81
229.496	78.81
229.73	65.81
229.964	70.81
230.199	75.81
230.433	62.81
230.667	70.81
230.901	76.81
231.136	83.81
231.37	80.81
231.604	85.81
231.838	79.81
232.072	80.81
232.306	74.81
232.541	63.81
232.775	77.81
233.009	61.81
233.243	62.81
233.477	62.81
233.711	75.81
233.945	79.81
234.179	85.81
234.413	91.81
234.647	79.81
234.881	77.81
235.115	60.81
235.349	71.81
235.583	84.81
235.817	76.81
236.051	71.81
236.285	83.81
236.519	63.81
236.753	70.81
236.987	88.81
237.221	77.81
237.455	82.81
237.689	74.81
237.922	66.81
238.156	70.81
238.39	53.81
238.624	69.81
238.858	91.81
239.091	72.81
239.325	64.81
239.559	93.81
239.793	79.81
240.027	81.81
240.26	78.81
240.494	66.81
240.728	64.81
240.961	94.81
241.195	64.81
241.429	66.81
241.662	94.81
241.896	73.81
242.13	81.81
242.363	76.81
242.597	74.81
242.83	82.81
243.064	89.81
243.298	88.81
243.531	77.81
243.765	74.81
243.998	72.81
244.232	80.81
244.465	75.81
244.699	63.81
244.932	62.81
245.166	74.81
245.399	67.81
245.633	61.81
245.866	79.81
246.099	79.81
246.333	79.81
246.566	84.81
246.8	89.81
247.033	71.81
247.266	72.81
247.5	76.81
247.733	59.81
247.966	90.81
248.2	78.81
248.433	75.81
248.666	67.81
248.899	74.81
249.133	87.81
249.366	92.81
249.599	89.81
249.832	85.81
250.066	67.81
250.299	73.81
250.532	80.81
250.765	65.81
250.998	72.81
251.231	75.81
251.465	77.81
251.698	79.81
251.931	84.81
252.164	89.81
252.397	74.81
252.63	80.81
252.863	71.81
253.096	88.81
253.329	75.81
253.562	85.81
253.795	72.81
254.028	75.81
254.261	75.81
254.494	85.81
254.727	73.81
254.96	66.81
255.193	98.81
255.426	57.81
255.659	65.81
255.892	82.81
256.124	81.81
256.357	94.81
256.59	93.81
256.823	77.81
257.056	75.81
257.289	77.81
257.521	69.81
257.754	61.81
257.987	77.81
258.22	81.81
258.452	77.81
258.685	81.81
258.918	72.81
259.151	79.81
259.383	64.81
259.616	78.81
259.849	73.81
260.081	75.81
260.314	74.81
260.547	78.81
260.779	82.81
261.012	82.81
261.244	77.81
261.477	93.81
261.71	83.81
261.942	90.81
262.175	96.81
262.407	87.81
262.64	71.81
262.872	82.81
263.105	73.81
263.337	77.81
263.57	95.81
263.802	86.81
264.035	71.81
264.267	91.81
264.499	87.81
264.732	76.81
264.964	87.81
265.197	78.81
265.429	73.81
265.661	93.81
265.894	82.81
266.126	65.81
266.358	69.81
266.591	77.81
266.823	88.81
267.055	71.81
267.287	73.81
267.52	62.81
267.752	81.81
267.984	85.81
268.216	69.81
268.448	78.81
268.681	78.81
268.913	82.81
269.145	76.81
269.377	79.81
269.609	79.81
269.841	79.81
270.073	80.81
270.306	66.81
270.538	64.81
270.77	69.81
271.002	86.81
271.234	78.81
271.466	82.81
271.698	83.81
271.93	84.81
272.162	65.81
272.394	77.81
272.626	82.81
272.858	65.81
273.09	73.81
273.322	90.81
273.553	84.81
273.785	77.81
274.017	73.81
274.249	80.81
274.481	89.81
274.713	73.81
274.945	97.81
275.176	89.81
275.408	94.81
275.64	85.81
275.872	82.81
276.104	79.81
276.335	83.81
276.567	87.81
276.799	95.81
277.031	97.81
277.262	86.81
277.494	74.81
277.726	71.81
277.957	81.81
278.189	83.81
278.421	94.81
278.652	88.81
278.884	67.81
279.115	93.81
279.347	73.81
279.579	74.81
279.81	83.81
280.042	87.81
280.273	66.81
280.505	91.81
280.736	76.81
280.968	81.81
281.199	72.81
281.431	79.81
281.662	77.81
281.894	86.81
282.125	99.81
282.356	91.81
282.588	122.81
282.819	120.81
283.051	94.81
283.282	90.81
283.513	94.81
283.745	88.81
283.976	75.81
284.207	81.81
284.439	75.81
284.67	99.81
284.901	81.81
285.132	106.81
285.364	88.81
285.595	80.81
285.826	81.81
286.057	82.81
286.288	85.81
286.52	76.81
286.751	88.81
286.982	83.81
287.213	73.81
287.444	83.81
287.675	75.81
287.906	98.81
288.138	91.81
288.369	90.81
288.6	88.81
288.831	84.81
289.062	85.81
289.293	80.81
289.524	88.81
289.755	89.81
289.986	75.81
290.217	66.81
290.448	71.81
290.679	71.81
290.91	79.81
291.141	92.81
291.371	87.81
291.602	82.81
291.833	85.81
292.064	95.81
292.295	80.81
292.526	81.81
292.757	96.81
292.987	83.81
293.218	82.81
293.449	88.81
293.68	80.81
293.91	83.81
294.141	85.81
294.372	89.81
294.603	84.81
294.833	89.81
295.064	61.81
295.295	85.81
295.525	88.81
295.756	91.81
295.987	107.81
296.217	109.81
296.448	108.81
296.679	98.81
296.909	89.81
297.14	77.81
297.37	90.81
297.601	81.81
297.831	79.81
298.062	96.81
298.292	94.81
298.523	89.81
298.753	79.81
298.984	94.81
299.214	86.81
299.445	74.81
299.675	93.81
299.905	79.81
300.136	87.81
300.366	90.81
300.597	85.81
300.827	93.81
301.057	100.81
301.288	96.81
301.518	97.81
301.748	83.81
301.979	89.81
302.209	79.81
302.439	94.81
302.669	80.81
302.9	94.81
303.13	96.81
303.36	91.81
303.59	99.81
303.82	110.81
304.051	101.81
304.281	89.81
304.511	87.81
304.741	85.81
304.971	86.81
305.201	84.81
305.431	94.81
305.661	81.81
305.891	98.81
306.121	71.81
306.352	88.81
306.582	103.81
306.812	97.81
307.042	90.81
307.272	84.81
307.502	95.81
307.731	82.81
307.961	94.81
308.191	79.81
308.421	93.81
308.651	90.81
308.881	101.81
309.111	93.81
309.341	90.81
309.571	95.81
309.8	94.81
310.03	86.81
310.26	89.81
310.49	108.81
310.72	97.81
310.949	93.81
311.179	97.81
311.409	104.81
311.639	94.81
311.868	93.81
312.098	89.81
312.328	83.81
312.557	92.81
312.787	97.81
313.017	78.81
313.246	99.81
313.476	76.81
313.706	90.81
313.935	86.81
314.165	85.81
314.394	106.81
314.624	85.81
314.853	88.81
315.083	89.81
315.312	96.81
315.542	93.81
315.771	94.81
316.001	82.81
316.23	91.81
316.46	83.81
316.689	95.81
316.919	88.81
317.148	90.81
317.377	75.81
317.607	81.81
317.836	85.81
318.065	84.81
318.295	86.81
318.524	75.81
318.753	80.81
318.983	81.81
319.212	98.81
319.441	96.81
319.67	90.81
319.9	84.81
320.129	96.81
320.358	104.81
320.587	80.81
320.816	96.81
321.046	94.81
321.275	87.81
321.504	102.81
321.733	82.81
321.962	80.81
322.191	92.81
322.42	88.81
322.649	84.81
322.878	97.81
323.108	104.81
323.337	124.81
323.566	120.81
323.795	125.81
324.024	157.81
324.253	317.81
324.482	641.81
324.71	1258.81
324.939	1691.81
325.168	603.81
325.397	225.81
325.626	136.81
325.855	117.81
326.084	121.81
326.313	121.81
326.542	120.81
326.77	185.81
326.999	368.81
327.228	729.81
327.457	1261.81
327.686	995.81
327.914	292.81
328.143	162.81
328.372	137.81
328.6	99.81
328.829	105.81
329.058	95.81
329.287	101.81
329.515	100.81
329.744	97.81
329.972	96.81
330.201	104.81
330.43	109.81
330.658	103.81
330.887	101.81
331.115	113.81
331.344	89.81
331.572	93.81
331.801	97.81
332.03	80.81
332.258	86.81
332.486	89.81
332.715	79.81
332.943	94.81
333.172	82.81
333.4	85.81
333.629	101.81
333.857	91.81
334.085	106.81
334.314	97.81
334.542	116.81
334.771	116.81
334.999	97.81
335.227	86.81
335.455	86.81
335.684	85.81
335.912	92.81
336.14	106.81
336.369	99.81
336.597	87.81
336.825	93.81
337.053	86.81
337.281	83.81
337.51	93.81
337.738	82.81
337.966	93.81
338.194	104.81
338.422	103.81
338.65	95.81
338.878	82.81
339.106	82.81
339.334	86.81
339.562	88.81
339.79	94.81
340.018	91.81
340.246	108.81
340.474	75.81
340.702	84.81
340.93	75.81
341.158	89.81
341.386	99.81
341.614	94.81
341.842	92.81
342.07	85.81
342.298	75.81
342.526	78.81
342.754	78.81
342.981	93.81
343.209	93.81
343.437	103.81
343.665	85.81
343.893	86.81
344.12	104.81
344.348	94.81
344.576	88.81
344.804	81.81
345.031	89.81
345.259	91.81
345.487	84.81
345.714	94.81
345.942	74.81
346.17	90.81
346.397	92.81
346.625	103.81
346.853	97.81
347.08	87.81
347.308	74.81
347.535	74.81
347.763	95.81
347.99	102.81
348.218	108.81
348.445	105.81
348.673	87.81
348.9	90.81
349.128	88.81
349.355	89.81
349.583	90.81
349.81	99.81
350.037	85.81
350.265	79.81
350.492	88.81
350.72	94.81
350.947	102.81
351.174	90.81
351.402	85.81
351.629	96.81
351.856	92.81
352.083	95.81
352.311	111.81
352.538	105.81
352.765	97.81
352.992	120.81
353.22	111.81
353.447	110.81
353.674	98.81
353.901	102.81
354.128	86.81
354.355	87.81
354.583	89.81
354.81	89.81
355.037	89.81
355.264	99.81
355.491	109.81
355.718	95.81
355.945	109.81
356.172	94.81
356.399	108.81
356.626	94.81
356.853	103.81
357.08	96.81
357.307	81.81
357.534	89.81
357.761	95.81
357.988	110.81
358.215	111.81
358.441	124.81
358.668	117.81
358.895	99.81
359.122	110.81
359.349	111.81
359.576	99.81
359.802	94.81
360.029	105.81
360.256	94.81
360.483	93.81
360.709	78.81
360.936	86.81
361.163	87.81
361.39	86.81
361.616	91.81
361.843	107.81
362.07	86.81
362.296	88.81
362.523	81.81
362.749	90.81
362.976	71.81
363.203	88.81
363.429	95.81
363.656	85.81
363.882	99.81
364.109	94.81
364.335	82.81
364.562	90.81
364.788	77.81
365.015	87.81
365.241	106.81
365.468	97.81
365.694	91.81
365.92	96.81
366.147	65.81
366.373	94.81
366.599	92.81
366.826	81.81
367.052	75.81
367.278	87.81
367.505	77.81
367.731	97.81
367.957	85.81
368.184	76.81
368.41	77.81
368.636	98.81
368.862	115.81
369.089	108.81
369.315	81.81
369.541	82.81
369.767	83.81
369.993	88.81
370.219	78.81
370.445	77.81
370.672	73.81
370.898	69.81
371.124	88.81
371.35	82.81
371.576	100.81
371.802	94.81
372.028	85.81
372.254	88.81
372.48	77.81
372.706	89.81
372.932	78.81
373.158	94.81
373.384	99.81
373.61	96.81
373.835	96.81
374.061	102.81
374.287	98.81
374.513	84.81
374.739	77.81
374.965	81.81
375.191	97.81
375.416	97.81
375.642	98.81
375.868	107.81
376.094	109.81
376.319	85.81
376.545	115.81
376.771	107.81
376.997	86.81
377.222	93.81
377.448	110.81
377.674	104.81
377.899	92.81
378.125	95.81
378.35	97.81
378.576	104.81
378.802	97.81
379.027	102.81
379.253	98.81
379.478	111.81
379.704	108.81
379.929	105.81
380.155	107.81
380.38	112.81
380.606	107.81
380.831	114.81
381.057	119.81
381.282	120.81
381.507	128.81
381.733	123.81
381.958	131.81
382.184	128.81
382.409	119.81
382.634	146.81
382.86	153.81
383.085	135.81
383.31	131.81
383.535	142.81
383.761	151.81
383.986	142.81
384.211	141.81
384.436	149.81
384.662	167.81
384.887	178.81
385.112	187.81
385.337	178.81
385.562	187.81
385.787	182.81
386.013	178.81
386.238	183.81
386.463	168.81
386.688	169.81
386.913	179.81
387.138	189.81
387.363	186.81
387.588	155.81
387.813	143.81
388.038	164.81
388.263	227.81
388.488	203.81
388.713	117.81
388.938	105.81
389.163	95.81
389.387	93.81
389.612	96.81
389.837	92.81
390.062	96.81
390.287	85.81
390.512	94.81
390.736	78.81
390.961	87.81
391.186	73.81
391.411	87.81
391.636	99.81
391.86	76.81
392.085	106.81
392.31	87.81
392.534	91.81
392.759	96.81
392.984	118.81
393.208	207.81
393.433	365.81
393.658	297.81
393.882	122.81
394.107	83.81
394.331	91.81
394.556	82.81
394.78	86.81
395.005	95.81
395.229	89.81
395.454	79.81
395.678	84.81
395.903	79.81
396.127	92.81
396.352	102.81
396.576	128.81
396.801	181.81
397.025	215.81
397.249	127.81
397.474	102.81
397.698	91.81
397.922	98.81
398.147	66.81
398.371	93.81
398.595	75.81
398.82	78.81
399.044	95.81
399.268	90.81
399.492	82.81
399.717	82.81
399.941	85.81
400.165	93.81
400.389	90.81
400.613	88.81
400.837	84.81
401.062	77.81
401.286	80.81
401.51	83.81
401.734	85.81
401.958	95.81
402.182	112.81
402.406	134.81
402.63	91.81
402.854	95.81
403.078	99.81
403.302	93.81
403.526	92.81
403.75	51.81
403.974	85.81
404.198	87.81
404.422	96.81
404.645	82.81
404.869	87.81
405.093	94.81
405.317	82.81
405.541	94.81
405.765	81.81
405.988	109.81
406.212	129.81
406.436	173.81
406.66	110.81
406.883	98.81
407.107	80.81
407.331	100.81
407.555	93.81
407.778	86.81
408.002	92.81
408.226	71.81
408.449	93.81
408.673	96.81
408.896	98.81
409.12	90.81
409.344	94.81
409.567	91.81
409.791	91.81
410.014	102.81
410.238	87.81
410.461	88.81
410.685	84.81
410.908	98.81
411.132	90.81
411.355	96.81
411.578	88.81
411.802	85.81
412.025	81.81
412.249	87.81
412.472	97.81
412.695	90.81
412.919	91.81
413.142	99.81
413.365	84.81
413.589	91.81
413.812	78.81
414.035	83.81
414.258	97.81
414.482	90.81
414.705	97.81
414.928	104.81
415.151	87.81
415.374	100.81
415.597	96.81
415.821	92.81
416.044	96.81
416.267	94.81
416.49	93.81
416.713	91.81
416.936	102.81
417.159	108.81
417.382	92.81
417.605	83.81
417.828	93.81
418.051	97.81
418.274	88.81
418.497	107.81
418.72	103.81
418.943	92.81
419.166	109.81
419.389	83.81
419.611	92.81
419.834	88.81
420.057	96.81
420.28	85.81
420.503	77.81
420.726	86.81
420.948	81.81
421.171	91.81
421.394	87.81
421.617	76.81
421.839	82.81
422.062	73.81
422.285	86.81
422.507	114.81
422.73	182.81
422.953	156.81
423.175	108.81
423.398	74.81
423.621	80.81
423.843	82.81
424.066	84.81
424.288	90.81
424.511	87.81
424.733	78.81
424.956	98.81
425.178	88.81
425.401	84.81
425.623	96.81
425.846	72.81
426.068	103.81
426.291	88.81
426.513	96.81
426.735	83.81
426.958	89.81
427.18	92.81
427.402	114.81
427.625	128.81
427.847	111.81
428.069	94.81
428.292	77.81
428.514	79.81
428.736	86.81
428.958	88.81
429.181	83.81
429.403	79.81
429.625	87.81
429.847	88.81
430.069	94.81
430.292	94.81
430.514	78.81
430.736	77.81
430.958	76.81
431.18	85.81
431.402	81.81
431.624	94.81
431.846	82.81
432.068	104.81
432.29	81.81
432.512	95.81
432.734	93.81
432.956	81.81
433.178	78.81
433.4	94.81
433.622	85.81
433.844	94.81
434.066	82.81
434.287	89.81
434.509	86.81
434.731	71.81
434.953	78.81
435.175	85.81
435.397	82.81
435.618	75.81
435.84	101.81
436.062	112.81
436.284	93.81
436.505	81.81
436.727	103.81
436.949	86.81
437.17	80.81
437.392	86.81
437.614	87.81
437.835	90.81
438.057	87.81
438.278	98.81
438.5	77.81
438.721	112.81
438.943	87.81
439.165	90.81
439.386	86.81
439.608	84.81
439.829	93.81
440.05	109.81
440.272	115.81
440.493	84.81
440.715	92.81
440.936	89.81
441.158	89.81
441.379	82.81
441.6	86.81
441.822	98.81
442.043	95.81
442.264	99.81
442.486	104.81
442.707	100.81
442.928	95.81
443.149	108.81
443.371	112.81
443.592	109.81
443.813	103.81
444.034	97.81
444.255	86.81
444.476	67.81
444.698	82.81
444.919	78.81
445.14	141.81
445.361	99.81
445.582	99.81
445.803	135.81
446.024	126.81
446.245	104.81
446.466	105.81
446.687	86.81
446.908	85.81
447.129	75.81
447.35	85.81
447.571	88.81
447.792	82.81
448.013	86.81
448.234	103.81
448.455	88.81
448.675	114.81
448.896	107.81
449.117	87.81
449.338	97.81
449.559	107.81
449.779	126.81
450	101.81
450.221	79.81
450.442	80.81
450.662	94.81
450.883	83.81
451.104	99.81
451.324	91.81
451.545	87.81
451.766	89.81
451.986	89.81
452.207	72.81
452.428	87.81
452.648	91.81
452.869	91.81
453.089	110.81
453.31	116.81
453.53	84.81
453.751	88.81
453.971	91.81
454.192	109.81
454.412	82.81
454.633	81.81
454.853	77.81
455.073	93.81
455.294	96.81
455.514	96.81
455.734	98.81
455.955	77.81
456.175	83.81
456.395	66.81
456.616	86.81
456.836	96.81
457.056	91.81
457.276	77.81
457.497	78.81
457.717	96.81
457.937	84.81
458.157	100.81
458.377	88.81
458.598	95.81
458.818	104.81
459.038	137.81
459.258	97.81
459.478	75.81
459.698	89.81
459.918	89.81
460.138	69.81
460.358	81.81
460.578	72.81
460.798	87.81
461.018	87.81
461.238	82.81
461.458	85.81
461.678	93.81
461.898	86.81
462.118	88.81
462.338	86.81
462.558	89.81
462.777	92.81
462.997	94.81
463.217	75.81
463.437	77.81
463.657	85.81
463.876	86.81
464.096	85.81
464.316	89.81
464.536	91.81
464.755	94.81
464.975	104.81
465.195	134.81
465.414	135.81
465.634	88.81
465.854	88.81
466.073	80.81
466.293	78.81
466.512	89.81
466.732	88.81
466.951	88.81
467.171	105.81
467.391	88.81
467.61	95.81
467.829	87.81
468.049	89.81
468.268	89.81
468.488	79.81
468.707	87.81
468.927	88.81
469.146	73.81
469.365	88.81
469.585	72.81
469.804	81.81
470.023	81.81
470.243	95.81
470.462	92.81
470.681	101.81
470.901	88.81
471.12	89.81
471.339	81.81
471.558	81.81
471.777	70.81
471.997	83.81
472.216	106.81
472.435	107.81
472.654	84.81
472.873	86.81
473.092	86.81
473.311	90.81
473.53	87.81
473.749	88.81
473.968	92.81
474.187	86.81
474.406	72.81
474.625	94.81
474.844	78.81
475.063	75.81
475.282	98.81
475.501	88.81
475.72	80.81
475.939	86.81
476.158	82.81
476.377	97.81
476.596	77.81
476.814	85.81
477.033	105.81
477.252	104.81
477.471	79.81
477.69	69.81
477.908	96.81
478.127	76.81
478.346	78.81
478.564	98.81
478.783	81.81
479.002	93.81
479.22	89.81
479.439	98.81
479.658	95.81
479.876	82.81
480.095	92.81
480.313	88.81
480.532	87.81
480.751	87.81
480.969	106.81
481.188	151.81
481.406	145.81
481.624	101.81
481.843	80.81
482.061	72.81
482.28	96.81
482.498	88.81
482.717	92.81
482.935	79.81
483.153	87.81
483.372	94.81
483.59	82.81
483.808	89.81
484.027	96.81
484.245	80.81
484.463	93.81
484.681	98.81
484.9	93.81
485.118	89.81
485.336	93.81
485.554	103.81
485.772	101.81
485.99	108.81
486.209	106.81
486.427	118.81
486.645	114.81
486.863	104.81
487.081	101.81
487.299	101.81
487.517	84.81
487.735	94.81
487.953	96.81
488.171	83.81
488.389	75.81
488.607	94.81
488.825	84.81
489.043	92.81
489.261	95.81
489.479	81.81
489.696	89.81
489.914	105.81
490.132	90.81
490.35	90.81
490.568	88.81
490.786	82.81
491.003	71.81
491.221	81.81
491.439	86.81
491.657	85.81
491.874	92.81
492.092	81.81
492.31	93.81
492.527	80.81
492.745	86.81
492.963	89.81
493.18	96.81
493.398	109.81
493.615	98.81
493.833	79.81
494.05	78.81
494.268	88.81
494.485	94.81
494.703	85.81
494.92	76.81
495.138	79.81
495.355	91.81
495.573	79.81
495.79	85.81
496.008	89.81
496.225	90.81
496.442	100.81
496.66	93.81
496.877	74.81
497.094	88.81
497.312	78.81
497.529	91.81
497.746	91.81
497.963	92.81
498.181	89.81
498.398	89.81
498.615	99.81
498.832	103.81
499.049	102.81
499.267	90.81
499.484	91.81
499.701	91.81
499.918	91.81
500.135	87.81
500.352	90.81
500.569	75.81
500.786	85.81
501.003	94.81
501.22	104.81
501.437	78.81
501.654	91.81
501.871	82.81
502.088	95.81
502.305	92.81
502.522	91.81
502.739	91.81
502.956	90.81
503.172	90.81
503.389	98.81
503.606	102.81
503.823	92.81
504.04	80.81
504.256	88.81
504.473	73.81
504.69	90.81
504.907	86.81
505.123	76.81
505.34	87.81
505.557	85.81
505.773	88.81
505.99	80.81
506.207	82.81
506.423	87.81
506.64	94.81
506.856	95.81
507.073	73.81
507.289	90.81
507.506	79.81
507.722	84.81
507.939	82.81
508.155	71.81
508.372	88.81
508.588	77.81
508.805	97.81
509.021	86.81
509.238	95.81
509.454	77.81
509.67	99.81
509.887	113.81
510.103	119.81
510.319	188.81
510.536	633.81
510.752	1837.81
510.968	533.81
511.184	143.81
511.401	90.81
511.617	86.81
511.833	83.81
512.049	85.81
512.265	80.81
512.481	80.81
512.698	80.81
512.914	89.81
513.13	89.81
513.346	95.81
513.562	93.81
513.778	92.81
513.994	90.81
514.21	95.81
514.426	106.81
514.642	110.81
514.858	105.81
515.074	153.81
515.29	367.81
515.506	1077.81
515.721	405.81
515.937	123.81
516.153	81.81
516.369	93.81
516.585	95.81
