Data from Circ_1993_H10_HRD10591_00070.txt Node
Date: Wed Jan 03 11:44:16 EST 2024
User: Yrep
Spectrometer: HR+D1059
Trigger mode: 1
Integration Time (sec): 1.000000E-1
Scans to average: 1
Electric dark correction enabled: true
Nonlinearity correction enabled: false
Boxcar width: 0
XAxis mode: Wavelengths
Number of Pixels in Spectrum: 2048
>>>>>Begin Spectral Data<<<<<
223.165	-18.94
223.4	-18.94
223.635	-18.94
223.869	-26.94
224.104	-17.94
224.338	-12.94
224.573	-7.94
224.808	-7.94
225.042	-14.94
225.277	-3.94
225.511	-12.94
225.746	-10.94
225.98	15.06
226.215	19.06
226.449	16.06
226.683	26.06
226.918	22.06
227.152	37.06
227.387	35.06
227.621	41.06
227.856	41.06
228.09	46.06
228.324	54.06
228.559	55.06
228.793	60.06
229.027	69.06
229.262	62.06
229.496	77.06
229.73	79.06
229.964	75.06
230.199	73.06
230.433	93.06
230.667	86.06
230.901	63.06
231.136	76.06
231.37	91.06
231.604	73.06
231.838	83.06
232.072	87.06
232.306	81.06
232.541	83.06
232.775	82.06
233.009	83.06
233.243	84.06
233.477	81.06
233.711	89.06
233.945	73.06
234.179	86.06
234.413	77.06
234.647	92.06
234.881	77.06
235.115	85.06
235.349	75.06
235.583	80.06
235.817	79.06
236.051	85.06
236.285	92.06
236.519	83.06
236.753	79.06
236.987	83.06
237.221	71.06
237.455	77.06
237.689	96.06
237.922	84.06
238.156	84.06
238.39	82.06
238.624	86.06
238.858	82.06
239.091	80.06
239.325	82.06
239.559	89.06
239.793	84.06
240.027	76.06
240.26	76.06
240.494	93.06
240.728	89.06
240.961	61.06
241.195	86.06
241.429	72.06
241.662	76.06
241.896	80.06
242.13	83.06
242.363	78.06
242.597	82.06
242.83	87.06
243.064	95.06
243.298	85.06
243.531	80.06
243.765	78.06
243.998	82.06
244.232	87.06
244.465	93.06
244.699	70.06
244.932	83.06
245.166	82.06
245.399	77.06
245.633	86.06
245.866	98.06
246.099	81.06
246.333	65.06
246.566	74.06
246.8	79.06
247.033	84.06
247.266	80.06
247.5	86.06
247.733	75.06
247.966	76.06
248.2	89.06
248.433	82.06
248.666	79.06
248.899	99.06
249.133	85.06
249.366	77.06
249.599	76.06
249.832	81.06
250.066	86.06
250.299	71.06
250.532	79.06
250.765	78.06
250.998	80.06
251.231	88.06
251.465	73.06
251.698	71.06
251.931	87.06
252.164	80.06
252.397	69.06
252.63	75.06
252.863	77.06
253.096	73.06
253.329	84.06
253.562	84.06
253.795	77.06
254.028	85.06
254.261	77.06
254.494	81.06
254.727	83.06
254.96	91.06
255.193	87.06
255.426	77.06
255.659	77.06
255.892	96.06
256.124	92.06
256.357	70.06
256.59	81.06
256.823	82.06
257.056	94.06
257.289	87.06
257.521	89.06
257.754	94.06
257.987	91.06
258.22	72.06
258.452	96.06
258.685	79.06
258.918	100.06
259.151	76.06
259.383	94.06
259.616	89.06
259.849	80.06
260.081	92.06
260.314	90.06
260.547	83.06
260.779	83.06
261.012	85.06
261.244	88.06
261.477	85.06
261.71	98.06
261.942	98.06
262.175	103.06
262.407	94.06
262.64	88.06
262.872	77.06
263.105	79.06
263.337	78.06
263.57	83.06
263.802	79.06
264.035	89.06
264.267	91.06
264.499	78.06
264.732	92.06
264.964	84.06
265.197	83.06
265.429	96.06
265.661	83.06
265.894	65.06
266.126	79.06
266.358	73.06
266.591	79.06
266.823	91.06
267.055	80.06
267.287	86.06
267.52	88.06
267.752	76.06
267.984	79.06
268.216	97.06
268.448	84.06
268.681	103.06
268.913	95.06
269.145	89.06
269.377	90.06
269.609	77.06
269.841	78.06
270.073	91.06
270.306	88.06
270.538	85.06
270.77	75.06
271.002	93.06
271.234	100.06
271.466	104.06
271.698	95.06
271.93	79.06
272.162	85.06
272.394	85.06
272.626	85.06
272.858	79.06
273.09	86.06
273.322	84.06
273.553	86.06
273.785	98.06
274.017	84.06
274.249	92.06
274.481	82.06
274.713	85.06
274.945	86.06
275.176	95.06
275.408	95.06
275.64	100.06
275.872	92.06
276.104	88.06
276.335	83.06
276.567	98.06
276.799	97.06
277.031	98.06
277.262	99.06
277.494	86.06
277.726	82.06
277.957	89.06
278.189	77.06
278.421	80.06
278.652	95.06
278.884	96.06
279.115	98.06
279.347	96.06
279.579	84.06
279.81	89.06
280.042	94.06
280.273	105.06
280.505	95.06
280.736	87.06
280.968	85.06
281.199	100.06
281.431	86.06
281.662	80.06
281.894	79.06
282.125	96.06
282.356	109.06
282.588	119.06
282.819	121.06
283.051	109.06
283.282	90.06
283.513	85.06
283.745	82.06
283.976	92.06
284.207	95.06
284.439	82.06
284.67	99.06
284.901	84.06
285.132	89.06
285.364	83.06
285.595	81.06
285.826	87.06
286.057	92.06
286.288	88.06
286.52	93.06
286.751	88.06
286.982	99.06
287.213	95.06
287.444	82.06
287.675	95.06
287.906	79.06
288.138	85.06
288.369	95.06
288.6	94.06
288.831	88.06
289.062	79.06
289.293	89.06
289.524	94.06
289.755	84.06
289.986	81.06
290.217	86.06
290.448	83.06
290.679	78.06
290.91	116.06
291.141	101.06
291.371	99.06
291.602	104.06
291.833	81.06
292.064	93.06
292.295	94.06
292.526	86.06
292.757	77.06
292.987	88.06
293.218	85.06
293.449	101.06
293.68	73.06
293.91	85.06
294.141	101.06
294.372	99.06
294.603	85.06
294.833	95.06
295.064	95.06
295.295	90.06
295.525	99.06
295.756	95.06
295.987	109.06
296.217	125.06
296.448	83.06
296.679	93.06
296.909	95.06
297.14	105.06
297.37	95.06
297.601	97.06
297.831	83.06
298.062	97.06
298.292	104.06
298.523	102.06
298.753	89.06
298.984	100.06
299.214	99.06
299.445	99.06
299.675	89.06
299.905	93.06
300.136	92.06
300.366	82.06
300.597	96.06
300.827	87.06
301.057	95.06
301.288	99.06
301.518	91.06
301.748	95.06
301.979	109.06
302.209	99.06
302.439	89.06
302.669	100.06
302.9	91.06
303.13	81.06
303.36	95.06
303.59	98.06
303.82	107.06
304.051	93.06
304.281	88.06
304.511	88.06
304.741	96.06
304.971	93.06
305.201	97.06
305.431	96.06
305.661	94.06
305.891	94.06
306.121	91.06
306.352	90.06
306.582	87.06
306.812	81.06
307.042	84.06
307.272	104.06
307.502	102.06
307.731	87.06
307.961	97.06
308.191	93.06
308.421	96.06
308.651	93.06
308.881	93.06
309.111	96.06
309.341	95.06
309.571	96.06
309.8	103.06
310.03	99.06
310.26	105.06
310.49	96.06
310.72	78.06
310.949	93.06
311.179	101.06
311.409	78.06
311.639	108.06
311.868	103.06
312.098	95.06
312.328	104.06
312.557	94.06
312.787	92.06
313.017	105.06
313.246	103.06
313.476	94.06
313.706	88.06
313.935	89.06
314.165	109.06
314.394	106.06
314.624	89.06
314.853	105.06
315.083	106.06
315.312	101.06
315.542	89.06
315.771	95.06
316.001	103.06
316.23	88.06
316.46	105.06
316.689	83.06
316.919	92.06
317.148	95.06
317.377	100.06
317.607	96.06
317.836	88.06
318.065	88.06
318.295	90.06
318.524	82.06
318.753	95.06
318.983	87.06
319.212	90.06
319.441	112.06
319.67	103.06
319.9	96.06
320.129	92.06
320.358	96.06
320.587	85.06
320.816	98.06
321.046	93.06
321.275	91.06
321.504	105.06
321.733	107.06
321.962	100.06
322.191	108.06
322.42	95.06
322.649	93.06
322.878	107.06
323.108	107.06
323.337	128.06
323.566	141.06
323.795	136.06
324.024	179.06
324.253	366.06
324.482	685.06
324.71	1383.06
324.939	1826.06
325.168	711.06
325.397	217.06
325.626	131.06
325.855	142.06
326.084	129.06
326.313	125.06
326.542	137.06
326.77	191.06
326.999	397.06
327.228	822.06
327.457	1422.06
327.686	1139.06
327.914	339.06
328.143	195.06
328.372	183.06
328.6	143.06
328.829	123.06
329.058	133.06
329.287	119.06
329.515	115.06
329.744	120.06
329.972	146.06
330.201	183.06
330.43	233.06
330.658	155.06
330.887	128.06
331.115	123.06
331.344	104.06
331.572	99.06
331.801	91.06
332.03	88.06
332.258	89.06
332.486	105.06
332.715	95.06
332.943	103.06
333.172	105.06
333.4	108.06
333.629	110.06
333.857	104.06
334.085	148.06
334.314	173.06
334.542	274.06
334.771	264.06
334.999	137.06
335.227	97.06
335.455	96.06
335.684	92.06
335.912	95.06
336.14	95.06
336.369	97.06
336.597	88.06
336.825	103.06
337.053	101.06
337.281	105.06
337.51	101.06
337.738	83.06
337.966	108.06
338.194	93.06
338.422	85.06
338.65	104.06
338.878	112.06
339.106	95.06
339.334	109.06
339.562	104.06
339.79	93.06
340.018	86.06
340.246	106.06
340.474	96.06
340.702	99.06
340.93	91.06
341.158	97.06
341.386	99.06
341.614	84.06
341.842	95.06
342.07	97.06
342.298	87.06
342.526	91.06
342.754	94.06
342.981	95.06
343.209	105.06
343.437	100.06
343.665	95.06
343.893	111.06
344.12	116.06
344.348	88.06
344.576	83.06
344.804	91.06
345.031	118.06
345.259	90.06
345.487	95.06
345.714	89.06
345.942	98.06
346.17	100.06
346.397	104.06
346.625	104.06
346.853	103.06
347.08	94.06
347.308	99.06
347.535	89.06
347.763	108.06
347.99	101.06
348.218	76.06
348.445	94.06
348.673	103.06
348.9	97.06
349.128	91.06
349.355	99.06
349.583	92.06
349.81	93.06
350.037	101.06
350.265	86.06
350.492	99.06
350.72	103.06
350.947	105.06
351.174	108.06
351.402	114.06
351.629	100.06
351.856	100.06
352.083	93.06
352.311	94.06
352.538	105.06
352.765	104.06
352.992	111.06
353.22	103.06
353.447	102.06
353.674	75.06
353.901	111.06
354.128	101.06
354.355	104.06
354.583	97.06
354.81	95.06
355.037	106.06
355.264	91.06
355.491	101.06
355.718	93.06
355.945	107.06
356.172	100.06
356.399	95.06
356.626	101.06
356.853	104.06
357.08	104.06
357.307	93.06
357.534	93.06
357.761	94.06
357.988	92.06
358.215	98.06
358.441	109.06
358.668	89.06
358.895	89.06
359.122	92.06
359.349	83.06
359.576	99.06
359.802	97.06
360.029	108.06
360.256	118.06
360.483	102.06
360.709	98.06
360.936	105.06
361.163	93.06
361.39	95.06
361.616	92.06
361.843	99.06
362.07	88.06
362.296	77.06
362.523	92.06
362.749	95.06
362.976	86.06
363.203	101.06
363.429	89.06
363.656	84.06
363.882	81.06
364.109	93.06
364.335	99.06
364.562	71.06
364.788	99.06
365.015	100.06
365.241	100.06
365.468	96.06
365.694	111.06
365.92	88.06
366.147	94.06
366.373	87.06
366.599	97.06
366.826	90.06
367.052	89.06
367.278	105.06
367.505	86.06
367.731	106.06
367.957	83.06
368.184	88.06
368.41	90.06
368.636	106.06
368.862	116.06
369.089	114.06
369.315	105.06
369.541	85.06
369.767	98.06
369.993	91.06
370.219	95.06
370.445	83.06
370.672	85.06
370.898	87.06
371.124	86.06
371.35	92.06
371.576	99.06
371.802	82.06
372.028	92.06
372.254	94.06
372.48	95.06
372.706	83.06
372.932	93.06
373.158	101.06
373.384	101.06
373.61	84.06
373.835	83.06
374.061	86.06
374.287	86.06
374.513	95.06
374.739	99.06
374.965	99.06
375.191	97.06
375.416	101.06
375.642	104.06
375.868	98.06
376.094	87.06
376.319	89.06
376.545	87.06
376.771	99.06
376.997	88.06
377.222	92.06
377.448	97.06
377.674	96.06
377.899	93.06
378.125	95.06
378.35	81.06
378.576	89.06
378.802	90.06
379.027	100.06
379.253	112.06
379.478	99.06
379.704	96.06
379.929	97.06
380.155	100.06
380.38	95.06
380.606	93.06
380.831	98.06
381.057	102.06
381.282	110.06
381.507	102.06
381.733	103.06
381.958	104.06
382.184	100.06
382.409	102.06
382.634	125.06
382.86	110.06
383.085	108.06
383.31	103.06
383.535	103.06
383.761	103.06
383.986	102.06
384.211	93.06
384.436	101.06
384.662	116.06
384.887	108.06
385.112	103.06
385.337	113.06
385.562	105.06
385.787	103.06
386.013	117.06
386.238	112.06
386.463	111.06
386.688	119.06
386.913	101.06
387.138	112.06
387.363	115.06
387.588	123.06
387.813	102.06
388.038	96.06
388.263	107.06
388.488	117.06
388.713	94.06
388.938	95.06
389.163	98.06
389.387	100.06
389.612	90.06
389.837	98.06
390.062	94.06
390.287	103.06
390.512	88.06
390.736	91.06
390.961	75.06
391.186	91.06
391.411	91.06
391.636	91.06
391.86	100.06
392.085	101.06
392.31	92.06
392.534	111.06
392.759	104.06
392.984	88.06
393.208	116.06
393.433	132.06
393.658	109.06
393.882	81.06
394.107	80.06
394.331	88.06
394.556	104.06
394.78	88.06
395.005	80.06
395.229	84.06
395.454	83.06
395.678	94.06
395.903	103.06
396.127	85.06
396.352	101.06
396.576	85.06
396.801	111.06
397.025	108.06
397.249	81.06
397.474	100.06
397.698	91.06
397.922	95.06
398.147	102.06
398.371	95.06
398.595	92.06
398.82	89.06
399.044	80.06
399.268	95.06
399.492	94.06
399.717	70.06
399.941	101.06
400.165	100.06
400.389	99.06
400.613	91.06
400.837	87.06
401.062	86.06
401.286	94.06
401.51	105.06
401.734	91.06
401.958	102.06
402.182	117.06
402.406	144.06
402.63	102.06
402.854	93.06
403.078	95.06
403.302	86.06
403.526	78.06
403.75	76.06
403.974	94.06
404.198	86.06
404.422	115.06
404.645	96.06
404.869	95.06
405.093	104.06
405.317	97.06
405.541	107.06
405.765	111.06
405.988	116.06
406.212	148.06
406.436	211.06
406.66	142.06
406.883	96.06
407.107	86.06
407.331	99.06
407.555	101.06
407.778	96.06
408.002	87.06
408.226	100.06
408.449	87.06
408.673	95.06
408.896	97.06
409.12	111.06
409.344	91.06
409.567	91.06
409.791	89.06
410.014	87.06
410.238	75.06
410.461	79.06
410.685	97.06
410.908	93.06
411.132	107.06
411.355	82.06
411.578	93.06
411.802	95.06
412.025	95.06
412.249	89.06
412.472	105.06
412.695	114.06
412.919	102.06
413.142	96.06
413.365	93.06
413.589	99.06
413.812	82.06
414.035	99.06
414.258	97.06
414.482	102.06
414.705	87.06
414.928	85.06
415.151	85.06
415.374	106.06
415.597	105.06
415.821	87.06
416.044	83.06
416.267	86.06
416.49	95.06
416.713	90.06
416.936	91.06
417.159	82.06
417.382	71.06
417.605	99.06
417.828	92.06
418.051	97.06
418.274	81.06
418.497	97.06
418.72	85.06
418.943	95.06
419.166	87.06
419.389	96.06
419.611	87.06
419.834	88.06
420.057	98.06
420.28	104.06
420.503	93.06
420.726	102.06
420.948	89.06
421.171	98.06
421.394	100.06
421.617	89.06
421.839	97.06
422.062	91.06
422.285	89.06
422.507	95.06
422.73	104.06
422.953	101.06
423.175	94.06
423.398	93.06
423.621	87.06
423.843	95.06
424.066	96.06
424.288	79.06
424.511	95.06
424.733	102.06
424.956	93.06
425.178	104.06
425.401	112.06
425.623	111.06
425.846	90.06
426.068	93.06
426.291	100.06
426.513	95.06
426.735	87.06
426.958	87.06
427.18	103.06
427.402	121.06
427.625	161.06
427.847	136.06
428.069	115.06
428.292	99.06
428.514	92.06
428.736	93.06
428.958	77.06
429.181	106.06
429.403	82.06
429.625	83.06
429.847	102.06
430.069	95.06
430.292	113.06
430.514	100.06
430.736	82.06
430.958	70.06
431.18	83.06
431.402	93.06
431.624	85.06
431.846	91.06
432.068	95.06
432.29	85.06
432.512	104.06
432.734	93.06
432.956	83.06
433.178	97.06
433.4	103.06
433.622	100.06
433.844	82.06
434.066	92.06
434.287	80.06
434.509	84.06
434.731	91.06
434.953	86.06
435.175	91.06
435.397	88.06
435.618	92.06
435.84	96.06
436.062	106.06
436.284	99.06
436.505	98.06
436.727	95.06
436.949	87.06
437.17	81.06
437.392	89.06
437.614	93.06
437.835	114.06
438.057	111.06
438.278	100.06
438.5	87.06
438.721	124.06
438.943	98.06
439.165	86.06
439.386	92.06
439.608	100.06
439.829	97.06
440.05	120.06
440.272	121.06
440.493	99.06
440.715	87.06
440.936	91.06
441.158	98.06
441.379	102.06
441.6	93.06
441.822	99.06
442.043	95.06
442.264	100.06
442.486	92.06
442.707	87.06
442.928	92.06
443.149	116.06
443.371	114.06
443.592	108.06
443.813	113.06
444.034	89.06
444.255	88.06
444.476	77.06
444.698	91.06
444.919	84.06
445.14	121.06
445.361	119.06
445.582	112.06
445.803	117.06
446.024	134.06
446.245	139.06
446.466	110.06
446.687	99.06
446.908	93.06
447.129	102.06
447.35	98.06
447.571	97.06
447.792	105.06
448.013	87.06
448.234	95.06
448.455	84.06
448.675	102.06
448.896	92.06
449.117	103.06
449.338	88.06
449.559	118.06
449.779	119.06
450	99.06
450.221	88.06
450.442	74.06
450.662	108.06
450.883	103.06
451.104	100.06
451.324	92.06
451.545	87.06
451.766	84.06
451.986	92.06
452.207	94.06
452.428	93.06
452.648	89.06
452.869	101.06
453.089	116.06
453.31	117.06
453.53	97.06
453.751	98.06
453.971	104.06
454.192	95.06
454.412	99.06
454.633	102.06
454.853	92.06
455.073	91.06
455.294	76.06
455.514	91.06
455.734	89.06
455.955	75.06
456.175	94.06
456.395	91.06
456.616	89.06
456.836	81.06
457.056	95.06
457.276	92.06
457.497	86.06
457.717	84.06
457.937	86.06
458.157	86.06
458.377	100.06
458.598	94.06
458.818	132.06
459.038	158.06
459.258	106.06
459.478	75.06
459.698	97.06
459.918	96.06
460.138	97.06
460.358	81.06
460.578	83.06
460.798	99.06
461.018	82.06
461.238	79.06
461.458	88.06
461.678	91.06
461.898	95.06
462.118	79.06
462.338	82.06
462.558	85.06
462.777	100.06
462.997	93.06
463.217	88.06
463.437	107.06
463.657	93.06
463.876	83.06
464.096	93.06
464.316	81.06
464.536	92.06
464.755	96.06
464.975	100.06
465.195	145.06
465.414	136.06
465.634	85.06
465.854	79.06
466.073	75.06
466.293	96.06
466.512	89.06
466.732	89.06
466.951	89.06
467.171	95.06
467.391	99.06
467.61	107.06
467.829	92.06
468.049	130.06
468.268	148.06
468.488	95.06
468.707	83.06
468.927	90.06
469.146	106.06
469.365	83.06
469.585	113.06
469.804	83.06
470.023	83.06
470.243	99.06
470.462	100.06
470.681	102.06
470.901	91.06
471.12	86.06
471.339	83.06
471.558	85.06
471.777	94.06
471.997	107.06
472.216	217.06
472.435	356.06
472.654	147.06
472.873	92.06
473.092	87.06
473.311	82.06
473.53	77.06
473.749	83.06
473.968	96.06
474.187	111.06
474.406	91.06
474.625	75.06
474.844	95.06
475.063	91.06
475.282	92.06
475.501	91.06
475.72	99.06
475.939	92.06
476.158	79.06
476.377	81.06
476.596	85.06
476.814	94.06
477.033	94.06
477.252	94.06
477.471	91.06
477.69	77.06
477.908	92.06
478.127	96.06
478.346	87.06
478.564	104.06
478.783	100.06
479.002	91.06
479.22	91.06
479.439	106.06
479.658	96.06
479.876	90.06
480.095	76.06
480.313	92.06
480.532	93.06
480.751	112.06
480.969	195.06
481.188	597.06
481.406	360.06
481.624	110.06
481.843	88.06
482.061	89.06
482.28	97.06
482.498	90.06
482.717	86.06
482.935	99.06
483.153	92.06
483.372	92.06
483.59	93.06
483.808	95.06
484.027	112.06
484.245	99.06
484.463	86.06
484.681	99.06
484.9	95.06
485.118	89.06
485.336	99.06
485.554	107.06
485.772	117.06
485.99	104.06
486.209	107.06
486.427	104.06
486.645	111.06
486.863	125.06
487.081	110.06
487.299	104.06
487.517	102.06
487.735	91.06
487.953	105.06
488.171	100.06
488.389	97.06
488.607	83.06
488.825	94.06
489.043	83.06
489.261	89.06
489.479	89.06
489.696	85.06
489.914	99.06
490.132	81.06
490.35	91.06
490.568	85.06
490.786	95.06
491.003	92.06
491.221	81.06
491.439	109.06
491.657	97.06
491.874	91.06
492.092	94.06
492.31	92.06
492.527	89.06
492.745	94.06
492.963	98.06
493.18	95.06
493.398	95.06
493.615	100.06
493.833	80.06
494.05	99.06
494.268	94.06
494.485	88.06
494.703	78.06
494.92	107.06
495.138	84.06
495.355	86.06
495.573	97.06
495.79	99.06
496.008	96.06
496.225	108.06
496.442	91.06
496.66	91.06
496.877	89.06
497.094	97.06
497.312	102.06
497.529	87.06
497.746	100.06
497.963	98.06
498.181	99.06
498.398	95.06
498.615	100.06
498.832	108.06
499.049	94.06
499.267	99.06
499.484	102.06
499.701	88.06
499.918	88.06
500.135	95.06
500.352	97.06
500.569	96.06
500.786	104.06
501.003	92.06
501.22	98.06
501.437	92.06
501.654	100.06
501.871	105.06
502.088	89.06
502.305	95.06
502.522	94.06
502.739	85.06
502.956	87.06
503.172	95.06
503.389	99.06
503.606	106.06
503.823	100.06
504.04	83.06
504.256	84.06
504.473	87.06
504.69	105.06
504.907	93.06
505.123	83.06
505.34	89.06
505.557	105.06
505.773	87.06
505.99	87.06
506.207	99.06
506.423	90.06
506.64	81.06
506.856	103.06
507.073	103.06
507.289	93.06
507.506	91.06
507.722	102.06
507.939	115.06
508.155	80.06
508.372	100.06
508.588	98.06
508.805	97.06
509.021	93.06
509.238	108.06
509.454	99.06
509.67	93.06
509.887	110.06
510.103	135.06
510.319	194.06
510.536	652.06
510.752	1977.06
510.968	562.06
511.184	136.06
511.401	95.06
511.617	91.06
511.833	94.06
512.049	114.06
512.265	91.06
512.481	92.06
512.698	91.06
512.914	100.06
513.13	88.06
513.346	96.06
513.562	92.06
513.778	101.06
513.994	94.06
514.21	120.06
514.426	105.06
514.642	119.06
