Data from Circ_1993_H10_HRD10591_00042.txt Node
Date: Wed Jan 03 11:44:10 EST 2024
User: Yrep
Spectrometer: HR+D1059
Trigger mode: 1
Integration Time (sec): 1.000000E-1
Scans to average: 1
Electric dark correction enabled: true
Nonlinearity correction enabled: false
Boxcar width: 0
XAxis mode: Wavelengths
Number of Pixels in Spectrum: 2048
>>>>>Begin Spectral Data<<<<<
223.165	-4.75
223.4	-4.75
223.635	-4.75
223.869	-17.75
224.104	-15.75
224.338	-15.75
224.573	-14.75
224.808	-8.75
225.042	-6.75
225.277	-7.75
225.511	-10.75
225.746	5.25
225.98	5.25
226.215	10.25
226.449	14.25
226.683	8.25
226.918	24.25
227.152	35.25
227.387	33.25
227.621	38.25
227.856	43.25
228.09	54.25
228.324	56.25
228.559	60.25
228.793	44.25
229.027	66.25
229.262	69.25
229.496	75.25
229.73	78.25
229.964	76.25
230.199	67.25
230.433	70.25
230.667	94.25
230.901	69.25
231.136	80.25
231.37	60.25
231.604	77.25
231.838	70.25
232.072	82.25
232.306	77.25
232.541	70.25
232.775	72.25
233.009	80.25
233.243	77.25
233.477	78.25
233.711	69.25
233.945	82.25
234.179	80.25
234.413	83.25
234.647	90.25
234.881	89.25
235.115	75.25
235.349	76.25
235.583	69.25
235.817	82.25
236.051	90.25
236.285	75.25
236.519	84.25
236.753	77.25
236.987	77.25
237.221	86.25
237.455	70.25
237.689	68.25
237.922	85.25
238.156	86.25
238.39	90.25
238.624	87.25
238.858	78.25
239.091	91.25
239.325	79.25
239.559	85.25
239.793	78.25
240.027	85.25
240.26	75.25
240.494	74.25
240.728	74.25
240.961	76.25
241.195	84.25
241.429	81.25
241.662	68.25
241.896	68.25
242.13	70.25
242.363	79.25
242.597	74.25
242.83	72.25
243.064	84.25
243.298	79.25
243.531	99.25
243.765	82.25
243.998	54.25
244.232	68.25
244.465	67.25
244.699	70.25
244.932	75.25
245.166	80.25
245.399	79.25
245.633	65.25
245.866	80.25
246.099	71.25
246.333	79.25
246.566	63.25
246.8	62.25
247.033	96.25
247.266	71.25
247.5	76.25
247.733	93.25
247.966	85.25
248.2	83.25
248.433	65.25
248.666	80.25
248.899	81.25
249.133	80.25
249.366	92.25
249.599	95.25
249.832	85.25
250.066	77.25
250.299	91.25
250.532	90.25
250.765	80.25
250.998	78.25
251.231	79.25
251.465	84.25
251.698	73.25
251.931	67.25
252.164	83.25
252.397	79.25
252.63	84.25
252.863	73.25
253.096	78.25
253.329	76.25
253.562	92.25
253.795	70.25
254.028	73.25
254.261	76.25
254.494	82.25
254.727	73.25
254.96	85.25
255.193	69.25
255.426	79.25
255.659	70.25
255.892	80.25
256.124	83.25
256.357	88.25
256.59	81.25
256.823	72.25
257.056	69.25
257.289	76.25
257.521	94.25
257.754	82.25
257.987	75.25
258.22	76.25
258.452	94.25
258.685	86.25
258.918	80.25
259.151	76.25
259.383	73.25
259.616	84.25
259.849	76.25
260.081	79.25
260.314	88.25
260.547	75.25
260.779	74.25
261.012	97.25
261.244	81.25
261.477	79.25
261.71	105.25
261.942	97.25
262.175	88.25
262.407	87.25
262.64	84.25
262.872	90.25
263.105	79.25
263.337	92.25
263.57	88.25
263.802	93.25
264.035	78.25
264.267	79.25
264.499	83.25
264.732	82.25
264.964	76.25
265.197	76.25
265.429	80.25
265.661	92.25
265.894	72.25
266.126	83.25
266.358	86.25
266.591	85.25
266.823	82.25
267.055	80.25
267.287	80.25
267.52	82.25
267.752	85.25
267.984	89.25
268.216	92.25
268.448	83.25
268.681	77.25
268.913	76.25
269.145	78.25
269.377	77.25
269.609	83.25
269.841	86.25
270.073	74.25
270.306	80.25
270.538	84.25
270.77	83.25
271.002	90.25
271.234	67.25
271.466	82.25
271.698	78.25
271.93	81.25
272.162	84.25
272.394	92.25
272.626	82.25
272.858	88.25
273.09	81.25
273.322	95.25
273.553	61.25
273.785	76.25
274.017	77.25
274.249	68.25
274.481	83.25
274.713	77.25
274.945	99.25
275.176	92.25
275.408	85.25
275.64	88.25
275.872	98.25
276.104	98.25
276.335	72.25
276.567	92.25
276.799	94.25
277.031	85.25
277.262	97.25
277.494	97.25
277.726	85.25
277.957	82.25
278.189	97.25
278.421	88.25
278.652	90.25
278.884	94.25
279.115	95.25
279.347	82.25
279.579	99.25
279.81	100.25
280.042	98.25
280.273	82.25
280.505	76.25
280.736	94.25
280.968	88.25
281.199	89.25
281.431	86.25
281.662	90.25
281.894	83.25
282.125	112.25
282.356	122.25
282.588	120.25
282.819	100.25
283.051	98.25
283.282	83.25
283.513	92.25
283.745	90.25
283.976	81.25
284.207	85.25
284.439	87.25
284.67	80.25
284.901	82.25
285.132	68.25
285.364	80.25
285.595	86.25
285.826	86.25
286.057	75.25
286.288	85.25
286.52	98.25
286.751	96.25
286.982	98.25
287.213	82.25
287.444	80.25
287.675	95.25
287.906	80.25
288.138	91.25
288.369	96.25
288.6	84.25
288.831	89.25
289.062	92.25
289.293	80.25
289.524	90.25
289.755	96.25
289.986	82.25
290.217	78.25
290.448	92.25
290.679	81.25
290.91	96.25
291.141	85.25
291.371	83.25
291.602	93.25
291.833	84.25
292.064	80.25
292.295	73.25
292.526	92.25
292.757	91.25
292.987	83.25
293.218	89.25
293.449	100.25
293.68	90.25
293.91	85.25
294.141	80.25
294.372	86.25
294.603	95.25
294.833	97.25
295.064	84.25
295.295	91.25
295.525	91.25
295.756	78.25
295.987	101.25
296.217	110.25
296.448	117.25
296.679	91.25
296.909	90.25
297.14	88.25
297.37	88.25
297.601	90.25
297.831	75.25
298.062	84.25
298.292	82.25
298.523	78.25
298.753	84.25
298.984	97.25
299.214	84.25
299.445	78.25
299.675	93.25
299.905	90.25
300.136	92.25
300.366	81.25
300.597	95.25
300.827	99.25
301.057	98.25
301.288	100.25
301.518	82.25
301.748	82.25
301.979	92.25
302.209	89.25
302.439	82.25
302.669	82.25
302.9	102.25
303.13	90.25
303.36	97.25
303.59	90.25
303.82	106.25
304.051	102.25
304.281	76.25
304.511	91.25
304.741	89.25
304.971	93.25
305.201	82.25
305.431	96.25
305.661	88.25
305.891	90.25
306.121	92.25
306.352	82.25
306.582	97.25
306.812	98.25
307.042	100.25
307.272	89.25
307.502	101.25
307.731	100.25
307.961	91.25
308.191	103.25
308.421	96.25
308.651	94.25
308.881	102.25
309.111	93.25
309.341	84.25
309.571	95.25
309.8	95.25
310.03	94.25
310.26	117.25
310.49	93.25
310.72	96.25
310.949	99.25
311.179	89.25
311.409	99.25
311.639	98.25
311.868	98.25
312.098	95.25
312.328	83.25
312.557	82.25
312.787	85.25
313.017	93.25
313.246	104.25
313.476	91.25
313.706	80.25
313.935	96.25
314.165	90.25
314.394	83.25
314.624	96.25
314.853	83.25
315.083	97.25
315.312	82.25
315.542	100.25
315.771	93.25
316.001	88.25
316.23	92.25
316.46	91.25
316.689	82.25
316.919	90.25
317.148	98.25
317.377	88.25
317.607	90.25
317.836	95.25
318.065	92.25
318.295	85.25
318.524	76.25
318.753	97.25
318.983	88.25
319.212	92.25
319.441	90.25
319.67	100.25
319.9	92.25
320.129	100.25
320.358	85.25
320.587	97.25
320.816	97.25
321.046	102.25
321.275	96.25
321.504	80.25
321.733	84.25
321.962	94.25
322.191	92.25
322.42	101.25
322.649	98.25
322.878	101.25
323.108	116.25
323.337	101.25
323.566	118.25
323.795	134.25
324.024	159.25
324.253	306.25
324.482	627.25
324.71	1290.25
324.939	1663.25
325.168	625.25
325.397	212.25
325.626	140.25
325.855	116.25
326.084	117.25
326.313	120.25
326.542	122.25
326.77	183.25
326.999	373.25
327.228	733.25
327.457	1313.25
327.686	1049.25
327.914	300.25
328.143	177.25
328.372	157.25
328.6	124.25
328.829	106.25
329.058	113.25
329.287	120.25
329.515	97.25
329.744	101.25
329.972	112.25
330.201	154.25
330.43	175.25
330.658	139.25
330.887	136.25
331.115	90.25
331.344	102.25
331.572	101.25
331.801	109.25
332.03	102.25
332.258	89.25
332.486	92.25
332.715	88.25
332.943	80.25
333.172	103.25
333.4	98.25
333.629	90.25
333.857	97.25
334.085	110.25
334.314	146.25
334.542	183.25
334.771	184.25
334.999	102.25
335.227	101.25
335.455	95.25
335.684	92.25
335.912	100.25
336.14	98.25
336.369	101.25
336.597	97.25
336.825	104.25
337.053	81.25
337.281	101.25
337.51	89.25
337.738	91.25
337.966	82.25
338.194	101.25
338.422	81.25
338.65	91.25
338.878	91.25
339.106	92.25
339.334	99.25
339.562	78.25
339.79	85.25
340.018	94.25
340.246	93.25
340.474	103.25
340.702	79.25
340.93	86.25
341.158	79.25
341.386	79.25
341.614	96.25
341.842	91.25
342.07	83.25
342.298	98.25
342.526	85.25
342.754	76.25
342.981	88.25
343.209	76.25
343.437	105.25
343.665	94.25
343.893	90.25
344.12	91.25
344.348	92.25
344.576	93.25
344.804	88.25
345.031	84.25
345.259	90.25
345.487	77.25
345.714	92.25
345.942	86.25
346.17	92.25
346.397	86.25
346.625	88.25
346.853	77.25
347.08	96.25
347.308	84.25
347.535	100.25
347.763	102.25
347.99	93.25
348.218	97.25
348.445	104.25
348.673	89.25
348.9	100.25
349.128	101.25
349.355	91.25
349.583	84.25
349.81	100.25
350.037	105.25
350.265	101.25
350.492	90.25
350.72	80.25
350.947	101.25
351.174	97.25
351.402	103.25
351.629	98.25
351.856	114.25
352.083	105.25
352.311	97.25
352.538	97.25
352.765	102.25
352.992	99.25
353.22	106.25
353.447	98.25
353.674	110.25
353.901	92.25
354.128	108.25
354.355	99.25
354.583	99.25
354.81	92.25
355.037	81.25
355.264	101.25
355.491	97.25
355.718	92.25
355.945	97.25
356.172	96.25
356.399	92.25
356.626	82.25
356.853	91.25
357.08	76.25
357.307	95.25
357.534	103.25
357.761	96.25
357.988	103.25
358.215	106.25
358.441	90.25
358.668	75.25
358.895	93.25
359.122	90.25
359.349	96.25
359.576	97.25
359.802	96.25
360.029	107.25
360.256	100.25
360.483	99.25
360.709	88.25
360.936	97.25
361.163	84.25
361.39	88.25
361.616	87.25
361.843	89.25
362.07	84.25
362.296	91.25
362.523	92.25
362.749	76.25
362.976	91.25
363.203	99.25
363.429	86.25
363.656	82.25
363.882	95.25
364.109	98.25
364.335	94.25
364.562	86.25
364.788	79.25
365.015	95.25
365.241	94.25
365.468	110.25
365.694	109.25
365.92	96.25
366.147	80.25
366.373	74.25
366.599	95.25
366.826	73.25
367.052	65.25
367.278	98.25
367.505	99.25
367.731	79.25
367.957	86.25
368.184	95.25
368.41	104.25
368.636	100.25
368.862	115.25
369.089	96.25
369.315	100.25
369.541	94.25
369.767	84.25
369.993	85.25
370.219	89.25
370.445	86.25
370.672	85.25
370.898	90.25
371.124	93.25
371.35	101.25
371.576	89.25
371.802	94.25
372.028	84.25
372.254	87.25
372.48	76.25
372.706	93.25
372.932	78.25
373.158	95.25
373.384	101.25
373.61	87.25
373.835	94.25
374.061	85.25
374.287	101.25
374.513	90.25
374.739	96.25
374.965	97.25
375.191	93.25
375.416	101.25
375.642	90.25
375.868	100.25
376.094	90.25
376.319	80.25
376.545	92.25
376.771	88.25
376.997	86.25
377.222	81.25
377.448	90.25
377.674	108.25
377.899	94.25
378.125	85.25
378.35	84.25
378.576	93.25
378.802	95.25
379.027	91.25
379.253	92.25
379.478	84.25
379.704	100.25
379.929	98.25
380.155	90.25
380.38	107.25
380.606	84.25
380.831	81.25
381.057	106.25
381.282	91.25
381.507	109.25
381.733	97.25
381.958	88.25
382.184	100.25
382.409	107.25
382.634	107.25
382.86	110.25
383.085	105.25
383.31	102.25
383.535	108.25
383.761	96.25
383.986	107.25
384.211	114.25
384.436	101.25
384.662	98.25
384.887	110.25
385.112	120.25
385.337	113.25
385.562	108.25
385.787	109.25
386.013	129.25
386.238	118.25
386.463	94.25
386.688	108.25
386.913	120.25
387.138	122.25
387.363	109.25
387.588	109.25
387.813	102.25
388.038	111.25
388.263	115.25
388.488	116.25
388.713	102.25
388.938	104.25
389.163	78.25
389.387	90.25
389.612	88.25
389.837	88.25
390.062	85.25
390.287	84.25
390.512	95.25
390.736	79.25
390.961	88.25
391.186	94.25
391.411	99.25
391.636	89.25
391.86	75.25
392.085	84.25
392.31	83.25
392.534	92.25
392.759	100.25
392.984	89.25
393.208	88.25
393.433	141.25
393.658	128.25
393.882	78.25
394.107	80.25
394.331	85.25
394.556	86.25
394.78	89.25
395.005	78.25
395.229	91.25
395.454	76.25
395.678	76.25
395.903	81.25
396.127	87.25
396.352	85.25
396.576	103.25
396.801	103.25
397.025	102.25
397.249	99.25
397.474	84.25
397.698	90.25
397.922	72.25
398.147	86.25
398.371	79.25
398.595	81.25
398.82	88.25
399.044	100.25
399.268	95.25
399.492	107.25
399.717	92.25
399.941	100.25
400.165	98.25
400.389	82.25
400.613	69.25
400.837	86.25
401.062	86.25
401.286	92.25
401.51	92.25
401.734	106.25
401.958	107.25
402.182	101.25
402.406	127.25
402.63	104.25
402.854	91.25
403.078	82.25
403.302	93.25
403.526	82.25
403.75	77.25
403.974	84.25
404.198	95.25
404.422	92.25
404.645	85.25
404.869	88.25
405.093	98.25
405.317	99.25
405.541	101.25
405.765	91.25
405.988	106.25
406.212	138.25
406.436	189.25
406.66	114.25
406.883	96.25
407.107	96.25
407.331	102.25
407.555	102.25
407.778	92.25
408.002	84.25
408.226	99.25
408.449	84.25
408.673	92.25
408.896	90.25
409.12	97.25
409.344	72.25
409.567	90.25
409.791	98.25
410.014	93.25
410.238	92.25
410.461	91.25
410.685	106.25
410.908	82.25
411.132	93.25
411.355	95.25
411.578	92.25
411.802	82.25
412.025	92.25
412.249	93.25
412.472	95.25
412.695	106.25
412.919	90.25
413.142	99.25
413.365	99.25
413.589	95.25
413.812	88.25
414.035	96.25
414.258	87.25
414.482	102.25
414.705	96.25
414.928	92.25
415.151	96.25
415.374	98.25
415.597	77.25
415.821	78.25
416.044	81.25
416.267	97.25
416.49	95.25
416.713	94.25
416.936	93.25
417.159	98.25
417.382	99.25
417.605	89.25
417.828	89.25
418.051	89.25
418.274	82.25
418.497	76.25
418.72	105.25
418.943	102.25
419.166	93.25
419.389	90.25
419.611	73.25
419.834	80.25
420.057	96.25
420.28	94.25
420.503	86.25
420.726	86.25
420.948	83.25
421.171	77.25
421.394	83.25
421.617	73.25
421.839	91.25
422.062	93.25
422.285	91.25
422.507	98.25
422.73	114.25
422.953	96.25
423.175	78.25
423.398	77.25
423.621	84.25
423.843	84.25
424.066	80.25
424.288	88.25
424.511	98.25
424.733	97.25
424.956	85.25
425.178	93.25
425.401	99.25
425.623	99.25
425.846	85.25
426.068	89.25
426.291	92.25
426.513	85.25
426.735	91.25
426.958	81.25
427.18	102.25
427.402	121.25
427.625	130.25
427.847	128.25
428.069	118.25
428.292	93.25
428.514	98.25
428.736	68.25
428.958	82.25
429.181	92.25
429.403	80.25
429.625	60.25
429.847	86.25
430.069	84.25
430.292	86.25
430.514	91.25
430.736	86.25
430.958	82.25
431.18	95.25
431.402	81.25
431.624	87.25
431.846	88.25
432.068	89.25
432.29	93.25
432.512	81.25
432.734	92.25
432.956	86.25
433.178	87.25
433.4	111.25
433.622	88.25
433.844	89.25
434.066	109.25
434.287	101.25
434.509	81.25
434.731	88.25
434.953	82.25
435.175	91.25
435.397	95.25
435.618	97.25
435.84	102.25
436.062	106.25
436.284	111.25
436.505	97.25
436.727	84.25
436.949	93.25
437.17	88.25
437.392	87.25
437.614	87.25
437.835	86.25
438.057	101.25
438.278	86.25
438.5	101.25
438.721	97.25
438.943	85.25
439.165	87.25
439.386	75.25
439.608	88.25
439.829	104.25
440.05	109.25
440.272	115.25
440.493	87.25
440.715	80.25
440.936	99.25
441.158	92.25
441.379	73.25
441.6	92.25
441.822	84.25
442.043	98.25
442.264	94.25
442.486	106.25
442.707	88.25
442.928	94.25
443.149	100.25
443.371	102.25
443.592	100.25
443.813	110.25
444.034	101.25
444.255	88.25
444.476	91.25
444.698	97.25
444.919	94.25
445.14	127.25
445.361	125.25
445.582	102.25
445.803	104.25
446.024	109.25
446.245	115.25
446.466	116.25
446.687	98.25
446.908	85.25
447.129	90.25
447.35	91.25
447.571	87.25
447.792	95.25
448.013	91.25
448.234	93.25
448.455	99.25
448.675	102.25
448.896	106.25
449.117	88.25
449.338	90.25
449.559	112.25
449.779	109.25
450	85.25
450.221	101.25
450.442	91.25
450.662	89.25
450.883	103.25
451.104	106.25
451.324	94.25
451.545	90.25
451.766	86.25
451.986	80.25
452.207	90.25
452.428	106.25
452.648	85.25
452.869	96.25
453.089	90.25
453.31	99.25
453.53	90.25
453.751	113.25
453.971	111.25
454.192	105.25
454.412	98.25
454.633	76.25
454.853	82.25
455.073	76.25
455.294	94.25
455.514	104.25
455.734	93.25
455.955	86.25
456.175	78.25
456.395	82.25
456.616	96.25
456.836	82.25
457.056	74.25
457.276	84.25
457.497	92.25
457.717	90.25
457.937	79.25
458.157	84.25
458.377	82.25
458.598	112.25
458.818	123.25
459.038	134.25
459.258	96.25
459.478	97.25
459.698	77.25
459.918	80.25
460.138	93.25
460.358	91.25
460.578	97.25
460.798	72.25
461.018	66.25
461.238	89.25
461.458	77.25
461.678	86.25
461.898	74.25
462.118	90.25
462.338	91.25
462.558	77.25
462.777	88.25
462.997	77.25
463.217	93.25
463.437	78.25
463.657	77.25
463.876	84.25
464.096	88.25
464.316	92.25
464.536	99.25
464.755	84.25
464.975	89.25
465.195	148.25
465.414	141.25
465.634	82.25
465.854	90.25
466.073	78.25
466.293	96.25
466.512	70.25
466.732	85.25
466.951	83.25
467.171	89.25
467.391	93.25
467.61	101.25
467.829	96.25
468.049	125.25
468.268	127.25
468.488	92.25
468.707	90.25
468.927	88.25
469.146	83.25
469.365	87.25
469.585	85.25
469.804	94.25
470.023	95.25
470.243	92.25
470.462	99.25
470.681	96.25
470.901	95.25
471.12	80.25
471.339	93.25
471.558	98.25
471.777	78.25
471.997	110.25
472.216	172.25
472.435	232.25
472.654	125.25
472.873	88.25
473.092	80.25
473.311	89.25
473.53	98.25
473.749	90.25
473.968	85.25
474.187	104.25
474.406	98.25
474.625	89.25
474.844	84.25
475.063	84.25
475.282	93.25
475.501	96.25
475.72	96.25
475.939	76.25
476.158	86.25
476.377	95.25
476.596	92.25
476.814	98.25
477.033	94.25
477.252	98.25
477.471	75.25
477.69	86.25
477.908	97.25
478.127	79.25
478.346	82.25
478.564	88.25
478.783	94.25
479.002	77.25
479.22	90.25
479.439	99.25
479.658	83.25
479.876	87.25
480.095	86.25
480.313	100.25
480.532	104.25
480.751	90.25
480.969	168.25
481.188	368.25
481.406	240.25
481.624	105.25
481.843	85.25
482.061	85.25
482.28	78.25
482.498	84.25
482.717	85.25
482.935	83.25
483.153	83.25
483.372	87.25
483.59	88.25
483.808	96.25
484.027	90.25
484.245	86.25
484.463	86.25
484.681	97.25
484.9	99.25
485.118	107.25
485.336	80.25
485.554	101.25
485.772	98.25
485.99	97.25
486.209	99.25
486.427	97.25
486.645	119.25
486.863	121.25
487.081	108.25
487.299	97.25
487.517	90.25
487.735	86.25
487.953	91.25
488.171	98.25
488.389	90.25
488.607	88.25
488.825	83.25
489.043	88.25
489.261	86.25
489.479	97.25
489.696	86.25
489.914	80.25
490.132	86.25
490.35	89.25
490.568	84.25
490.786	82.25
491.003	96.25
491.221	93.25
491.439	81.25
491.657	94.25
491.874	91.25
492.092	89.25
492.31	99.25
492.527	85.25
492.745	78.25
492.963	79.25
493.18	96.25
493.398	95.25
493.615	98.25
493.833	85.25
494.05	89.25
494.268	82.25
494.485	77.25
494.703	88.25
494.92	92.25
495.138	82.25
495.355	104.25
495.573	93.25
495.79	102.25
496.008	96.25
496.225	100.25
496.442	101.25
496.66	79.25
496.877	93.25
497.094	90.25
497.312	96.25
497.529	76.25
497.746	78.25
497.963	89.25
498.181	86.25
498.398	82.25
498.615	114.25
498.832	100.25
499.049	84.25
499.267	83.25
499.484	89.25
499.701	84.25
499.918	89.25
500.135	88.25
500.352	82.25
500.569	97.25
500.786	96.25
501.003	91.25
501.22	90.25
501.437	85.25
501.654	97.25
501.871	106.25
502.088	94.25
502.305	89.25
502.522	76.25
502.739	66.25
502.956	84.25
503.172	88.25
503.389	95.25
503.606	102.25
503.823	98.25
504.04	105.25
504.256	92.25
504.473	80.25
504.69	91.25
504.907	95.25
505.123	91.25
505.34	90.25
505.557	99.25
505.773	101.25
505.99	87.25
506.207	80.25
506.423	78.25
506.64	76.25
506.856	85.25
507.073	89.25
507.289	95.25
507.506	92.25
507.722	102.25
507.939	98.25
508.155	100.25
508.372	73.25
508.588	88.25
508.805	98.25
509.021	83.25
509.238	93.25
509.454	96.25
509.67	99.25
509.887	94.25
510.103	117.25
510.319	188.25
510.536	588.25
510.752	1846.25
510.968	522.25
511.184	136.25
511.401	105.25
511.617	97.25
511.833	83.25
512.049	82.25
512.265	81.25
512.481	84.25
512.698	100.25
512.914	99.25
513.13	86.25
513.346	92.25
513.562	96.25
513.778	96.25
513.994	88.25
514.21	97.25
514.426	100.25
514.642	112.25
514.858	129.25
515.074	136.25
515.29	332.25
515.506	1072.25
515.721	399.25
515.937	127.25
516.153	92.25
516.369	95.25
