Data from Circ_1993_H10_HRD10591_00088.txt Node
Date: Wed Jan 03 11:44:19 EST 2024
User: Yrep
Spectrometer: HR+D1059
Trigger mode: 1
Integration Time (sec): 1.000000E-1
Scans to average: 1
Electric dark correction enabled: true
Nonlinearity correction enabled: false
Boxcar width: 0
XAxis mode: Wavelengths
Number of Pixels in Spectrum: 2048
>>>>>Begin Spectral Data<<<<<
223.165	-12.44
223.4	-12.44
223.635	-12.44
223.869	-20.44
224.104	-31.44
224.338	-20.44
224.573	-17.44
224.808	-12.44
225.042	2.56
225.277	18.56
225.511	-5.44
225.746	-1.44
225.98	4.56
226.215	1.56
226.449	17.56
226.683	16.56
226.918	18.56
227.152	41.56
227.387	33.56
227.621	38.56
227.856	44.56
228.09	57.56
228.324	36.56
228.559	53.56
228.793	56.56
229.027	75.56
229.262	69.56
229.496	75.56
229.73	85.56
229.964	87.56
230.199	88.56
230.433	66.56
230.667	76.56
230.901	59.56
231.136	87.56
231.37	75.56
231.604	84.56
231.838	60.56
232.072	82.56
232.306	69.56
232.541	67.56
232.775	73.56
233.009	77.56
233.243	94.56
233.477	93.56
233.711	79.56
233.945	83.56
234.179	77.56
234.413	68.56
234.647	81.56
234.881	91.56
235.115	78.56
235.349	88.56
235.583	66.56
235.817	81.56
236.051	83.56
236.285	82.56
236.519	73.56
236.753	73.56
236.987	73.56
237.221	73.56
237.455	82.56
237.689	93.56
237.922	82.56
238.156	61.56
238.39	80.56
238.624	78.56
238.858	86.56
239.091	71.56
239.325	78.56
239.559	86.56
239.793	70.56
240.027	67.56
240.26	81.56
240.494	77.56
240.728	74.56
240.961	92.56
241.195	66.56
241.429	73.56
241.662	77.56
241.896	83.56
242.13	74.56
242.363	75.56
242.597	72.56
242.83	79.56
243.064	69.56
243.298	76.56
243.531	66.56
243.765	97.56
243.998	78.56
244.232	82.56
244.465	82.56
244.699	80.56
244.932	64.56
245.166	76.56
245.399	75.56
245.633	89.56
245.866	70.56
246.099	90.56
246.333	80.56
246.566	62.56
246.8	64.56
247.033	76.56
247.266	77.56
247.5	75.56
247.733	76.56
247.966	76.56
248.2	79.56
248.433	77.56
248.666	68.56
248.899	86.56
249.133	89.56
249.366	99.56
249.599	92.56
249.832	86.56
250.066	78.56
250.299	87.56
250.532	89.56
250.765	91.56
250.998	73.56
251.231	82.56
251.465	68.56
251.698	96.56
251.931	95.56
252.164	72.56
252.397	88.56
252.63	86.56
252.863	92.56
253.096	79.56
253.329	86.56
253.562	76.56
253.795	83.56
254.028	84.56
254.261	85.56
254.494	88.56
254.727	84.56
254.96	91.56
255.193	74.56
255.426	73.56
255.659	81.56
255.892	69.56
256.124	78.56
256.357	80.56
256.59	78.56
256.823	69.56
257.056	78.56
257.289	78.56
257.521	68.56
257.754	66.56
257.987	69.56
258.22	95.56
258.452	78.56
258.685	93.56
258.918	88.56
259.151	81.56
259.383	78.56
259.616	78.56
259.849	74.56
260.081	84.56
260.314	81.56
260.547	90.56
260.779	77.56
261.012	100.56
261.244	86.56
261.477	90.56
261.71	100.56
261.942	111.56
262.175	107.56
262.407	81.56
262.64	80.56
262.872	67.56
263.105	90.56
263.337	93.56
263.57	72.56
263.802	80.56
264.035	90.56
264.267	84.56
264.499	77.56
264.732	73.56
264.964	74.56
265.197	76.56
265.429	90.56
265.661	97.56
265.894	88.56
266.126	77.56
266.358	92.56
266.591	94.56
266.823	89.56
267.055	69.56
267.287	79.56
267.52	75.56
267.752	94.56
267.984	86.56
268.216	82.56
268.448	99.56
268.681	87.56
268.913	82.56
269.145	60.56
269.377	80.56
269.609	85.56
269.841	82.56
270.073	95.56
270.306	85.56
270.538	90.56
270.77	71.56
271.002	86.56
271.234	88.56
271.466	81.56
271.698	87.56
271.93	78.56
272.162	87.56
272.394	93.56
272.626	76.56
272.858	89.56
273.09	81.56
273.322	82.56
273.553	66.56
273.785	88.56
274.017	92.56
274.249	81.56
274.481	90.56
274.713	88.56
274.945	74.56
275.176	88.56
275.408	90.56
275.64	98.56
275.872	87.56
276.104	86.56
276.335	86.56
276.567	101.56
276.799	104.56
277.031	93.56
277.262	84.56
277.494	94.56
277.726	78.56
277.957	91.56
278.189	88.56
278.421	96.56
278.652	95.56
278.884	90.56
279.115	80.56
279.347	89.56
279.579	92.56
279.81	90.56
280.042	103.56
280.273	95.56
280.505	106.56
280.736	85.56
280.968	96.56
281.199	102.56
281.431	100.56
281.662	73.56
281.894	95.56
282.125	92.56
282.356	125.56
282.588	132.56
282.819	102.56
283.051	98.56
283.282	100.56
283.513	85.56
283.745	78.56
283.976	88.56
284.207	84.56
284.439	78.56
284.67	87.56
284.901	75.56
285.132	89.56
285.364	90.56
285.595	98.56
285.826	83.56
286.057	92.56
286.288	80.56
286.52	89.56
286.751	88.56
286.982	78.56
287.213	91.56
287.444	95.56
287.675	87.56
287.906	66.56
288.138	91.56
288.369	90.56
288.6	76.56
288.831	101.56
289.062	91.56
289.293	78.56
289.524	84.56
289.755	83.56
289.986	66.56
290.217	74.56
290.448	87.56
290.679	100.56
290.91	91.56
291.141	81.56
291.371	95.56
291.602	83.56
291.833	74.56
292.064	72.56
292.295	85.56
292.526	87.56
292.757	91.56
292.987	94.56
293.218	93.56
293.449	93.56
293.68	86.56
293.91	95.56
294.141	76.56
294.372	88.56
294.603	90.56
294.833	95.56
295.064	87.56
295.295	89.56
295.525	100.56
295.756	88.56
295.987	123.56
296.217	144.56
296.448	125.56
296.679	76.56
296.909	95.56
297.14	79.56
297.37	76.56
297.601	80.56
297.831	92.56
298.062	99.56
298.292	86.56
298.523	107.56
298.753	88.56
298.984	78.56
299.214	93.56
299.445	89.56
299.675	91.56
299.905	92.56
300.136	98.56
300.366	82.56
300.597	86.56
300.827	88.56
301.057	94.56
301.288	95.56
301.518	96.56
301.748	82.56
301.979	92.56
302.209	80.56
302.439	93.56
302.669	93.56
302.9	92.56
303.13	87.56
303.36	97.56
303.59	100.56
303.82	105.56
304.051	92.56
304.281	93.56
304.511	80.56
304.741	89.56
304.971	90.56
305.201	91.56
305.431	88.56
305.661	84.56
305.891	84.56
306.121	92.56
306.352	110.56
306.582	107.56
306.812	103.56
307.042	91.56
307.272	93.56
307.502	92.56
307.731	98.56
307.961	86.56
308.191	81.56
308.421	93.56
308.651	94.56
308.881	89.56
309.111	96.56
309.341	89.56
309.571	89.56
309.8	90.56
310.03	91.56
310.26	97.56
310.49	97.56
310.72	85.56
310.949	97.56
311.179	103.56
311.409	90.56
311.639	91.56
311.868	100.56
312.098	89.56
312.328	91.56
312.557	93.56
312.787	96.56
313.017	100.56
313.246	91.56
313.476	95.56
313.706	79.56
313.935	82.56
314.165	81.56
314.394	110.56
314.624	96.56
314.853	86.56
315.083	92.56
315.312	97.56
315.542	96.56
315.771	78.56
316.001	82.56
316.23	96.56
316.46	88.56
316.689	81.56
316.919	92.56
317.148	88.56
317.377	107.56
317.607	93.56
317.836	86.56
318.065	98.56
318.295	88.56
318.524	81.56
318.753	74.56
318.983	77.56
319.212	92.56
319.441	108.56
319.67	94.56
319.9	86.56
320.129	89.56
320.358	91.56
320.587	95.56
320.816	83.56
321.046	94.56
321.275	91.56
321.504	91.56
321.733	96.56
321.962	94.56
322.191	101.56
322.42	96.56
322.649	102.56
322.878	106.56
323.108	117.56
323.337	118.56
323.566	129.56
323.795	155.56
324.024	178.56
324.253	354.56
324.482	738.56
324.71	1497.56
324.939	1948.56
325.168	734.56
325.397	212.56
325.626	129.56
325.855	116.56
326.084	110.56
326.313	130.56
326.542	150.56
326.77	220.56
326.999	389.56
327.228	834.56
327.457	1555.56
327.686	1208.56
327.914	347.56
328.143	216.56
328.372	195.56
328.6	131.56
328.829	117.56
329.058	131.56
329.287	130.56
329.515	111.56
329.744	111.56
329.972	140.56
330.201	204.56
330.43	267.56
330.658	154.56
330.887	129.56
331.115	118.56
331.344	103.56
331.572	112.56
331.801	104.56
332.03	110.56
332.258	100.56
332.486	88.56
332.715	102.56
332.943	98.56
333.172	104.56
333.4	90.56
333.629	117.56
333.857	113.56
334.085	158.56
334.314	216.56
334.542	334.56
334.771	312.56
334.999	140.56
335.227	97.56
335.455	88.56
335.684	95.56
335.912	100.56
336.14	91.56
336.369	98.56
336.597	121.56
336.825	81.56
337.053	89.56
337.281	96.56
337.51	94.56
337.738	91.56
337.966	89.56
338.194	76.56
338.422	73.56
338.65	91.56
338.878	101.56
339.106	82.56
339.334	84.56
339.562	88.56
339.79	88.56
340.018	76.56
340.246	81.56
340.474	86.56
340.702	89.56
340.93	89.56
341.158	93.56
341.386	92.56
341.614	89.56
341.842	94.56
342.07	77.56
342.298	91.56
342.526	84.56
342.754	98.56
342.981	83.56
343.209	86.56
343.437	89.56
343.665	90.56
343.893	80.56
344.12	91.56
344.348	105.56
344.576	89.56
344.804	94.56
345.031	92.56
345.259	98.56
345.487	88.56
345.714	71.56
345.942	89.56
346.17	89.56
346.397	90.56
346.625	96.56
346.853	100.56
347.08	82.56
347.308	85.56
347.535	99.56
347.763	96.56
347.99	100.56
348.218	85.56
348.445	82.56
348.673	102.56
348.9	89.56
349.128	97.56
349.355	101.56
349.583	97.56
349.81	100.56
350.037	82.56
350.265	97.56
350.492	81.56
350.72	90.56
350.947	96.56
351.174	100.56
351.402	95.56
351.629	86.56
351.856	97.56
352.083	101.56
352.311	104.56
352.538	107.56
352.765	114.56
352.992	106.56
353.22	94.56
353.447	104.56
353.674	89.56
353.901	92.56
354.128	90.56
354.355	84.56
354.583	89.56
354.81	95.56
355.037	91.56
355.264	99.56
355.491	84.56
355.718	93.56
355.945	78.56
356.172	96.56
356.399	79.56
356.626	81.56
356.853	92.56
357.08	93.56
357.307	77.56
357.534	96.56
357.761	89.56
357.988	78.56
358.215	93.56
358.441	88.56
358.668	87.56
358.895	86.56
359.122	98.56
359.349	84.56
359.576	100.56
359.802	85.56
360.029	88.56
360.256	117.56
360.483	81.56
360.709	96.56
360.936	89.56
361.163	106.56
361.39	105.56
361.616	82.56
361.843	80.56
362.07	94.56
362.296	90.56
362.523	82.56
362.749	95.56
362.976	89.56
363.203	94.56
363.429	97.56
363.656	84.56
363.882	90.56
364.109	86.56
364.335	106.56
364.562	78.56
364.788	99.56
365.015	97.56
365.241	97.56
365.468	94.56
365.694	96.56
365.92	90.56
366.147	78.56
366.373	86.56
366.599	97.56
366.826	91.56
367.052	90.56
367.278	86.56
367.505	101.56
367.731	78.56
367.957	101.56
368.184	91.56
368.41	91.56
368.636	112.56
368.862	124.56
369.089	102.56
369.315	75.56
369.541	88.56
369.767	77.56
369.993	85.56
370.219	89.56
370.445	81.56
370.672	98.56
370.898	82.56
371.124	90.56
371.35	83.56
371.576	78.56
371.802	84.56
372.028	78.56
372.254	90.56
372.48	90.56
372.706	93.56
372.932	82.56
373.158	94.56
373.384	108.56
373.61	92.56
373.835	89.56
374.061	73.56
374.287	87.56
374.513	75.56
374.739	87.56
374.965	93.56
375.191	90.56
375.416	79.56
375.642	99.56
375.868	98.56
376.094	88.56
376.319	91.56
376.545	83.56
376.771	93.56
376.997	87.56
377.222	99.56
377.448	91.56
377.674	95.56
377.899	96.56
378.125	84.56
378.35	90.56
378.576	101.56
378.802	85.56
379.027	76.56
379.253	88.56
379.478	86.56
379.704	85.56
379.929	85.56
380.155	89.56
380.38	83.56
380.606	85.56
380.831	74.56
381.057	96.56
381.282	88.56
381.507	97.56
381.733	94.56
381.958	94.56
382.184	84.56
382.409	99.56
382.634	96.56
382.86	102.56
383.085	93.56
383.31	88.56
383.535	92.56
383.761	93.56
383.986	82.56
384.211	90.56
384.436	89.56
384.662	95.56
384.887	107.56
385.112	94.56
385.337	94.56
385.562	106.56
385.787	116.56
386.013	112.56
386.238	108.56
386.463	106.56
386.688	109.56
386.913	97.56
387.138	113.56
387.363	95.56
387.588	88.56
387.813	96.56
388.038	101.56
388.263	105.56
388.488	106.56
388.713	90.56
388.938	92.56
389.163	97.56
389.387	98.56
389.612	85.56
389.837	92.56
390.062	95.56
390.287	97.56
390.512	94.56
390.736	86.56
390.961	92.56
391.186	83.56
391.411	82.56
391.636	88.56
391.86	68.56
392.085	82.56
392.31	90.56
392.534	89.56
392.759	84.56
392.984	78.56
393.208	94.56
393.433	107.56
393.658	98.56
393.882	92.56
394.107	82.56
394.331	96.56
394.556	76.56
394.78	91.56
395.005	78.56
395.229	83.56
395.454	94.56
395.678	84.56
395.903	81.56
396.127	89.56
396.352	96.56
396.576	88.56
396.801	98.56
397.025	96.56
397.249	92.56
397.474	101.56
397.698	79.56
397.922	98.56
398.147	80.56
398.371	84.56
398.595	74.56
398.82	81.56
399.044	82.56
399.268	80.56
399.492	77.56
399.717	90.56
399.941	80.56
400.165	99.56
400.389	76.56
400.613	76.56
400.837	84.56
401.062	92.56
401.286	70.56
401.51	86.56
401.734	97.56
401.958	81.56
402.182	110.56
402.406	138.56
402.63	106.56
402.854	93.56
403.078	90.56
403.302	76.56
403.526	95.56
403.75	95.56
403.974	82.56
404.198	75.56
404.422	86.56
404.645	97.56
404.869	91.56
405.093	104.56
405.317	100.56
405.541	103.56
405.765	92.56
405.988	96.56
406.212	146.56
406.436	211.56
406.66	131.56
406.883	115.56
407.107	99.56
407.331	93.56
407.555	107.56
407.778	93.56
408.002	95.56
408.226	90.56
408.449	81.56
408.673	76.56
408.896	92.56
409.12	90.56
409.344	85.56
409.567	89.56
409.791	80.56
410.014	86.56
410.238	104.56
410.461	92.56
410.685	96.56
410.908	97.56
411.132	100.56
411.355	90.56
411.578	89.56
411.802	86.56
412.025	88.56
412.249	94.56
412.472	106.56
412.695	95.56
412.919	101.56
413.142	83.56
413.365	103.56
413.589	92.56
413.812	89.56
414.035	98.56
414.258	91.56
414.482	95.56
414.705	80.56
414.928	81.56
415.151	97.56
415.374	94.56
415.597	106.56
415.821	78.56
416.044	78.56
416.267	83.56
416.49	90.56
416.713	90.56
416.936	78.56
417.159	83.56
417.382	83.56
417.605	97.56
417.828	86.56
418.051	100.56
418.274	98.56
418.497	80.56
418.72	73.56
418.943	81.56
419.166	101.56
419.389	93.56
419.611	89.56
419.834	87.56
420.057	90.56
420.28	72.56
420.503	91.56
420.726	89.56
420.948	79.56
421.171	96.56
421.394	88.56
421.617	92.56
421.839	99.56
422.062	91.56
422.285	105.56
422.507	88.56
422.73	100.56
422.953	100.56
423.175	67.56
423.398	80.56
423.621	98.56
423.843	82.56
424.066	87.56
424.288	91.56
424.511	82.56
424.733	100.56
424.956	94.56
425.178	85.56
425.401	94.56
425.623	93.56
425.846	95.56
426.068	83.56
426.291	81.56
426.513	98.56
426.735	106.56
426.958	102.56
427.18	116.56
427.402	122.56
427.625	164.56
427.847	147.56
428.069	130.56
428.292	95.56
428.514	88.56
428.736	85.56
428.958	88.56
429.181	92.56
429.403	80.56
429.625	79.56
429.847	83.56
430.069	97.56
430.292	94.56
430.514	88.56
430.736	93.56
430.958	91.56
431.18	72.56
431.402	91.56
431.624	92.56
431.846	82.56
432.068	93.56
432.29	82.56
432.512	102.56
432.734	98.56
432.956	93.56
433.178	96.56
433.4	100.56
433.622	90.56
433.844	100.56
434.066	99.56
434.287	88.56
434.509	86.56
434.731	88.56
434.953	76.56
435.175	82.56
435.397	107.56
435.618	105.56
435.84	100.56
436.062	123.56
436.284	105.56
436.505	91.56
436.727	94.56
436.949	76.56
437.17	87.56
437.392	80.56
437.614	98.56
437.835	119.56
438.057	102.56
438.278	113.56
438.5	99.56
438.721	123.56
438.943	114.56
439.165	92.56
439.386	82.56
439.608	97.56
439.829	97.56
440.05	110.56
440.272	131.56
440.493	92.56
440.715	94.56
440.936	92.56
441.158	91.56
441.379	88.56
441.6	89.56
441.822	85.56
442.043	94.56
442.264	84.56
442.486	93.56
442.707	86.56
442.928	85.56
443.149	126.56
443.371	117.56
443.592	107.56
443.813	123.56
444.034	105.56
444.255	91.56
444.476	82.56
444.698	88.56
444.919	85.56
445.14	125.56
445.361	120.56
445.582	108.56
445.803	131.56
446.024	127.56
446.245	134.56
446.466	86.56
446.687	84.56
446.908	88.56
447.129	100.56
447.35	90.56
447.571	96.56
447.792	83.56
448.013	80.56
448.234	97.56
448.455	99.56
448.675	97.56
448.896	133.56
449.117	97.56
449.338	112.56
449.559	133.56
449.779	123.56
450	98.56
450.221	80.56
450.442	107.56
450.662	93.56
450.883	106.56
451.104	114.56
451.324	96.56
451.545	88.56
451.766	88.56
451.986	81.56
452.207	94.56
452.428	97.56
452.648	91.56
452.869	106.56
453.089	102.56
453.31	110.56
453.53	106.56
453.751	101.56
453.971	95.56
454.192	96.56
454.412	98.56
454.633	98.56
454.853	92.56
455.073	94.56
455.294	93.56
455.514	115.56
455.734	94.56
455.955	84.56
456.175	76.56
456.395	88.56
456.616	81.56
456.836	73.56
457.056	89.56
457.276	85.56
457.497	92.56
457.717	88.56
457.937	96.56
458.157	93.56
458.377	83.56
458.598	93.56
458.818	132.56
459.038	146.56
459.258	113.56
459.478	91.56
459.698	95.56
459.918	84.56
460.138	81.56
460.358	87.56
460.578	84.56
460.798	93.56
461.018	85.56
461.238	82.56
461.458	91.56
461.678	100.56
461.898	81.56
462.118	73.56
462.338	76.56
462.558	80.56
462.777	93.56
462.997	82.56
463.217	89.56
463.437	84.56
463.657	100.56
463.876	89.56
464.096	97.56
464.316	105.56
464.536	91.56
464.755	88.56
464.975	99.56
465.195	145.56
465.414	134.56
465.634	97.56
465.854	97.56
466.073	92.56
466.293	94.56
466.512	91.56
466.732	78.56
466.951	109.56
467.171	97.56
467.391	88.56
467.61	87.56
467.829	110.56
468.049	155.56
468.268	176.56
468.488	96.56
468.707	87.56
468.927	92.56
469.146	84.56
469.365	100.56
469.585	76.56
469.804	91.56
470.023	86.56
470.243	85.56
470.462	102.56
470.681	107.56
470.901	82.56
471.12	84.56
471.339	79.56
471.558	94.56
471.777	91.56
471.997	131.56
472.216	259.56
472.435	434.56
472.654	158.56
472.873	108.56
473.092	88.56
473.311	84.56
473.53	88.56
473.749	97.56
473.968	100.56
474.187	105.56
474.406	105.56
474.625	99.56
474.844	88.56
475.063	83.56
475.282	83.56
475.501	83.56
475.72	103.56
475.939	92.56
476.158	99.56
476.377	97.56
476.596	97.56
476.814	80.56
477.033	94.56
477.252	87.56
477.471	81.56
477.69	84.56
477.908	89.56
478.127	91.56
478.346	84.56
478.564	86.56
478.783	94.56
479.002	98.56
479.22	95.56
479.439	97.56
479.658	113.56
479.876	88.56
480.095	100.56
480.313	109.56
480.532	111.56
480.751	125.56
480.969	241.56
481.188	740.56
481.406	454.56
481.624	115.56
481.843	96.56
482.061	99.56
482.28	94.56
482.498	77.56
482.717	91.56
482.935	103.56
483.153	84.56
483.372	88.56
483.59	94.56
483.808	96.56
484.027	103.56
484.245	84.56
484.463	87.56
484.681	97.56
484.9	99.56
485.118	115.56
485.336	92.56
485.554	97.56
485.772	101.56
485.99	101.56
486.209	107.56
486.427	108.56
486.645	114.56
486.863	107.56
487.081	92.56
487.299	98.56
487.517	82.56
487.735	103.56
487.953	95.56
488.171	92.56
488.389	97.56
488.607	97.56
488.825	94.56
489.043	104.56
489.261	79.56
489.479	94.56
489.696	93.56
489.914	86.56
490.132	80.56
490.35	82.56
490.568	75.56
490.786	82.56
491.003	81.56
491.221	100.56
491.439	98.56
491.657	84.56
491.874	102.56
492.092	82.56
492.31	98.56
492.527	89.56
492.745	86.56
492.963	93.56
493.18	80.56
493.398	99.56
493.615	98.56
493.833	94.56
494.05	96.56
494.268	95.56
494.485	79.56
494.703	87.56
494.92	82.56
495.138	97.56
495.355	80.56
495.573	93.56
495.79	93.56
496.008	96.56
496.225	87.56
496.442	92.56
496.66	74.56
496.877	87.56
497.094	89.56
497.312	82.56
497.529	97.56
497.746	92.56
497.963	85.56
498.181	85.56
498.398	100.56
498.615	120.56
498.832	107.56
499.049	88.56
499.267	104.56
499.484	97.56
499.701	85.56
499.918	86.56
500.135	100.56
500.352	83.56
500.569	95.56
500.786	89.56
501.003	100.56
501.22	91.56
501.437	80.56
501.654	90.56
501.871	83.56
502.088	84.56
502.305	94.56
502.522	102.56
502.739	101.56
502.956	76.56
503.172	96.56
503.389	89.56
503.606	93.56
503.823	96.56
504.04	87.56
504.256	90.56
504.473	82.56
504.69	80.56
504.907	105.56
505.123	84.56
505.34	79.56
505.557	100.56
505.773	86.56
505.99	83.56
506.207	94.56
506.423	96.56
506.64	92.56
506.856	101.56
507.073	93.56
507.289	93.56
507.506	79.56
507.722	100.56
507.939	109.56
508.155	100.56
508.372	85.56
508.588	89.56
508.805	99.56
509.021	91.56
509.238	99.56
509.454	100.56
509.67	78.56
509.887	88.56
510.103	118.56
510.319	195.56
510.536	620.56
510.752	1913.56
510.968	549.56
511.184	134.56
511.401	99.56
511.617	107.56
511.833	89.56
512.049	87.56
512.265	92.56
512.481	93.56
512.698	102.56
512.914	77.56
513.13	78.56
513.346	96.56
513.562	98.56
513.778	98.56
513.994	109.56
514.21	108.56
514.426	124.56
514.642	125.56
514.858	117.56
515.074	155.56
515.29	375.56
515.506	1160.56
515.721	453.56
515.937	122.56
516.153	94.56
