Data from Circ_1993_H10_HRD10591_00017.txt Node
Date: Wed Jan 03 11:44:05 EST 2024
User: Yrep
Spectrometer: HR+D1059
Trigger mode: 1
Integration Time (sec): 1.000000E-1
Scans to average: 1
Electric dark correction enabled: true
Nonlinearity correction enabled: false
Boxcar width: 0
XAxis mode: Wavelengths
Number of Pixels in Spectrum: 2048
>>>>>Begin Spectral Data<<<<<
223.165	-24.81
223.4	-24.81
223.635	-24.81
223.869	-16.81
224.104	-4.81
224.338	-8.81
224.573	-9.81
224.808	-28.81
225.042	-25.81
225.277	-9.81
225.511	10.19
225.746	10.19
225.98	11.19
226.215	7.19
226.449	18.19
226.683	21.19
226.918	19.19
227.152	32.19
227.387	36.19
227.621	28.19
227.856	41.19
228.09	58.19
228.324	58.19
228.559	34.19
228.793	60.19
229.027	54.19
229.262	74.19
229.496	62.19
229.73	74.19
229.964	66.19
230.199	84.19
230.433	79.19
230.667	56.19
230.901	92.19
231.136	82.19
231.37	77.19
231.604	93.19
231.838	95.19
232.072	78.19
232.306	78.19
232.541	67.19
232.775	89.19
233.009	84.19
233.243	84.19
233.477	63.19
233.711	76.19
233.945	85.19
234.179	77.19
234.413	82.19
234.647	101.19
234.881	79.19
235.115	84.19
235.349	74.19
235.583	78.19
235.817	76.19
236.051	90.19
236.285	69.19
236.519	85.19
236.753	77.19
236.987	75.19
237.221	92.19
237.455	78.19
237.689	82.19
237.922	70.19
238.156	73.19
238.39	90.19
238.624	85.19
238.858	80.19
239.091	78.19
239.325	75.19
239.559	84.19
239.793	80.19
240.027	66.19
240.26	76.19
240.494	75.19
240.728	62.19
240.961	73.19
241.195	64.19
241.429	66.19
241.662	70.19
241.896	78.19
242.13	67.19
242.363	74.19
242.597	83.19
242.83	63.19
243.064	82.19
243.298	78.19
243.531	70.19
243.765	78.19
243.998	86.19
244.232	88.19
244.465	91.19
244.699	78.19
244.932	64.19
245.166	67.19
245.399	78.19
245.633	82.19
245.866	72.19
246.099	89.19
246.333	83.19
246.566	74.19
246.8	68.19
247.033	96.19
247.266	76.19
247.5	72.19
247.733	69.19
247.966	84.19
248.2	84.19
248.433	89.19
248.666	66.19
248.899	85.19
249.133	92.19
249.366	87.19
249.599	101.19
249.832	84.19
250.066	74.19
250.299	76.19
250.532	76.19
250.765	76.19
250.998	85.19
251.231	78.19
251.465	76.19
251.698	83.19
251.931	77.19
252.164	64.19
252.397	83.19
252.63	70.19
252.863	77.19
253.096	63.19
253.329	75.19
253.562	76.19
253.795	75.19
254.028	79.19
254.261	86.19
254.494	76.19
254.727	88.19
254.96	74.19
255.193	76.19
255.426	83.19
255.659	85.19
255.892	82.19
256.124	76.19
256.357	79.19
256.59	72.19
256.823	83.19
257.056	74.19
257.289	80.19
257.521	82.19
257.754	86.19
257.987	72.19
258.22	68.19
258.452	57.19
258.685	66.19
258.918	79.19
259.151	78.19
259.383	96.19
259.616	74.19
259.849	72.19
260.081	80.19
260.314	86.19
260.547	70.19
260.779	76.19
261.012	96.19
261.244	75.19
261.477	77.19
261.71	86.19
261.942	89.19
262.175	106.19
262.407	91.19
262.64	78.19
262.872	84.19
263.105	90.19
263.337	79.19
263.57	58.19
263.802	61.19
264.035	89.19
264.267	76.19
264.499	66.19
264.732	84.19
264.964	75.19
265.197	79.19
265.429	76.19
265.661	82.19
265.894	92.19
266.126	76.19
266.358	74.19
266.591	91.19
266.823	83.19
267.055	76.19
267.287	89.19
267.52	88.19
267.752	92.19
267.984	74.19
268.216	85.19
268.448	89.19
268.681	84.19
268.913	62.19
269.145	84.19
269.377	86.19
269.609	80.19
269.841	84.19
270.073	85.19
270.306	82.19
270.538	83.19
270.77	100.19
271.002	81.19
271.234	67.19
271.466	83.19
271.698	86.19
271.93	83.19
272.162	76.19
272.394	68.19
272.626	80.19
272.858	89.19
273.09	70.19
273.322	84.19
273.553	84.19
273.785	69.19
274.017	80.19
274.249	94.19
274.481	78.19
274.713	81.19
274.945	81.19
275.176	94.19
275.408	76.19
275.64	75.19
275.872	81.19
276.104	75.19
276.335	87.19
276.567	84.19
276.799	99.19
277.031	100.19
277.262	97.19
277.494	85.19
277.726	88.19
277.957	75.19
278.189	75.19
278.421	88.19
278.652	75.19
278.884	73.19
279.115	97.19
279.347	90.19
279.579	76.19
279.81	85.19
280.042	107.19
280.273	85.19
280.505	76.19
280.736	81.19
280.968	80.19
281.199	80.19
281.431	68.19
281.662	82.19
281.894	79.19
282.125	97.19
282.356	99.19
282.588	113.19
282.819	103.19
283.051	100.19
283.282	91.19
283.513	76.19
283.745	81.19
283.976	85.19
284.207	90.19
284.439	73.19
284.67	92.19
284.901	80.19
285.132	88.19
285.364	89.19
285.595	80.19
285.826	84.19
286.057	82.19
286.288	100.19
286.52	96.19
286.751	88.19
286.982	84.19
287.213	91.19
287.444	87.19
287.675	87.19
287.906	91.19
288.138	74.19
288.369	89.19
288.6	108.19
288.831	88.19
289.062	105.19
289.293	96.19
289.524	76.19
289.755	93.19
289.986	82.19
290.217	73.19
290.448	70.19
290.679	67.19
290.91	82.19
291.141	83.19
291.371	91.19
291.602	77.19
291.833	93.19
292.064	89.19
292.295	84.19
292.526	78.19
292.757	74.19
292.987	75.19
293.218	84.19
293.449	84.19
293.68	94.19
293.91	74.19
294.141	99.19
294.372	88.19
294.603	80.19
294.833	79.19
295.064	83.19
295.295	83.19
295.525	84.19
295.756	90.19
295.987	100.19
296.217	128.19
296.448	98.19
296.679	86.19
296.909	86.19
297.14	83.19
297.37	77.19
297.601	78.19
297.831	99.19
298.062	82.19
298.292	87.19
298.523	89.19
298.753	106.19
298.984	86.19
299.214	83.19
299.445	99.19
299.675	91.19
299.905	90.19
300.136	81.19
300.366	84.19
300.597	92.19
300.827	102.19
301.057	90.19
301.288	88.19
301.518	96.19
301.748	92.19
301.979	92.19
302.209	94.19
302.439	86.19
302.669	76.19
302.9	85.19
303.13	85.19
303.36	87.19
303.59	93.19
303.82	90.19
304.051	85.19
304.281	77.19
304.511	93.19
304.741	86.19
304.971	94.19
305.201	85.19
305.431	84.19
305.661	97.19
305.891	103.19
306.121	93.19
306.352	99.19
306.582	105.19
306.812	88.19
307.042	83.19
307.272	102.19
307.502	100.19
307.731	91.19
307.961	89.19
308.191	86.19
308.421	74.19
308.651	93.19
308.881	79.19
309.111	102.19
309.341	98.19
309.571	102.19
309.8	95.19
310.03	92.19
310.26	88.19
310.49	84.19
310.72	93.19
310.949	87.19
311.179	97.19
311.409	100.19
311.639	91.19
311.868	83.19
312.098	95.19
312.328	89.19
312.557	98.19
312.787	92.19
313.017	92.19
313.246	100.19
313.476	95.19
313.706	95.19
313.935	86.19
314.165	105.19
314.394	88.19
314.624	96.19
314.853	107.19
315.083	102.19
315.312	91.19
315.542	86.19
315.771	99.19
316.001	78.19
316.23	92.19
316.46	93.19
316.689	85.19
316.919	80.19
317.148	99.19
317.377	105.19
317.607	91.19
317.836	100.19
318.065	85.19
318.295	88.19
318.524	86.19
318.753	80.19
318.983	85.19
319.212	86.19
319.441	97.19
319.67	96.19
319.9	88.19
320.129	82.19
320.358	97.19
320.587	80.19
320.816	84.19
321.046	87.19
321.275	98.19
321.504	89.19
321.733	92.19
321.962	90.19
322.191	108.19
322.42	99.19
322.649	104.19
322.878	96.19
323.108	108.19
323.337	114.19
323.566	111.19
323.795	139.19
324.024	154.19
324.253	309.19
324.482	593.19
324.71	1208.19
324.939	1554.19
325.168	573.19
325.397	208.19
325.626	126.19
325.855	115.19
326.084	105.19
326.313	109.19
326.542	129.19
326.77	193.19
326.999	364.19
327.228	688.19
327.457	1196.19
327.686	973.19
327.914	274.19
328.143	162.19
328.372	127.19
328.6	123.19
328.829	121.19
329.058	105.19
329.287	108.19
329.515	100.19
329.744	98.19
329.972	92.19
330.201	102.19
330.43	117.19
330.658	125.19
330.887	107.19
331.115	110.19
331.344	99.19
331.572	84.19
331.801	98.19
332.03	86.19
332.258	95.19
332.486	97.19
332.715	84.19
332.943	77.19
333.172	106.19
333.4	101.19
333.629	102.19
333.857	106.19
334.085	99.19
334.314	111.19
334.542	114.19
334.771	123.19
334.999	96.19
335.227	111.19
335.455	104.19
335.684	101.19
335.912	90.19
336.14	99.19
336.369	88.19
336.597	82.19
336.825	98.19
337.053	93.19
337.281	102.19
337.51	92.19
337.738	80.19
337.966	89.19
338.194	93.19
338.422	94.19
338.65	95.19
338.878	90.19
339.106	90.19
339.334	93.19
339.562	102.19
339.79	86.19
340.018	86.19
340.246	86.19
340.474	81.19
340.702	91.19
340.93	82.19
341.158	83.19
341.386	94.19
341.614	88.19
341.842	100.19
342.07	94.19
342.298	91.19
342.526	90.19
342.754	93.19
342.981	90.19
343.209	92.19
343.437	96.19
343.665	90.19
343.893	86.19
344.12	99.19
344.348	94.19
344.576	103.19
344.804	83.19
345.031	99.19
345.259	99.19
345.487	92.19
345.714	88.19
345.942	89.19
346.17	99.19
346.397	96.19
346.625	107.19
346.853	88.19
347.08	94.19
347.308	71.19
347.535	84.19
347.763	97.19
347.99	93.19
348.218	93.19
348.445	106.19
348.673	98.19
348.9	94.19
349.128	88.19
349.355	101.19
349.583	94.19
349.81	85.19
350.037	101.19
350.265	84.19
350.492	95.19
350.72	86.19
350.947	106.19
351.174	96.19
351.402	98.19
351.629	70.19
351.856	87.19
352.083	98.19
352.311	100.19
352.538	99.19
352.765	105.19
352.992	103.19
353.22	114.19
353.447	106.19
353.674	116.19
353.901	103.19
354.128	99.19
354.355	100.19
354.583	92.19
354.81	85.19
355.037	99.19
355.264	81.19
355.491	91.19
355.718	94.19
355.945	96.19
356.172	96.19
356.399	109.19
356.626	86.19
356.853	89.19
357.08	90.19
357.307	86.19
357.534	100.19
357.761	100.19
357.988	112.19
358.215	100.19
358.441	98.19
358.668	99.19
358.895	104.19
359.122	101.19
359.349	90.19
359.576	85.19
359.802	88.19
360.029	107.19
360.256	102.19
360.483	84.19
360.709	91.19
360.936	85.19
361.163	86.19
361.39	86.19
361.616	92.19
361.843	99.19
362.07	114.19
362.296	82.19
362.523	76.19
362.749	95.19
362.976	94.19
363.203	84.19
363.429	84.19
363.656	90.19
363.882	92.19
364.109	101.19
364.335	87.19
364.562	76.19
364.788	103.19
365.015	86.19
365.241	95.19
365.468	95.19
365.694	107.19
365.92	99.19
366.147	87.19
366.373	100.19
366.599	88.19
366.826	93.19
367.052	96.19
367.278	84.19
367.505	74.19
367.731	96.19
367.957	88.19
368.184	102.19
368.41	104.19
368.636	98.19
368.862	117.19
369.089	97.19
369.315	97.19
369.541	94.19
369.767	82.19
369.993	97.19
370.219	104.19
370.445	92.19
370.672	99.19
370.898	89.19
371.124	93.19
371.35	85.19
371.576	84.19
371.802	94.19
372.028	99.19
372.254	90.19
372.48	77.19
372.706	89.19
372.932	91.19
373.158	87.19
373.384	97.19
373.61	98.19
373.835	95.19
374.061	87.19
374.287	77.19
374.513	89.19
374.739	89.19
374.965	82.19
375.191	94.19
375.416	106.19
375.642	107.19
375.868	100.19
376.094	93.19
376.319	86.19
376.545	101.19
376.771	109.19
376.997	96.19
377.222	112.19
377.448	100.19
377.674	96.19
377.899	98.19
378.125	100.19
378.35	90.19
378.576	96.19
378.802	102.19
379.027	91.19
379.253	93.19
379.478	95.19
379.704	89.19
379.929	100.19
380.155	94.19
380.38	111.19
380.606	105.19
380.831	100.19
381.057	103.19
381.282	120.19
381.507	114.19
381.733	113.19
381.958	102.19
382.184	114.19
382.409	100.19
382.634	109.19
382.86	107.19
383.085	126.19
383.31	117.19
383.535	116.19
383.761	130.19
383.986	113.19
384.211	115.19
384.436	117.19
384.662	126.19
384.887	132.19
385.112	138.19
385.337	140.19
385.562	142.19
385.787	133.19
386.013	137.19
386.238	133.19
386.463	142.19
386.688	136.19
386.913	130.19
387.138	132.19
387.363	132.19
387.588	121.19
387.813	96.19
388.038	138.19
388.263	140.19
388.488	146.19
388.713	96.19
388.938	96.19
389.163	108.19
389.387	110.19
389.612	102.19
389.837	97.19
390.062	71.19
390.287	82.19
390.512	97.19
390.736	99.19
390.961	96.19
391.186	101.19
391.411	92.19
391.636	93.19
391.86	88.19
392.085	95.19
392.31	90.19
392.534	94.19
392.759	90.19
392.984	94.19
393.208	131.19
393.433	158.19
393.658	145.19
393.882	95.19
394.107	101.19
394.331	76.19
394.556	87.19
394.78	77.19
395.005	89.19
395.229	91.19
395.454	81.19
395.678	76.19
395.903	82.19
396.127	99.19
396.352	85.19
396.576	109.19
396.801	124.19
397.025	126.19
397.249	104.19
397.474	101.19
397.698	81.19
397.922	75.19
398.147	96.19
398.371	80.19
398.595	93.19
398.82	79.19
399.044	96.19
399.268	89.19
399.492	81.19
399.717	88.19
399.941	90.19
400.165	103.19
400.389	79.19
400.613	94.19
400.837	91.19
401.062	91.19
401.286	80.19
401.51	76.19
401.734	80.19
401.958	91.19
402.182	102.19
402.406	133.19
402.63	99.19
402.854	95.19
403.078	85.19
403.302	78.19
403.526	92.19
403.75	78.19
403.974	83.19
404.198	81.19
404.422	86.19
404.645	85.19
404.869	103.19
405.093	95.19
405.317	94.19
405.541	97.19
405.765	97.19
405.988	109.19
406.212	133.19
406.436	173.19
406.66	106.19
406.883	99.19
407.107	91.19
407.331	99.19
407.555	92.19
407.778	89.19
408.002	92.19
408.226	97.19
408.449	86.19
408.673	77.19
408.896	98.19
409.12	92.19
409.344	85.19
409.567	84.19
409.791	89.19
410.014	81.19
410.238	108.19
410.461	82.19
410.685	92.19
410.908	103.19
411.132	97.19
411.355	90.19
411.578	86.19
411.802	107.19
412.025	91.19
412.249	100.19
412.472	97.19
412.695	97.19
412.919	92.19
413.142	92.19
413.365	83.19
413.589	104.19
413.812	88.19
414.035	93.19
414.258	93.19
414.482	93.19
414.705	106.19
414.928	97.19
415.151	90.19
415.374	83.19
415.597	86.19
415.821	102.19
416.044	89.19
416.267	86.19
416.49	94.19
416.713	86.19
416.936	84.19
417.159	102.19
417.382	83.19
417.605	90.19
417.828	94.19
418.051	80.19
418.274	98.19
418.497	96.19
418.72	93.19
418.943	99.19
419.166	100.19
419.389	92.19
419.611	91.19
419.834	96.19
420.057	92.19
420.28	93.19
420.503	96.19
420.726	90.19
420.948	86.19
421.171	88.19
421.394	100.19
421.617	86.19
421.839	80.19
422.062	93.19
422.285	84.19
422.507	98.19
422.73	131.19
422.953	110.19
423.175	96.19
423.398	94.19
423.621	100.19
423.843	81.19
424.066	76.19
424.288	82.19
424.511	103.19
424.733	98.19
424.956	99.19
425.178	98.19
425.401	91.19
425.623	98.19
425.846	97.19
426.068	100.19
426.291	98.19
426.513	74.19
426.735	79.19
426.958	105.19
427.18	98.19
427.402	111.19
427.625	143.19
427.847	97.19
428.069	114.19
428.292	93.19
428.514	86.19
428.736	97.19
428.958	88.19
429.181	80.19
429.403	77.19
429.625	89.19
429.847	84.19
430.069	92.19
430.292	86.19
430.514	86.19
430.736	94.19
430.958	97.19
431.18	96.19
431.402	89.19
431.624	85.19
431.846	78.19
432.068	95.19
432.29	79.19
432.512	87.19
432.734	81.19
432.956	91.19
433.178	90.19
433.4	92.19
433.622	98.19
433.844	95.19
434.066	98.19
434.287	82.19
434.509	85.19
434.731	93.19
434.953	91.19
435.175	89.19
435.397	85.19
435.618	95.19
435.84	92.19
436.062	107.19
436.284	104.19
436.505	80.19
436.727	93.19
436.949	94.19
437.17	94.19
437.392	86.19
437.614	89.19
437.835	100.19
438.057	109.19
438.278	103.19
438.5	112.19
438.721	91.19
438.943	79.19
439.165	86.19
439.386	92.19
439.608	88.19
439.829	102.19
440.05	107.19
440.272	107.19
440.493	100.19
440.715	74.19
440.936	93.19
441.158	77.19
441.379	77.19
441.6	82.19
441.822	96.19
442.043	96.19
442.264	92.19
442.486	90.19
442.707	86.19
442.928	86.19
443.149	108.19
443.371	102.19
443.592	100.19
443.813	97.19
444.034	102.19
444.255	75.19
444.476	94.19
444.698	90.19
444.919	92.19
445.14	134.19
445.361	109.19
445.582	105.19
445.803	127.19
446.024	107.19
446.245	110.19
446.466	102.19
446.687	85.19
446.908	90.19
447.129	98.19
447.35	92.19
447.571	80.19
447.792	92.19
448.013	100.19
448.234	83.19
448.455	88.19
448.675	91.19
448.896	95.19
449.117	88.19
449.338	97.19
449.559	113.19
449.779	124.19
450	92.19
450.221	86.19
450.442	85.19
450.662	101.19
450.883	96.19
451.104	100.19
451.324	98.19
451.545	98.19
451.766	101.19
451.986	88.19
452.207	77.19
452.428	90.19
452.648	80.19
452.869	95.19
453.089	99.19
453.31	112.19
453.53	88.19
453.751	94.19
453.971	99.19
454.192	95.19
454.412	93.19
454.633	82.19
454.853	87.19
455.073	94.19
455.294	75.19
455.514	93.19
455.734	89.19
455.955	83.19
456.175	76.19
456.395	64.19
456.616	83.19
456.836	96.19
457.056	83.19
457.276	75.19
457.497	80.19
457.717	74.19
457.937	78.19
458.157	96.19
458.377	79.19
458.598	113.19
458.818	114.19
459.038	129.19
459.258	95.19
459.478	92.19
459.698	89.19
459.918	77.19
460.138	83.19
460.358	91.19
460.578	86.19
460.798	85.19
461.018	94.19
461.238	74.19
461.458	92.19
461.678	82.19
461.898	95.19
462.118	83.19
462.338	80.19
462.558	96.19
462.777	95.19
462.997	89.19
463.217	64.19
463.437	80.19
463.657	77.19
463.876	95.19
464.096	89.19
464.316	90.19
464.536	92.19
464.755	95.19
464.975	97.19
465.195	131.19
465.414	144.19
465.634	90.19
465.854	72.19
466.073	83.19
466.293	80.19
466.512	85.19
466.732	87.19
466.951	76.19
467.171	77.19
467.391	89.19
467.61	88.19
467.829	106.19
468.049	101.19
468.268	99.19
468.488	82.19
468.707	91.19
468.927	81.19
469.146	80.19
469.365	88.19
469.585	78.19
469.804	100.19
470.023	85.19
470.243	79.19
470.462	96.19
470.681	100.19
470.901	81.19
471.12	94.19
471.339	80.19
471.558	86.19
471.777	88.19
471.997	84.19
472.216	122.19
472.435	143.19
472.654	90.19
472.873	84.19
473.092	80.19
473.311	77.19
473.53	77.19
473.749	76.19
473.968	84.19
474.187	95.19
474.406	93.19
474.625	69.19
474.844	109.19
475.063	83.19
475.282	94.19
475.501	83.19
475.72	102.19
475.939	91.19
476.158	90.19
476.377	95.19
476.596	92.19
476.814	82.19
477.033	108.19
477.252	73.19
477.471	92.19
477.69	82.19
477.908	89.19
478.127	86.19
478.346	81.19
478.564	91.19
478.783	81.19
479.002	77.19
479.22	87.19
479.439	89.19
479.658	82.19
479.876	89.19
480.095	79.19
480.313	93.19
480.532	89.19
480.751	97.19
480.969	107.19
481.188	207.19
481.406	148.19
481.624	90.19
481.843	90.19
482.061	84.19
482.28	93.19
482.498	81.19
482.717	87.19
482.935	78.19
483.153	87.19
483.372	99.19
483.59	99.19
483.808	94.19
484.027	90.19
484.245	96.19
484.463	85.19
484.681	95.19
484.9	101.19
485.118	112.19
485.336	108.19
485.554	102.19
485.772	102.19
485.99	112.19
486.209	104.19
486.427	105.19
486.645	114.19
486.863	101.19
487.081	89.19
487.299	101.19
487.517	101.19
487.735	102.19
487.953	92.19
488.171	83.19
488.389	105.19
488.607	93.19
488.825	76.19
489.043	100.19
489.261	82.19
489.479	93.19
489.696	88.19
489.914	90.19
490.132	88.19
490.35	84.19
490.568	86.19
490.786	98.19
491.003	92.19
491.221	81.19
491.439	82.19
491.657	102.19
491.874	92.19
492.092	92.19
492.31	90.19
492.527	82.19
492.745	96.19
492.963	89.19
493.18	90.19
493.398	97.19
493.615	99.19
493.833	92.19
494.05	85.19
494.268	98.19
494.485	84.19
494.703	88.19
494.92	88.19
495.138	82.19
495.355	90.19
495.573	85.19
495.79	96.19
496.008	96.19
496.225	90.19
496.442	75.19
496.66	88.19
496.877	78.19
497.094	97.19
497.312	94.19
497.529	98.19
497.746	79.19
497.963	100.19
498.181	93.19
498.398	102.19
498.615	115.19
498.832	93.19
499.049	97.19
499.267	96.19
499.484	81.19
499.701	91.19
499.918	80.19
500.135	97.19
500.352	88.19
500.569	94.19
500.786	80.19
501.003	87.19
501.22	73.19
501.437	77.19
501.654	84.19
501.871	106.19
502.088	89.19
502.305	78.19
502.522	80.19
502.739	84.19
502.956	81.19
503.172	90.19
503.389	92.19
503.606	94.19
503.823	113.19
504.04	88.19
504.256	82.19
504.473	77.19
504.69	85.19
504.907	98.19
505.123	96.19
505.34	84.19
505.557	94.19
505.773	93.19
505.99	85.19
506.207	81.19
506.423	85.19
506.64	84.19
506.856	88.19
507.073	79.19
507.289	82.19
507.506	81.19
507.722	98.19
507.939	91.19
508.155	92.19
508.372	81.19
508.588	94.19
508.805	91.19
509.021	110.19
509.238	93.19
509.454	83.19
509.67	85.19
509.887	96.19
510.103	117.19
510.319	172.19
510.536	544.19
510.752	1646.19
510.968	462.19
511.184	126.19
511.401	102.19
511.617	88.19
511.833	92.19
512.049	88.19
512.265	98.19
512.481	86.19
512.698	77.19
512.914	83.19
513.13	91.19
513.346	83.19
513.562	95.19
513.778	87.19
513.994	95.19
514.21	88.19
514.426	102.19
514.642	121.19
514.858	109.19
515.074	130.19
515.29	298.19
515.506	938.19
515.721	362.19
515.937	132.19
516.153	97.19
