Data from Circ_1993_H10_HRD10591_00002.txt Node
Date: Wed Jan 03 11:44:02 EST 2024
User: Yrep
Spectrometer: HR+D1059
Trigger mode: 1
Integration Time (sec): 1.000000E-1
Scans to average: 1
Electric dark correction enabled: true
Nonlinearity correction enabled: false
Boxcar width: 0
XAxis mode: Wavelengths
Number of Pixels in Spectrum: 2048
>>>>>Begin Spectral Data<<<<<
223.165	-30.75
223.4	-30.75
223.635	-30.75
223.869	-23.75
224.104	-14.75
224.338	-18.75
224.573	-5.75
224.808	-2.75
225.042	-17.75
225.277	-11.75
225.511	-11.75
225.746	-1.75
225.98	12.25
226.215	23.25
226.449	23.25
226.683	32.25
226.918	30.25
227.152	18.25
227.387	50.25
227.621	39.25
227.856	39.25
228.09	45.25
228.324	57.25
228.559	57.25
228.793	48.25
229.027	74.25
229.262	78.25
229.496	71.25
229.73	81.25
229.964	80.25
230.199	78.25
230.433	67.25
230.667	75.25
230.901	75.25
231.136	64.25
231.37	79.25
231.604	74.25
231.838	81.25
232.072	79.25
232.306	82.25
232.541	90.25
232.775	81.25
233.009	71.25
233.243	84.25
233.477	78.25
233.711	65.25
233.945	73.25
234.179	89.25
234.413	76.25
234.647	74.25
234.881	82.25
235.115	67.25
235.349	82.25
235.583	71.25
235.817	73.25
236.051	78.25
236.285	76.25
236.519	67.25
236.753	85.25
236.987	69.25
237.221	82.25
237.455	75.25
237.689	78.25
237.922	79.25
238.156	88.25
238.39	73.25
238.624	74.25
238.858	84.25
239.091	71.25
239.325	78.25
239.559	80.25
239.793	79.25
240.027	81.25
240.26	67.25
240.494	67.25
240.728	81.25
240.961	71.25
241.195	69.25
241.429	74.25
241.662	79.25
241.896	78.25
242.13	84.25
242.363	83.25
242.597	88.25
242.83	63.25
243.064	86.25
243.298	83.25
243.531	71.25
243.765	64.25
243.998	89.25
244.232	76.25
244.465	98.25
244.699	73.25
244.932	88.25
245.166	78.25
245.399	89.25
245.633	92.25
245.866	78.25
246.099	72.25
246.333	81.25
246.566	78.25
246.8	67.25
247.033	71.25
247.266	76.25
247.5	78.25
247.733	73.25
247.966	89.25
248.2	89.25
248.433	84.25
248.666	73.25
248.899	76.25
249.133	78.25
249.366	67.25
249.599	80.25
249.832	94.25
250.066	88.25
250.299	66.25
250.532	68.25
250.765	69.25
250.998	90.25
251.231	78.25
251.465	71.25
251.698	89.25
251.931	83.25
252.164	81.25
252.397	90.25
252.63	87.25
252.863	80.25
253.096	81.25
253.329	79.25
253.562	88.25
253.795	75.25
254.028	81.25
254.261	71.25
254.494	91.25
254.727	77.25
254.96	80.25
255.193	76.25
255.426	81.25
255.659	87.25
255.892	84.25
256.124	78.25
256.357	79.25
256.59	71.25
256.823	69.25
257.056	72.25
257.289	75.25
257.521	87.25
257.754	80.25
257.987	74.25
258.22	82.25
258.452	79.25
258.685	77.25
258.918	82.25
259.151	90.25
259.383	89.25
259.616	83.25
259.849	86.25
260.081	91.25
260.314	78.25
260.547	69.25
260.779	76.25
261.012	77.25
261.244	74.25
261.477	79.25
261.71	89.25
261.942	86.25
262.175	92.25
262.407	81.25
262.64	58.25
262.872	83.25
263.105	96.25
263.337	88.25
263.57	87.25
263.802	90.25
264.035	97.25
264.267	78.25
264.499	83.25
264.732	82.25
264.964	83.25
265.197	90.25
265.429	91.25
265.661	87.25
265.894	81.25
266.126	77.25
266.358	81.25
266.591	87.25
266.823	70.25
267.055	79.25
267.287	88.25
267.52	77.25
267.752	84.25
267.984	75.25
268.216	80.25
268.448	82.25
268.681	81.25
268.913	79.25
269.145	85.25
269.377	93.25
269.609	83.25
269.841	102.25
270.073	99.25
270.306	83.25
270.538	92.25
270.77	78.25
271.002	71.25
271.234	88.25
271.466	72.25
271.698	88.25
271.93	84.25
272.162	89.25
272.394	89.25
272.626	83.25
272.858	74.25
273.09	71.25
273.322	72.25
273.553	80.25
273.785	95.25
274.017	82.25
274.249	87.25
274.481	81.25
274.713	76.25
274.945	75.25
275.176	72.25
275.408	83.25
275.64	79.25
275.872	84.25
276.104	82.25
276.335	75.25
276.567	89.25
276.799	93.25
277.031	90.25
277.262	87.25
277.494	87.25
277.726	80.25
277.957	88.25
278.189	80.25
278.421	73.25
278.652	86.25
278.884	78.25
279.115	88.25
279.347	84.25
279.579	82.25
279.81	80.25
280.042	76.25
280.273	93.25
280.505	79.25
280.736	62.25
280.968	86.25
281.199	82.25
281.431	90.25
281.662	83.25
281.894	98.25
282.125	88.25
282.356	100.25
282.588	91.25
282.819	95.25
283.051	83.25
283.282	84.25
283.513	83.25
283.745	84.25
283.976	88.25
284.207	78.25
284.439	83.25
284.67	103.25
284.901	82.25
285.132	82.25
285.364	79.25
285.595	87.25
285.826	93.25
286.057	100.25
286.288	80.25
286.52	101.25
286.751	89.25
286.982	84.25
287.213	86.25
287.444	103.25
287.675	86.25
287.906	75.25
288.138	96.25
288.369	96.25
288.6	93.25
288.831	81.25
289.062	87.25
289.293	91.25
289.524	78.25
289.755	96.25
289.986	97.25
290.217	97.25
290.448	84.25
290.679	82.25
290.91	80.25
291.141	94.25
291.371	92.25
291.602	95.25
291.833	81.25
292.064	89.25
292.295	93.25
292.526	82.25
292.757	96.25
292.987	85.25
293.218	88.25
293.449	87.25
293.68	90.25
293.91	86.25
294.141	87.25
294.372	81.25
294.603	89.25
294.833	82.25
295.064	92.25
295.295	93.25
295.525	78.25
295.756	86.25
295.987	98.25
296.217	101.25
296.448	100.25
296.679	87.25
296.909	93.25
297.14	85.25
297.37	76.25
297.601	100.25
297.831	87.25
298.062	82.25
298.292	77.25
298.523	89.25
298.753	83.25
298.984	88.25
299.214	75.25
299.445	98.25
299.675	88.25
299.905	103.25
300.136	96.25
300.366	94.25
300.597	87.25
300.827	100.25
301.057	84.25
301.288	85.25
301.518	92.25
301.748	84.25
301.979	89.25
302.209	80.25
302.439	83.25
302.669	104.25
302.9	83.25
303.13	83.25
303.36	86.25
303.59	89.25
303.82	71.25
304.051	92.25
304.281	100.25
304.511	94.25
304.741	76.25
304.971	79.25
305.201	96.25
305.431	82.25
305.661	85.25
305.891	83.25
306.121	91.25
306.352	97.25
306.582	98.25
306.812	84.25
307.042	93.25
307.272	78.25
307.502	89.25
307.731	92.25
307.961	83.25
308.191	93.25
308.421	92.25
308.651	97.25
308.881	86.25
309.111	84.25
309.341	99.25
309.571	80.25
309.8	81.25
310.03	85.25
310.26	85.25
310.49	75.25
310.72	98.25
310.949	100.25
311.179	96.25
311.409	107.25
311.639	92.25
311.868	87.25
312.098	96.25
312.328	91.25
312.557	99.25
312.787	80.25
313.017	76.25
313.246	86.25
313.476	76.25
313.706	84.25
313.935	97.25
314.165	101.25
314.394	98.25
314.624	80.25
314.853	96.25
315.083	78.25
315.312	93.25
315.542	75.25
315.771	86.25
316.001	96.25
316.23	80.25
316.46	86.25
316.689	71.25
316.919	68.25
317.148	76.25
317.377	88.25
317.607	85.25
317.836	72.25
318.065	79.25
318.295	95.25
318.524	89.25
318.753	91.25
318.983	91.25
319.212	96.25
319.441	91.25
319.67	90.25
319.9	98.25
320.129	83.25
320.358	98.25
320.587	100.25
320.816	99.25
321.046	91.25
321.275	93.25
321.504	89.25
321.733	100.25
321.962	97.25
322.191	88.25
322.42	95.25
322.649	108.25
322.878	112.25
323.108	98.25
323.337	112.25
323.566	116.25
323.795	120.25
324.024	170.25
324.253	271.25
324.482	556.25
324.71	1102.25
324.939	1418.25
325.168	541.25
325.397	177.25
325.626	113.25
325.855	105.25
326.084	120.25
326.313	124.25
326.542	133.25
326.77	166.25
326.999	336.25
327.228	655.25
327.457	1140.25
327.686	899.25
327.914	263.25
328.143	161.25
328.372	121.25
328.6	112.25
328.829	105.25
329.058	106.25
329.287	113.25
329.515	90.25
329.744	98.25
329.972	87.25
330.201	100.25
330.43	97.25
330.658	99.25
330.887	112.25
331.115	112.25
331.344	80.25
331.572	90.25
331.801	94.25
332.03	80.25
332.258	82.25
332.486	96.25
332.715	90.25
332.943	92.25
333.172	89.25
333.4	97.25
333.629	112.25
333.857	100.25
334.085	99.25
334.314	91.25
334.542	115.25
334.771	108.25
334.999	96.25
335.227	99.25
335.455	85.25
335.684	103.25
335.912	98.25
336.14	97.25
336.369	99.25
336.597	100.25
336.825	102.25
337.053	83.25
337.281	96.25
337.51	80.25
337.738	91.25
337.966	85.25
338.194	83.25
338.422	98.25
338.65	87.25
338.878	95.25
339.106	91.25
339.334	90.25
339.562	83.25
339.79	91.25
340.018	82.25
340.246	85.25
340.474	80.25
340.702	89.25
340.93	97.25
341.158	84.25
341.386	96.25
341.614	87.25
341.842	93.25
342.07	97.25
342.298	101.25
342.526	90.25
342.754	75.25
342.981	88.25
343.209	91.25
343.437	100.25
343.665	85.25
343.893	85.25
344.12	91.25
344.348	84.25
344.576	90.25
344.804	84.25
345.031	88.25
345.259	78.25
345.487	106.25
345.714	91.25
345.942	87.25
346.17	95.25
346.397	98.25
346.625	97.25
346.853	96.25
347.08	89.25
347.308	98.25
347.535	95.25
347.763	97.25
347.99	97.25
348.218	80.25
348.445	94.25
348.673	94.25
348.9	92.25
349.128	75.25
349.355	75.25
349.583	92.25
349.81	91.25
350.037	87.25
350.265	104.25
350.492	96.25
350.72	93.25
350.947	97.25
351.174	105.25
351.402	100.25
351.629	97.25
351.856	94.25
352.083	98.25
352.311	106.25
352.538	113.25
352.765	101.25
352.992	111.25
353.22	118.25
353.447	115.25
353.674	100.25
353.901	102.25
354.128	93.25
354.355	121.25
354.583	105.25
354.81	98.25
355.037	117.25
355.264	99.25
355.491	101.25
355.718	86.25
355.945	97.25
356.172	89.25
356.399	92.25
356.626	110.25
356.853	99.25
357.08	92.25
357.307	97.25
357.534	96.25
357.761	92.25
357.988	111.25
358.215	126.25
358.441	126.25
358.668	122.25
358.895	97.25
359.122	83.25
359.349	102.25
359.576	80.25
359.802	93.25
360.029	99.25
360.256	100.25
360.483	93.25
360.709	92.25
360.936	92.25
361.163	83.25
361.39	87.25
361.616	95.25
361.843	84.25
362.07	94.25
362.296	79.25
362.523	85.25
362.749	88.25
362.976	79.25
363.203	85.25
363.429	77.25
363.656	82.25
363.882	89.25
364.109	99.25
364.335	100.25
364.562	85.25
364.788	85.25
365.015	85.25
365.241	88.25
365.468	106.25
365.694	95.25
365.92	89.25
366.147	98.25
366.373	85.25
366.599	80.25
366.826	87.25
367.052	88.25
367.278	76.25
367.505	84.25
367.731	83.25
367.957	76.25
368.184	72.25
368.41	92.25
368.636	87.25
368.862	115.25
369.089	90.25
369.315	92.25
369.541	91.25
369.767	85.25
369.993	84.25
370.219	94.25
370.445	88.25
370.672	78.25
370.898	79.25
371.124	78.25
371.35	83.25
371.576	79.25
371.802	97.25
372.028	94.25
372.254	91.25
372.48	99.25
372.706	88.25
372.932	84.25
373.158	97.25
373.384	95.25
373.61	91.25
373.835	97.25
374.061	80.25
374.287	97.25
374.513	96.25
374.739	95.25
374.965	97.25
375.191	92.25
375.416	88.25
375.642	84.25
375.868	104.25
376.094	97.25
376.319	89.25
376.545	95.25
376.771	104.25
376.997	92.25
377.222	116.25
377.448	108.25
377.674	96.25
377.899	108.25
378.125	92.25
378.35	111.25
378.576	109.25
378.802	105.25
379.027	112.25
379.253	107.25
379.478	120.25
379.704	121.25
379.929	116.25
380.155	124.25
380.38	115.25
380.606	116.25
380.831	124.25
381.057	123.25
381.282	125.25
381.507	128.25
381.733	126.25
381.958	135.25
382.184	127.25
382.409	132.25
382.634	151.25
382.86	123.25
383.085	138.25
383.31	137.25
383.535	151.25
383.761	143.25
383.986	132.25
384.211	144.25
384.436	158.25
384.662	165.25
384.887	175.25
385.112	195.25
385.337	200.25
385.562	184.25
385.787	179.25
386.013	199.25
386.238	185.25
386.463	168.25
386.688	193.25
386.913	204.25
387.138	203.25
387.363	178.25
387.588	151.25
387.813	146.25
388.038	180.25
388.263	224.25
388.488	190.25
388.713	115.25
388.938	92.25
389.163	95.25
389.387	101.25
389.612	83.25
389.837	94.25
390.062	97.25
390.287	81.25
390.512	91.25
390.736	72.25
390.961	84.25
391.186	81.25
391.411	98.25
391.636	91.25
391.86	83.25
392.085	92.25
392.31	84.25
392.534	87.25
392.759	99.25
392.984	101.25
393.208	161.25
393.433	255.25
393.658	205.25
393.882	98.25
394.107	103.25
394.331	93.25
394.556	88.25
394.78	76.25
395.005	87.25
395.229	88.25
395.454	89.25
395.678	75.25
395.903	90.25
396.127	91.25
396.352	115.25
396.576	114.25
396.801	151.25
397.025	184.25
397.249	124.25
397.474	98.25
397.698	81.25
397.922	87.25
398.147	78.25
398.371	91.25
398.595	92.25
398.82	87.25
399.044	85.25
399.268	90.25
399.492	97.25
399.717	83.25
399.941	80.25
400.165	91.25
400.389	98.25
400.613	84.25
400.837	91.25
401.062	72.25
401.286	83.25
401.51	83.25
401.734	85.25
401.958	71.25
402.182	100.25
402.406	126.25
402.63	117.25
402.854	98.25
403.078	80.25
403.302	70.25
403.526	89.25
403.75	92.25
403.974	78.25
404.198	89.25
404.422	87.25
404.645	86.25
404.869	85.25
405.093	97.25
405.317	87.25
405.541	93.25
405.765	83.25
405.988	90.25
406.212	136.25
406.436	161.25
406.66	123.25
406.883	87.25
407.107	77.25
407.331	95.25
407.555	97.25
407.778	89.25
408.002	97.25
408.226	91.25
408.449	86.25
408.673	93.25
408.896	100.25
409.12	89.25
409.344	97.25
409.567	90.25
409.791	86.25
410.014	93.25
410.238	94.25
410.461	84.25
410.685	90.25
410.908	104.25
411.132	98.25
411.355	95.25
411.578	101.25
411.802	96.25
412.025	90.25
412.249	98.25
412.472	94.25
412.695	98.25
412.919	89.25
413.142	75.25
413.365	83.25
413.589	95.25
413.812	70.25
414.035	98.25
414.258	102.25
414.482	102.25
414.705	91.25
414.928	91.25
415.151	96.25
415.374	108.25
415.597	104.25
415.821	107.25
416.044	94.25
416.267	81.25
416.49	97.25
416.713	85.25
416.936	104.25
417.159	96.25
417.382	101.25
417.605	99.25
417.828	118.25
418.051	111.25
418.274	95.25
418.497	83.25
418.72	83.25
418.943	96.25
419.166	81.25
419.389	108.25
419.611	100.25
419.834	90.25
420.057	103.25
420.28	75.25
420.503	90.25
420.726	105.25
420.948	87.25
421.171	97.25
421.394	82.25
421.617	96.25
421.839	102.25
422.062	87.25
422.285	84.25
422.507	105.25
422.73	160.25
422.953	156.25
423.175	110.25
423.398	93.25
423.621	106.25
423.843	90.25
424.066	89.25
424.288	82.25
424.511	96.25
424.733	90.25
424.956	96.25
425.178	94.25
425.401	84.25
425.623	83.25
425.846	73.25
426.068	84.25
426.291	81.25
426.513	99.25
426.735	77.25
426.958	90.25
427.18	107.25
427.402	123.25
427.625	138.25
427.847	112.25
428.069	100.25
428.292	87.25
428.514	97.25
428.736	92.25
428.958	83.25
429.181	75.25
429.403	92.25
429.625	80.25
429.847	78.25
430.069	100.25
430.292	80.25
430.514	89.25
430.736	81.25
430.958	100.25
431.18	92.25
431.402	92.25
431.624	79.25
431.846	87.25
432.068	96.25
432.29	94.25
432.512	80.25
432.734	92.25
432.956	84.25
433.178	96.25
433.4	92.25
433.622	85.25
433.844	94.25
434.066	83.25
434.287	74.25
434.509	88.25
434.731	89.25
434.953	93.25
435.175	62.25
435.397	87.25
435.618	89.25
435.84	84.25
436.062	93.25
436.284	98.25
436.505	97.25
436.727	71.25
436.949	93.25
437.17	94.25
437.392	80.25
437.614	97.25
437.835	79.25
438.057	92.25
438.278	90.25
438.5	96.25
438.721	104.25
438.943	77.25
439.165	89.25
439.386	80.25
439.608	87.25
439.829	90.25
440.05	105.25
440.272	110.25
440.493	92.25
440.715	81.25
440.936	71.25
441.158	87.25
441.379	98.25
441.6	91.25
441.822	83.25
442.043	86.25
442.264	94.25
442.486	100.25
442.707	95.25
442.928	75.25
443.149	106.25
443.371	102.25
443.592	88.25
443.813	105.25
444.034	96.25
444.255	96.25
444.476	79.25
444.698	92.25
444.919	102.25
445.14	143.25
445.361	108.25
445.582	115.25
445.803	121.25
446.024	115.25
446.245	119.25
446.466	109.25
446.687	83.25
446.908	93.25
447.129	88.25
447.35	89.25
447.571	86.25
447.792	83.25
448.013	84.25
448.234	102.25
448.455	89.25
448.675	105.25
448.896	107.25
449.117	88.25
449.338	89.25
449.559	104.25
449.779	98.25
450	89.25
450.221	96.25
450.442	80.25
450.662	87.25
450.883	96.25
451.104	79.25
451.324	92.25
451.545	84.25
451.766	67.25
451.986	87.25
452.207	77.25
452.428	102.25
452.648	87.25
452.869	76.25
453.089	97.25
453.31	85.25
453.53	78.25
453.751	95.25
453.971	76.25
454.192	83.25
454.412	78.25
454.633	80.25
454.853	84.25
455.073	82.25
455.294	96.25
455.514	98.25
455.734	94.25
455.955	89.25
456.175	76.25
456.395	83.25
456.616	82.25
456.836	73.25
457.056	83.25
457.276	61.25
457.497	67.25
457.717	88.25
457.937	82.25
458.157	95.25
458.377	83.25
458.598	101.25
458.818	111.25
459.038	111.25
459.258	101.25
459.478	83.25
459.698	82.25
459.918	85.25
460.138	87.25
460.358	94.25
460.578	78.25
460.798	83.25
461.018	74.25
461.238	65.25
461.458	82.25
461.678	77.25
461.898	84.25
462.118	79.25
462.338	76.25
462.558	80.25
462.777	91.25
462.997	80.25
463.217	80.25
463.437	84.25
463.657	93.25
463.876	71.25
464.096	83.25
464.316	81.25
464.536	75.25
464.755	94.25
464.975	101.25
465.195	119.25
465.414	116.25
465.634	87.25
465.854	79.25
466.073	74.25
466.293	91.25
466.512	89.25
466.732	92.25
466.951	86.25
467.171	85.25
467.391	93.25
467.61	87.25
467.829	83.25
468.049	116.25
468.268	99.25
468.488	75.25
468.707	71.25
468.927	73.25
469.146	85.25
469.365	82.25
469.585	82.25
469.804	88.25
470.023	91.25
470.243	87.25
470.462	82.25
470.681	94.25
470.901	87.25
471.12	83.25
471.339	71.25
471.558	73.25
471.777	78.25
471.997	88.25
472.216	101.25
472.435	111.25
472.654	108.25
472.873	93.25
473.092	90.25
473.311	86.25
473.53	80.25
473.749	92.25
473.968	97.25
474.187	97.25
474.406	90.25
474.625	85.25
474.844	90.25
475.063	92.25
475.282	86.25
475.501	73.25
475.72	95.25
475.939	96.25
476.158	83.25
476.377	90.25
476.596	73.25
476.814	90.25
477.033	90.25
477.252	69.25
477.471	83.25
477.69	85.25
477.908	92.25
478.127	100.25
478.346	82.25
478.564	89.25
478.783	86.25
479.002	83.25
479.22	87.25
479.439	88.25
479.658	88.25
479.876	87.25
480.095	87.25
480.313	80.25
480.532	95.25
480.751	99.25
480.969	95.25
481.188	149.25
481.406	137.25
481.624	94.25
481.843	83.25
482.061	89.25
482.28	90.25
482.498	94.25
482.717	85.25
482.935	85.25
483.153	89.25
483.372	99.25
483.59	87.25
483.808	87.25
484.027	101.25
484.245	83.25
484.463	101.25
484.681	99.25
484.9	85.25
485.118	98.25
485.336	100.25
485.554	102.25
485.772	115.25
485.99	115.25
486.209	114.25
486.427	120.25
486.645	104.25
486.863	100.25
487.081	108.25
487.299	107.25
487.517	80.25
487.735	92.25
487.953	93.25
488.171	89.25
488.389	88.25
488.607	90.25
488.825	82.25
489.043	96.25
489.261	87.25
489.479	86.25
489.696	87.25
489.914	78.25
490.132	78.25
490.35	90.25
490.568	98.25
490.786	82.25
491.003	86.25
491.221	96.25
491.439	87.25
491.657	100.25
491.874	90.25
492.092	90.25
492.31	86.25
492.527	106.25
492.745	96.25
492.963	82.25
493.18	97.25
493.398	87.25
493.615	97.25
493.833	101.25
494.05	88.25
494.268	79.25
494.485	82.25
494.703	94.25
494.92	88.25
495.138	91.25
495.355	106.25
495.573	71.25
495.79	88.25
496.008	91.25
496.225	99.25
496.442	92.25
496.66	82.25
496.877	79.25
497.094	82.25
497.312	104.25
497.529	84.25
497.746	81.25
497.963	77.25
498.181	95.25
498.398	90.25
498.615	113.25
498.832	109.25
499.049	90.25
499.267	82.25
499.484	91.25
499.701	76.25
499.918	84.25
500.135	95.25
500.352	92.25
500.569	96.25
500.786	82.25
501.003	88.25
501.22	83.25
501.437	75.25
501.654	91.25
501.871	87.25
502.088	100.25
502.305	94.25
502.522	100.25
502.739	92.25
502.956	89.25
503.172	96.25
503.389	100.25
503.606	96.25
503.823	92.25
504.04	76.25
504.256	89.25
504.473	96.25
504.69	101.25
504.907	94.25
505.123	93.25
505.34	93.25
505.557	91.25
505.773	88.25
505.99	98.25
506.207	99.25
506.423	84.25
506.64	83.25
506.856	88.25
507.073	100.25
507.289	89.25
507.506	80.25
507.722	108.25
507.939	100.25
508.155	98.25
508.372	91.25
508.588	92.25
508.805	71.25
509.021	87.25
509.238	90.25
509.454	91.25
509.67	104.25
509.887	107.25
510.103	97.25
510.319	155.25
510.536	463.25
510.752	1329.25
510.968	398.25
511.184	128.25
511.401	90.25
511.617	92.25
511.833	95.25
512.049	96.25
512.265	89.25
512.481	90.25
512.698	83.25
512.914	79.25
513.13	82.25
513.346	90.25
513.562	95.25
513.778	94.25
513.994	85.25
514.21	73.25
514.426	100.25
514.642	109.25
514.858	103.25
515.074	119.25
515.29	277.25
515.506	756.25
515.721	320.25
515.937	126.25
516.153	99.25
516.369	105.25
