Data from Circ_1993_H10_HRD10591_00048.txt Node
Date: Wed Jan 03 11:44:11 EST 2024
User: Yrep
Spectrometer: HR+D1059
Trigger mode: 1
Integration Time (sec): 1.000000E-1
Scans to average: 1
Electric dark correction enabled: true
Nonlinearity correction enabled: false
Boxcar width: 0
XAxis mode: Wavelengths
Number of Pixels in Spectrum: 2048
>>>>>Begin Spectral Data<<<<<
223.165	-12.06
223.4	-12.06
223.635	-12.06
223.869	-23.06
224.104	-30.06
224.338	-18.06
224.573	-20.06
224.808	-19.06
225.042	-23.06
225.277	0.94
225.511	-9.06
225.746	13.94
225.98	7.94
226.215	23.94
226.449	26.94
226.683	15.94
226.918	28.94
227.152	35.94
227.387	46.94
227.621	38.94
227.856	31.94
228.09	40.94
228.324	43.94
228.559	56.94
228.793	64.94
229.027	68.94
229.262	67.94
229.496	71.94
229.73	82.94
229.964	69.94
230.199	75.94
230.433	78.94
230.667	65.94
230.901	76.94
231.136	73.94
231.37	83.94
231.604	93.94
231.838	85.94
232.072	72.94
232.306	72.94
232.541	81.94
232.775	78.94
233.009	81.94
233.243	78.94
233.477	85.94
233.711	78.94
233.945	80.94
234.179	79.94
234.413	56.94
234.647	77.94
234.881	76.94
235.115	75.94
235.349	79.94
235.583	78.94
235.817	80.94
236.051	86.94
236.285	66.94
236.519	89.94
236.753	85.94
236.987	75.94
237.221	93.94
237.455	75.94
237.689	68.94
237.922	67.94
238.156	67.94
238.39	71.94
238.624	68.94
238.858	78.94
239.091	78.94
239.325	62.94
239.559	81.94
239.793	77.94
240.027	73.94
240.26	67.94
240.494	75.94
240.728	57.94
240.961	75.94
241.195	75.94
241.429	74.94
241.662	89.94
241.896	65.94
242.13	79.94
242.363	82.94
242.597	74.94
242.83	63.94
243.064	68.94
243.298	78.94
243.531	67.94
243.765	81.94
243.998	77.94
244.232	75.94
244.465	82.94
244.699	76.94
244.932	60.94
245.166	73.94
245.399	60.94
245.633	92.94
245.866	80.94
246.099	74.94
246.333	66.94
246.566	73.94
246.8	84.94
247.033	72.94
247.266	66.94
247.5	77.94
247.733	80.94
247.966	86.94
248.2	69.94
248.433	63.94
248.666	76.94
248.899	69.94
249.133	81.94
249.366	90.94
249.599	96.94
249.832	80.94
250.066	87.94
250.299	75.94
250.532	83.94
250.765	84.94
250.998	61.94
251.231	83.94
251.465	84.94
251.698	85.94
251.931	77.94
252.164	68.94
252.397	78.94
252.63	86.94
252.863	82.94
253.096	77.94
253.329	69.94
253.562	77.94
253.795	73.94
254.028	67.94
254.261	75.94
254.494	74.94
254.727	73.94
254.96	88.94
255.193	75.94
255.426	52.94
255.659	77.94
255.892	79.94
256.124	74.94
256.357	67.94
256.59	94.94
256.823	94.94
257.056	78.94
257.289	81.94
257.521	85.94
257.754	97.94
257.987	80.94
258.22	82.94
258.452	89.94
258.685	83.94
258.918	83.94
259.151	88.94
259.383	78.94
259.616	79.94
259.849	75.94
260.081	82.94
260.314	83.94
260.547	65.94
260.779	82.94
261.012	75.94
261.244	75.94
261.477	84.94
261.71	85.94
261.942	105.94
262.175	107.94
262.407	90.94
262.64	79.94
262.872	75.94
263.105	71.94
263.337	64.94
263.57	85.94
263.802	77.94
264.035	88.94
264.267	80.94
264.499	76.94
264.732	74.94
264.964	80.94
265.197	77.94
265.429	92.94
265.661	77.94
265.894	86.94
266.126	89.94
266.358	80.94
266.591	82.94
266.823	96.94
267.055	87.94
267.287	92.94
267.52	67.94
267.752	60.94
267.984	80.94
268.216	85.94
268.448	86.94
268.681	76.94
268.913	100.94
269.145	72.94
269.377	82.94
269.609	75.94
269.841	75.94
270.073	74.94
270.306	78.94
270.538	73.94
270.77	67.94
271.002	82.94
271.234	85.94
271.466	93.94
271.698	84.94
271.93	81.94
272.162	79.94
272.394	76.94
272.626	77.94
272.858	76.94
273.09	78.94
273.322	84.94
273.553	77.94
273.785	73.94
274.017	75.94
274.249	79.94
274.481	84.94
274.713	79.94
274.945	92.94
275.176	92.94
275.408	93.94
275.64	91.94
275.872	90.94
276.104	84.94
276.335	83.94
276.567	82.94
276.799	100.94
277.031	116.94
277.262	82.94
277.494	73.94
277.726	86.94
277.957	91.94
278.189	87.94
278.421	84.94
278.652	78.94
278.884	68.94
279.115	79.94
279.347	88.94
279.579	84.94
279.81	95.94
280.042	98.94
280.273	96.94
280.505	78.94
280.736	82.94
280.968	76.94
281.199	74.94
281.431	75.94
281.662	85.94
281.894	89.94
282.125	93.94
282.356	115.94
282.588	132.94
282.819	115.94
283.051	96.94
283.282	91.94
283.513	72.94
283.745	81.94
283.976	77.94
284.207	78.94
284.439	78.94
284.67	88.94
284.901	88.94
285.132	83.94
285.364	88.94
285.595	82.94
285.826	83.94
286.057	98.94
286.288	79.94
286.52	81.94
286.751	96.94
286.982	99.94
287.213	88.94
287.444	92.94
287.675	83.94
287.906	100.94
288.138	78.94
288.369	92.94
288.6	91.94
288.831	92.94
289.062	74.94
289.293	79.94
289.524	75.94
289.755	84.94
289.986	83.94
290.217	73.94
290.448	82.94
290.679	89.94
290.91	91.94
291.141	72.94
291.371	77.94
291.602	92.94
291.833	81.94
292.064	77.94
292.295	92.94
292.526	79.94
292.757	73.94
292.987	73.94
293.218	82.94
293.449	71.94
293.68	81.94
293.91	102.94
294.141	83.94
294.372	85.94
294.603	82.94
294.833	89.94
295.064	91.94
295.295	88.94
295.525	83.94
295.756	95.94
295.987	103.94
296.217	133.94
296.448	117.94
296.679	98.94
296.909	75.94
297.14	85.94
297.37	87.94
297.601	92.94
297.831	79.94
298.062	83.94
298.292	89.94
298.523	101.94
298.753	89.94
298.984	92.94
299.214	88.94
299.445	89.94
299.675	88.94
299.905	95.94
300.136	81.94
300.366	90.94
300.597	89.94
300.827	79.94
301.057	94.94
301.288	84.94
301.518	81.94
301.748	80.94
301.979	100.94
302.209	85.94
302.439	83.94
302.669	83.94
302.9	85.94
303.13	99.94
303.36	79.94
303.59	82.94
303.82	105.94
304.051	99.94
304.281	89.94
304.511	87.94
304.741	77.94
304.971	84.94
305.201	85.94
305.431	76.94
305.661	77.94
305.891	92.94
306.121	93.94
306.352	101.94
306.582	109.94
306.812	87.94
307.042	98.94
307.272	93.94
307.502	85.94
307.731	95.94
307.961	108.94
308.191	95.94
308.421	84.94
308.651	99.94
308.881	79.94
309.111	92.94
309.341	87.94
309.571	100.94
309.8	75.94
310.03	108.94
310.26	92.94
310.49	89.94
310.72	98.94
310.949	111.94
311.179	91.94
311.409	90.94
311.639	90.94
311.868	92.94
312.098	105.94
312.328	96.94
312.557	98.94
312.787	97.94
313.017	107.94
313.246	100.94
313.476	85.94
313.706	91.94
313.935	81.94
314.165	101.94
314.394	85.94
314.624	97.94
314.853	87.94
315.083	95.94
315.312	98.94
315.542	94.94
315.771	92.94
316.001	82.94
316.23	81.94
316.46	101.94
316.689	97.94
316.919	91.94
317.148	92.94
317.377	96.94
317.607	87.94
317.836	80.94
318.065	84.94
318.295	92.94
318.524	100.94
318.753	88.94
318.983	103.94
319.212	98.94
319.441	110.94
319.67	90.94
319.9	90.94
320.129	103.94
320.358	75.94
320.587	84.94
320.816	93.94
321.046	104.94
321.275	94.94
321.504	100.94
321.733	100.94
321.962	89.94
322.191	105.94
322.42	103.94
322.649	127.94
322.878	98.94
323.108	110.94
323.337	130.94
323.566	126.94
323.795	141.94
324.024	191.94
324.253	365.94
324.482	766.94
324.71	1599.94
324.939	2127.94
325.168	757.94
325.397	233.94
325.626	139.94
325.855	128.94
326.084	131.94
326.313	134.94
326.542	153.94
326.77	219.94
326.999	451.94
327.228	900.94
327.457	1664.94
327.686	1287.94
327.914	357.94
328.143	194.94
328.372	164.94
328.6	128.94
328.829	116.94
329.058	123.94
329.287	127.94
329.515	105.94
329.744	102.94
329.972	109.94
330.201	169.94
330.43	211.94
330.658	157.94
330.887	138.94
331.115	124.94
331.344	107.94
331.572	89.94
331.801	107.94
332.03	93.94
332.258	87.94
332.486	88.94
332.715	101.94
332.943	97.94
333.172	88.94
333.4	95.94
333.629	111.94
333.857	103.94
334.085	127.94
334.314	171.94
334.542	251.94
334.771	220.94
334.999	130.94
335.227	100.94
335.455	101.94
335.684	77.94
335.912	97.94
336.14	89.94
336.369	80.94
336.597	97.94
336.825	96.94
337.053	97.94
337.281	97.94
337.51	80.94
337.738	101.94
337.966	89.94
338.194	99.94
338.422	94.94
338.65	92.94
338.878	92.94
339.106	80.94
339.334	95.94
339.562	94.94
339.79	93.94
340.018	84.94
340.246	87.94
340.474	73.94
340.702	86.94
340.93	93.94
341.158	93.94
341.386	94.94
341.614	97.94
341.842	98.94
342.07	92.94
342.298	85.94
342.526	92.94
342.754	93.94
342.981	91.94
343.209	87.94
343.437	91.94
343.665	97.94
343.893	84.94
344.12	86.94
344.348	90.94
344.576	80.94
344.804	90.94
345.031	98.94
345.259	87.94
345.487	85.94
345.714	96.94
345.942	79.94
346.17	99.94
346.397	89.94
346.625	86.94
346.853	100.94
347.08	92.94
347.308	93.94
347.535	111.94
347.763	97.94
347.99	91.94
348.218	88.94
348.445	107.94
348.673	90.94
348.9	90.94
349.128	107.94
349.355	90.94
349.583	95.94
349.81	96.94
350.037	87.94
350.265	81.94
350.492	91.94
350.72	82.94
350.947	93.94
351.174	101.94
351.402	115.94
351.629	99.94
351.856	93.94
352.083	100.94
352.311	107.94
352.538	111.94
352.765	107.94
352.992	112.94
353.22	95.94
353.447	97.94
353.674	98.94
353.901	100.94
354.128	106.94
354.355	108.94
354.583	94.94
354.81	93.94
355.037	83.94
355.264	77.94
355.491	90.94
355.718	93.94
355.945	92.94
356.172	97.94
356.399	105.94
356.626	90.94
356.853	97.94
357.08	84.94
357.307	97.94
357.534	89.94
357.761	85.94
357.988	92.94
358.215	92.94
358.441	91.94
358.668	91.94
358.895	91.94
359.122	121.94
359.349	98.94
359.576	79.94
359.802	96.94
360.029	100.94
360.256	108.94
360.483	89.94
360.709	88.94
360.936	91.94
361.163	94.94
361.39	89.94
361.616	102.94
361.843	92.94
362.07	98.94
362.296	108.94
362.523	99.94
362.749	88.94
362.976	97.94
363.203	109.94
363.429	85.94
363.656	93.94
363.882	66.94
364.109	97.94
364.335	105.94
364.562	115.94
364.788	96.94
365.015	87.94
365.241	87.94
365.468	92.94
365.694	89.94
365.92	101.94
366.147	99.94
366.373	92.94
366.599	82.94
366.826	96.94
367.052	91.94
367.278	85.94
367.505	81.94
367.731	81.94
367.957	103.94
368.184	87.94
368.41	108.94
368.636	105.94
368.862	101.94
369.089	95.94
369.315	92.94
369.541	82.94
369.767	94.94
369.993	95.94
370.219	82.94
370.445	80.94
370.672	82.94
370.898	74.94
371.124	88.94
371.35	77.94
371.576	99.94
371.802	99.94
372.028	77.94
372.254	89.94
372.48	96.94
372.706	84.94
372.932	77.94
373.158	94.94
373.384	97.94
373.61	84.94
373.835	83.94
374.061	79.94
374.287	82.94
374.513	99.94
374.739	73.94
374.965	97.94
375.191	91.94
375.416	93.94
375.642	88.94
375.868	88.94
376.094	90.94
376.319	78.94
376.545	89.94
376.771	94.94
376.997	84.94
377.222	93.94
377.448	83.94
377.674	80.94
377.899	87.94
378.125	101.94
378.35	95.94
378.576	86.94
378.802	99.94
379.027	76.94
379.253	86.94
379.478	92.94
379.704	103.94
379.929	98.94
380.155	100.94
380.38	93.94
380.606	88.94
380.831	90.94
381.057	90.94
381.282	100.94
381.507	109.94
381.733	110.94
381.958	106.94
382.184	99.94
382.409	102.94
382.634	104.94
382.86	92.94
383.085	93.94
383.31	100.94
383.535	93.94
383.761	88.94
383.986	88.94
384.211	101.94
384.436	101.94
384.662	107.94
384.887	101.94
385.112	122.94
385.337	124.94
385.562	112.94
385.787	91.94
386.013	120.94
386.238	106.94
386.463	111.94
386.688	121.94
386.913	112.94
387.138	106.94
387.363	114.94
387.588	87.94
387.813	107.94
388.038	107.94
388.263	128.94
388.488	101.94
388.713	95.94
388.938	91.94
389.163	87.94
389.387	74.94
389.612	94.94
389.837	73.94
390.062	81.94
390.287	92.94
390.512	95.94
390.736	81.94
390.961	94.94
391.186	89.94
391.411	75.94
391.636	91.94
391.86	78.94
392.085	84.94
392.31	79.94
392.534	85.94
392.759	77.94
392.984	105.94
393.208	107.94
393.433	121.94
393.658	116.94
393.882	93.94
394.107	89.94
394.331	69.94
394.556	98.94
394.78	81.94
395.005	95.94
395.229	84.94
395.454	78.94
395.678	89.94
395.903	84.94
396.127	95.94
396.352	87.94
396.576	93.94
396.801	98.94
397.025	99.94
397.249	88.94
397.474	93.94
397.698	91.94
397.922	91.94
398.147	84.94
398.371	90.94
398.595	73.94
398.82	101.94
399.044	84.94
399.268	84.94
399.492	74.94
399.717	87.94
399.941	89.94
400.165	99.94
400.389	87.94
400.613	92.94
400.837	92.94
401.062	103.94
401.286	99.94
401.51	82.94
401.734	77.94
401.958	101.94
402.182	116.94
402.406	131.94
402.63	112.94
402.854	79.94
403.078	86.94
403.302	93.94
403.526	78.94
403.75	73.94
403.974	89.94
404.198	90.94
404.422	91.94
404.645	78.94
404.869	71.94
405.093	81.94
405.317	91.94
405.541	100.94
405.765	103.94
405.988	112.94
406.212	149.94
406.436	200.94
406.66	136.94
406.883	95.94
407.107	87.94
407.331	87.94
407.555	92.94
407.778	82.94
408.002	90.94
408.226	89.94
408.449	90.94
408.673	88.94
408.896	93.94
409.12	84.94
409.344	87.94
409.567	87.94
409.791	88.94
410.014	87.94
410.238	88.94
410.461	93.94
410.685	100.94
410.908	92.94
411.132	111.94
411.355	96.94
411.578	94.94
411.802	89.94
412.025	91.94
412.249	94.94
412.472	94.94
412.695	91.94
412.919	84.94
413.142	96.94
413.365	74.94
413.589	95.94
413.812	88.94
414.035	106.94
414.258	107.94
414.482	97.94
414.705	101.94
414.928	85.94
415.151	86.94
415.374	103.94
415.597	92.94
415.821	90.94
416.044	79.94
416.267	93.94
416.49	97.94
416.713	105.94
416.936	100.94
417.159	75.94
417.382	82.94
417.605	80.94
417.828	96.94
418.051	91.94
418.274	75.94
418.497	88.94
418.72	83.94
418.943	87.94
419.166	86.94
419.389	99.94
419.611	85.94
419.834	92.94
420.057	91.94
420.28	89.94
420.503	87.94
420.726	74.94
420.948	99.94
421.171	103.94
421.394	95.94
421.617	81.94
421.839	82.94
422.062	77.94
422.285	93.94
422.507	88.94
422.73	107.94
422.953	109.94
423.175	88.94
423.398	71.94
423.621	89.94
423.843	104.94
424.066	83.94
424.288	81.94
424.511	95.94
424.733	106.94
424.956	97.94
425.178	93.94
425.401	96.94
425.623	98.94
425.846	84.94
426.068	97.94
426.291	106.94
426.513	104.94
426.735	77.94
426.958	97.94
427.18	87.94
427.402	140.94
427.625	163.94
427.847	136.94
428.069	115.94
428.292	89.94
428.514	84.94
428.736	95.94
428.958	89.94
429.181	87.94
429.403	88.94
429.625	79.94
429.847	91.94
430.069	106.94
430.292	98.94
430.514	82.94
430.736	76.94
430.958	104.94
431.18	82.94
431.402	85.94
431.624	83.94
431.846	85.94
432.068	85.94
432.29	84.94
432.512	84.94
432.734	91.94
432.956	87.94
433.178	91.94
433.4	105.94
433.622	99.94
433.844	91.94
434.066	98.94
434.287	101.94
434.509	88.94
434.731	77.94
434.953	85.94
435.175	85.94
435.397	99.94
435.618	89.94
435.84	108.94
436.062	130.94
436.284	118.94
436.505	111.94
436.727	100.94
436.949	91.94
437.17	68.94
437.392	92.94
437.614	82.94
437.835	116.94
438.057	118.94
438.278	106.94
438.5	105.94
438.721	130.94
438.943	104.94
439.165	85.94
439.386	94.94
439.608	80.94
439.829	92.94
440.05	123.94
440.272	122.94
440.493	84.94
440.715	74.94
440.936	88.94
441.158	90.94
441.379	95.94
441.6	82.94
441.822	90.94
442.043	100.94
442.264	119.94
442.486	99.94
442.707	99.94
442.928	104.94
443.149	127.94
443.371	114.94
443.592	107.94
443.813	107.94
444.034	109.94
444.255	92.94
444.476	99.94
444.698	93.94
444.919	100.94
445.14	129.94
445.361	138.94
445.582	116.94
445.803	149.94
446.024	129.94
446.245	111.94
446.466	87.94
446.687	89.94
446.908	74.94
447.129	87.94
447.35	101.94
447.571	87.94
447.792	97.94
448.013	100.94
448.234	92.94
448.455	105.94
448.675	115.94
448.896	123.94
449.117	100.94
449.338	113.94
449.559	129.94
449.779	131.94
450	88.94
450.221	75.94
450.442	90.94
450.662	99.94
450.883	97.94
451.104	100.94
451.324	88.94
451.545	79.94
451.766	81.94
451.986	90.94
452.207	99.94
452.428	93.94
452.648	92.94
452.869	100.94
453.089	100.94
453.31	116.94
453.53	93.94
453.751	85.94
453.971	93.94
454.192	90.94
454.412	90.94
454.633	94.94
454.853	78.94
455.073	104.94
455.294	82.94
455.514	104.94
455.734	81.94
455.955	76.94
456.175	101.94
456.395	88.94
456.616	87.94
456.836	83.94
457.056	95.94
457.276	95.94
457.497	94.94
457.717	76.94
457.937	82.94
458.157	84.94
458.377	76.94
458.598	108.94
458.818	140.94
459.038	143.94
459.258	96.94
459.478	88.94
459.698	73.94
459.918	75.94
460.138	88.94
460.358	92.94
460.578	90.94
460.798	81.94
461.018	83.94
461.238	83.94
461.458	73.94
461.678	81.94
461.898	92.94
462.118	73.94
462.338	91.94
462.558	76.94
462.777	91.94
462.997	89.94
463.217	91.94
463.437	88.94
463.657	61.94
463.876	75.94
464.096	84.94
464.316	101.94
464.536	95.94
464.755	93.94
464.975	101.94
465.195	155.94
465.414	173.94
465.634	89.94
465.854	79.94
466.073	87.94
466.293	93.94
466.512	79.94
466.732	82.94
466.951	83.94
467.171	87.94
467.391	91.94
467.61	110.94
467.829	103.94
468.049	130.94
468.268	139.94
468.488	92.94
468.707	85.94
468.927	90.94
469.146	85.94
469.365	79.94
469.585	77.94
469.804	83.94
470.023	104.94
470.243	99.94
470.462	96.94
470.681	98.94
470.901	87.94
471.12	83.94
471.339	90.94
471.558	94.94
471.777	90.94
471.997	97.94
472.216	175.94
472.435	287.94
472.654	125.94
472.873	101.94
473.092	95.94
473.311	77.94
473.53	84.94
473.749	82.94
473.968	96.94
474.187	96.94
474.406	92.94
474.625	96.94
474.844	92.94
475.063	81.94
475.282	84.94
475.501	77.94
475.72	88.94
475.939	89.94
476.158	97.94
476.377	87.94
476.596	77.94
476.814	87.94
477.033	93.94
477.252	88.94
477.471	84.94
477.69	87.94
477.908	80.94
478.127	87.94
478.346	73.94
478.564	98.94
478.783	83.94
479.002	86.94
479.22	91.94
479.439	84.94
479.658	112.94
479.876	104.94
480.095	96.94
480.313	87.94
480.532	107.94
480.751	107.94
480.969	179.94
481.188	480.94
481.406	303.94
481.624	102.94
481.843	103.94
482.061	90.94
482.28	85.94
482.498	84.94
482.717	80.94
482.935	94.94
483.153	89.94
483.372	91.94
483.59	93.94
483.808	89.94
484.027	94.94
484.245	90.94
484.463	81.94
484.681	103.94
484.9	91.94
485.118	107.94
485.336	85.94
485.554	88.94
485.772	116.94
485.99	108.94
486.209	115.94
486.427	108.94
486.645	107.94
486.863	108.94
487.081	98.94
487.299	85.94
487.517	92.94
487.735	96.94
487.953	98.94
488.171	92.94
488.389	77.94
488.607	95.94
488.825	98.94
489.043	90.94
489.261	76.94
489.479	85.94
489.696	84.94
489.914	89.94
490.132	90.94
490.35	91.94
490.568	95.94
490.786	95.94
491.003	81.94
491.221	92.94
491.439	80.94
491.657	81.94
491.874	97.94
492.092	107.94
492.31	83.94
492.527	81.94
492.745	87.94
492.963	88.94
493.18	91.94
493.398	95.94
493.615	92.94
493.833	105.94
494.05	78.94
494.268	90.94
494.485	91.94
494.703	96.94
494.92	72.94
495.138	95.94
495.355	89.94
495.573	92.94
495.79	88.94
496.008	92.94
496.225	79.94
496.442	85.94
496.66	95.94
496.877	92.94
497.094	87.94
497.312	89.94
497.529	80.94
497.746	85.94
497.963	92.94
498.181	72.94
498.398	103.94
498.615	107.94
498.832	100.94
499.049	96.94
499.267	92.94
499.484	78.94
499.701	75.94
499.918	77.94
500.135	80.94
500.352	84.94
500.569	94.94
500.786	74.94
501.003	90.94
501.22	89.94
501.437	89.94
501.654	91.94
501.871	102.94
502.088	91.94
502.305	85.94
502.522	82.94
502.739	72.94
502.956	90.94
503.172	95.94
503.389	97.94
503.606	97.94
503.823	80.94
504.04	73.94
504.256	84.94
504.473	88.94
504.69	82.94
504.907	94.94
505.123	85.94
505.34	81.94
505.557	72.94
505.773	94.94
505.99	87.94
506.207	95.94
506.423	80.94
506.64	103.94
506.856	80.94
507.073	106.94
507.289	96.94
507.506	101.94
507.722	119.94
507.939	105.94
508.155	105.94
508.372	89.94
508.588	99.94
508.805	87.94
509.021	80.94
509.238	86.94
509.454	89.94
509.67	107.94
509.887	92.94
510.103	123.94
510.319	192.94
510.536	663.94
510.752	2128.94
510.968	585.94
511.184	152.94
511.401	97.94
511.617	101.94
511.833	100.94
512.049	90.94
512.265	79.94
512.481	108.94
512.698	91.94
512.914	88.94
513.13	93.94
513.346	80.94
513.562	81.94
513.778	84.94
513.994	101.94
514.21	99.94
514.426	107.94
514.642	126.94
514.858	120.94
515.074	138.94
515.29	419.94
515.506	1297.94
515.721	484.94
515.937	162.94
