Data from Circ_1993_H10_HRD10591_00082.txt Node
Date: Wed Jan 03 11:44:18 EST 2024
User: Yrep
Spectrometer: HR+D1059
Trigger mode: 1
Integration Time (sec): 1.000000E-1
Scans to average: 1
Electric dark correction enabled: true
Nonlinearity correction enabled: false
Boxcar width: 0
XAxis mode: Wavelengths
Number of Pixels in Spectrum: 2048
>>>>>Begin Spectral Data<<<<<
223.165	-11.25
223.4	-11.25
223.635	-11.25
223.869	-15.25
224.104	-16.25
224.338	-13.25
224.573	-17.25
224.808	-18.25
225.042	-1.25
225.277	-1.25
225.511	-3.25
225.746	-8.25
225.98	1.75
226.215	13.75
226.449	9.75
226.683	28.75
226.918	30.75
227.152	20.75
227.387	26.75
227.621	30.75
227.856	45.75
228.09	41.75
228.324	52.75
228.559	40.75
228.793	160.75
229.027	451.75
229.262	509.75
229.496	593.75
229.73	768.75
229.964	764.75
230.199	524.75
230.433	468.75
230.667	480.75
230.901	450.75
231.136	453.75
231.37	456.75
231.604	451.75
231.838	461.75
232.072	467.75
232.306	460.75
232.541	483.75
232.775	472.75
233.009	492.75
233.243	478.75
233.477	485.75
233.711	512.75
233.945	508.75
234.179	514.75
234.413	543.75
234.647	537.75
234.881	514.75
235.115	538.75
235.349	539.75
235.583	565.75
235.817	597.75
236.051	637.75
236.285	611.75
236.519	636.75
236.753	711.75
236.987	921.75
237.221	1332.75
237.455	1491.75
237.689	901.75
237.922	747.75
238.156	729.75
238.39	692.75
238.624	687.75
238.858	654.75
239.091	653.75
239.325	663.75
239.559	695.75
239.793	724.75
240.027	784.75
240.26	919.75
240.494	989.75
240.728	931.75
240.961	945.75
241.195	833.75
241.429	798.75
241.662	777.75
241.896	802.75
242.13	801.75
242.363	793.75
242.597	829.75
242.83	861.75
243.064	863.75
243.298	873.75
243.531	901.75
243.765	876.75
243.998	915.75
244.232	907.75
244.465	932.75
244.699	954.75
244.932	971.75
245.166	938.75
245.399	939.75
245.633	945.75
245.866	979.75
246.099	970.75
246.333	946.75
246.566	978.75
246.8	1020.75
247.033	1058.75
247.266	1070.75
247.5	1159.75
247.733	1188.75
247.966	1195.75
248.2	1189.75
248.433	1198.75
248.666	1264.75
248.899	1396.75
249.133	1489.75
249.366	1491.75
249.599	1368.75
249.832	1335.75
250.066	1409.75
250.299	1582.75
250.532	1876.75
250.765	1998.75
250.998	1979.75
251.231	1793.75
251.465	1602.75
251.698	1547.75
251.931	1481.75
252.164	1486.75
252.397	1473.75
252.63	1514.75
252.863	1600.75
253.096	1742.75
253.329	1779.75
253.562	1693.75
253.795	1596.75
254.028	1599.75
254.261	1689.75
254.494	1871.75
254.727	2186.75
254.96	2274.75
255.193	2058.75
255.426	1950.75
255.659	2046.75
255.892	2439.75
256.124	2900.75
256.357	2679.75
256.59	2215.75
256.823	1955.75
257.056	1808.75
257.289	1764.75
257.521	1751.75
257.754	1679.75
257.987	1667.75
258.22	1674.75
258.452	1666.75
258.685	1633.75
258.918	1685.75
259.151	1731.75
259.383	1764.75
259.616	1808.75
259.849	1828.75
260.081	1982.75
260.314	2160.75
260.547	2089.75
260.779	1912.75
261.012	1823.75
261.244	1784.75
261.477	1776.75
261.71	1756.75
261.942	1810.75
262.175	1817.75
262.407	1772.75
262.64	1727.75
262.872	1743.75
263.105	1735.75
263.337	1746.75
263.57	1752.75
263.802	1769.75
264.035	1707.75
264.267	1737.75
264.499	1725.75
264.732	1788.75
264.964	1800.75
265.197	1806.75
265.429	1804.75
265.661	1787.75
265.894	1804.75
266.126	1842.75
266.358	1841.75
266.591	1895.75
266.823	1936.75
267.055	1910.75
267.287	1927.75
267.52	1937.75
267.752	1959.75
267.984	1943.75
268.216	1956.75
268.448	2055.75
268.681	2132.75
268.913	2226.75
269.145	2401.75
269.377	2465.75
269.609	2369.75
269.841	2303.75
270.073	2439.75
270.306	2709.75
270.538	2911.75
270.77	2695.75
271.002	2563.75
271.234	2553.75
271.466	2691.75
271.698	2860.75
271.93	2808.75
272.162	2811.75
272.394	2668.75
272.626	2540.75
272.858	2443.75
273.09	2382.75
273.322	2419.75
273.553	2315.75
273.785	2333.75
274.017	2352.75
274.249	2345.75
274.481	2367.75
274.713	2387.75
274.945	2402.75
275.176	2342.75
275.408	2377.75
275.64	2405.75
275.872	2359.75
276.104	2436.75
276.335	2475.75
276.567	2600.75
276.799	2693.75
277.031	2947.75
277.262	3043.75
277.494	2965.75
277.726	2718.75
277.957	2625.75
278.189	2601.75
278.421	2549.75
278.652	2533.75
278.884	2542.75
279.115	2470.75
279.347	2558.75
279.579	2527.75
279.81	2582.75
280.042	2623.75
280.273	2645.75
280.505	2637.75
280.736	2590.75
280.968	2595.75
281.199	2625.75
281.431	2604.75
281.662	2610.75
281.894	2658.75
282.125	2711.75
282.356	2819.75
282.588	2981.75
282.819	2824.75
283.051	2664.75
283.282	2690.75
283.513	2707.75
283.745	2748.75
283.976	2754.75
284.207	2795.75
284.439	2767.75
284.67	2775.75
284.901	2768.75
285.132	2794.75
285.364	2763.75
285.595	2789.75
285.826	2771.75
286.057	2864.75
286.288	2863.75
286.52	2852.75
286.751	2834.75
286.982	2897.75
287.213	2887.75
287.444	2914.75
287.675	2934.75
287.906	3073.75
288.138	3017.75
288.369	3033.75
288.6	3053.75
288.831	2994.75
289.062	2960.75
289.293	2970.75
289.524	3004.75
289.755	2945.75
289.986	2986.75
290.217	2924.75
290.448	2952.75
290.679	2996.75
290.91	2953.75
291.141	2939.75
291.371	2977.75
291.602	3009.75
291.833	2961.75
292.064	2969.75
292.295	3000.75
292.526	2991.75
292.757	2988.75
292.987	3012.75
293.218	2939.75
293.449	2969.75
293.68	2979.75
293.91	2985.75
294.141	3012.75
294.372	2989.75
294.603	3017.75
294.833	3039.75
295.064	3032.75
295.295	3024.75
295.525	3070.75
295.756	3059.75
295.987	3156.75
296.217	3338.75
296.448	3240.75
296.679	3121.75
296.909	3175.75
297.14	3132.75
297.37	3142.75
297.601	3200.75
297.831	3190.75
298.062	3180.75
298.292	3228.75
298.523	3292.75
298.753	3295.75
298.984	3227.75
299.214	3209.75
299.445	3251.75
299.675	3276.75
299.905	3331.75
300.136	3273.75
300.366	3275.75
300.597	3409.75
300.827	3460.75
301.057	3469.75
301.288	3502.75
301.518	3485.75
301.748	3489.75
301.979	3567.75
302.209	3571.75
302.439	3626.75
302.669	3503.75
302.9	3471.75
303.13	3454.75
303.36	3529.75
303.59	3556.75
303.82	3628.75
304.051	3572.75
304.281	3561.75
304.511	3445.75
304.741	3437.75
304.971	3391.75
305.201	3423.75
305.431	3481.75
305.661	3437.75
305.891	3440.75
306.121	3441.75
306.352	3504.75
306.582	3479.75
306.812	3448.75
307.042	3488.75
307.272	3555.75
307.502	3510.75
307.731	3506.75
307.961	3502.75
308.191	3485.75
308.421	3465.75
308.651	3503.75
308.881	3528.75
309.111	3543.75
309.341	3527.75
309.571	3674.75
309.8	3690.75
310.03	3755.75
310.26	3788.75
310.49	3742.75
310.72	3903.75
310.949	3915.75
311.179	3925.75
311.409	3831.75
311.639	3819.75
311.868	3865.75
312.098	3834.75
312.328	3975.75
312.557	4136.75
312.787	4109.75
313.017	4069.75
313.246	3962.75
313.476	3922.75
313.706	4008.75
313.935	4101.75
314.165	4150.75
314.394	4090.75
314.624	4123.75
314.853	3951.75
315.083	3943.75
315.312	3915.75
315.542	3895.75
315.771	3871.75
316.001	3855.75
316.23	3964.75
316.46	3836.75
316.689	3941.75
316.919	3946.75
317.148	4019.75
317.377	4001.75
317.607	3963.75
317.836	3916.75
318.065	3890.75
318.295	3929.75
318.524	3917.75
318.753	3888.75
318.983	3932.75
319.212	3816.75
319.441	3980.75
319.67	3954.75
319.9	3943.75
320.129	3948.75
320.358	3899.75
320.587	3962.75
320.816	4003.75
321.046	4044.75
321.275	4028.75
321.504	4026.75
321.733	4073.75
321.962	4129.75
322.191	4209.75
322.42	4345.75
322.649	4443.75
322.878	4467.75
323.108	4586.75
323.337	4826.75
323.566	4932.75
323.795	5236.75
324.024	5739.75
324.253	7417.75
324.482	11029.75
324.71	15152.75
324.939	15621.75
325.168	12890.75
325.397	6740.75
325.626	5556.75
325.855	5195.75
326.084	5118.75
326.313	5137.75
326.542	5285.75
326.77	5859.75
326.999	7345.75
327.228	10459.75
327.457	14365.75
327.686	13713.75
327.914	7945.75
328.143	6847.75
328.372	6721.75
328.6	6161.75
328.829	5842.75
329.058	5979.75
329.287	6006.75
329.515	5789.75
329.744	5987.75
329.972	6628.75
330.201	7525.75
330.43	8059.75
330.658	7146.75
330.887	6591.75
331.115	6082.75
331.344	5612.75
331.572	5440.75
331.801	5559.75
332.03	5475.75
332.258	5509.75
332.486	5523.75
332.715	5700.75
332.943	5902.75
333.172	6074.75
333.4	6251.75
333.629	6629.75
333.857	7019.75
334.085	7602.75
334.314	8737.75
334.542	10049.75
334.771	9385.75
334.999	7126.75
335.227	6347.75
335.455	5995.75
335.684	5744.75
335.912	5703.75
336.14	5433.75
336.369	5342.75
336.597	5409.75
336.825	5323.75
337.053	5242.75
337.281	5101.75
337.51	5094.75
337.738	5019.75
337.966	5053.75
338.194	5016.75
338.422	4942.75
338.65	4904.75
338.878	4894.75
339.106	4811.75
339.334	4801.75
339.562	4685.75
339.79	4736.75
340.018	4683.75
340.246	4691.75
340.474	4706.75
340.702	4713.75
340.93	4650.75
341.158	4673.75
341.386	4631.75
341.614	4664.75
341.842	4630.75
342.07	4625.75
342.298	4559.75
342.526	4559.75
342.754	4572.75
342.981	4551.75
343.209	4700.75
343.437	4892.75
343.665	5157.75
343.893	5460.75
344.12	5461.75
344.348	5214.75
344.576	5019.75
344.804	4939.75
345.031	4849.75
345.259	4810.75
345.487	4718.75
345.714	4573.75
345.942	4453.75
346.17	4469.75
346.397	4466.75
346.625	4475.75
346.853	4368.75
347.08	4463.75
347.308	4436.75
347.535	4529.75
347.763	4587.75
347.99	4464.75
348.218	4484.75
348.445	4638.75
348.673	4446.75
348.9	4374.75
349.128	4362.75
349.355	4255.75
349.583	4282.75
349.81	4307.75
350.037	4286.75
350.265	4202.75
350.492	4256.75
350.72	4259.75
350.947	4350.75
351.174	4402.75
351.402	4459.75
351.629	4400.75
351.856	4459.75
352.083	4476.75
352.311	4431.75
352.538	4393.75
352.765	4451.75
352.992	4387.75
353.22	4277.75
353.447	4239.75
353.674	4201.75
353.901	4177.75
354.128	4207.75
354.355	4209.75
354.583	4224.75
354.81	4227.75
355.037	4170.75
355.264	4177.75
355.491	4195.75
355.718	4211.75
355.945	4096.75
356.172	4275.75
356.399	4133.75
356.626	4169.75
356.853	4210.75
357.08	4187.75
357.307	4151.75
357.534	4217.75
357.761	4174.75
357.988	4215.75
358.215	4131.75
358.441	4244.75
358.668	4212.75
358.895	4327.75
359.122	4266.75
359.349	4373.75
359.576	4427.75
359.802	4612.75
360.029	4793.75
360.256	4817.75
360.483	4635.75
360.709	4457.75
360.936	4433.75
361.163	4439.75
361.39	4506.75
361.616	4431.75
361.843	4359.75
362.07	4413.75
362.296	4412.75
362.523	4371.75
362.749	4381.75
362.976	4356.75
363.203	4252.75
363.429	4253.75
363.656	4274.75
363.882	4282.75
364.109	4221.75
364.335	4292.75
364.562	4248.75
364.788	4205.75
365.015	4304.75
365.241	4302.75
365.468	4237.75
365.694	4324.75
365.92	4302.75
366.147	4277.75
366.373	4251.75
366.599	4202.75
366.826	4243.75
367.052	4233.75
367.278	4286.75
367.505	4295.75
367.731	4333.75
367.957	4282.75
368.184	4294.75
368.41	4412.75
368.636	4466.75
368.862	4496.75
369.089	4435.75
369.315	4405.75
369.541	4377.75
369.767	4372.75
369.993	4428.75
370.219	4444.75
370.445	4459.75
370.672	4456.75
370.898	4505.75
371.124	4532.75
371.35	4530.75
371.576	4496.75
371.802	4479.75
372.028	4493.75
372.254	4561.75
372.48	4575.75
372.706	4653.75
372.932	4681.75
373.158	4650.75
373.384	4600.75
373.61	4568.75
373.835	4551.75
374.061	4617.75
374.287	4655.75
374.513	4752.75
374.739	4885.75
374.965	4932.75
375.191	4939.75
375.416	4894.75
375.642	4687.75
375.868	4789.75
376.094	4648.75
376.319	4639.75
376.545	4599.75
376.771	4568.75
376.997	4534.75
377.222	4535.75
377.448	4532.75
377.674	4507.75
377.899	4509.75
378.125	4502.75
378.35	4573.75
378.576	4425.75
378.802	4473.75
379.027	4488.75
379.253	4492.75
379.478	4456.75
379.704	4474.75
379.929	4472.75
380.155	4524.75
380.38	4522.75
380.606	4580.75
380.831	4472.75
381.057	4555.75
381.282	4565.75
381.507	4586.75
381.733	4629.75
381.958	4679.75
382.184	4674.75
382.409	4717.75
382.634	4799.75
382.86	4800.75
383.085	4924.75
383.31	4947.75
383.535	5020.75
383.761	5019.75
383.986	5115.75
384.211	5192.75
384.436	5271.75
384.662	5371.75
384.887	5397.75
385.112	5397.75
385.337	5461.75
385.562	5530.75
385.787	5433.75
386.013	5599.75
386.238	5519.75
386.463	5511.75
386.688	5506.75
386.913	5457.75
387.138	5395.75
387.363	5416.75
387.588	5350.75
387.813	5484.75
388.038	5401.75
388.263	5523.75
388.488	5480.75
388.713	5419.75
388.938	5362.75
389.163	5336.75
389.387	5389.75
389.612	5393.75
389.837	5335.75
390.062	5327.75
390.287	5360.75
390.512	5256.75
390.736	5391.75
390.961	5505.75
391.186	5581.75
391.411	5755.75
391.636	5814.75
391.86	6043.75
392.085	6046.75
392.31	5993.75
392.534	5859.75
392.759	5834.75
392.984	5685.75
393.208	5705.75
393.433	5616.75
393.658	5617.75
393.882	5700.75
394.107	5743.75
394.331	5711.75
394.556	5713.75
394.78	5787.75
395.005	5824.75
395.229	5813.75
395.454	6071.75
395.678	6167.75
395.903	6098.75
396.127	6141.75
396.352	5897.75
396.576	5731.75
396.801	5818.75
397.025	5847.75
397.249	5974.75
397.474	6096.75
397.698	6101.75
397.922	6241.75
398.147	6370.75
398.371	6497.75
398.595	6647.75
398.82	6951.75
399.044	7427.75
399.268	8325.75
399.492	9242.75
399.717	9907.75
399.941	9768.75
400.165	9049.75
400.389	8421.75
400.613	7645.75
400.837	7135.75
401.062	6969.75
401.286	6933.75
401.51	6863.75
401.734	6823.75
401.958	6925.75
402.182	7014.75
402.406	7156.75
402.63	7207.75
402.854	7327.75
403.078	7339.75
403.302	7639.75
403.526	7673.75
403.75	7859.75
403.974	7850.75
404.198	7828.75
404.422	7953.75
404.645	8041.75
404.869	8162.75
405.093	8573.75
405.317	9050.75
405.541	8886.75
405.765	8167.75
405.988	7815.75
406.212	7864.75
406.436	8009.75
406.66	8182.75
406.883	8060.75
407.107	8753.75
407.331	9258.75
407.555	9729.75
407.778	9393.75
408.002	8631.75
408.226	8179.75
408.449	8131.75
408.673	8047.75
408.896	8156.75
409.12	8283.75
409.344	7947.75
409.567	7488.75
409.791	7539.75
410.014	7454.75
410.238	7408.75
410.461	7357.75
410.685	7411.75
410.908	7552.75
411.132	7693.75
411.355	7677.75
411.578	7391.75
411.802	7252.75
412.025	7304.75
412.249	7773.75
412.472	8229.75
412.695	8707.75
412.919	7957.75
413.142	7570.75
413.365	7239.75
413.589	7143.75
413.812	6904.75
414.035	6721.75
414.258	6884.75
414.482	6869.75
414.705	6929.75
414.928	6878.75
415.151	6803.75
415.374	6816.75
415.597	6679.75
415.821	6628.75
416.044	6719.75
416.267	6633.75
416.49	6552.75
416.713	6591.75
416.936	6644.75
417.159	6708.75
417.382	6762.75
417.605	6845.75
417.828	6917.75
418.051	7030.75
418.274	6865.75
418.497	6783.75
418.72	6932.75
418.943	6873.75
419.166	7282.75
419.389	7692.75
419.611	7657.75
419.834	7507.75
420.057	7540.75
420.28	7525.75
420.503	7466.75
420.726	7204.75
420.948	7307.75
421.171	7514.75
421.394	7401.75
421.617	6969.75
421.839	6912.75
422.062	7038.75
422.285	7202.75
422.507	7820.75
422.73	8301.75
422.953	7657.75
423.175	7284.75
423.398	7383.75
423.621	7277.75
423.843	7588.75
424.066	7489.75
424.288	7474.75
424.511	7564.75
424.733	8099.75
424.956	8481.75
425.178	7995.75
425.401	8194.75
425.623	8027.75
425.846	7077.75
426.068	6997.75
426.291	6879.75
426.513	6885.75
426.735	6965.75
426.958	7475.75
427.18	8167.75
427.402	9304.75
427.625	9495.75
427.847	8578.75
428.069	8150.75
428.292	7091.75
428.514	6586.75
428.736	6360.75
428.958	6370.75
429.181	6127.75
429.403	6148.75
429.625	6318.75
429.847	6600.75
430.069	7087.75
430.292	6596.75
430.514	6136.75
430.736	6101.75
430.958	6029.75
431.18	5927.75
431.402	5983.75
431.624	5955.75
431.846	6010.75
432.068	6044.75
432.29	6175.75
432.512	6047.75
432.734	6083.75
432.956	6059.75
433.178	6119.75
433.4	6164.75
433.622	6041.75
433.844	6019.75
434.066	6078.75
434.287	6120.75
434.509	6448.75
434.731	6622.75
434.953	6722.75
435.175	6878.75
435.397	6984.75
435.618	6865.75
435.84	7261.75
436.062	8169.75
436.284	7940.75
436.505	6815.75
436.727	6401.75
436.949	6210.75
437.17	6074.75
437.392	5954.75
437.614	6248.75
437.835	6667.75
438.057	7463.75
438.278	8201.75
438.5	8125.75
438.721	8900.75
438.943	7816.75
439.165	6626.75
439.386	6398.75
439.608	6542.75
439.829	6641.75
440.05	6999.75
440.272	7287.75
440.493	6780.75
440.715	6442.75
440.936	6328.75
441.158	6473.75
441.379	6574.75
441.6	6841.75
441.822	7143.75
442.043	7552.75
442.264	8265.75
442.486	7965.75
442.707	7156.75
442.928	6999.75
443.149	7149.75
443.371	7411.75
443.592	7879.75
443.813	8945.75
444.034	8873.75
444.255	7725.75
444.476	7582.75
444.698	7847.75
444.919	7867.75
445.14	7730.75
445.361	7472.75
445.582	7639.75
445.803	8270.75
446.024	8879.75
446.245	8540.75
446.466	7721.75
446.687	6642.75
446.908	6441.75
447.129	6087.75
447.35	5954.75
447.571	5885.75
447.792	5724.75
448.013	5891.75
448.234	6091.75
448.455	6796.75
448.675	8044.75
448.896	8303.75
449.117	7000.75
449.338	7115.75
449.559	8544.75
449.779	8625.75
450	6608.75
450.221	5992.75
450.442	5796.75
450.662	5659.75
450.883	5714.75
451.104	5827.75
451.324	5698.75
451.545	5615.75
451.766	5423.75
451.986	5325.75
452.207	5297.75
452.428	5324.75
452.648	5417.75
452.869	5340.75
453.089	5356.75
453.31	5435.75
453.53	5356.75
453.751	5251.75
453.971	5256.75
454.192	5325.75
454.412	5174.75
454.633	5081.75
454.853	5077.75
455.073	5177.75
455.294	5596.75
455.514	6105.75
455.734	5555.75
455.955	5011.75
456.175	4887.75
456.395	4890.75
456.616	4855.75
456.836	4945.75
457.056	4891.75
457.276	4832.75
457.497	5030.75
457.717	4961.75
457.937	5003.75
458.157	5145.75
458.377	5163.75
458.598	5585.75
458.818	6162.75
459.038	6985.75
459.258	6883.75
459.478	6217.75
459.698	6098.75
459.918	6131.75
460.138	6299.75
460.358	6615.75
460.578	6592.75
460.798	6724.75
461.018	6672.75
461.238	6544.75
461.458	6467.75
461.678	6519.75
461.898	6665.75
462.118	6723.75
462.338	7059.75
462.558	7156.75
462.777	7457.75
462.997	8101.75
463.217	8461.75
463.437	8199.75
463.657	7719.75
463.876	7484.75
464.096	7549.75
464.316	7585.75
464.536	7496.75
464.755	7299.75
464.975	7190.75
465.195	7362.75
465.414	7351.75
465.634	6454.75
465.854	6203.75
466.073	5925.75
466.293	5800.75
466.512	5594.75
466.732	5590.75
466.951	5570.75
467.171	5559.75
467.391	5577.75
467.61	5650.75
467.829	5705.75
468.049	5967.75
468.268	6015.75
468.488	5633.75
468.707	5487.75
468.927	5454.75
469.146	5353.75
469.365	5430.75
469.585	5362.75
469.804	5577.75
470.023	5776.75
470.243	5678.75
470.462	5907.75
470.681	5941.75
470.901	5838.75
471.12	5747.75
471.339	5686.75
471.558	5664.75
471.777	5594.75
471.997	5744.75
472.216	6384.75
472.435	7843.75
472.654	6639.75
472.873	5892.75
473.092	5670.75
473.311	5537.75
473.53	5575.75
473.749	5608.75
473.968	6195.75
474.187	7029.75
474.406	6573.75
474.625	5700.75
474.844	5415.75
475.063	5335.75
475.282	5391.75
475.501	5418.75
475.72	5477.75
475.939	5495.75
476.158	5519.75
476.377	5583.75
476.596	5518.75
476.814	5698.75
477.033	5703.75
477.252	5819.75
477.471	5964.75
477.69	5967.75
477.908	6190.75
478.127	6346.75
478.346	6346.75
478.564	6573.75
478.783	6589.75
479.002	6716.75
479.22	6708.75
479.439	6850.75
479.658	6939.75
479.876	7025.75
480.095	7325.75
480.313	7733.75
480.532	7611.75
480.751	7664.75
480.969	8346.75
481.188	11101.75
481.406	10870.75
481.624	8420.75
481.843	7593.75
482.061	7134.75
482.28	6897.75
482.498	6764.75
482.717	6591.75
482.935	6521.75
483.153	6451.75
483.372	6356.75
483.59	6423.75
483.808	6352.75
484.027	6491.75
484.245	6477.75
484.463	6445.75
484.681	6573.75
484.9	6555.75
485.118	6632.75
485.336	6659.75
485.554	6795.75
485.772	6769.75
485.99	6805.75
486.209	6901.75
486.427	6860.75
486.645	6960.75
486.863	6982.75
487.081	6928.75
487.299	6896.75
487.517	6856.75
487.735	6766.75
