Data from Circ_1993_H10_HRD10591_00071.txt Node
Date: Wed Jan 03 11:44:16 EST 2024
User: Yrep
Spectrometer: HR+D1059
Trigger mode: 1
Integration Time (sec): 1.000000E-1
Scans to average: 1
Electric dark correction enabled: true
Nonlinearity correction enabled: false
Boxcar width: 0
XAxis mode: Wavelengths
Number of Pixels in Spectrum: 2048
>>>>>Begin Spectral Data<<<<<
223.165	-15.62
223.4	-15.62
223.635	-15.62
223.869	-10.62
224.104	-8.62
224.338	-3.62
224.573	-15.62
224.808	-16.62
225.042	-17.62
225.277	-2.62
225.511	1.38
225.746	-4.62
225.98	1.38
226.215	4.38
226.449	25.38
226.683	5.38
226.918	30.38
227.152	27.38
227.387	27.38
227.621	30.38
227.856	41.38
228.09	46.38
228.324	33.38
228.559	48.38
228.793	55.38
229.027	60.38
229.262	44.38
229.496	58.38
229.73	74.38
229.964	71.38
230.199	74.38
230.433	53.38
230.667	90.38
230.901	60.38
231.136	84.38
231.37	85.38
231.604	74.38
231.838	79.38
232.072	83.38
232.306	99.38
232.541	91.38
232.775	85.38
233.009	79.38
233.243	84.38
233.477	81.38
233.711	83.38
233.945	76.38
234.179	90.38
234.413	66.38
234.647	78.38
234.881	89.38
235.115	73.38
235.349	74.38
235.583	89.38
235.817	77.38
236.051	71.38
236.285	75.38
236.519	71.38
236.753	78.38
236.987	76.38
237.221	66.38
237.455	69.38
237.689	71.38
237.922	84.38
238.156	79.38
238.39	69.38
238.624	69.38
238.858	71.38
239.091	76.38
239.325	86.38
239.559	81.38
239.793	71.38
240.027	74.38
240.26	69.38
240.494	75.38
240.728	75.38
240.961	66.38
241.195	85.38
241.429	61.38
241.662	64.38
241.896	70.38
242.13	76.38
242.363	95.38
242.597	75.38
242.83	82.38
243.064	74.38
243.298	71.38
243.531	67.38
243.765	72.38
243.998	81.38
244.232	83.38
244.465	81.38
244.699	73.38
244.932	94.38
245.166	88.38
245.399	79.38
245.633	79.38
245.866	78.38
246.099	82.38
246.333	77.38
246.566	73.38
246.8	92.38
247.033	66.38
247.266	63.38
247.5	85.38
247.733	80.38
247.966	80.38
248.2	82.38
248.433	93.38
248.666	77.38
248.899	70.38
249.133	79.38
249.366	98.38
249.599	95.38
249.832	84.38
250.066	66.38
250.299	80.38
250.532	79.38
250.765	80.38
250.998	84.38
251.231	83.38
251.465	71.38
251.698	69.38
251.931	61.38
252.164	73.38
252.397	73.38
252.63	77.38
252.863	72.38
253.096	80.38
253.329	77.38
253.562	74.38
253.795	64.38
254.028	91.38
254.261	92.38
254.494	85.38
254.727	81.38
254.96	88.38
255.193	81.38
255.426	66.38
255.659	82.38
255.892	83.38
256.124	91.38
256.357	84.38
256.59	67.38
256.823	80.38
257.056	77.38
257.289	79.38
257.521	65.38
257.754	73.38
257.987	69.38
258.22	77.38
258.452	91.38
258.685	70.38
258.918	78.38
259.151	79.38
259.383	76.38
259.616	71.38
259.849	77.38
260.081	74.38
260.314	95.38
260.547	80.38
260.779	71.38
261.012	94.38
261.244	79.38
261.477	91.38
261.71	82.38
261.942	107.38
262.175	97.38
262.407	94.38
262.64	72.38
262.872	87.38
263.105	90.38
263.337	92.38
263.57	82.38
263.802	80.38
264.035	82.38
264.267	85.38
264.499	65.38
264.732	72.38
264.964	82.38
265.197	79.38
265.429	83.38
265.661	93.38
265.894	86.38
266.126	83.38
266.358	83.38
266.591	70.38
266.823	70.38
267.055	90.38
267.287	83.38
267.52	83.38
267.752	70.38
267.984	71.38
268.216	87.38
268.448	81.38
268.681	92.38
268.913	83.38
269.145	89.38
269.377	87.38
269.609	87.38
269.841	62.38
270.073	91.38
270.306	78.38
270.538	75.38
270.77	81.38
271.002	81.38
271.234	82.38
271.466	77.38
271.698	59.38
271.93	89.38
272.162	89.38
272.394	76.38
272.626	78.38
272.858	96.38
273.09	94.38
273.322	99.38
273.553	85.38
273.785	75.38
274.017	72.38
274.249	79.38
274.481	87.38
274.713	86.38
274.945	74.38
275.176	91.38
275.408	85.38
275.64	86.38
275.872	85.38
276.104	94.38
276.335	82.38
276.567	94.38
276.799	91.38
277.031	94.38
277.262	91.38
277.494	93.38
277.726	73.38
277.957	85.38
278.189	78.38
278.421	87.38
278.652	87.38
278.884	85.38
279.115	86.38
279.347	100.38
279.579	81.38
279.81	92.38
280.042	88.38
280.273	83.38
280.505	100.38
280.736	91.38
280.968	97.38
281.199	82.38
281.431	79.38
281.662	80.38
281.894	86.38
282.125	91.38
282.356	98.38
282.588	107.38
282.819	91.38
283.051	92.38
283.282	73.38
283.513	92.38
283.745	66.38
283.976	89.38
284.207	79.38
284.439	85.38
284.67	87.38
284.901	78.38
285.132	77.38
285.364	83.38
285.595	79.38
285.826	90.38
286.057	96.38
286.288	95.38
286.52	86.38
286.751	83.38
286.982	90.38
287.213	82.38
287.444	88.38
287.675	73.38
287.906	92.38
288.138	87.38
288.369	85.38
288.6	94.38
288.831	86.38
289.062	80.38
289.293	89.38
289.524	77.38
289.755	83.38
289.986	79.38
290.217	70.38
290.448	94.38
290.679	81.38
290.91	98.38
291.141	88.38
291.371	93.38
291.602	97.38
291.833	86.38
292.064	75.38
292.295	65.38
292.526	90.38
292.757	95.38
292.987	77.38
293.218	80.38
293.449	86.38
293.68	89.38
293.91	85.38
294.141	91.38
294.372	78.38
294.603	88.38
294.833	91.38
295.064	86.38
295.295	91.38
295.525	98.38
295.756	91.38
295.987	105.38
296.217	132.38
296.448	109.38
296.679	91.38
296.909	73.38
297.14	83.38
297.37	100.38
297.601	98.38
297.831	91.38
298.062	95.38
298.292	83.38
298.523	75.38
298.753	83.38
298.984	82.38
299.214	87.38
299.445	87.38
299.675	99.38
299.905	93.38
300.136	107.38
300.366	79.38
300.597	91.38
300.827	81.38
301.057	85.38
301.288	76.38
301.518	80.38
301.748	86.38
301.979	95.38
302.209	78.38
302.439	85.38
302.669	82.38
302.9	83.38
303.13	93.38
303.36	96.38
303.59	89.38
303.82	99.38
304.051	81.38
304.281	66.38
304.511	81.38
304.741	103.38
304.971	81.38
305.201	96.38
305.431	89.38
305.661	101.38
305.891	83.38
306.121	90.38
306.352	92.38
306.582	91.38
306.812	91.38
307.042	89.38
307.272	94.38
307.502	97.38
307.731	88.38
307.961	85.38
308.191	81.38
308.421	85.38
308.651	96.38
308.881	87.38
309.111	85.38
309.341	88.38
309.571	83.38
309.8	89.38
310.03	89.38
310.26	91.38
310.49	98.38
310.72	82.38
310.949	87.38
311.179	87.38
311.409	89.38
311.639	93.38
311.868	96.38
312.098	82.38
312.328	94.38
312.557	105.38
312.787	109.38
313.017	101.38
313.246	97.38
313.476	95.38
313.706	88.38
313.935	97.38
314.165	90.38
314.394	105.38
314.624	76.38
314.853	96.38
315.083	91.38
315.312	92.38
315.542	90.38
315.771	88.38
316.001	86.38
316.23	95.38
316.46	74.38
316.689	78.38
316.919	79.38
317.148	97.38
317.377	86.38
317.607	89.38
317.836	83.38
318.065	90.38
318.295	98.38
318.524	90.38
318.753	84.38
318.983	86.38
319.212	108.38
319.441	98.38
319.67	104.38
319.9	91.38
320.129	85.38
320.358	66.38
320.587	89.38
320.816	87.38
321.046	93.38
321.275	81.38
321.504	91.38
321.733	75.38
321.962	103.38
322.191	106.38
322.42	80.38
322.649	111.38
322.878	109.38
323.108	90.38
323.337	97.38
323.566	114.38
323.795	131.38
324.024	174.38
324.253	342.38
324.482	700.38
324.71	1423.38
324.939	1875.38
325.168	684.38
325.397	212.38
325.626	139.38
325.855	105.38
326.084	108.38
326.313	104.38
326.542	137.38
326.77	210.38
326.999	402.38
327.228	800.38
327.457	1492.38
327.686	1164.38
327.914	329.38
328.143	209.38
328.372	183.38
328.6	116.38
328.829	122.38
329.058	112.38
329.287	125.38
329.515	105.38
329.744	114.38
329.972	118.38
330.201	193.38
330.43	222.38
330.658	152.38
330.887	127.38
331.115	109.38
331.344	94.38
331.572	104.38
331.801	102.38
332.03	99.38
332.258	93.38
332.486	83.38
332.715	78.38
332.943	86.38
333.172	70.38
333.4	95.38
333.629	99.38
333.857	123.38
334.085	136.38
334.314	176.38
334.542	289.38
334.771	249.38
334.999	135.38
335.227	108.38
335.455	79.38
335.684	79.38
335.912	107.38
336.14	100.38
336.369	96.38
336.597	95.38
336.825	96.38
337.053	90.38
337.281	77.38
337.51	96.38
337.738	107.38
337.966	93.38
338.194	92.38
338.422	83.38
338.65	98.38
338.878	88.38
339.106	84.38
339.334	101.38
339.562	76.38
339.79	69.38
340.018	95.38
340.246	77.38
340.474	85.38
340.702	85.38
340.93	101.38
341.158	95.38
341.386	99.38
341.614	88.38
341.842	71.38
342.07	99.38
342.298	93.38
342.526	93.38
342.754	88.38
342.981	86.38
343.209	101.38
343.437	95.38
343.665	87.38
343.893	87.38
344.12	93.38
344.348	99.38
344.576	78.38
344.804	79.38
345.031	82.38
345.259	74.38
345.487	101.38
345.714	90.38
345.942	95.38
346.17	88.38
346.397	76.38
346.625	94.38
346.853	94.38
347.08	92.38
347.308	87.38
347.535	106.38
347.763	98.38
347.99	90.38
348.218	75.38
348.445	90.38
348.673	73.38
348.9	84.38
349.128	88.38
349.355	81.38
349.583	80.38
349.81	80.38
350.037	96.38
350.265	86.38
350.492	87.38
350.72	86.38
350.947	108.38
351.174	107.38
351.402	100.38
351.629	107.38
351.856	104.38
352.083	83.38
352.311	89.38
352.538	95.38
352.765	112.38
352.992	105.38
353.22	109.38
353.447	95.38
353.674	96.38
353.901	106.38
354.128	93.38
354.355	98.38
354.583	99.38
354.81	109.38
355.037	94.38
355.264	85.38
355.491	90.38
355.718	88.38
355.945	77.38
356.172	95.38
356.399	76.38
356.626	79.38
356.853	88.38
357.08	91.38
357.307	95.38
357.534	93.38
357.761	79.38
357.988	82.38
358.215	91.38
358.441	92.38
358.668	85.38
358.895	105.38
359.122	89.38
359.349	81.38
359.576	96.38
359.802	96.38
360.029	87.38
360.256	96.38
360.483	81.38
360.709	93.38
360.936	86.38
361.163	87.38
361.39	94.38
361.616	88.38
361.843	92.38
362.07	76.38
362.296	98.38
362.523	92.38
362.749	86.38
362.976	87.38
363.203	102.38
363.429	77.38
363.656	79.38
363.882	96.38
364.109	88.38
364.335	88.38
364.562	76.38
364.788	85.38
365.015	82.38
365.241	86.38
365.468	101.38
365.694	99.38
365.92	97.38
366.147	84.38
366.373	74.38
366.599	75.38
366.826	86.38
367.052	87.38
367.278	90.38
367.505	71.38
367.731	86.38
367.957	92.38
368.184	80.38
368.41	83.38
368.636	103.38
368.862	115.38
369.089	104.38
369.315	96.38
369.541	97.38
369.767	90.38
369.993	86.38
370.219	83.38
370.445	79.38
370.672	84.38
370.898	93.38
371.124	81.38
371.35	79.38
371.576	78.38
371.802	90.38
372.028	76.38
372.254	93.38
372.48	89.38
372.706	86.38
372.932	88.38
373.158	84.38
373.384	93.38
373.61	105.38
373.835	84.38
374.061	94.38
374.287	74.38
374.513	85.38
374.739	95.38
374.965	80.38
375.191	83.38
375.416	97.38
375.642	92.38
375.868	97.38
376.094	85.38
376.319	69.38
376.545	81.38
376.771	78.38
376.997	82.38
377.222	85.38
377.448	81.38
377.674	93.38
377.899	92.38
378.125	81.38
378.35	82.38
378.576	93.38
378.802	86.38
379.027	94.38
379.253	89.38
379.478	88.38
379.704	81.38
379.929	92.38
380.155	74.38
380.38	96.38
380.606	90.38
380.831	90.38
381.057	109.38
381.282	87.38
381.507	81.38
381.733	101.38
381.958	107.38
382.184	98.38
382.409	84.38
382.634	98.38
382.86	105.38
383.085	87.38
383.31	101.38
383.535	95.38
383.761	99.38
383.986	98.38
384.211	96.38
384.436	99.38
384.662	101.38
384.887	99.38
385.112	98.38
385.337	98.38
385.562	108.38
385.787	98.38
386.013	100.38
386.238	114.38
386.463	106.38
386.688	101.38
386.913	106.38
387.138	97.38
387.363	104.38
387.588	95.38
387.813	88.38
388.038	96.38
388.263	108.38
388.488	101.38
388.713	96.38
388.938	92.38
389.163	80.38
389.387	102.38
389.612	101.38
389.837	79.38
390.062	83.38
390.287	79.38
390.512	87.38
390.736	96.38
390.961	89.38
391.186	81.38
391.411	88.38
391.636	95.38
391.86	83.38
392.085	70.38
392.31	84.38
392.534	81.38
392.759	95.38
392.984	81.38
393.208	91.38
393.433	109.38
393.658	103.38
393.882	80.38
394.107	91.38
394.331	79.38
394.556	74.38
394.78	88.38
395.005	82.38
395.229	75.38
395.454	85.38
395.678	89.38
395.903	88.38
396.127	87.38
396.352	82.38
396.576	77.38
396.801	87.38
397.025	110.38
397.249	87.38
397.474	88.38
397.698	95.38
397.922	78.38
398.147	87.38
398.371	82.38
398.595	83.38
398.82	74.38
399.044	79.38
399.268	75.38
399.492	83.38
399.717	88.38
399.941	80.38
400.165	87.38
400.389	85.38
400.613	88.38
400.837	87.38
401.062	85.38
401.286	86.38
401.51	83.38
401.734	93.38
401.958	86.38
402.182	114.38
402.406	142.38
402.63	105.38
402.854	88.38
403.078	88.38
403.302	77.38
403.526	92.38
403.75	83.38
403.974	93.38
404.198	79.38
404.422	89.38
404.645	92.38
404.869	82.38
405.093	102.38
405.317	103.38
405.541	93.38
405.765	72.38
405.988	82.38
406.212	142.38
406.436	185.38
406.66	135.38
406.883	98.38
407.107	87.38
407.331	91.38
407.555	98.38
407.778	87.38
408.002	79.38
408.226	77.38
408.449	81.38
408.673	87.38
408.896	90.38
409.12	96.38
409.344	89.38
409.567	89.38
409.791	78.38
410.014	94.38
410.238	93.38
410.461	99.38
410.685	93.38
410.908	93.38
411.132	102.38
411.355	99.38
411.578	107.38
411.802	77.38
412.025	82.38
412.249	86.38
412.472	101.38
412.695	103.38
412.919	98.38
413.142	73.38
413.365	86.38
413.589	84.38
413.812	81.38
414.035	85.38
414.258	76.38
414.482	77.38
414.705	85.38
414.928	90.38
415.151	83.38
415.374	90.38
415.597	85.38
415.821	72.38
416.044	93.38
416.267	87.38
416.49	73.38
416.713	97.38
416.936	94.38
417.159	94.38
417.382	89.38
417.605	78.38
417.828	95.38
418.051	89.38
418.274	70.38
418.497	91.38
418.72	79.38
418.943	89.38
419.166	95.38
419.389	90.38
419.611	92.38
419.834	95.38
420.057	81.38
420.28	89.38
420.503	83.38
420.726	81.38
420.948	81.38
421.171	88.38
421.394	92.38
421.617	89.38
421.839	97.38
422.062	75.38
422.285	90.38
422.507	92.38
422.73	99.38
422.953	100.38
423.175	77.38
423.398	77.38
423.621	98.38
423.843	103.38
424.066	92.38
424.288	87.38
424.511	85.38
424.733	91.38
424.956	91.38
425.178	94.38
425.401	96.38
425.623	90.38
425.846	89.38
426.068	97.38
426.291	87.38
426.513	91.38
426.735	88.38
426.958	87.38
427.18	106.38
427.402	122.38
427.625	156.38
427.847	135.38
428.069	128.38
428.292	101.38
428.514	84.38
428.736	92.38
428.958	77.38
429.181	85.38
429.403	92.38
429.625	80.38
429.847	78.38
430.069	92.38
430.292	83.38
430.514	89.38
430.736	75.38
430.958	93.38
431.18	85.38
431.402	85.38
431.624	90.38
431.846	83.38
432.068	67.38
432.29	88.38
432.512	83.38
432.734	83.38
432.956	99.38
433.178	91.38
433.4	108.38
433.622	93.38
433.844	89.38
434.066	88.38
434.287	87.38
434.509	95.38
434.731	80.38
434.953	75.38
435.175	93.38
435.397	91.38
435.618	90.38
435.84	106.38
436.062	107.38
436.284	122.38
436.505	96.38
436.727	105.38
436.949	90.38
437.17	80.38
437.392	72.38
437.614	79.38
437.835	94.38
438.057	87.38
438.278	105.38
438.5	90.38
438.721	112.38
438.943	97.38
439.165	79.38
439.386	81.38
439.608	89.38
439.829	96.38
440.05	119.38
440.272	119.38
440.493	94.38
440.715	87.38
440.936	71.38
441.158	72.38
441.379	86.38
441.6	95.38
441.822	90.38
442.043	85.38
442.264	89.38
442.486	90.38
442.707	79.38
442.928	95.38
443.149	125.38
443.371	118.38
443.592	109.38
443.813	103.38
444.034	97.38
444.255	90.38
444.476	83.38
444.698	88.38
444.919	80.38
445.14	135.38
445.361	103.38
445.582	109.38
445.803	117.38
446.024	121.38
446.245	111.38
446.466	106.38
446.687	89.38
446.908	89.38
447.129	87.38
447.35	98.38
447.571	76.38
447.792	90.38
448.013	107.38
448.234	103.38
448.455	73.38
448.675	101.38
448.896	104.38
449.117	98.38
449.338	96.38
449.559	109.38
449.779	111.38
450	99.38
450.221	93.38
450.442	85.38
450.662	94.38
450.883	90.38
451.104	102.38
451.324	86.38
451.545	92.38
451.766	89.38
451.986	98.38
452.207	86.38
452.428	101.38
452.648	99.38
452.869	108.38
453.089	116.38
453.31	109.38
453.53	80.38
453.751	80.38
453.971	96.38
454.192	86.38
454.412	88.38
454.633	77.38
454.853	87.38
455.073	84.38
455.294	102.38
455.514	87.38
455.734	88.38
455.955	82.38
456.175	75.38
456.395	88.38
456.616	82.38
456.836	77.38
457.056	85.38
457.276	85.38
457.497	82.38
457.717	74.38
457.937	93.38
458.157	93.38
458.377	77.38
458.598	108.38
458.818	122.38
459.038	131.38
459.258	103.38
459.478	95.38
459.698	87.38
459.918	90.38
460.138	91.38
460.358	73.38
460.578	88.38
460.798	85.38
461.018	83.38
461.238	78.38
461.458	81.38
461.678	88.38
461.898	77.38
462.118	94.38
462.338	85.38
462.558	73.38
462.777	84.38
462.997	84.38
463.217	78.38
463.437	89.38
463.657	95.38
463.876	82.38
464.096	87.38
464.316	87.38
464.536	85.38
464.755	94.38
464.975	106.38
465.195	137.38
465.414	145.38
465.634	88.38
465.854	78.38
466.073	64.38
466.293	98.38
466.512	69.38
466.732	76.38
466.951	85.38
467.171	98.38
467.391	90.38
467.61	87.38
467.829	95.38
468.049	128.38
468.268	153.38
468.488	91.38
468.707	88.38
468.927	73.38
469.146	98.38
469.365	77.38
469.585	93.38
469.804	97.38
470.023	95.38
470.243	83.38
470.462	96.38
470.681	107.38
470.901	85.38
471.12	78.38
471.339	81.38
471.558	97.38
471.777	93.38
471.997	97.38
472.216	209.38
472.435	345.38
472.654	151.38
472.873	83.38
473.092	77.38
473.311	77.38
473.53	77.38
473.749	76.38
473.968	89.38
474.187	94.38
474.406	92.38
474.625	91.38
474.844	94.38
475.063	80.38
475.282	77.38
475.501	77.38
475.72	84.38
475.939	78.38
476.158	87.38
476.377	76.38
476.596	71.38
476.814	84.38
477.033	75.38
477.252	77.38
477.471	90.38
477.69	87.38
477.908	83.38
478.127	71.38
478.346	80.38
478.564	107.38
478.783	93.38
479.002	88.38
479.22	83.38
479.439	93.38
479.658	114.38
479.876	109.38
480.095	96.38
480.313	106.38
480.532	106.38
480.751	127.38
480.969	221.38
481.188	605.38
481.406	359.38
481.624	118.38
481.843	102.38
482.061	81.38
482.28	100.38
482.498	79.38
482.717	84.38
482.935	78.38
483.153	81.38
483.372	102.38
483.59	78.38
483.808	88.38
484.027	97.38
484.245	90.38
484.463	89.38
484.681	86.38
484.9	91.38
485.118	93.38
485.336	82.38
485.554	100.38
485.772	103.38
485.99	115.38
486.209	119.38
486.427	111.38
486.645	107.38
486.863	96.38
487.081	109.38
487.299	94.38
487.517	97.38
487.735	96.38
487.953	84.38
488.171	93.38
488.389	88.38
488.607	95.38
488.825	86.38
489.043	62.38
489.261	84.38
489.479	85.38
489.696	87.38
489.914	92.38
490.132	91.38
490.35	101.38
490.568	70.38
490.786	96.38
491.003	79.38
491.221	88.38
491.439	107.38
491.657	100.38
491.874	82.38
492.092	92.38
492.31	85.38
492.527	75.38
492.745	86.38
492.963	88.38
493.18	102.38
493.398	85.38
493.615	102.38
493.833	105.38
494.05	71.38
494.268	77.38
494.485	79.38
494.703	82.38
494.92	72.38
495.138	85.38
495.355	81.38
495.573	102.38
495.79	78.38
496.008	95.38
496.225	88.38
496.442	81.38
496.66	89.38
496.877	82.38
497.094	87.38
497.312	80.38
497.529	96.38
497.746	106.38
497.963	99.38
498.181	83.38
498.398	102.38
498.615	99.38
498.832	91.38
499.049	94.38
499.267	103.38
499.484	95.38
499.701	98.38
499.918	76.38
500.135	77.38
500.352	77.38
500.569	95.38
500.786	83.38
501.003	88.38
501.22	94.38
501.437	81.38
501.654	103.38
501.871	98.38
502.088	97.38
502.305	85.38
502.522	86.38
502.739	74.38
502.956	81.38
503.172	83.38
503.389	85.38
503.606	82.38
503.823	83.38
504.04	87.38
504.256	94.38
504.473	93.38
504.69	69.38
504.907	104.38
505.123	84.38
505.34	95.38
505.557	78.38
505.773	94.38
505.99	78.38
506.207	80.38
506.423	80.38
506.64	82.38
506.856	96.38
507.073	75.38
507.289	96.38
507.506	93.38
507.722	102.38
507.939	104.38
508.155	89.38
508.372	74.38
508.588	89.38
508.805	88.38
509.021	103.38
509.238	86.38
509.454	94.38
509.67	99.38
509.887	87.38
510.103	109.38
510.319	190.38
510.536	636.38
510.752	1886.38
510.968	537.38
511.184	126.38
511.401	97.38
511.617	89.38
511.833	81.38
512.049	81.38
512.265	89.38
512.481	93.38
512.698	91.38
512.914	90.38
513.13	90.38
513.346	93.38
513.562	86.38
513.778	85.38
513.994	89.38
514.21	96.38
514.426	112.38
514.642	119.38
514.858	119.38
515.074	138.38
515.29	364.38
515.506	1142.38
515.721	435.38
515.937	139.38
516.153	107.38
516.369	90.38
516.585	93.38
516.801	78.38
517.016	101.38
