Data from Circ_1993_H10_HRD10591_00077.txt Node
Date: Wed Jan 03 11:44:17 EST 2024
User: Yrep
Spectrometer: HR+D1059
Trigger mode: 1
Integration Time (sec): 1.000000E-1
Scans to average: 1
Electric dark correction enabled: true
Nonlinearity correction enabled: false
Boxcar width: 0
XAxis mode: Wavelengths
Number of Pixels in Spectrum: 2048
>>>>>Begin Spectral Data<<<<<
223.165	-18.12
223.4	-18.12
223.635	-18.12
223.869	-13.12
224.104	-17.12
224.338	-13.12
224.573	-20.12
224.808	-18.12
225.042	-12.12
225.277	-6.12
225.511	5.88
225.746	2.88
225.98	9.88
226.215	10.88
226.449	11.88
226.683	24.88
226.918	33.88
227.152	17.88
227.387	39.88
227.621	53.88
227.856	43.88
228.09	57.88
228.324	55.88
228.559	47.88
228.793	53.88
229.027	65.88
229.262	59.88
229.496	66.88
229.73	71.88
229.964	79.88
230.199	81.88
230.433	57.88
230.667	79.88
230.901	64.88
231.136	80.88
231.37	69.88
231.604	68.88
231.838	76.88
232.072	72.88
232.306	85.88
232.541	95.88
232.775	82.88
233.009	73.88
233.243	85.88
233.477	88.88
233.711	91.88
233.945	83.88
234.179	84.88
234.413	71.88
234.647	81.88
234.881	75.88
235.115	79.88
235.349	81.88
235.583	92.88
235.817	75.88
236.051	64.88
236.285	71.88
236.519	71.88
236.753	84.88
236.987	85.88
237.221	89.88
237.455	85.88
237.689	78.88
237.922	89.88
238.156	82.88
238.39	73.88
238.624	72.88
238.858	84.88
239.091	79.88
239.325	55.88
239.559	65.88
239.793	62.88
240.027	82.88
240.26	83.88
240.494	80.88
240.728	77.88
240.961	64.88
241.195	68.88
241.429	74.88
241.662	81.88
241.896	75.88
242.13	58.88
242.363	73.88
242.597	75.88
242.83	94.88
243.064	87.88
243.298	71.88
243.531	80.88
243.765	59.88
243.998	91.88
244.232	71.88
244.465	84.88
244.699	74.88
244.932	79.88
245.166	68.88
245.399	93.88
245.633	83.88
245.866	83.88
246.099	65.88
246.333	82.88
246.566	75.88
246.8	73.88
247.033	84.88
247.266	74.88
247.5	78.88
247.733	75.88
247.966	78.88
248.2	66.88
248.433	69.88
248.666	80.88
248.899	82.88
249.133	83.88
249.366	88.88
249.599	87.88
249.832	83.88
250.066	99.88
250.299	93.88
250.532	76.88
250.765	79.88
250.998	86.88
251.231	79.88
251.465	95.88
251.698	66.88
251.931	72.88
252.164	81.88
252.397	68.88
252.63	87.88
252.863	87.88
253.096	75.88
253.329	59.88
253.562	80.88
253.795	75.88
254.028	81.88
254.261	82.88
254.494	71.88
254.727	86.88
254.96	77.88
255.193	80.88
255.426	77.88
255.659	84.88
255.892	93.88
256.124	76.88
256.357	67.88
256.59	82.88
256.823	85.88
257.056	82.88
257.289	66.88
257.521	90.88
257.754	89.88
257.987	83.88
258.22	82.88
258.452	81.88
258.685	84.88
258.918	81.88
259.151	72.88
259.383	93.88
259.616	84.88
259.849	79.88
260.081	77.88
260.314	78.88
260.547	84.88
260.779	78.88
261.012	96.88
261.244	89.88
261.477	91.88
261.71	81.88
261.942	101.88
262.175	97.88
262.407	95.88
262.64	62.88
262.872	89.88
263.105	82.88
263.337	83.88
263.57	93.88
263.802	85.88
264.035	73.88
264.267	79.88
264.499	75.88
264.732	75.88
264.964	72.88
265.197	84.88
265.429	78.88
265.661	89.88
265.894	75.88
266.126	91.88
266.358	93.88
266.591	81.88
266.823	82.88
267.055	90.88
267.287	86.88
267.52	77.88
267.752	78.88
267.984	88.88
268.216	89.88
268.448	87.88
268.681	88.88
268.913	87.88
269.145	83.88
269.377	79.88
269.609	91.88
269.841	92.88
270.073	85.88
270.306	89.88
270.538	89.88
270.77	100.88
271.002	81.88
271.234	82.88
271.466	82.88
271.698	71.88
271.93	68.88
272.162	93.88
272.394	78.88
272.626	88.88
272.858	103.88
273.09	79.88
273.322	83.88
273.553	77.88
273.785	85.88
274.017	87.88
274.249	75.88
274.481	81.88
274.713	90.88
274.945	83.88
275.176	78.88
275.408	81.88
275.64	74.88
275.872	90.88
276.104	94.88
276.335	94.88
276.567	91.88
276.799	99.88
277.031	89.88
277.262	92.88
277.494	100.88
277.726	87.88
277.957	77.88
278.189	91.88
278.421	79.88
278.652	71.88
278.884	82.88
279.115	88.88
279.347	78.88
279.579	86.88
279.81	94.88
280.042	86.88
280.273	108.88
280.505	93.88
280.736	76.88
280.968	95.88
281.199	83.88
281.431	81.88
281.662	75.88
281.894	98.88
282.125	82.88
282.356	106.88
282.588	121.88
282.819	120.88
283.051	80.88
283.282	86.88
283.513	79.88
283.745	83.88
283.976	85.88
284.207	72.88
284.439	85.88
284.67	67.88
284.901	92.88
285.132	85.88
285.364	80.88
285.595	73.88
285.826	93.88
286.057	78.88
286.288	77.88
286.52	91.88
286.751	100.88
286.982	82.88
287.213	90.88
287.444	94.88
287.675	96.88
287.906	82.88
288.138	86.88
288.369	95.88
288.6	97.88
288.831	104.88
289.062	80.88
289.293	79.88
289.524	80.88
289.755	104.88
289.986	93.88
290.217	83.88
290.448	84.88
290.679	87.88
290.91	99.88
291.141	77.88
291.371	87.88
291.602	90.88
291.833	88.88
292.064	106.88
292.295	96.88
292.526	77.88
292.757	85.88
292.987	88.88
293.218	84.88
293.449	90.88
293.68	79.88
293.91	85.88
294.141	85.88
294.372	91.88
294.603	79.88
294.833	92.88
295.064	81.88
295.295	96.88
295.525	106.88
295.756	92.88
295.987	116.88
296.217	131.88
296.448	122.88
296.679	97.88
296.909	89.88
297.14	87.88
297.37	91.88
297.601	91.88
297.831	75.88
298.062	80.88
298.292	79.88
298.523	91.88
298.753	93.88
298.984	76.88
299.214	83.88
299.445	83.88
299.675	87.88
299.905	87.88
300.136	81.88
300.366	83.88
300.597	76.88
300.827	93.88
301.057	94.88
301.288	96.88
301.518	99.88
301.748	91.88
301.979	96.88
302.209	75.88
302.439	87.88
302.669	82.88
302.9	87.88
303.13	84.88
303.36	87.88
303.59	100.88
303.82	97.88
304.051	86.88
304.281	93.88
304.511	92.88
304.741	95.88
304.971	84.88
305.201	87.88
305.431	96.88
305.661	83.88
305.891	83.88
306.121	96.88
306.352	101.88
306.582	109.88
306.812	84.88
307.042	117.88
307.272	109.88
307.502	105.88
307.731	106.88
307.961	91.88
308.191	70.88
308.421	72.88
308.651	87.88
308.881	87.88
309.111	92.88
309.341	94.88
309.571	85.88
309.8	94.88
310.03	93.88
310.26	104.88
310.49	100.88
310.72	104.88
310.949	89.88
311.179	88.88
311.409	88.88
311.639	85.88
311.868	99.88
312.098	100.88
312.328	96.88
312.557	93.88
312.787	92.88
313.017	99.88
313.246	84.88
313.476	89.88
313.706	81.88
313.935	102.88
314.165	100.88
314.394	91.88
314.624	99.88
314.853	85.88
315.083	86.88
315.312	87.88
315.542	90.88
315.771	85.88
316.001	97.88
316.23	87.88
316.46	93.88
316.689	95.88
316.919	90.88
317.148	100.88
317.377	91.88
317.607	91.88
317.836	92.88
318.065	88.88
318.295	98.88
318.524	79.88
318.753	92.88
318.983	92.88
319.212	105.88
319.441	105.88
319.67	104.88
319.9	93.88
320.129	86.88
320.358	90.88
320.587	97.88
320.816	96.88
321.046	99.88
321.275	97.88
321.504	97.88
321.733	101.88
321.962	87.88
322.191	91.88
322.42	105.88
322.649	104.88
322.878	127.88
323.108	110.88
323.337	118.88
323.566	122.88
323.795	148.88
324.024	189.88
324.253	327.88
324.482	751.88
324.71	1508.88
324.939	1988.88
325.168	759.88
325.397	235.88
325.626	139.88
325.855	115.88
326.084	116.88
326.313	127.88
326.542	153.88
326.77	214.88
326.999	420.88
327.228	841.88
327.457	1524.88
327.686	1241.88
327.914	360.88
328.143	218.88
328.372	180.88
328.6	133.88
328.829	115.88
329.058	143.88
329.287	127.88
329.515	106.88
329.744	107.88
329.972	149.88
330.201	217.88
330.43	259.88
330.658	176.88
330.887	124.88
331.115	130.88
331.344	107.88
331.572	105.88
331.801	96.88
332.03	102.88
332.258	75.88
332.486	90.88
332.715	88.88
332.943	100.88
333.172	92.88
333.4	94.88
333.629	105.88
333.857	121.88
334.085	133.88
334.314	202.88
334.542	301.88
334.771	309.88
334.999	146.88
335.227	115.88
335.455	83.88
335.684	99.88
335.912	94.88
336.14	86.88
336.369	87.88
336.597	99.88
336.825	93.88
337.053	88.88
337.281	95.88
337.51	88.88
337.738	96.88
337.966	104.88
338.194	101.88
338.422	96.88
338.65	106.88
338.878	89.88
339.106	100.88
339.334	92.88
339.562	98.88
339.79	96.88
340.018	92.88
340.246	73.88
340.474	89.88
340.702	95.88
340.93	97.88
341.158	95.88
341.386	83.88
341.614	96.88
341.842	105.88
342.07	98.88
342.298	111.88
342.526	83.88
342.754	93.88
342.981	103.88
343.209	100.88
343.437	96.88
343.665	75.88
343.893	87.88
344.12	90.88
344.348	83.88
344.576	93.88
344.804	92.88
345.031	94.88
345.259	88.88
345.487	80.88
345.714	96.88
345.942	91.88
346.17	92.88
346.397	96.88
346.625	87.88
346.853	100.88
347.08	88.88
347.308	95.88
347.535	100.88
347.763	75.88
347.99	102.88
348.218	99.88
348.445	105.88
348.673	101.88
348.9	92.88
349.128	112.88
349.355	83.88
349.583	95.88
349.81	93.88
350.037	113.88
350.265	95.88
350.492	91.88
350.72	95.88
350.947	97.88
351.174	106.88
351.402	116.88
351.629	100.88
351.856	102.88
352.083	91.88
352.311	102.88
352.538	99.88
352.765	105.88
352.992	103.88
353.22	108.88
353.447	109.88
353.674	117.88
353.901	100.88
354.128	109.88
354.355	91.88
354.583	88.88
354.81	87.88
355.037	87.88
355.264	95.88
355.491	79.88
355.718	92.88
355.945	98.88
356.172	97.88
356.399	88.88
356.626	99.88
356.853	85.88
357.08	95.88
357.307	83.88
357.534	101.88
357.761	90.88
357.988	97.88
358.215	91.88
358.441	90.88
358.668	98.88
358.895	108.88
359.122	79.88
359.349	79.88
359.576	82.88
359.802	93.88
360.029	109.88
360.256	92.88
360.483	96.88
360.709	81.88
360.936	92.88
361.163	88.88
361.39	102.88
361.616	95.88
361.843	84.88
362.07	86.88
362.296	87.88
362.523	88.88
362.749	82.88
362.976	89.88
363.203	97.88
363.429	87.88
363.656	91.88
363.882	88.88
364.109	94.88
364.335	90.88
364.562	78.88
364.788	88.88
365.015	94.88
365.241	91.88
365.468	118.88
365.694	101.88
365.92	93.88
366.147	96.88
366.373	81.88
366.599	99.88
366.826	76.88
367.052	91.88
367.278	102.88
367.505	88.88
367.731	99.88
367.957	87.88
368.184	108.88
368.41	96.88
368.636	108.88
368.862	106.88
369.089	93.88
369.315	90.88
369.541	87.88
369.767	94.88
369.993	101.88
370.219	91.88
370.445	95.88
370.672	95.88
370.898	79.88
371.124	87.88
371.35	83.88
371.576	88.88
371.802	102.88
372.028	95.88
372.254	90.88
372.48	79.88
372.706	75.88
372.932	97.88
373.158	86.88
373.384	96.88
373.61	95.88
373.835	82.88
374.061	90.88
374.287	93.88
374.513	85.88
374.739	90.88
374.965	84.88
375.191	82.88
375.416	77.88
375.642	88.88
375.868	91.88
376.094	89.88
376.319	81.88
376.545	79.88
376.771	93.88
376.997	85.88
377.222	95.88
377.448	100.88
377.674	85.88
377.899	90.88
378.125	90.88
378.35	80.88
378.576	97.88
378.802	90.88
379.027	90.88
379.253	86.88
379.478	90.88
379.704	107.88
379.929	85.88
380.155	87.88
380.38	104.88
380.606	92.88
380.831	94.88
381.057	101.88
381.282	83.88
381.507	94.88
381.733	98.88
381.958	83.88
382.184	93.88
382.409	104.88
382.634	96.88
382.86	90.88
383.085	87.88
383.31	106.88
383.535	107.88
383.761	93.88
383.986	86.88
384.211	97.88
384.436	86.88
384.662	89.88
384.887	102.88
385.112	96.88
385.337	99.88
385.562	93.88
385.787	87.88
386.013	106.88
386.238	127.88
386.463	110.88
386.688	111.88
386.913	109.88
387.138	111.88
387.363	105.88
387.588	98.88
387.813	111.88
388.038	111.88
388.263	115.88
388.488	98.88
388.713	95.88
388.938	94.88
389.163	83.88
389.387	103.88
389.612	87.88
389.837	66.88
390.062	93.88
390.287	93.88
390.512	96.88
390.736	95.88
390.961	84.88
391.186	87.88
391.411	95.88
391.636	82.88
391.86	88.88
392.085	90.88
392.31	83.88
392.534	90.88
392.759	96.88
392.984	95.88
393.208	94.88
393.433	119.88
393.658	104.88
393.882	88.88
394.107	81.88
394.331	77.88
394.556	90.88
394.78	92.88
395.005	93.88
395.229	79.88
395.454	89.88
395.678	101.88
395.903	74.88
396.127	91.88
396.352	83.88
396.576	84.88
396.801	87.88
397.025	100.88
397.249	85.88
397.474	88.88
397.698	90.88
397.922	85.88
398.147	75.88
398.371	85.88
398.595	91.88
398.82	88.88
399.044	94.88
399.268	83.88
399.492	91.88
399.717	84.88
399.941	87.88
400.165	84.88
400.389	97.88
400.613	92.88
400.837	84.88
401.062	103.88
401.286	79.88
401.51	100.88
401.734	87.88
401.958	87.88
402.182	108.88
402.406	144.88
402.63	111.88
402.854	85.88
403.078	92.88
403.302	77.88
403.526	79.88
403.75	91.88
403.974	97.88
404.198	84.88
404.422	87.88
404.645	87.88
404.869	87.88
405.093	86.88
405.317	113.88
405.541	92.88
405.765	79.88
405.988	95.88
406.212	145.88
406.436	203.88
406.66	130.88
406.883	89.88
407.107	108.88
407.331	92.88
407.555	73.88
407.778	84.88
408.002	82.88
408.226	97.88
408.449	88.88
408.673	90.88
408.896	107.88
409.12	82.88
409.344	83.88
409.567	103.88
409.791	81.88
410.014	96.88
410.238	91.88
410.461	99.88
410.685	111.88
410.908	106.88
411.132	101.88
411.355	96.88
411.578	85.88
411.802	90.88
412.025	89.88
412.249	96.88
412.472	101.88
412.695	112.88
412.919	88.88
413.142	81.88
413.365	85.88
413.589	93.88
413.812	103.88
414.035	95.88
414.258	86.88
414.482	87.88
414.705	89.88
414.928	90.88
415.151	98.88
415.374	97.88
415.597	68.88
415.821	91.88
416.044	77.88
416.267	79.88
416.49	69.88
416.713	95.88
416.936	79.88
417.159	83.88
417.382	95.88
417.605	86.88
417.828	88.88
418.051	85.88
418.274	89.88
418.497	72.88
418.72	80.88
418.943	93.88
419.166	94.88
419.389	89.88
419.611	95.88
419.834	78.88
420.057	86.88
420.28	87.88
420.503	86.88
420.726	81.88
420.948	83.88
421.171	100.88
421.394	94.88
421.617	80.88
421.839	87.88
422.062	94.88
422.285	92.88
422.507	96.88
422.73	107.88
422.953	87.88
423.175	103.88
423.398	100.88
423.621	94.88
423.843	75.88
424.066	86.88
424.288	83.88
424.511	83.88
424.733	92.88
424.956	105.88
425.178	87.88
425.401	107.88
425.623	106.88
425.846	115.88
426.068	80.88
426.291	96.88
426.513	99.88
426.735	107.88
426.958	86.88
427.18	98.88
427.402	141.88
427.625	156.88
427.847	128.88
428.069	126.88
428.292	90.88
428.514	79.88
428.736	77.88
428.958	80.88
429.181	79.88
429.403	96.88
429.625	88.88
429.847	87.88
430.069	97.88
430.292	91.88
430.514	82.88
430.736	65.88
430.958	89.88
431.18	83.88
431.402	83.88
431.624	80.88
431.846	81.88
432.068	79.88
432.29	80.88
432.512	84.88
432.734	84.88
432.956	88.88
433.178	87.88
433.4	96.88
433.622	92.88
433.844	96.88
434.066	87.88
434.287	100.88
434.509	95.88
434.731	77.88
434.953	78.88
435.175	92.88
435.397	90.88
435.618	104.88
435.84	106.88
436.062	134.88
436.284	115.88
436.505	89.88
436.727	86.88
436.949	91.88
437.17	80.88
437.392	90.88
437.614	83.88
437.835	107.88
438.057	116.88
438.278	98.88
438.5	108.88
438.721	107.88
438.943	85.88
439.165	88.88
439.386	83.88
439.608	83.88
439.829	100.88
440.05	87.88
440.272	130.88
440.493	82.88
440.715	76.88
440.936	92.88
441.158	86.88
441.379	92.88
441.6	93.88
441.822	89.88
442.043	90.88
442.264	96.88
442.486	116.88
442.707	96.88
442.928	89.88
443.149	137.88
443.371	121.88
443.592	100.88
443.813	115.88
444.034	115.88
444.255	99.88
444.476	92.88
444.698	87.88
444.919	88.88
445.14	141.88
445.361	103.88
445.582	113.88
445.803	129.88
446.024	118.88
446.245	119.88
446.466	103.88
446.687	91.88
446.908	85.88
447.129	90.88
447.35	90.88
447.571	95.88
447.792	87.88
448.013	101.88
448.234	100.88
448.455	97.88
448.675	106.88
448.896	116.88
449.117	104.88
449.338	82.88
449.559	128.88
449.779	129.88
450	84.88
450.221	77.88
450.442	81.88
450.662	86.88
450.883	94.88
451.104	104.88
451.324	99.88
451.545	95.88
451.766	83.88
451.986	87.88
452.207	99.88
452.428	81.88
452.648	88.88
452.869	104.88
453.089	108.88
453.31	113.88
453.53	87.88
453.751	82.88
453.971	106.88
454.192	104.88
454.412	80.88
454.633	90.88
454.853	96.88
455.073	88.88
455.294	105.88
455.514	99.88
455.734	100.88
455.955	71.88
456.175	83.88
456.395	81.88
456.616	72.88
456.836	82.88
457.056	91.88
457.276	85.88
457.497	80.88
457.717	92.88
457.937	88.88
458.157	84.88
458.377	89.88
458.598	94.88
458.818	139.88
459.038	147.88
459.258	118.88
459.478	100.88
459.698	77.88
459.918	81.88
460.138	92.88
460.358	79.88
460.578	93.88
460.798	89.88
461.018	75.88
461.238	95.88
461.458	95.88
461.678	93.88
461.898	97.88
462.118	77.88
462.338	84.88
462.558	71.88
462.777	80.88
462.997	90.88
463.217	96.88
463.437	74.88
463.657	71.88
463.876	79.88
464.096	76.88
464.316	107.88
464.536	100.88
464.755	83.88
464.975	102.88
465.195	148.88
465.414	147.88
465.634	99.88
465.854	76.88
466.073	71.88
466.293	85.88
466.512	87.88
466.732	76.88
466.951	72.88
467.171	89.88
467.391	80.88
467.61	94.88
467.829	101.88
468.049	152.88
468.268	181.88
468.488	93.88
468.707	99.88
468.927	91.88
469.146	85.88
469.365	89.88
469.585	94.88
469.804	85.88
470.023	84.88
470.243	97.88
470.462	102.88
470.681	93.88
470.901	91.88
471.12	85.88
471.339	84.88
471.558	82.88
471.777	101.88
471.997	113.88
472.216	221.88
472.435	411.88
472.654	154.88
472.873	109.88
473.092	100.88
473.311	98.88
473.53	89.88
473.749	88.88
473.968	107.88
474.187	96.88
474.406	97.88
474.625	101.88
474.844	93.88
475.063	76.88
475.282	87.88
475.501	68.88
475.72	87.88
475.939	93.88
476.158	96.88
476.377	89.88
476.596	101.88
476.814	96.88
477.033	95.88
477.252	92.88
477.471	81.88
477.69	89.88
477.908	80.88
478.127	84.88
478.346	90.88
478.564	95.88
478.783	92.88
479.002	100.88
479.22	100.88
479.439	106.88
479.658	109.88
479.876	86.88
480.095	87.88
480.313	87.88
480.532	94.88
480.751	132.88
480.969	225.88
481.188	682.88
481.406	411.88
481.624	115.88
481.843	90.88
482.061	94.88
482.28	89.88
482.498	80.88
482.717	82.88
482.935	88.88
483.153	84.88
483.372	87.88
483.59	89.88
483.808	90.88
484.027	85.88
484.245	95.88
484.463	88.88
484.681	95.88
484.9	105.88
485.118	91.88
485.336	91.88
485.554	107.88
485.772	103.88
485.99	101.88
486.209	108.88
486.427	107.88
486.645	109.88
486.863	108.88
487.081	107.88
487.299	97.88
487.517	90.88
487.735	90.88
487.953	107.88
488.171	99.88
488.389	91.88
488.607	106.88
488.825	90.88
489.043	86.88
489.261	84.88
489.479	75.88
489.696	99.88
489.914	89.88
490.132	88.88
490.35	87.88
490.568	83.88
490.786	91.88
491.003	96.88
491.221	76.88
491.439	89.88
491.657	95.88
491.874	77.88
492.092	93.88
492.31	81.88
492.527	99.88
492.745	75.88
492.963	91.88
493.18	89.88
493.398	98.88
493.615	105.88
493.833	87.88
494.05	91.88
494.268	95.88
494.485	93.88
494.703	91.88
494.92	93.88
495.138	94.88
495.355	82.88
495.573	100.88
495.79	93.88
496.008	88.88
496.225	95.88
496.442	76.88
496.66	105.88
496.877	88.88
497.094	79.88
497.312	82.88
497.529	93.88
497.746	99.88
497.963	82.88
498.181	86.88
498.398	106.88
498.615	95.88
498.832	84.88
499.049	95.88
499.267	89.88
499.484	88.88
499.701	74.88
499.918	92.88
500.135	93.88
500.352	97.88
500.569	92.88
500.786	80.88
501.003	98.88
501.22	72.88
501.437	107.88
501.654	93.88
501.871	104.88
502.088	100.88
502.305	90.88
502.522	83.88
502.739	104.88
502.956	94.88
503.172	87.88
503.389	98.88
503.606	97.88
503.823	93.88
504.04	96.88
504.256	103.88
504.473	92.88
504.69	86.88
504.907	100.88
505.123	99.88
505.34	84.88
505.557	85.88
505.773	93.88
505.99	93.88
506.207	104.88
506.423	89.88
506.64	103.88
506.856	101.88
507.073	104.88
507.289	107.88
507.506	111.88
507.722	99.88
507.939	98.88
508.155	101.88
508.372	88.88
508.588	101.88
508.805	104.88
509.021	101.88
509.238	83.88
509.454	108.88
509.67	98.88
509.887	95.88
510.103	126.88
510.319	199.88
510.536	681.88
510.752	2093.88
510.968	586.88
511.184	155.88
511.401	96.88
511.617	93.88
511.833	90.88
512.049	93.88
512.265	90.88
512.481	99.88
512.698	90.88
512.914	96.88
513.13	89.88
513.346	101.88
513.562	100.88
513.778	96.88
513.994	87.88
514.21	111.88
514.426	115.88
514.642	132.88
514.858	116.88
515.074	154.88
515.29	403.88
515.506	1280.88
515.721	484.88
515.937	139.88
