Data from Circ_1993_H10_HRD10591_00076.txt Node
Date: Wed Jan 03 11:44:17 EST 2024
User: Yrep
Spectrometer: HR+D1059
Trigger mode: 1
Integration Time (sec): 1.000000E-1
Scans to average: 1
Electric dark correction enabled: true
Nonlinearity correction enabled: false
Boxcar width: 0
XAxis mode: Wavelengths
Number of Pixels in Spectrum: 2048
>>>>>Begin Spectral Data<<<<<
223.165	-17.44
223.4	-17.44
223.635	-17.44
223.869	-21.44
224.104	-19.44
224.338	-15.44
224.573	-14.44
224.808	-16.44
225.042	-8.44
225.277	-1.44
225.511	2.56
225.746	-3.44
225.98	2.56
226.215	18.56
226.449	18.56
226.683	24.56
226.918	25.56
227.152	25.56
227.387	46.56
227.621	59.56
227.856	53.56
228.09	52.56
228.324	60.56
228.559	55.56
228.793	163.56
229.027	431.56
229.262	491.56
229.496	589.56
229.73	780.56
229.964	773.56
230.199	539.56
230.433	489.56
230.667	481.56
230.901	467.56
231.136	448.56
231.37	444.56
231.604	436.56
231.838	456.56
232.072	456.56
232.306	483.56
232.541	456.56
232.775	470.56
233.009	487.56
233.243	473.56
233.477	463.56
233.711	500.56
233.945	503.56
234.179	514.56
234.413	513.56
234.647	523.56
234.881	527.56
235.115	541.56
235.349	540.56
235.583	568.56
235.817	596.56
236.051	611.56
236.285	605.56
236.519	596.56
236.753	716.56
236.987	887.56
237.221	1286.56
237.455	1371.56
237.689	890.56
237.922	710.56
238.156	724.56
238.39	698.56
238.624	686.56
238.858	656.56
239.091	632.56
239.325	665.56
239.559	711.56
239.793	725.56
240.027	753.56
240.26	898.56
240.494	943.56
240.728	944.56
240.961	903.56
241.195	811.56
241.429	805.56
241.662	797.56
241.896	812.56
242.13	792.56
242.363	799.56
242.597	820.56
242.83	836.56
243.064	853.56
243.298	850.56
243.531	873.56
243.765	824.56
243.998	860.56
244.232	893.56
244.465	899.56
244.699	909.56
244.932	925.56
245.166	939.56
245.399	935.56
245.633	931.56
245.866	968.56
246.099	982.56
246.333	1009.56
246.566	1002.56
246.8	1016.56
247.033	1042.56
247.266	1087.56
247.5	1089.56
247.733	1165.56
247.966	1211.56
248.2	1149.56
248.433	1193.56
248.666	1244.56
248.899	1345.56
249.133	1469.56
249.366	1488.56
249.599	1393.56
249.832	1307.56
250.066	1407.56
250.299	1555.56
250.532	1794.56
250.765	1911.56
250.998	1916.56
251.231	1725.56
251.465	1544.56
251.698	1492.56
251.931	1435.56
252.164	1443.56
252.397	1471.56
252.63	1491.56
252.863	1602.56
253.096	1668.56
253.329	1768.56
253.562	1663.56
253.795	1596.56
254.028	1610.56
254.261	1629.56
254.494	1863.56
254.727	2144.56
254.96	2210.56
255.193	2045.56
255.426	1955.56
255.659	1998.56
255.892	2332.56
256.124	2690.56
256.357	2517.56
256.59	2086.56
256.823	1843.56
257.056	1792.56
257.289	1685.56
257.521	1731.56
257.754	1684.56
257.987	1650.56
258.22	1620.56
258.452	1632.56
258.685	1604.56
258.918	1660.56
259.151	1670.56
259.383	1763.56
259.616	1730.56
259.849	1832.56
260.081	1955.56
260.314	2095.56
260.547	2004.56
260.779	1888.56
261.012	1806.56
261.244	1755.56
261.477	1752.56
261.71	1751.56
261.942	1795.56
262.175	1821.56
262.407	1787.56
262.64	1661.56
262.872	1685.56
263.105	1684.56
263.337	1724.56
263.57	1749.56
263.802	1720.56
264.035	1718.56
264.267	1744.56
264.499	1760.56
264.732	1758.56
264.964	1749.56
265.197	1728.56
265.429	1789.56
265.661	1750.56
265.894	1794.56
266.126	1815.56
266.358	1799.56
266.591	1853.56
266.823	1906.56
267.055	1915.56
267.287	1933.56
267.52	1872.56
267.752	1893.56
267.984	1895.56
268.216	1935.56
268.448	1975.56
268.681	2065.56
268.913	2158.56
269.145	2350.56
269.377	2333.56
269.609	2308.56
269.841	2309.56
270.073	2424.56
270.306	2619.56
270.538	2771.56
270.77	2671.56
271.002	2491.56
271.234	2501.56
271.466	2624.56
271.698	2726.56
271.93	2755.56
272.162	2718.56
272.394	2699.56
272.626	2531.56
272.858	2407.56
273.09	2341.56
273.322	2319.56
273.553	2290.56
273.785	2236.56
274.017	2299.56
274.249	2332.56
274.481	2328.56
274.713	2353.56
274.945	2364.56
275.176	2369.56
275.408	2363.56
275.64	2352.56
275.872	2419.56
276.104	2371.56
276.335	2462.56
276.567	2529.56
276.799	2655.56
277.031	2916.56
277.262	2989.56
277.494	2924.56
277.726	2757.56
277.957	2604.56
278.189	2572.56
278.421	2552.56
278.652	2511.56
278.884	2480.56
279.115	2479.56
279.347	2499.56
279.579	2481.56
279.81	2557.56
280.042	2567.56
280.273	2636.56
280.505	2617.56
280.736	2520.56
280.968	2565.56
281.199	2566.56
281.431	2583.56
281.662	2559.56
281.894	2607.56
282.125	2664.56
282.356	2794.56
282.588	2900.56
282.819	2790.56
283.051	2657.56
283.282	2626.56
283.513	2647.56
283.745	2727.56
283.976	2780.56
284.207	2752.56
284.439	2749.56
284.67	2702.56
284.901	2707.56
285.132	2736.56
285.364	2733.56
285.595	2723.56
285.826	2775.56
286.057	2838.56
286.288	2755.56
286.52	2747.56
286.751	2782.56
286.982	2781.56
287.213	2836.56
287.444	2893.56
287.675	2903.56
287.906	2989.56
288.138	3009.56
288.369	3027.56
288.6	2977.56
288.831	2960.56
289.062	2945.56
289.293	2927.56
289.524	2943.56
289.755	2964.56
289.986	2872.56
290.217	2911.56
290.448	2913.56
290.679	2880.56
290.91	2925.56
291.141	2915.56
291.371	2910.56
291.602	2928.56
291.833	2897.56
292.064	2907.56
292.295	2914.56
292.526	2929.56
292.757	2911.56
292.987	2911.56
293.218	2886.56
293.449	2965.56
293.68	2937.56
293.91	2956.56
294.141	2995.56
294.372	2962.56
294.603	3015.56
294.833	2988.56
295.064	3016.56
295.295	3033.56
295.525	3007.56
295.756	2975.56
295.987	3123.56
296.217	3241.56
296.448	3239.56
296.679	3113.56
296.909	3085.56
297.14	3152.56
297.37	3138.56
297.601	3179.56
297.831	3104.56
298.062	3155.56
298.292	3183.56
298.523	3214.56
298.753	3245.56
298.984	3134.56
299.214	3205.56
299.445	3208.56
299.675	3233.56
299.905	3231.56
300.136	3244.56
300.366	3245.56
300.597	3319.56
300.827	3359.56
301.057	3477.56
301.288	3532.56
301.518	3413.56
301.748	3514.56
301.979	3502.56
302.209	3523.56
302.439	3533.56
302.669	3493.56
302.9	3430.56
303.13	3383.56
303.36	3448.56
303.59	3501.56
303.82	3525.56
304.051	3529.56
304.281	3476.56
304.511	3411.56
304.741	3458.56
304.971	3389.56
305.201	3387.56
305.431	3403.56
305.661	3398.56
305.891	3349.56
306.121	3345.56
306.352	3432.56
306.582	3435.56
306.812	3342.56
307.042	3422.56
307.272	3490.56
307.502	3473.56
307.731	3436.56
307.961	3415.56
308.191	3405.56
308.421	3406.56
308.651	3491.56
308.881	3443.56
309.111	3456.56
309.341	3487.56
309.571	3592.56
309.8	3609.56
310.03	3664.56
310.26	3769.56
310.49	3693.56
310.72	3844.56
310.949	3867.56
311.179	3871.56
311.409	3761.56
311.639	3794.56
311.868	3752.56
312.098	3803.56
312.328	3897.56
312.557	3972.56
312.787	4021.56
313.017	3908.56
313.246	3882.56
313.476	3858.56
313.706	3950.56
313.935	3970.56
314.165	4090.56
314.394	4082.56
314.624	3976.56
314.853	3908.56
315.083	3908.56
315.312	3903.56
315.542	3861.56
315.771	3887.56
316.001	3872.56
316.23	3805.56
316.46	3867.56
316.689	3911.56
316.919	3929.56
317.148	3931.56
317.377	3909.56
317.607	3934.56
317.836	3888.56
318.065	3839.56
318.295	3855.56
318.524	3854.56
318.753	3840.56
318.983	3873.56
319.212	3837.56
319.441	3894.56
319.67	3936.56
319.9	3821.56
320.129	3859.56
320.358	3871.56
320.587	3889.56
320.816	4030.56
321.046	3996.56
321.275	4018.56
321.504	3966.56
321.733	4032.56
321.962	4137.56
322.191	4126.56
322.42	4303.56
322.649	4361.56
322.878	4452.56
323.108	4540.56
323.337	4672.56
323.566	4904.56
323.795	5126.56
324.024	5717.56
324.253	7383.56
324.482	10978.56
324.71	15138.56
324.939	15625.56
325.168	12617.56
325.397	6631.56
325.626	5376.56
325.855	5035.56
326.084	4969.56
326.313	5015.56
326.542	5181.56
326.77	5832.56
326.999	7147.56
327.228	10415.56
327.457	14321.56
327.686	13500.56
327.914	7777.56
328.143	6609.56
328.372	6432.56
328.6	5921.56
328.829	5771.56
329.058	5775.56
329.287	5933.56
329.515	5711.56
329.744	5799.56
329.972	6386.56
330.201	7255.56
330.43	7708.56
330.658	6933.56
330.887	6467.56
331.115	5876.56
331.344	5459.56
331.572	5412.56
331.801	5494.56
332.03	5416.56
332.258	5366.56
332.486	5433.56
332.715	5574.56
332.943	5774.56
333.172	5928.56
333.4	6184.56
333.629	6449.56
333.857	6925.56
334.085	7484.56
334.314	8466.56
334.542	9470.56
334.771	8807.56
334.999	6870.56
335.227	6232.56
335.455	5917.56
335.684	5619.56
335.912	5465.56
336.14	5423.56
336.369	5346.56
336.597	5385.56
336.825	5257.56
337.053	5136.56
337.281	5078.56
337.51	5031.56
337.738	4969.56
337.966	4980.56
338.194	4928.56
338.422	4771.56
338.65	4717.56
338.878	4806.56
339.106	4741.56
339.334	4727.56
339.562	4684.56
339.79	4605.56
340.018	4571.56
340.246	4583.56
340.474	4587.56
340.702	4615.56
340.93	4551.56
341.158	4564.56
341.386	4616.56
341.614	4571.56
341.842	4525.56
342.07	4528.56
342.298	4493.56
342.526	4483.56
342.754	4481.56
342.981	4507.56
343.209	4582.56
343.437	4811.56
343.665	5145.56
343.893	5339.56
344.12	5330.56
344.348	5142.56
344.576	4961.56
344.804	4952.56
345.031	4784.56
345.259	4851.56
345.487	4629.56
345.714	4509.56
345.942	4447.56
346.17	4462.56
346.397	4384.56
346.625	4372.56
346.853	4329.56
347.08	4365.56
347.308	4389.56
347.535	4474.56
347.763	4501.56
347.99	4397.56
348.218	4438.56
348.445	4475.56
348.673	4398.56
348.9	4361.56
349.128	4263.56
349.355	4239.56
349.583	4249.56
349.81	4161.56
350.037	4198.56
350.265	4200.56
350.492	4209.56
350.72	4254.56
350.947	4266.56
351.174	4354.56
351.402	4391.56
351.629	4309.56
351.856	4226.56
352.083	4402.56
352.311	4399.56
352.538	4320.56
352.765	4337.56
352.992	4296.56
353.22	4240.56
353.447	4216.56
353.674	4233.56
353.901	4116.56
354.128	4126.56
354.355	4092.56
354.583	4081.56
354.81	4088.56
355.037	4123.56
355.264	4193.56
355.491	4143.56
355.718	4084.56
355.945	4066.56
356.172	4167.56
356.399	4139.56
356.626	4071.56
356.853	4091.56
357.08	4073.56
357.307	4132.56
357.534	4058.56
357.761	4131.56
357.988	4176.56
358.215	4116.56
358.441	4171.56
358.668	4133.56
358.895	4254.56
359.122	4205.56
359.349	4262.56
359.576	4411.56
359.802	4588.56
360.029	4732.56
360.256	4693.56
360.483	4519.56
360.709	4360.56
360.936	4307.56
361.163	4339.56
361.39	4359.56
361.616	4406.56
361.843	4280.56
362.07	4353.56
362.296	4333.56
362.523	4288.56
362.749	4369.56
362.976	4257.56
363.203	4203.56
363.429	4168.56
363.656	4248.56
363.882	4181.56
364.109	4192.56
364.335	4138.56
364.562	4166.56
364.788	4196.56
365.015	4236.56
365.241	4244.56
365.468	4215.56
365.694	4249.56
365.92	4221.56
366.147	4205.56
366.373	4206.56
366.599	4223.56
366.826	4223.56
367.052	4134.56
367.278	4194.56
367.505	4194.56
367.731	4229.56
367.957	4205.56
368.184	4293.56
368.41	4346.56
368.636	4367.56
368.862	4418.56
369.089	4390.56
369.315	4348.56
369.541	4267.56
369.767	4341.56
369.993	4312.56
370.219	4319.56
370.445	4389.56
370.672	4405.56
370.898	4373.56
371.124	4476.56
371.35	4458.56
371.576	4448.56
371.802	4415.56
372.028	4440.56
372.254	4436.56
372.48	4542.56
372.706	4634.56
372.932	4678.56
373.158	4609.56
373.384	4555.56
373.61	4454.56
373.835	4522.56
374.061	4485.56
374.287	4593.56
374.513	4684.56
374.739	4849.56
374.965	4920.56
375.191	5007.56
375.416	4795.56
375.642	4690.56
375.868	4635.56
376.094	4619.56
376.319	4537.56
376.545	4541.56
376.771	4484.56
376.997	4436.56
377.222	4533.56
377.448	4557.56
377.674	4428.56
377.899	4371.56
378.125	4416.56
378.35	4457.56
378.576	4395.56
378.802	4363.56
379.027	4429.56
379.253	4422.56
379.478	4415.56
379.704	4399.56
379.929	4441.56
380.155	4480.56
380.38	4532.56
380.606	4550.56
380.831	4438.56
381.057	4513.56
381.282	4509.56
381.507	4510.56
381.733	4539.56
381.958	4607.56
382.184	4628.56
382.409	4669.56
382.634	4708.56
382.86	4711.56
383.085	4818.56
383.31	4828.56
383.535	4888.56
383.761	4962.56
383.986	5035.56
384.211	5114.56
384.436	5235.56
384.662	5292.56
384.887	5374.56
385.112	5315.56
385.337	5408.56
385.562	5417.56
385.787	5447.56
386.013	5441.56
386.238	5461.56
386.463	5466.56
386.688	5512.56
386.913	5352.56
387.138	5348.56
387.363	5357.56
387.588	5237.56
387.813	5290.56
388.038	5350.56
388.263	5398.56
388.488	5302.56
388.713	5311.56
388.938	5348.56
389.163	5256.56
389.387	5310.56
389.612	5230.56
389.837	5298.56
390.062	5242.56
390.287	5234.56
390.512	5228.56
390.736	5396.56
390.961	5409.56
391.186	5607.56
391.411	5676.56
391.636	5759.56
391.86	5967.56
392.085	6019.56
392.31	5915.56
392.534	5751.56
392.759	5749.56
392.984	5615.56
393.208	5561.56
393.433	5673.56
393.658	5631.56
393.882	5595.56
394.107	5557.56
394.331	5603.56
394.556	5633.56
394.78	5659.56
395.005	5748.56
395.229	5736.56
395.454	5896.56
395.678	6044.56
395.903	5968.56
396.127	6100.56
396.352	5889.56
396.576	5741.56
396.801	5707.56
397.025	5853.56
397.249	5946.56
397.474	6024.56
397.698	6022.56
397.922	6205.56
398.147	6270.56
398.371	6371.56
398.595	6552.56
398.82	6816.56
399.044	7398.56
399.268	8210.56
399.492	9315.56
399.717	9988.56
399.941	9625.56
400.165	8907.56
400.389	8269.56
400.613	7456.56
400.837	6993.56
401.062	6840.56
401.286	6763.56
401.51	6755.56
401.734	6750.56
401.958	6809.56
402.182	6910.56
402.406	7111.56
402.63	7054.56
402.854	7261.56
403.078	7329.56
403.302	7457.56
403.526	7612.56
403.75	7603.56
403.974	7752.56
404.198	7688.56
404.422	7789.56
404.645	7870.56
404.869	8016.56
405.093	8412.56
405.317	8762.56
405.541	8669.56
405.765	7924.56
405.988	7745.56
406.212	7771.56
406.436	7827.56
406.66	8017.56
406.883	8000.56
407.107	8541.56
407.331	9164.56
407.555	9561.56
407.778	9251.56
408.002	8579.56
408.226	8055.56
408.449	8011.56
408.673	7932.56
408.896	8111.56
409.12	8155.56
409.344	7785.56
409.567	7325.56
409.791	7403.56
410.014	7297.56
410.238	7269.56
410.461	7246.56
410.685	7300.56
410.908	7381.56
411.132	7595.56
411.355	7618.56
411.578	7355.56
411.802	7102.56
412.025	7293.56
412.249	7554.56
412.472	7998.56
412.695	8345.56
412.919	7746.56
413.142	7276.56
413.365	7112.56
413.589	6932.56
413.812	6776.56
414.035	6703.56
414.258	6735.56
414.482	6741.56
414.705	6799.56
414.928	6760.56
415.151	6737.56
415.374	6752.56
415.597	6663.56
415.821	6493.56
416.044	6534.56
416.267	6588.56
416.49	6439.56
416.713	6510.56
416.936	6568.56
417.159	6544.56
417.382	6744.56
417.605	6691.56
417.828	6828.56
418.051	6889.56
418.274	6815.56
418.497	6750.56
418.72	6844.56
418.943	6748.56
419.166	7204.56
419.389	7598.56
419.611	7473.56
419.834	7297.56
420.057	7403.56
420.28	7378.56
420.503	7196.56
420.726	7140.56
420.948	7110.56
421.171	7410.56
421.394	7300.56
421.617	6859.56
421.839	6741.56
422.062	6748.56
422.285	7108.56
422.507	7695.56
422.73	8081.56
422.953	7574.56
423.175	7213.56
423.398	7268.56
423.621	7155.56
423.843	7478.56
424.066	7358.56
424.288	7337.56
424.511	7455.56
424.733	7917.56
424.956	8313.56
425.178	7826.56
425.401	8012.56
425.623	7812.56
425.846	6965.56
426.068	6806.56
426.291	6788.56
426.513	6688.56
426.735	6833.56
426.958	7235.56
427.18	7976.56
427.402	9190.56
427.625	9247.56
427.847	8289.56
428.069	7938.56
428.292	6933.56
428.514	6420.56
428.736	6210.56
428.958	6203.56
429.181	6005.56
429.403	6115.56
429.625	6154.56
429.847	6432.56
430.069	6971.56
430.292	6469.56
430.514	6055.56
430.736	5967.56
430.958	5878.56
431.18	5863.56
431.402	5884.56
431.624	5877.56
431.846	5895.56
432.068	5942.56
432.29	6056.56
432.512	5958.56
432.734	6050.56
432.956	5961.56
433.178	6055.56
433.4	6030.56
433.622	5928.56
433.844	5948.56
434.066	5937.56
434.287	6117.56
434.509	6289.56
434.731	6535.56
434.953	6696.56
435.175	6739.56
435.397	6851.56
435.618	6724.56
435.84	7124.56
436.062	7801.56
436.284	7794.56
436.505	6628.56
436.727	6380.56
436.949	6151.56
437.17	6016.56
437.392	6000.56
437.614	6067.56
437.835	6446.56
438.057	7411.56
438.278	8059.56
438.5	7855.56
438.721	8589.56
438.943	7563.56
439.165	6555.56
439.386	6330.56
439.608	6395.56
439.829	6456.56
440.05	6793.56
440.272	7011.56
440.493	6563.56
440.715	6316.56
440.936	6255.56
441.158	6283.56
441.379	6468.56
441.6	6731.56
441.822	6979.56
442.043	7347.56
442.264	8083.56
442.486	7718.56
442.707	7056.56
442.928	6912.56
443.149	7048.56
443.371	7202.56
443.592	7780.56
443.813	8772.56
444.034	8567.56
444.255	7675.56
444.476	7466.56
444.698	7694.56
444.919	7781.56
445.14	7518.56
445.361	7412.56
445.582	7583.56
445.803	8068.56
446.024	8669.56
446.245	8347.56
446.466	7399.56
446.687	6569.56
446.908	6274.56
447.129	6021.56
447.35	5824.56
447.571	5846.56
447.792	5740.56
448.013	5744.56
448.234	5945.56
448.455	6684.56
448.675	7721.56
448.896	8205.56
449.117	6699.56
449.338	6994.56
449.559	8236.56
449.779	8362.56
450	6564.56
450.221	5872.56
450.442	5605.56
450.662	5605.56
450.883	5709.56
451.104	5812.56
451.324	5617.56
451.545	5467.56
451.766	5307.56
451.986	5237.56
452.207	5151.56
452.428	5182.56
452.648	5239.56
452.869	5272.56
453.089	5308.56
453.31	5438.56
453.53	5234.56
453.751	5212.56
453.971	5241.56
454.192	5364.56
454.412	5109.56
454.633	5071.56
454.853	5094.56
455.073	5060.56
455.294	5492.56
455.514	5962.56
455.734	5414.56
455.955	4941.56
456.175	4819.56
456.395	4822.56
456.616	4757.56
456.836	4834.56
457.056	4791.56
457.276	4852.56
457.497	4904.56
457.717	4926.56
457.937	4958.56
458.157	5023.56
458.377	5064.56
458.598	5510.56
458.818	6123.56
459.038	6806.56
459.258	6744.56
459.478	6084.56
459.698	6016.56
459.918	6057.56
460.138	6270.56
460.358	6499.56
460.578	6509.56
460.798	6636.56
461.018	6557.56
461.238	6451.56
461.458	6427.56
461.678	6454.56
461.898	6563.56
462.118	6550.56
462.338	6952.56
462.558	7088.56
462.777	7335.56
462.997	7965.56
463.217	8444.56
463.437	8194.56
463.657	7544.56
463.876	7339.56
464.096	7506.56
464.316	7383.56
464.536	7567.56
464.755	7142.56
464.975	7142.56
465.195	7251.56
465.414	7188.56
465.634	6374.56
465.854	6104.56
466.073	5792.56
466.293	5719.56
466.512	5524.56
466.732	5456.56
466.951	5400.56
467.171	5473.56
467.391	5582.56
467.61	5600.56
467.829	5573.56
468.049	5733.56
468.268	5988.56
468.488	5533.56
468.707	5387.56
468.927	5262.56
469.146	5223.56
469.365	5373.56
469.585	5283.56
469.804	5554.56
470.023	5712.56
470.243	5632.56
470.462	5702.56
470.681	5887.56
470.901	5851.56
471.12	5624.56
471.339	5566.56
471.558	5544.56
471.777	5518.56
471.997	5599.56
472.216	6326.56
472.435	7629.56
472.654	6409.56
472.873	5791.56
473.092	5628.56
473.311	5545.56
473.53	5424.56
473.749	5530.56
473.968	5968.56
474.187	6864.56
474.406	6419.56
474.625	5554.56
474.844	5336.56
475.063	5206.56
475.282	5264.56
475.501	5351.56
475.72	5400.56
475.939	5403.56
476.158	5426.56
476.377	5475.56
476.596	5488.56
476.814	5663.56
477.033	5586.56
477.252	5751.56
477.471	5824.56
477.69	5905.56
477.908	6048.56
478.127	6221.56
478.346	6265.56
478.564	6356.56
478.783	6453.56
479.002	6640.56
479.22	6577.56
479.439	6678.56
479.658	6840.56
479.876	6868.56
480.095	7158.56
480.313	7664.56
480.532	7496.56
480.751	7462.56
480.969	8178.56
481.188	10725.56
481.406	10475.56
481.624	8249.56
481.843	7422.56
482.061	6991.56
482.28	6811.56
482.498	6579.56
482.717	6488.56
482.935	6450.56
483.153	6359.56
483.372	6365.56
483.59	6330.56
483.808	6296.56
484.027	6376.56
484.245	6400.56
484.463	6350.56
484.681	6388.56
484.9	6408.56
485.118	6560.56
485.336	6611.56
485.554	6639.56
485.772	6691.56
485.99	6641.56
486.209	6754.56
486.427	6753.56
486.645	6720.56
486.863	6931.56
487.081	6819.56
487.299	6723.56
487.517	6718.56
487.735	6701.56
