Data from Circ_1993_H10_HRD10591_00021.txt Node
Date: Wed Jan 03 11:44:06 EST 2024
User: Yrep
Spectrometer: HR+D1059
Trigger mode: 1
Integration Time (sec): 1.000000E-1
Scans to average: 1
Electric dark correction enabled: true
Nonlinearity correction enabled: false
Boxcar width: 0
XAxis mode: Wavelengths
Number of Pixels in Spectrum: 2048
>>>>>Begin Spectral Data<<<<<
223.165	-6.38
223.4	-6.38
223.635	-6.38
223.869	-13.38
224.104	-7.38
224.338	-18.38
224.573	-9.38
224.808	-10.38
225.042	-7.38
225.277	-19.38
225.511	-5.38
225.746	-8.38
225.98	8.62
226.215	-1.38
226.449	11.62
226.683	21.62
226.918	34.62
227.152	30.62
227.387	46.62
227.621	48.62
227.856	57.62
228.09	48.62
228.324	37.62
228.559	42.62
228.793	42.62
229.027	70.62
229.262	54.62
229.496	67.62
229.73	67.62
229.964	72.62
230.199	74.62
230.433	76.62
230.667	61.62
230.901	66.62
231.136	81.62
231.37	88.62
231.604	77.62
231.838	74.62
232.072	85.62
232.306	85.62
232.541	86.62
232.775	81.62
233.009	89.62
233.243	74.62
233.477	74.62
233.711	84.62
233.945	83.62
234.179	87.62
234.413	82.62
234.647	69.62
234.881	67.62
235.115	84.62
235.349	65.62
235.583	88.62
235.817	76.62
236.051	75.62
236.285	76.62
236.519	67.62
236.753	87.62
236.987	70.62
237.221	89.62
237.455	76.62
237.689	90.62
237.922	78.62
238.156	72.62
238.39	75.62
238.624	76.62
238.858	70.62
239.091	87.62
239.325	78.62
239.559	79.62
239.793	83.62
240.027	76.62
240.26	72.62
240.494	68.62
240.728	80.62
240.961	74.62
241.195	60.62
241.429	64.62
241.662	83.62
241.896	77.62
242.13	79.62
242.363	70.62
242.597	71.62
242.83	79.62
243.064	94.62
243.298	71.62
243.531	78.62
243.765	79.62
243.998	74.62
244.232	87.62
244.465	74.62
244.699	56.62
244.932	81.62
245.166	86.62
245.399	77.62
245.633	83.62
245.866	74.62
246.099	61.62
246.333	78.62
246.566	79.62
246.8	75.62
247.033	69.62
247.266	66.62
247.5	90.62
247.733	75.62
247.966	75.62
248.2	65.62
248.433	96.62
248.666	71.62
248.899	78.62
249.133	83.62
249.366	101.62
249.599	86.62
249.832	70.62
250.066	74.62
250.299	79.62
250.532	76.62
250.765	65.62
250.998	81.62
251.231	81.62
251.465	77.62
251.698	71.62
251.931	66.62
252.164	75.62
252.397	80.62
252.63	72.62
252.863	74.62
253.096	84.62
253.329	88.62
253.562	92.62
253.795	88.62
254.028	70.62
254.261	90.62
254.494	82.62
254.727	85.62
254.96	78.62
255.193	94.62
255.426	91.62
255.659	84.62
255.892	76.62
256.124	80.62
256.357	75.62
256.59	85.62
256.823	80.62
257.056	91.62
257.289	83.62
257.521	78.62
257.754	80.62
257.987	77.62
258.22	76.62
258.452	73.62
258.685	60.62
258.918	86.62
259.151	82.62
259.383	74.62
259.616	78.62
259.849	72.62
260.081	79.62
260.314	79.62
260.547	86.62
260.779	89.62
261.012	73.62
261.244	70.62
261.477	88.62
261.71	89.62
261.942	98.62
262.175	112.62
262.407	85.62
262.64	77.62
262.872	87.62
263.105	68.62
263.337	73.62
263.57	87.62
263.802	89.62
264.035	84.62
264.267	87.62
264.499	73.62
264.732	83.62
264.964	84.62
265.197	89.62
265.429	79.62
265.661	82.62
265.894	72.62
266.126	86.62
266.358	83.62
266.591	90.62
266.823	78.62
267.055	79.62
267.287	80.62
267.52	80.62
267.752	92.62
267.984	78.62
268.216	86.62
268.448	89.62
268.681	83.62
268.913	70.62
269.145	84.62
269.377	94.62
269.609	78.62
269.841	84.62
270.073	82.62
270.306	76.62
270.538	78.62
270.77	77.62
271.002	73.62
271.234	80.62
271.466	83.62
271.698	91.62
271.93	79.62
272.162	84.62
272.394	65.62
272.626	69.62
272.858	72.62
273.09	85.62
273.322	65.62
273.553	86.62
273.785	72.62
274.017	79.62
274.249	84.62
274.481	84.62
274.713	90.62
274.945	77.62
275.176	83.62
275.408	74.62
275.64	82.62
275.872	81.62
276.104	80.62
276.335	86.62
276.567	90.62
276.799	91.62
277.031	101.62
277.262	82.62
277.494	70.62
277.726	84.62
277.957	78.62
278.189	75.62
278.421	94.62
278.652	72.62
278.884	78.62
279.115	83.62
279.347	70.62
279.579	84.62
279.81	95.62
280.042	89.62
280.273	72.62
280.505	82.62
280.736	89.62
280.968	89.62
281.199	87.62
281.431	85.62
281.662	89.62
281.894	88.62
282.125	96.62
282.356	118.62
282.588	118.62
282.819	112.62
283.051	80.62
283.282	93.62
283.513	76.62
283.745	90.62
283.976	97.62
284.207	93.62
284.439	84.62
284.67	84.62
284.901	88.62
285.132	66.62
285.364	86.62
285.595	82.62
285.826	92.62
286.057	91.62
286.288	87.62
286.52	87.62
286.751	83.62
286.982	88.62
287.213	79.62
287.444	75.62
287.675	85.62
287.906	88.62
288.138	76.62
288.369	80.62
288.6	85.62
288.831	88.62
289.062	85.62
289.293	80.62
289.524	94.62
289.755	88.62
289.986	91.62
290.217	71.62
290.448	79.62
290.679	88.62
290.91	87.62
291.141	67.62
291.371	90.62
291.602	82.62
291.833	85.62
292.064	86.62
292.295	81.62
292.526	86.62
292.757	76.62
292.987	87.62
293.218	79.62
293.449	86.62
293.68	82.62
293.91	79.62
294.141	86.62
294.372	84.62
294.603	96.62
294.833	78.62
295.064	65.62
295.295	72.62
295.525	84.62
295.756	99.62
295.987	108.62
296.217	128.62
296.448	97.62
296.679	95.62
296.909	79.62
297.14	97.62
297.37	102.62
297.601	108.62
297.831	80.62
298.062	86.62
298.292	80.62
298.523	81.62
298.753	87.62
298.984	85.62
299.214	82.62
299.445	89.62
299.675	96.62
299.905	85.62
300.136	90.62
300.366	91.62
300.597	89.62
300.827	94.62
301.057	92.62
301.288	102.62
301.518	104.62
301.748	86.62
301.979	96.62
302.209	97.62
302.439	97.62
302.669	79.62
302.9	97.62
303.13	86.62
303.36	95.62
303.59	107.62
303.82	109.62
304.051	92.62
304.281	88.62
304.511	82.62
304.741	89.62
304.971	86.62
305.201	77.62
305.431	87.62
305.661	95.62
305.891	85.62
306.121	88.62
306.352	105.62
306.582	89.62
306.812	88.62
307.042	81.62
307.272	87.62
307.502	101.62
307.731	97.62
307.961	95.62
308.191	81.62
308.421	95.62
308.651	86.62
308.881	79.62
309.111	92.62
309.341	94.62
309.571	78.62
309.8	99.62
310.03	78.62
310.26	99.62
310.49	95.62
310.72	78.62
310.949	95.62
311.179	93.62
311.409	99.62
311.639	83.62
311.868	80.62
312.098	83.62
312.328	98.62
312.557	97.62
312.787	94.62
313.017	98.62
313.246	83.62
313.476	91.62
313.706	92.62
313.935	85.62
314.165	90.62
314.394	95.62
314.624	85.62
314.853	97.62
315.083	82.62
315.312	89.62
315.542	88.62
315.771	97.62
316.001	98.62
316.23	93.62
316.46	95.62
316.689	84.62
316.919	90.62
317.148	92.62
317.377	81.62
317.607	79.62
317.836	92.62
318.065	97.62
318.295	86.62
318.524	102.62
318.753	93.62
318.983	98.62
319.212	88.62
319.441	98.62
319.67	99.62
319.9	92.62
320.129	95.62
320.358	82.62
320.587	91.62
320.816	89.62
321.046	99.62
321.275	98.62
321.504	87.62
321.733	104.62
321.962	93.62
322.191	111.62
322.42	94.62
322.649	98.62
322.878	103.62
323.108	98.62
323.337	130.62
323.566	127.62
323.795	127.62
324.024	195.62
324.253	352.62
324.482	751.62
324.71	1480.62
324.939	1933.62
325.168	715.62
325.397	226.62
325.626	143.62
325.855	126.62
326.084	113.62
326.313	122.62
326.542	152.62
326.77	231.62
326.999	407.62
327.228	873.62
327.457	1505.62
327.686	1191.62
327.914	344.62
328.143	174.62
328.372	147.62
328.6	126.62
328.829	117.62
329.058	116.62
329.287	107.62
329.515	108.62
329.744	87.62
329.972	96.62
330.201	137.62
330.43	135.62
330.658	126.62
330.887	115.62
331.115	111.62
331.344	80.62
331.572	103.62
331.801	102.62
332.03	104.62
332.258	104.62
332.486	94.62
332.715	87.62
332.943	90.62
333.172	94.62
333.4	90.62
333.629	98.62
333.857	111.62
334.085	97.62
334.314	125.62
334.542	153.62
334.771	132.62
334.999	106.62
335.227	94.62
335.455	99.62
335.684	90.62
335.912	97.62
336.14	96.62
336.369	85.62
336.597	83.62
336.825	87.62
337.053	74.62
337.281	93.62
337.51	67.62
337.738	99.62
337.966	94.62
338.194	78.62
338.422	92.62
338.65	88.62
338.878	80.62
339.106	90.62
339.334	92.62
339.562	82.62
339.79	106.62
340.018	96.62
340.246	86.62
340.474	88.62
340.702	94.62
340.93	97.62
341.158	89.62
341.386	89.62
341.614	85.62
341.842	88.62
342.07	98.62
342.298	81.62
342.526	96.62
342.754	95.62
342.981	91.62
343.209	90.62
343.437	95.62
343.665	82.62
343.893	92.62
344.12	91.62
344.348	83.62
344.576	83.62
344.804	98.62
345.031	92.62
345.259	81.62
345.487	80.62
345.714	94.62
345.942	98.62
346.17	99.62
346.397	84.62
346.625	81.62
346.853	79.62
347.08	69.62
347.308	82.62
347.535	97.62
347.763	99.62
347.99	94.62
348.218	108.62
348.445	96.62
348.673	86.62
348.9	95.62
349.128	82.62
349.355	99.62
349.583	96.62
349.81	92.62
350.037	96.62
350.265	90.62
350.492	98.62
350.72	83.62
350.947	93.62
351.174	96.62
351.402	108.62
351.629	105.62
351.856	100.62
352.083	100.62
352.311	96.62
352.538	98.62
352.765	91.62
352.992	109.62
353.22	100.62
353.447	97.62
353.674	100.62
353.901	109.62
354.128	91.62
354.355	104.62
354.583	91.62
354.81	93.62
355.037	82.62
355.264	97.62
355.491	98.62
355.718	106.62
355.945	103.62
356.172	84.62
356.399	98.62
356.626	90.62
356.853	91.62
357.08	97.62
357.307	94.62
357.534	95.62
357.761	94.62
357.988	93.62
358.215	105.62
358.441	102.62
358.668	98.62
358.895	98.62
359.122	88.62
359.349	89.62
359.576	101.62
359.802	97.62
360.029	111.62
360.256	115.62
360.483	98.62
360.709	89.62
360.936	86.62
361.163	99.62
361.39	94.62
361.616	99.62
361.843	84.62
362.07	84.62
362.296	83.62
362.523	82.62
362.749	95.62
362.976	75.62
363.203	84.62
363.429	75.62
363.656	86.62
363.882	93.62
364.109	83.62
364.335	75.62
364.562	95.62
364.788	77.62
365.015	91.62
365.241	90.62
365.468	98.62
365.694	88.62
365.92	85.62
366.147	89.62
366.373	87.62
366.599	86.62
366.826	87.62
367.052	76.62
367.278	100.62
367.505	86.62
367.731	92.62
367.957	90.62
368.184	95.62
368.41	98.62
368.636	100.62
368.862	111.62
369.089	91.62
369.315	74.62
369.541	71.62
369.767	99.62
369.993	89.62
370.219	87.62
370.445	85.62
370.672	91.62
370.898	80.62
371.124	91.62
371.35	92.62
371.576	99.62
371.802	82.62
372.028	82.62
372.254	94.62
372.48	81.62
372.706	84.62
372.932	86.62
373.158	80.62
373.384	93.62
373.61	80.62
373.835	76.62
374.061	86.62
374.287	104.62
374.513	94.62
374.739	84.62
374.965	90.62
375.191	83.62
375.416	110.62
375.642	98.62
375.868	106.62
376.094	97.62
376.319	80.62
376.545	83.62
376.771	70.62
376.997	79.62
377.222	97.62
377.448	105.62
377.674	97.62
377.899	105.62
378.125	98.62
378.35	104.62
378.576	113.62
378.802	100.62
379.027	111.62
379.253	95.62
379.478	96.62
379.704	100.62
379.929	95.62
380.155	91.62
380.38	97.62
380.606	100.62
380.831	105.62
381.057	90.62
381.282	101.62
381.507	104.62
381.733	94.62
381.958	114.62
382.184	108.62
382.409	98.62
382.634	107.62
382.86	95.62
383.085	112.62
383.31	114.62
383.535	106.62
383.761	94.62
383.986	118.62
384.211	101.62
384.436	111.62
384.662	94.62
384.887	126.62
385.112	122.62
385.337	128.62
385.562	127.62
385.787	142.62
386.013	133.62
386.238	107.62
386.463	113.62
386.688	117.62
386.913	116.62
387.138	124.62
387.363	137.62
387.588	129.62
387.813	122.62
388.038	120.62
388.263	152.62
388.488	126.62
388.713	86.62
388.938	88.62
389.163	102.62
389.387	87.62
389.612	83.62
389.837	83.62
390.062	83.62
390.287	98.62
390.512	65.62
390.736	86.62
390.961	95.62
391.186	84.62
391.411	92.62
391.636	80.62
391.86	90.62
392.085	91.62
392.31	87.62
392.534	79.62
392.759	83.62
392.984	104.62
393.208	118.62
393.433	184.62
393.658	152.62
393.882	93.62
394.107	87.62
394.331	92.62
394.556	85.62
394.78	82.62
395.005	96.62
395.229	88.62
395.454	95.62
395.678	90.62
395.903	103.62
396.127	96.62
396.352	76.62
396.576	100.62
396.801	111.62
397.025	124.62
397.249	103.62
397.474	87.62
397.698	73.62
397.922	82.62
398.147	70.62
398.371	84.62
398.595	87.62
398.82	82.62
399.044	77.62
399.268	84.62
399.492	88.62
399.717	80.62
399.941	84.62
400.165	76.62
400.389	82.62
400.613	87.62
400.837	69.62
401.062	87.62
401.286	96.62
401.51	95.62
401.734	91.62
401.958	98.62
402.182	103.62
402.406	136.62
402.63	102.62
402.854	80.62
403.078	76.62
403.302	72.62
403.526	86.62
403.75	87.62
403.974	76.62
404.198	94.62
404.422	78.62
404.645	72.62
404.869	111.62
405.093	95.62
405.317	86.62
405.541	94.62
405.765	89.62
405.988	114.62
406.212	146.62
406.436	193.62
406.66	129.62
406.883	97.62
407.107	92.62
407.331	96.62
407.555	84.62
407.778	90.62
408.002	103.62
408.226	86.62
408.449	77.62
408.673	87.62
408.896	94.62
409.12	91.62
409.344	94.62
409.567	90.62
409.791	92.62
410.014	84.62
410.238	90.62
410.461	83.62
410.685	88.62
410.908	107.62
411.132	111.62
411.355	91.62
411.578	96.62
411.802	111.62
412.025	97.62
412.249	92.62
412.472	80.62
412.695	94.62
412.919	86.62
413.142	93.62
413.365	97.62
413.589	81.62
413.812	84.62
414.035	87.62
414.258	88.62
414.482	88.62
414.705	88.62
414.928	91.62
415.151	91.62
415.374	99.62
415.597	104.62
415.821	91.62
416.044	99.62
416.267	81.62
416.49	91.62
416.713	86.62
416.936	92.62
417.159	86.62
417.382	93.62
417.605	81.62
417.828	78.62
418.051	95.62
418.274	84.62
418.497	97.62
418.72	83.62
418.943	90.62
419.166	95.62
419.389	88.62
419.611	82.62
419.834	95.62
420.057	90.62
420.28	82.62
420.503	90.62
420.726	87.62
420.948	96.62
421.171	95.62
421.394	92.62
421.617	90.62
421.839	83.62
422.062	81.62
422.285	91.62
422.507	107.62
422.73	129.62
422.953	110.62
423.175	95.62
423.398	96.62
423.621	83.62
423.843	90.62
424.066	89.62
424.288	79.62
424.511	89.62
424.733	109.62
424.956	92.62
425.178	90.62
425.401	102.62
425.623	93.62
425.846	66.62
426.068	100.62
426.291	84.62
426.513	94.62
426.735	76.62
426.958	84.62
427.18	91.62
427.402	136.62
427.625	139.62
427.847	121.62
428.069	111.62
428.292	86.62
428.514	88.62
428.736	83.62
428.958	84.62
429.181	84.62
429.403	82.62
429.625	84.62
429.847	94.62
430.069	99.62
430.292	78.62
430.514	87.62
430.736	81.62
430.958	86.62
431.18	81.62
431.402	78.62
431.624	81.62
431.846	85.62
432.068	92.62
432.29	87.62
432.512	81.62
432.734	84.62
432.956	82.62
433.178	109.62
433.4	87.62
433.622	104.62
433.844	96.62
434.066	100.62
434.287	87.62
434.509	92.62
434.731	77.62
434.953	71.62
435.175	93.62
435.397	88.62
435.618	100.62
435.84	105.62
436.062	124.62
436.284	115.62
436.505	97.62
436.727	91.62
436.949	92.62
437.17	80.62
437.392	75.62
437.614	79.62
437.835	93.62
438.057	99.62
438.278	119.62
438.5	108.62
438.721	126.62
438.943	113.62
439.165	94.62
439.386	93.62
439.608	77.62
439.829	97.62
440.05	116.62
440.272	117.62
440.493	95.62
440.715	79.62
440.936	86.62
441.158	95.62
441.379	83.62
441.6	83.62
441.822	100.62
442.043	96.62
442.264	95.62
442.486	96.62
442.707	90.62
442.928	78.62
443.149	122.62
443.371	108.62
443.592	92.62
443.813	109.62
444.034	105.62
444.255	92.62
444.476	92.62
444.698	81.62
444.919	80.62
445.14	129.62
445.361	109.62
445.582	113.62
445.803	124.62
446.024	111.62
446.245	122.62
446.466	114.62
446.687	92.62
446.908	98.62
447.129	105.62
447.35	80.62
447.571	92.62
447.792	87.62
448.013	99.62
448.234	104.62
448.455	109.62
448.675	114.62
448.896	99.62
449.117	108.62
449.338	94.62
449.559	120.62
449.779	115.62
450	81.62
450.221	78.62
450.442	89.62
450.662	100.62
450.883	101.62
451.104	95.62
451.324	92.62
451.545	79.62
451.766	92.62
451.986	90.62
452.207	90.62
452.428	97.62
452.648	93.62
452.869	102.62
453.089	103.62
453.31	94.62
453.53	82.62
453.751	86.62
453.971	89.62
454.192	96.62
454.412	95.62
454.633	80.62
454.853	83.62
455.073	95.62
455.294	84.62
455.514	99.62
455.734	91.62
455.955	91.62
456.175	75.62
456.395	80.62
456.616	95.62
456.836	60.62
457.056	97.62
457.276	78.62
457.497	87.62
457.717	99.62
457.937	99.62
458.157	90.62
458.377	94.62
458.598	108.62
458.818	115.62
459.038	134.62
459.258	99.62
459.478	76.62
459.698	81.62
459.918	72.62
460.138	82.62
460.358	84.62
460.578	86.62
460.798	78.62
461.018	101.62
461.238	85.62
461.458	86.62
461.678	92.62
461.898	79.62
462.118	85.62
462.338	72.62
462.558	76.62
462.777	80.62
462.997	91.62
463.217	86.62
463.437	84.62
463.657	82.62
463.876	86.62
464.096	91.62
464.316	85.62
464.536	95.62
464.755	82.62
464.975	116.62
465.195	137.62
465.414	144.62
465.634	93.62
465.854	80.62
466.073	70.62
466.293	81.62
466.512	83.62
466.732	91.62
466.951	81.62
467.171	91.62
467.391	94.62
467.61	90.62
467.829	95.62
468.049	106.62
468.268	96.62
468.488	80.62
468.707	88.62
468.927	86.62
469.146	83.62
469.365	78.62
469.585	86.62
469.804	82.62
470.023	96.62
470.243	93.62
470.462	87.62
470.681	95.62
470.901	96.62
471.12	91.62
471.339	89.62
471.558	84.62
471.777	76.62
471.997	81.62
472.216	109.62
472.435	165.62
472.654	103.62
472.873	89.62
473.092	92.62
473.311	95.62
473.53	103.62
473.749	89.62
473.968	88.62
474.187	93.62
474.406	87.62
474.625	110.62
474.844	85.62
475.063	82.62
475.282	90.62
475.501	82.62
475.72	98.62
475.939	84.62
476.158	87.62
476.377	89.62
476.596	75.62
476.814	81.62
477.033	82.62
477.252	78.62
477.471	91.62
477.69	75.62
477.908	86.62
478.127	91.62
478.346	83.62
478.564	89.62
478.783	87.62
479.002	83.62
479.22	94.62
479.439	97.62
479.658	98.62
479.876	101.62
480.095	76.62
480.313	86.62
480.532	101.62
480.751	103.62
480.969	119.62
481.188	214.62
481.406	168.62
481.624	90.62
481.843	88.62
482.061	85.62
482.28	87.62
482.498	71.62
482.717	75.62
482.935	86.62
483.153	98.62
483.372	75.62
483.59	85.62
483.808	86.62
484.027	92.62
484.245	96.62
484.463	90.62
484.681	113.62
484.9	88.62
485.118	87.62
485.336	107.62
485.554	100.62
485.772	95.62
485.99	99.62
486.209	89.62
486.427	113.62
486.645	119.62
486.863	104.62
487.081	112.62
487.299	95.62
487.517	88.62
487.735	83.62
487.953	82.62
488.171	85.62
488.389	95.62
488.607	83.62
488.825	82.62
489.043	95.62
489.261	83.62
489.479	86.62
489.696	93.62
489.914	71.62
490.132	88.62
490.35	91.62
490.568	91.62
490.786	89.62
491.003	98.62
491.221	68.62
491.439	77.62
491.657	88.62
491.874	88.62
492.092	103.62
492.31	90.62
492.527	103.62
492.745	82.62
492.963	83.62
493.18	86.62
493.398	82.62
493.615	85.62
493.833	94.62
494.05	72.62
494.268	81.62
494.485	78.62
494.703	82.62
494.92	91.62
495.138	94.62
495.355	92.62
495.573	83.62
495.79	75.62
496.008	79.62
496.225	96.62
496.442	80.62
496.66	94.62
496.877	92.62
497.094	90.62
497.312	104.62
497.529	78.62
497.746	86.62
497.963	90.62
498.181	89.62
498.398	97.62
498.615	98.62
498.832	95.62
499.049	89.62
499.267	80.62
499.484	80.62
499.701	72.62
499.918	94.62
500.135	82.62
500.352	94.62
500.569	89.62
500.786	82.62
501.003	94.62
501.22	78.62
501.437	92.62
501.654	92.62
501.871	114.62
502.088	93.62
502.305	92.62
502.522	84.62
502.739	91.62
502.956	80.62
503.172	93.62
503.389	98.62
503.606	75.62
503.823	89.62
504.04	82.62
504.256	72.62
504.473	88.62
504.69	86.62
504.907	92.62
505.123	89.62
505.34	86.62
505.557	94.62
505.773	81.62
505.99	90.62
506.207	104.62
506.423	100.62
506.64	79.62
506.856	88.62
507.073	87.62
507.289	81.62
507.506	89.62
507.722	100.62
507.939	102.62
508.155	82.62
508.372	92.62
508.588	88.62
508.805	96.62
509.021	99.62
509.238	106.62
509.454	99.62
509.67	109.62
509.887	94.62
510.103	127.62
510.319	192.62
510.536	664.62
510.752	2047.62
510.968	556.62
511.184	146.62
511.401	90.62
511.617	91.62
511.833	87.62
512.049	91.62
512.265	107.62
512.481	88.62
512.698	91.62
512.914	91.62
513.13	94.62
513.346	81.62
513.562	102.62
513.778	97.62
513.994	91.62
514.21	95.62
514.426	109.62
514.642	130.62
514.858	108.62
515.074	158.62
515.29	367.62
515.506	1212.62
515.721	459.62
515.937	142.62
516.153	99.62
516.369	95.62
516.585	86.62
