Data from Circ_1993_H10_HRD10591_00073.txt Node
Date: Wed Jan 03 11:44:16 EST 2024
User: Yrep
Spectrometer: HR+D1059
Trigger mode: 1
Integration Time (sec): 1.000000E-1
Scans to average: 1
Electric dark correction enabled: true
Nonlinearity correction enabled: false
Boxcar width: 0
XAxis mode: Wavelengths
Number of Pixels in Spectrum: 2048
>>>>>Begin Spectral Data<<<<<
223.165	-28.12
223.4	-28.12
223.635	-28.12
223.869	-9.12
224.104	-18.12
224.338	-1.12
224.573	-1.12
224.808	-30.12
225.042	-2.12
225.277	-1.12
225.511	-14.12
225.746	-4.12
225.98	-1.12
226.215	11.88
226.449	25.88
226.683	23.88
226.918	27.88
227.152	20.88
227.387	33.88
227.621	31.88
227.856	37.88
228.09	48.88
228.324	51.88
228.559	50.88
228.793	58.88
229.027	71.88
229.262	73.88
229.496	68.88
229.73	84.88
229.964	72.88
230.199	71.88
230.433	62.88
230.667	83.88
230.901	82.88
231.136	91.88
231.37	76.88
231.604	83.88
231.838	78.88
232.072	82.88
232.306	88.88
232.541	76.88
232.775	80.88
233.009	89.88
233.243	80.88
233.477	81.88
233.711	85.88
233.945	80.88
234.179	73.88
234.413	82.88
234.647	75.88
234.881	81.88
235.115	78.88
235.349	87.88
235.583	87.88
235.817	85.88
236.051	71.88
236.285	81.88
236.519	75.88
236.753	84.88
236.987	77.88
237.221	72.88
237.455	85.88
237.689	69.88
237.922	80.88
238.156	90.88
238.39	84.88
238.624	74.88
238.858	66.88
239.091	75.88
239.325	81.88
239.559	80.88
239.793	65.88
240.027	64.88
240.26	72.88
240.494	88.88
240.728	56.88
240.961	73.88
241.195	73.88
241.429	68.88
241.662	71.88
241.896	77.88
242.13	83.88
242.363	74.88
242.597	80.88
242.83	58.88
243.064	77.88
243.298	77.88
243.531	83.88
243.765	70.88
243.998	91.88
244.232	64.88
244.465	78.88
244.699	76.88
244.932	89.88
245.166	78.88
245.399	75.88
245.633	79.88
245.866	74.88
246.099	79.88
246.333	76.88
246.566	73.88
246.8	94.88
247.033	77.88
247.266	71.88
247.5	74.88
247.733	69.88
247.966	83.88
248.2	86.88
248.433	75.88
248.666	83.88
248.899	86.88
249.133	75.88
249.366	96.88
249.599	87.88
249.832	79.88
250.066	74.88
250.299	77.88
250.532	81.88
250.765	71.88
250.998	81.88
251.231	81.88
251.465	78.88
251.698	84.88
251.931	83.88
252.164	80.88
252.397	64.88
252.63	74.88
252.863	86.88
253.096	79.88
253.329	88.88
253.562	88.88
253.795	84.88
254.028	87.88
254.261	76.88
254.494	66.88
254.727	69.88
254.96	84.88
255.193	92.88
255.426	88.88
255.659	68.88
255.892	90.88
256.124	80.88
256.357	86.88
256.59	72.88
256.823	80.88
257.056	79.88
257.289	91.88
257.521	80.88
257.754	75.88
257.987	75.88
258.22	75.88
258.452	80.88
258.685	81.88
258.918	72.88
259.151	86.88
259.383	96.88
259.616	71.88
259.849	68.88
260.081	63.88
260.314	78.88
260.547	77.88
260.779	92.88
261.012	85.88
261.244	74.88
261.477	85.88
261.71	91.88
261.942	92.88
262.175	95.88
262.407	99.88
262.64	69.88
262.872	81.88
263.105	83.88
263.337	83.88
263.57	82.88
263.802	91.88
264.035	69.88
264.267	68.88
264.499	76.88
264.732	82.88
264.964	77.88
265.197	74.88
265.429	84.88
265.661	91.88
265.894	80.88
266.126	79.88
266.358	86.88
266.591	84.88
266.823	85.88
267.055	87.88
267.287	71.88
267.52	89.88
267.752	79.88
267.984	81.88
268.216	76.88
268.448	76.88
268.681	81.88
268.913	97.88
269.145	69.88
269.377	79.88
269.609	79.88
269.841	77.88
270.073	93.88
270.306	91.88
270.538	86.88
270.77	71.88
271.002	69.88
271.234	91.88
271.466	85.88
271.698	80.88
271.93	88.88
272.162	87.88
272.394	86.88
272.626	87.88
272.858	95.88
273.09	90.88
273.322	91.88
273.553	80.88
273.785	84.88
274.017	79.88
274.249	75.88
274.481	78.88
274.713	99.88
274.945	87.88
275.176	91.88
275.408	95.88
275.64	87.88
275.872	82.88
276.104	82.88
276.335	92.88
276.567	81.88
276.799	83.88
277.031	90.88
277.262	91.88
277.494	93.88
277.726	84.88
277.957	82.88
278.189	78.88
278.421	77.88
278.652	84.88
278.884	82.88
279.115	90.88
279.347	80.88
279.579	85.88
279.81	85.88
280.042	101.88
280.273	100.88
280.505	89.88
280.736	81.88
280.968	81.88
281.199	98.88
281.431	85.88
281.662	82.88
281.894	89.88
282.125	91.88
282.356	106.88
282.588	124.88
282.819	98.88
283.051	95.88
283.282	81.88
283.513	95.88
283.745	82.88
283.976	81.88
284.207	82.88
284.439	88.88
284.67	90.88
284.901	112.88
285.132	94.88
285.364	81.88
285.595	82.88
285.826	90.88
286.057	86.88
286.288	89.88
286.52	74.88
286.751	79.88
286.982	72.88
287.213	80.88
287.444	98.88
287.675	94.88
287.906	84.88
288.138	90.88
288.369	99.88
288.6	84.88
288.831	75.88
289.062	80.88
289.293	107.88
289.524	69.88
289.755	66.88
289.986	75.88
290.217	84.88
290.448	84.88
290.679	85.88
290.91	80.88
291.141	91.88
291.371	89.88
291.602	89.88
291.833	87.88
292.064	93.88
292.295	77.88
292.526	98.88
292.757	85.88
292.987	92.88
293.218	83.88
293.449	84.88
293.68	96.88
293.91	82.88
294.141	93.88
294.372	83.88
294.603	90.88
294.833	97.88
295.064	79.88
295.295	89.88
295.525	105.88
295.756	101.88
295.987	101.88
296.217	116.88
296.448	125.88
296.679	84.88
296.909	92.88
297.14	90.88
297.37	77.88
297.601	82.88
297.831	87.88
298.062	99.88
298.292	91.88
298.523	100.88
298.753	90.88
298.984	89.88
299.214	99.88
299.445	91.88
299.675	90.88
299.905	84.88
300.136	92.88
300.366	82.88
300.597	83.88
300.827	80.88
301.057	89.88
301.288	79.88
301.518	82.88
301.748	95.88
301.979	98.88
302.209	94.88
302.439	92.88
302.669	84.88
302.9	88.88
303.13	86.88
303.36	78.88
303.59	87.88
303.82	110.88
304.051	92.88
304.281	81.88
304.511	92.88
304.741	79.88
304.971	96.88
305.201	95.88
305.431	75.88
305.661	76.88
305.891	86.88
306.121	86.88
306.352	97.88
306.582	88.88
306.812	98.88
307.042	78.88
307.272	97.88
307.502	100.88
307.731	82.88
307.961	88.88
308.191	89.88
308.421	92.88
308.651	91.88
308.881	91.88
309.111	86.88
309.341	100.88
309.571	89.88
309.8	92.88
310.03	97.88
310.26	96.88
310.49	85.88
310.72	93.88
310.949	98.88
311.179	94.88
311.409	105.88
311.639	90.88
311.868	77.88
312.098	101.88
312.328	93.88
312.557	92.88
312.787	102.88
313.017	100.88
313.246	73.88
313.476	80.88
313.706	80.88
313.935	99.88
314.165	84.88
314.394	98.88
314.624	85.88
314.853	90.88
315.083	91.88
315.312	101.88
315.542	89.88
315.771	105.88
316.001	98.88
316.23	90.88
316.46	102.88
316.689	92.88
316.919	93.88
317.148	98.88
317.377	89.88
317.607	77.88
317.836	92.88
318.065	105.88
318.295	84.88
318.524	101.88
318.753	88.88
318.983	99.88
319.212	114.88
319.441	93.88
319.67	95.88
319.9	92.88
320.129	105.88
320.358	75.88
320.587	81.88
320.816	93.88
321.046	98.88
321.275	89.88
321.504	89.88
321.733	103.88
321.962	83.88
322.191	96.88
322.42	101.88
322.649	114.88
322.878	104.88
323.108	106.88
323.337	120.88
323.566	104.88
323.795	138.88
324.024	186.88
324.253	306.88
324.482	667.88
324.71	1316.88
324.939	1709.88
325.168	611.88
325.397	186.88
325.626	122.88
325.855	104.88
326.084	122.88
326.313	104.88
326.542	139.88
326.77	201.88
326.999	363.88
327.228	749.88
327.457	1331.88
327.686	1081.88
327.914	315.88
328.143	207.88
328.372	172.88
328.6	130.88
328.829	114.88
329.058	120.88
329.287	124.88
329.515	112.88
329.744	109.88
329.972	126.88
330.201	181.88
330.43	220.88
330.658	149.88
330.887	116.88
331.115	112.88
331.344	101.88
331.572	89.88
331.801	88.88
332.03	96.88
332.258	92.88
332.486	96.88
332.715	90.88
332.943	91.88
333.172	91.88
333.4	85.88
333.629	91.88
333.857	113.88
334.085	133.88
334.314	211.88
334.542	286.88
334.771	257.88
334.999	123.88
335.227	107.88
335.455	85.88
335.684	92.88
335.912	91.88
336.14	95.88
336.369	98.88
336.597	96.88
336.825	96.88
337.053	91.88
337.281	90.88
337.51	78.88
337.738	69.88
337.966	84.88
338.194	80.88
338.422	103.88
338.65	80.88
338.878	93.88
339.106	102.88
339.334	89.88
339.562	77.88
339.79	83.88
340.018	84.88
340.246	80.88
340.474	96.88
340.702	79.88
340.93	108.88
341.158	76.88
341.386	101.88
341.614	94.88
341.842	81.88
342.07	94.88
342.298	82.88
342.526	86.88
342.754	97.88
342.981	95.88
343.209	94.88
343.437	115.88
343.665	93.88
343.893	93.88
344.12	111.88
344.348	92.88
344.576	79.88
344.804	93.88
345.031	96.88
345.259	82.88
345.487	95.88
345.714	97.88
345.942	91.88
346.17	92.88
346.397	103.88
346.625	84.88
346.853	98.88
347.08	91.88
347.308	92.88
347.535	96.88
347.763	85.88
347.99	87.88
348.218	97.88
348.445	96.88
348.673	87.88
348.9	93.88
349.128	107.88
349.355	81.88
349.583	75.88
349.81	96.88
350.037	93.88
350.265	85.88
350.492	102.88
350.72	84.88
350.947	77.88
351.174	105.88
351.402	99.88
351.629	96.88
351.856	87.88
352.083	115.88
352.311	101.88
352.538	103.88
352.765	106.88
352.992	96.88
353.22	113.88
353.447	95.88
353.674	103.88
353.901	92.88
354.128	96.88
354.355	101.88
354.583	99.88
354.81	102.88
355.037	83.88
355.264	99.88
355.491	94.88
355.718	71.88
355.945	90.88
356.172	81.88
356.399	106.88
356.626	93.88
356.853	98.88
357.08	89.88
357.307	87.88
357.534	92.88
357.761	85.88
357.988	93.88
358.215	98.88
358.441	99.88
358.668	91.88
358.895	88.88
359.122	77.88
359.349	79.88
359.576	91.88
359.802	81.88
360.029	90.88
360.256	118.88
360.483	96.88
360.709	91.88
360.936	105.88
361.163	92.88
361.39	103.88
361.616	98.88
361.843	84.88
362.07	93.88
362.296	83.88
362.523	99.88
362.749	95.88
362.976	92.88
363.203	84.88
363.429	91.88
363.656	90.88
363.882	73.88
364.109	94.88
364.335	95.88
364.562	99.88
364.788	99.88
365.015	96.88
365.241	98.88
365.468	98.88
365.694	113.88
365.92	95.88
366.147	98.88
366.373	98.88
366.599	103.88
366.826	81.88
367.052	85.88
367.278	82.88
367.505	79.88
367.731	88.88
367.957	101.88
368.184	87.88
368.41	88.88
368.636	104.88
368.862	118.88
369.089	96.88
369.315	89.88
369.541	103.88
369.767	86.88
369.993	88.88
370.219	98.88
370.445	91.88
370.672	91.88
370.898	89.88
371.124	84.88
371.35	83.88
371.576	85.88
371.802	82.88
372.028	92.88
372.254	80.88
372.48	99.88
372.706	102.88
372.932	77.88
373.158	79.88
373.384	76.88
373.61	88.88
373.835	82.88
374.061	87.88
374.287	82.88
374.513	99.88
374.739	80.88
374.965	79.88
375.191	87.88
375.416	78.88
375.642	96.88
375.868	89.88
376.094	82.88
376.319	73.88
376.545	84.88
376.771	92.88
376.997	94.88
377.222	97.88
377.448	90.88
377.674	90.88
377.899	90.88
378.125	114.88
378.35	97.88
378.576	73.88
378.802	90.88
379.027	85.88
379.253	87.88
379.478	89.88
379.704	95.88
379.929	87.88
380.155	78.88
380.38	105.88
380.606	92.88
380.831	95.88
381.057	98.88
381.282	87.88
381.507	86.88
381.733	84.88
381.958	95.88
382.184	104.88
382.409	88.88
382.634	98.88
382.86	94.88
383.085	96.88
383.31	101.88
383.535	98.88
383.761	95.88
383.986	90.88
384.211	90.88
384.436	103.88
384.662	90.88
384.887	97.88
385.112	97.88
385.337	91.88
385.562	107.88
385.787	103.88
386.013	100.88
386.238	112.88
386.463	99.88
386.688	103.88
386.913	99.88
387.138	104.88
387.363	112.88
387.588	102.88
387.813	104.88
388.038	106.88
388.263	118.88
388.488	109.88
388.713	100.88
388.938	97.88
389.163	90.88
389.387	91.88
389.612	95.88
389.837	87.88
390.062	88.88
390.287	83.88
390.512	89.88
390.736	87.88
390.961	91.88
391.186	79.88
391.411	95.88
391.636	92.88
391.86	69.88
392.085	77.88
392.31	85.88
392.534	95.88
392.759	84.88
392.984	89.88
393.208	97.88
393.433	129.88
393.658	119.88
393.882	85.88
394.107	83.88
394.331	83.88
394.556	86.88
394.78	98.88
395.005	92.88
395.229	75.88
395.454	87.88
395.678	78.88
395.903	83.88
396.127	87.88
396.352	96.88
396.576	97.88
396.801	88.88
397.025	100.88
397.249	91.88
397.474	87.88
397.698	89.88
397.922	89.88
398.147	88.88
398.371	77.88
398.595	77.88
398.82	77.88
399.044	79.88
399.268	74.88
399.492	91.88
399.717	89.88
399.941	93.88
400.165	94.88
400.389	94.88
400.613	84.88
400.837	84.88
401.062	95.88
401.286	75.88
401.51	85.88
401.734	109.88
401.958	100.88
402.182	117.88
402.406	137.88
402.63	107.88
402.854	99.88
403.078	86.88
403.302	79.88
403.526	95.88
403.75	73.88
403.974	95.88
404.198	87.88
404.422	90.88
404.645	80.88
404.869	87.88
405.093	94.88
405.317	94.88
405.541	93.88
405.765	87.88
405.988	112.88
406.212	161.88
406.436	176.88
406.66	113.88
406.883	95.88
407.107	100.88
407.331	72.88
407.555	93.88
407.778	97.88
408.002	89.88
408.226	89.88
408.449	83.88
408.673	89.88
408.896	91.88
409.12	91.88
409.344	94.88
409.567	88.88
409.791	95.88
410.014	101.88
410.238	71.88
410.461	94.88
410.685	95.88
410.908	100.88
411.132	103.88
411.355	99.88
411.578	97.88
411.802	91.88
412.025	81.88
412.249	95.88
412.472	91.88
412.695	105.88
412.919	89.88
413.142	81.88
413.365	88.88
413.589	96.88
413.812	90.88
414.035	83.88
414.258	80.88
414.482	81.88
414.705	86.88
414.928	85.88
415.151	85.88
415.374	92.88
415.597	87.88
415.821	96.88
416.044	96.88
416.267	89.88
416.49	81.88
416.713	93.88
416.936	91.88
417.159	99.88
417.382	92.88
417.605	90.88
417.828	94.88
418.051	103.88
418.274	86.88
418.497	81.88
418.72	87.88
418.943	79.88
419.166	92.88
419.389	80.88
419.611	82.88
419.834	87.88
420.057	79.88
420.28	86.88
420.503	76.88
420.726	84.88
420.948	90.88
421.171	103.88
421.394	87.88
421.617	91.88
421.839	83.88
422.062	90.88
422.285	92.88
422.507	93.88
422.73	106.88
422.953	98.88
423.175	99.88
423.398	87.88
423.621	87.88
423.843	81.88
424.066	90.88
424.288	80.88
424.511	96.88
424.733	83.88
424.956	95.88
425.178	105.88
425.401	73.88
425.623	82.88
425.846	87.88
426.068	90.88
426.291	83.88
426.513	88.88
426.735	89.88
426.958	95.88
427.18	101.88
427.402	127.88
427.625	148.88
427.847	122.88
428.069	116.88
428.292	107.88
428.514	88.88
428.736	75.88
428.958	98.88
429.181	82.88
429.403	96.88
429.625	78.88
429.847	99.88
430.069	92.88
430.292	90.88
430.514	77.88
430.736	99.88
430.958	82.88
431.18	82.88
431.402	84.88
431.624	84.88
431.846	82.88
432.068	83.88
432.29	90.88
432.512	83.88
432.734	92.88
432.956	94.88
433.178	105.88
433.4	91.88
433.622	84.88
433.844	82.88
434.066	83.88
434.287	88.88
434.509	94.88
434.731	90.88
434.953	78.88
435.175	91.88
435.397	89.88
435.618	97.88
435.84	100.88
436.062	118.88
436.284	118.88
436.505	91.88
436.727	92.88
436.949	88.88
437.17	95.88
437.392	91.88
437.614	78.88
437.835	90.88
438.057	102.88
438.278	106.88
438.5	100.88
438.721	110.88
438.943	99.88
439.165	78.88
439.386	81.88
439.608	89.88
439.829	94.88
440.05	101.88
440.272	139.88
440.493	97.88
440.715	89.88
440.936	83.88
441.158	84.88
441.379	88.88
441.6	100.88
441.822	87.88
442.043	93.88
442.264	103.88
442.486	89.88
442.707	108.88
442.928	106.88
443.149	109.88
443.371	111.88
443.592	105.88
443.813	94.88
444.034	98.88
444.255	96.88
444.476	89.88
444.698	89.88
444.919	86.88
445.14	135.88
445.361	115.88
445.582	111.88
445.803	121.88
446.024	118.88
446.245	124.88
446.466	91.88
446.687	98.88
446.908	87.88
447.129	91.88
447.35	68.88
447.571	68.88
447.792	92.88
448.013	83.88
448.234	101.88
448.455	103.88
448.675	105.88
448.896	104.88
449.117	101.88
449.338	106.88
449.559	116.88
449.779	133.88
450	99.88
450.221	102.88
450.442	105.88
450.662	73.88
450.883	88.88
451.104	95.88
451.324	94.88
451.545	80.88
451.766	89.88
451.986	87.88
452.207	85.88
452.428	81.88
452.648	85.88
452.869	112.88
453.089	86.88
453.31	100.88
453.53	92.88
453.751	91.88
453.971	98.88
454.192	97.88
454.412	86.88
454.633	83.88
454.853	94.88
455.073	89.88
455.294	81.88
455.514	113.88
455.734	74.88
455.955	79.88
456.175	94.88
456.395	95.88
456.616	87.88
456.836	93.88
457.056	90.88
457.276	89.88
457.497	83.88
457.717	81.88
457.937	85.88
458.157	82.88
458.377	88.88
458.598	98.88
458.818	128.88
459.038	128.88
459.258	115.88
459.478	90.88
459.698	77.88
459.918	83.88
460.138	85.88
460.358	84.88
460.578	76.88
460.798	101.88
461.018	84.88
461.238	76.88
461.458	79.88
461.678	78.88
461.898	90.88
462.118	95.88
462.338	72.88
462.558	80.88
462.777	84.88
462.997	87.88
463.217	87.88
463.437	89.88
463.657	87.88
463.876	84.88
464.096	94.88
464.316	80.88
464.536	92.88
464.755	84.88
464.975	92.88
465.195	135.88
465.414	126.88
465.634	83.88
465.854	66.88
466.073	83.88
466.293	85.88
466.512	81.88
466.732	80.88
466.951	79.88
467.171	92.88
467.391	99.88
467.61	101.88
467.829	103.88
468.049	148.88
468.268	157.88
468.488	103.88
468.707	89.88
468.927	81.88
469.146	92.88
469.365	82.88
469.585	100.88
469.804	85.88
470.023	84.88
470.243	89.88
470.462	87.88
470.681	86.88
470.901	88.88
471.12	90.88
471.339	96.88
471.558	90.88
471.777	96.88
471.997	103.88
472.216	221.88
472.435	356.88
472.654	139.88
472.873	95.88
473.092	103.88
473.311	95.88
473.53	87.88
473.749	95.88
473.968	92.88
474.187	82.88
474.406	87.88
474.625	98.88
474.844	105.88
475.063	87.88
475.282	89.88
475.501	79.88
475.72	90.88
475.939	82.88
476.158	80.88
476.377	83.88
476.596	81.88
476.814	80.88
477.033	83.88
477.252	92.88
477.471	91.88
477.69	90.88
477.908	89.88
478.127	102.88
478.346	77.88
478.564	75.88
478.783	93.88
479.002	106.88
479.22	84.88
479.439	95.88
479.658	104.88
479.876	104.88
480.095	92.88
480.313	73.88
480.532	102.88
480.751	112.88
480.969	201.88
481.188	588.88
481.406	352.88
481.624	113.88
481.843	93.88
482.061	85.88
482.28	66.88
482.498	76.88
482.717	90.88
482.935	95.88
483.153	91.88
483.372	96.88
483.59	78.88
483.808	81.88
484.027	100.88
484.245	95.88
484.463	96.88
484.681	82.88
484.9	84.88
485.118	96.88
485.336	100.88
485.554	101.88
485.772	99.88
485.99	111.88
486.209	95.88
486.427	100.88
486.645	93.88
486.863	114.88
487.081	98.88
487.299	108.88
487.517	95.88
487.735	96.88
487.953	83.88
488.171	79.88
488.389	99.88
488.607	90.88
488.825	94.88
489.043	92.88
489.261	93.88
489.479	77.88
489.696	97.88
489.914	99.88
490.132	80.88
490.35	91.88
490.568	88.88
490.786	80.88
491.003	93.88
491.221	96.88
491.439	87.88
491.657	95.88
491.874	71.88
492.092	95.88
492.31	78.88
492.527	100.88
492.745	83.88
492.963	91.88
493.18	86.88
493.398	93.88
493.615	100.88
493.833	102.88
494.05	83.88
494.268	81.88
494.485	99.88
494.703	83.88
494.92	91.88
495.138	93.88
495.355	95.88
495.573	89.88
495.79	92.88
496.008	98.88
496.225	92.88
496.442	95.88
496.66	83.88
496.877	77.88
497.094	90.88
497.312	82.88
497.529	82.88
497.746	98.88
497.963	82.88
498.181	90.88
498.398	91.88
498.615	102.88
498.832	91.88
499.049	73.88
499.267	80.88
499.484	89.88
499.701	91.88
499.918	76.88
500.135	83.88
500.352	91.88
500.569	88.88
500.786	87.88
501.003	71.88
501.22	97.88
501.437	93.88
501.654	87.88
501.871	98.88
502.088	89.88
502.305	90.88
502.522	88.88
502.739	95.88
502.956	101.88
503.172	92.88
503.389	95.88
503.606	105.88
503.823	98.88
504.04	98.88
504.256	82.88
504.473	81.88
504.69	90.88
504.907	98.88
505.123	104.88
505.34	94.88
505.557	91.88
505.773	104.88
505.99	94.88
506.207	92.88
506.423	87.88
506.64	85.88
506.856	90.88
507.073	99.88
507.289	86.88
507.506	90.88
507.722	100.88
507.939	99.88
508.155	95.88
508.372	89.88
508.588	82.88
508.805	89.88
509.021	88.88
509.238	91.88
509.454	84.88
509.67	98.88
509.887	94.88
510.103	107.88
510.319	185.88
510.536	567.88
510.752	1733.88
510.968	503.88
511.184	127.88
511.401	95.88
511.617	92.88
511.833	87.88
512.049	85.88
512.265	106.88
512.481	85.88
512.698	79.88
512.914	74.88
513.13	98.88
513.346	73.88
513.562	84.88
513.778	81.88
513.994	96.88
514.21	105.88
514.426	115.88
514.642	109.88
514.858	106.88
515.074	130.88
515.29	346.88
515.506	1041.88
515.721	384.88
515.937	136.88
516.153	99.88
516.369	79.88
516.585	81.88
