Data from Circ_1993_H10_HRD10591_00096.txt Node
Date: Wed Jan 03 11:44:21 EST 2024
User: Yrep
Spectrometer: HR+D1059
Trigger mode: 1
Integration Time (sec): 1.000000E-1
Scans to average: 1
Electric dark correction enabled: true
Nonlinearity correction enabled: false
Boxcar width: 0
XAxis mode: Wavelengths
Number of Pixels in Spectrum: 2048
>>>>>Begin Spectral Data<<<<<
223.165	-21.38
223.4	-21.38
223.635	-21.38
223.869	-33.38
224.104	-22.38
224.338	-19.38
224.573	-3.38
224.808	-4.38
225.042	-19.38
225.277	-5.38
225.511	2.62
225.746	-1.38
225.98	12.62
226.215	22.62
226.449	12.62
226.683	16.62
226.918	30.62
227.152	32.62
227.387	44.62
227.621	29.62
227.856	41.62
228.09	40.62
228.324	35.62
228.559	65.62
228.793	60.62
229.027	62.62
229.262	78.62
229.496	74.62
229.73	82.62
229.964	82.62
230.199	76.62
230.433	69.62
230.667	65.62
230.901	71.62
231.136	68.62
231.37	80.62
231.604	80.62
231.838	78.62
232.072	70.62
232.306	90.62
232.541	88.62
232.775	69.62
233.009	78.62
233.243	72.62
233.477	77.62
233.711	82.62
233.945	89.62
234.179	87.62
234.413	91.62
234.647	92.62
234.881	78.62
235.115	86.62
235.349	87.62
235.583	93.62
235.817	81.62
236.051	79.62
236.285	80.62
236.519	84.62
236.753	83.62
236.987	81.62
237.221	89.62
237.455	75.62
237.689	81.62
237.922	76.62
238.156	76.62
238.39	70.62
238.624	76.62
238.858	77.62
239.091	86.62
239.325	79.62
239.559	75.62
239.793	84.62
240.027	77.62
240.26	80.62
240.494	71.62
240.728	82.62
240.961	82.62
241.195	75.62
241.429	77.62
241.662	85.62
241.896	70.62
242.13	86.62
242.363	73.62
242.597	79.62
242.83	83.62
243.064	82.62
243.298	83.62
243.531	77.62
243.765	75.62
243.998	90.62
244.232	65.62
244.465	90.62
244.699	85.62
244.932	94.62
245.166	77.62
245.399	86.62
245.633	78.62
245.866	93.62
246.099	74.62
246.333	87.62
246.566	65.62
246.8	71.62
247.033	88.62
247.266	74.62
247.5	75.62
247.733	82.62
247.966	78.62
248.2	83.62
248.433	70.62
248.666	90.62
248.899	82.62
249.133	87.62
249.366	89.62
249.599	106.62
249.832	86.62
250.066	97.62
250.299	87.62
250.532	93.62
250.765	95.62
250.998	84.62
251.231	90.62
251.465	70.62
251.698	88.62
251.931	83.62
252.164	77.62
252.397	82.62
252.63	82.62
252.863	64.62
253.096	85.62
253.329	86.62
253.562	80.62
253.795	90.62
254.028	86.62
254.261	76.62
254.494	82.62
254.727	88.62
254.96	72.62
255.193	91.62
255.426	78.62
255.659	76.62
255.892	93.62
256.124	70.62
256.357	78.62
256.59	104.62
256.823	80.62
257.056	79.62
257.289	78.62
257.521	100.62
257.754	88.62
257.987	72.62
258.22	89.62
258.452	98.62
258.685	92.62
258.918	94.62
259.151	80.62
259.383	84.62
259.616	77.62
259.849	94.62
260.081	84.62
260.314	99.62
260.547	87.62
260.779	84.62
261.012	88.62
261.244	75.62
261.477	88.62
261.71	104.62
261.942	108.62
262.175	99.62
262.407	95.62
262.64	89.62
262.872	86.62
263.105	100.62
263.337	88.62
263.57	87.62
263.802	81.62
264.035	74.62
264.267	99.62
264.499	78.62
264.732	85.62
264.964	86.62
265.197	80.62
265.429	85.62
265.661	86.62
265.894	104.62
266.126	94.62
266.358	77.62
266.591	75.62
266.823	93.62
267.055	96.62
267.287	86.62
267.52	79.62
267.752	71.62
267.984	87.62
268.216	86.62
268.448	93.62
268.681	87.62
268.913	74.62
269.145	86.62
269.377	71.62
269.609	90.62
269.841	88.62
270.073	94.62
270.306	81.62
270.538	74.62
270.77	91.62
271.002	78.62
271.234	84.62
271.466	94.62
271.698	88.62
271.93	90.62
272.162	84.62
272.394	98.62
272.626	91.62
272.858	76.62
273.09	88.62
273.322	84.62
273.553	79.62
273.785	90.62
274.017	84.62
274.249	84.62
274.481	93.62
274.713	88.62
274.945	78.62
275.176	91.62
275.408	93.62
275.64	90.62
275.872	95.62
276.104	77.62
276.335	84.62
276.567	90.62
276.799	115.62
277.031	109.62
277.262	98.62
277.494	93.62
277.726	96.62
277.957	82.62
278.189	96.62
278.421	93.62
278.652	85.62
278.884	78.62
279.115	94.62
279.347	92.62
279.579	95.62
279.81	103.62
280.042	97.62
280.273	111.62
280.505	100.62
280.736	96.62
280.968	90.62
281.199	97.62
281.431	91.62
281.662	80.62
281.894	96.62
282.125	93.62
282.356	117.62
282.588	150.62
282.819	104.62
283.051	93.62
283.282	100.62
283.513	94.62
283.745	84.62
283.976	94.62
284.207	83.62
284.439	99.62
284.67	92.62
284.901	78.62
285.132	86.62
285.364	94.62
285.595	82.62
285.826	93.62
286.057	99.62
286.288	79.62
286.52	79.62
286.751	90.62
286.982	68.62
287.213	84.62
287.444	86.62
287.675	76.62
287.906	85.62
288.138	101.62
288.369	100.62
288.6	91.62
288.831	95.62
289.062	97.62
289.293	84.62
289.524	89.62
289.755	78.62
289.986	85.62
290.217	94.62
290.448	96.62
290.679	75.62
290.91	91.62
291.141	87.62
291.371	95.62
291.602	103.62
291.833	88.62
292.064	81.62
292.295	88.62
292.526	93.62
292.757	94.62
292.987	89.62
293.218	81.62
293.449	80.62
293.68	93.62
293.91	92.62
294.141	92.62
294.372	75.62
294.603	74.62
294.833	74.62
295.064	104.62
295.295	86.62
295.525	94.62
295.756	90.62
295.987	115.62
296.217	145.62
296.448	128.62
296.679	92.62
296.909	77.62
297.14	82.62
297.37	94.62
297.601	93.62
297.831	95.62
298.062	103.62
298.292	99.62
298.523	95.62
298.753	81.62
298.984	82.62
299.214	72.62
299.445	90.62
299.675	86.62
299.905	108.62
300.136	95.62
300.366	76.62
300.597	85.62
300.827	98.62
301.057	97.62
301.288	103.62
301.518	91.62
301.748	94.62
301.979	101.62
302.209	102.62
302.439	93.62
302.669	103.62
302.9	102.62
303.13	82.62
303.36	97.62
303.59	94.62
303.82	100.62
304.051	98.62
304.281	108.62
304.511	88.62
304.741	88.62
304.971	96.62
305.201	83.62
305.431	94.62
305.661	85.62
305.891	90.62
306.121	100.62
306.352	100.62
306.582	110.62
306.812	90.62
307.042	99.62
307.272	96.62
307.502	111.62
307.731	102.62
307.961	100.62
308.191	100.62
308.421	95.62
308.651	94.62
308.881	87.62
309.111	96.62
309.341	103.62
309.571	97.62
309.8	104.62
310.03	99.62
310.26	100.62
310.49	98.62
310.72	101.62
310.949	104.62
311.179	97.62
311.409	80.62
311.639	93.62
311.868	99.62
312.098	96.62
312.328	93.62
312.557	107.62
312.787	106.62
313.017	97.62
313.246	101.62
313.476	109.62
313.706	86.62
313.935	92.62
314.165	102.62
314.394	98.62
314.624	97.62
314.853	101.62
315.083	86.62
315.312	90.62
315.542	98.62
315.771	88.62
316.001	77.62
316.23	98.62
316.46	100.62
316.689	95.62
316.919	94.62
317.148	80.62
317.377	86.62
317.607	113.62
317.836	98.62
318.065	96.62
318.295	90.62
318.524	81.62
318.753	94.62
318.983	94.62
319.212	86.62
319.441	101.62
319.67	123.62
319.9	94.62
320.129	88.62
320.358	88.62
320.587	104.62
320.816	103.62
321.046	97.62
321.275	104.62
321.504	88.62
321.733	100.62
321.962	97.62
322.191	103.62
322.42	103.62
322.649	107.62
322.878	112.62
323.108	106.62
323.337	120.62
323.566	117.62
323.795	146.62
324.024	208.62
324.253	391.62
324.482	796.62
324.71	1626.62
324.939	2145.62
325.168	804.62
325.397	255.62
325.626	160.62
325.855	132.62
326.084	121.62
326.313	127.62
326.542	138.62
326.77	224.62
326.999	426.62
327.228	917.62
327.457	1642.62
327.686	1308.62
327.914	368.62
328.143	251.62
328.372	216.62
328.6	162.62
328.829	132.62
329.058	126.62
329.287	136.62
329.515	109.62
329.744	132.62
329.972	166.62
330.201	260.62
330.43	320.62
330.658	196.62
330.887	154.62
331.115	124.62
331.344	113.62
331.572	95.62
331.801	113.62
332.03	101.62
332.258	101.62
332.486	98.62
332.715	103.62
332.943	92.62
333.172	109.62
333.4	107.62
333.629	107.62
333.857	128.62
334.085	150.62
334.314	252.62
334.542	385.62
334.771	383.62
334.999	147.62
335.227	111.62
335.455	93.62
335.684	93.62
335.912	108.62
336.14	102.62
336.369	91.62
336.597	104.62
336.825	100.62
337.053	92.62
337.281	96.62
337.51	95.62
337.738	91.62
337.966	104.62
338.194	98.62
338.422	93.62
338.65	91.62
338.878	86.62
339.106	86.62
339.334	83.62
339.562	91.62
339.79	97.62
340.018	92.62
340.246	98.62
340.474	88.62
340.702	93.62
340.93	109.62
341.158	92.62
341.386	91.62
341.614	111.62
341.842	81.62
342.07	96.62
342.298	100.62
342.526	104.62
342.754	76.62
342.981	87.62
343.209	103.62
343.437	95.62
343.665	101.62
343.893	82.62
344.12	99.62
344.348	101.62
344.576	98.62
344.804	94.62
345.031	101.62
345.259	96.62
345.487	98.62
345.714	98.62
345.942	97.62
346.17	100.62
346.397	96.62
346.625	95.62
346.853	109.62
347.08	98.62
347.308	90.62
347.535	99.62
347.763	101.62
347.99	103.62
348.218	94.62
348.445	111.62
348.673	106.62
348.9	102.62
349.128	100.62
349.355	88.62
349.583	76.62
349.81	91.62
350.037	99.62
350.265	103.62
350.492	95.62
350.72	107.62
350.947	99.62
351.174	112.62
351.402	130.62
351.629	104.62
351.856	95.62
352.083	90.62
352.311	102.62
352.538	124.62
352.765	113.62
352.992	118.62
353.22	100.62
353.447	102.62
353.674	104.62
353.901	83.62
354.128	101.62
354.355	100.62
354.583	91.62
354.81	99.62
355.037	92.62
355.264	80.62
355.491	87.62
355.718	87.62
355.945	99.62
356.172	96.62
356.399	110.62
356.626	88.62
356.853	112.62
357.08	104.62
357.307	96.62
357.534	103.62
357.761	92.62
357.988	99.62
358.215	101.62
358.441	89.62
358.668	97.62
358.895	92.62
359.122	95.62
359.349	100.62
359.576	100.62
359.802	98.62
360.029	101.62
360.256	117.62
360.483	97.62
360.709	88.62
360.936	103.62
361.163	102.62
361.39	94.62
361.616	99.62
361.843	94.62
362.07	94.62
362.296	94.62
362.523	93.62
362.749	88.62
362.976	94.62
363.203	71.62
363.429	70.62
363.656	86.62
363.882	78.62
364.109	90.62
364.335	94.62
364.562	89.62
364.788	104.62
365.015	95.62
365.241	98.62
365.468	95.62
365.694	106.62
365.92	92.62
366.147	88.62
366.373	87.62
366.599	102.62
366.826	79.62
367.052	82.62
367.278	98.62
367.505	89.62
367.731	86.62
367.957	109.62
368.184	85.62
368.41	93.62
368.636	95.62
368.862	114.62
369.089	96.62
369.315	97.62
369.541	96.62
369.767	89.62
369.993	98.62
370.219	91.62
370.445	99.62
370.672	91.62
370.898	101.62
371.124	93.62
371.35	102.62
371.576	94.62
371.802	76.62
372.028	80.62
372.254	87.62
372.48	94.62
372.706	92.62
372.932	88.62
373.158	89.62
373.384	97.62
373.61	76.62
373.835	94.62
374.061	87.62
374.287	103.62
374.513	90.62
374.739	83.62
374.965	87.62
375.191	93.62
375.416	91.62
375.642	96.62
375.868	102.62
376.094	91.62
376.319	98.62
376.545	95.62
376.771	105.62
376.997	87.62
377.222	98.62
377.448	101.62
377.674	93.62
377.899	99.62
378.125	104.62
378.35	97.62
378.576	88.62
378.802	92.62
379.027	99.62
379.253	97.62
379.478	93.62
379.704	95.62
379.929	87.62
380.155	98.62
380.38	106.62
380.606	94.62
380.831	92.62
381.057	98.62
381.282	91.62
381.507	98.62
381.733	107.62
381.958	110.62
382.184	94.62
382.409	96.62
382.634	97.62
382.86	104.62
383.085	80.62
383.31	102.62
383.535	98.62
383.761	101.62
383.986	102.62
384.211	102.62
384.436	101.62
384.662	102.62
384.887	109.62
385.112	92.62
385.337	108.62
385.562	106.62
385.787	110.62
386.013	123.62
386.238	116.62
386.463	100.62
386.688	123.62
386.913	110.62
387.138	106.62
387.363	84.62
387.588	94.62
387.813	106.62
388.038	101.62
388.263	105.62
388.488	107.62
388.713	101.62
388.938	88.62
389.163	102.62
389.387	93.62
389.612	82.62
389.837	103.62
390.062	108.62
390.287	93.62
390.512	97.62
390.736	88.62
390.961	79.62
391.186	92.62
391.411	98.62
391.636	80.62
391.86	88.62
392.085	98.62
392.31	89.62
392.534	94.62
392.759	90.62
392.984	80.62
393.208	95.62
393.433	106.62
393.658	98.62
393.882	86.62
394.107	90.62
394.331	90.62
394.556	94.62
394.78	92.62
395.005	102.62
395.229	93.62
395.454	86.62
395.678	99.62
395.903	83.62
396.127	93.62
396.352	85.62
396.576	87.62
396.801	94.62
397.025	80.62
397.249	99.62
397.474	74.62
397.698	86.62
397.922	87.62
398.147	94.62
398.371	74.62
398.595	95.62
398.82	82.62
399.044	94.62
399.268	101.62
399.492	89.62
399.717	99.62
399.941	82.62
400.165	90.62
400.389	99.62
400.613	84.62
400.837	84.62
401.062	86.62
401.286	101.62
401.51	102.62
401.734	90.62
401.958	108.62
402.182	141.62
402.406	139.62
402.63	135.62
402.854	102.62
403.078	80.62
403.302	82.62
403.526	95.62
403.75	86.62
403.974	74.62
404.198	96.62
404.422	81.62
404.645	77.62
404.869	92.62
405.093	101.62
405.317	103.62
405.541	109.62
405.765	106.62
405.988	119.62
406.212	164.62
406.436	209.62
406.66	141.62
406.883	108.62
407.107	103.62
407.331	92.62
407.555	102.62
407.778	99.62
408.002	82.62
408.226	95.62
408.449	76.62
408.673	90.62
408.896	99.62
409.12	96.62
409.344	95.62
409.567	91.62
409.791	94.62
410.014	93.62
410.238	100.62
410.461	106.62
410.685	106.62
410.908	98.62
411.132	87.62
411.355	93.62
411.578	92.62
411.802	95.62
412.025	87.62
412.249	94.62
412.472	104.62
412.695	125.62
412.919	87.62
413.142	94.62
413.365	80.62
413.589	78.62
413.812	93.62
414.035	82.62
414.258	88.62
414.482	72.62
414.705	80.62
414.928	90.62
415.151	90.62
415.374	93.62
415.597	93.62
415.821	95.62
416.044	92.62
416.267	90.62
416.49	83.62
416.713	94.62
416.936	91.62
417.159	87.62
417.382	88.62
417.605	98.62
417.828	100.62
418.051	110.62
418.274	82.62
418.497	87.62
418.72	92.62
418.943	90.62
419.166	82.62
419.389	93.62
419.611	80.62
419.834	98.62
420.057	84.62
420.28	90.62
420.503	85.62
420.726	96.62
420.948	82.62
421.171	101.62
421.394	88.62
421.617	85.62
421.839	96.62
422.062	98.62
422.285	86.62
422.507	89.62
422.73	104.62
422.953	98.62
423.175	101.62
423.398	87.62
423.621	92.62
423.843	90.62
424.066	90.62
424.288	72.62
424.511	85.62
424.733	108.62
424.956	88.62
425.178	116.62
425.401	100.62
425.623	108.62
425.846	85.62
426.068	93.62
426.291	91.62
426.513	80.62
426.735	104.62
426.958	104.62
427.18	116.62
427.402	147.62
427.625	171.62
427.847	142.62
428.069	140.62
428.292	108.62
428.514	91.62
428.736	81.62
428.958	87.62
429.181	97.62
429.403	88.62
429.625	100.62
429.847	92.62
430.069	93.62
430.292	90.62
430.514	94.62
430.736	88.62
430.958	83.62
431.18	81.62
431.402	94.62
431.624	94.62
431.846	79.62
432.068	61.62
432.29	86.62
432.512	85.62
432.734	65.62
432.956	84.62
433.178	100.62
433.4	109.62
433.622	74.62
433.844	97.62
434.066	92.62
434.287	95.62
434.509	83.62
434.731	94.62
434.953	81.62
435.175	99.62
435.397	93.62
435.618	90.62
435.84	100.62
436.062	128.62
436.284	124.62
436.505	99.62
436.727	106.62
436.949	91.62
437.17	93.62
437.392	80.62
437.614	86.62
437.835	107.62
438.057	109.62
438.278	111.62
438.5	112.62
438.721	121.62
438.943	109.62
439.165	91.62
439.386	76.62
439.608	83.62
439.829	96.62
440.05	127.62
440.272	151.62
440.493	101.62
440.715	86.62
440.936	86.62
441.158	94.62
441.379	85.62
441.6	100.62
441.822	93.62
442.043	99.62
442.264	115.62
442.486	101.62
442.707	99.62
442.928	95.62
443.149	135.62
443.371	121.62
443.592	108.62
443.813	121.62
444.034	104.62
444.255	94.62
444.476	89.62
444.698	99.62
444.919	90.62
445.14	131.62
445.361	130.62
445.582	112.62
445.803	117.62
446.024	136.62
446.245	138.62
446.466	118.62
446.687	96.62
446.908	87.62
447.129	95.62
447.35	70.62
447.571	88.62
447.792	85.62
448.013	112.62
448.234	113.62
448.455	94.62
448.675	103.62
448.896	127.62
449.117	106.62
449.338	108.62
449.559	140.62
449.779	125.62
450	94.62
450.221	85.62
450.442	92.62
450.662	103.62
450.883	113.62
451.104	123.62
451.324	93.62
451.545	87.62
451.766	102.62
451.986	82.62
452.207	77.62
452.428	89.62
452.648	90.62
452.869	104.62
453.089	99.62
453.31	114.62
453.53	94.62
453.751	87.62
453.971	105.62
454.192	110.62
454.412	90.62
454.633	86.62
454.853	76.62
455.073	93.62
455.294	91.62
455.514	111.62
455.734	90.62
455.955	95.62
456.175	91.62
456.395	75.62
456.616	88.62
456.836	85.62
457.056	90.62
457.276	90.62
457.497	98.62
457.717	97.62
457.937	86.62
458.157	101.62
458.377	91.62
458.598	95.62
458.818	160.62
459.038	158.62
459.258	120.62
459.478	96.62
459.698	96.62
459.918	89.62
460.138	94.62
460.358	76.62
460.578	89.62
460.798	94.62
461.018	74.62
461.238	87.62
461.458	73.62
461.678	73.62
461.898	80.62
462.118	89.62
462.338	95.62
462.558	98.62
462.777	76.62
462.997	92.62
463.217	83.62
463.437	90.62
463.657	79.62
463.876	86.62
464.096	87.62
464.316	102.62
464.536	79.62
464.755	87.62
464.975	99.62
465.195	171.62
465.414	151.62
465.634	95.62
465.854	91.62
466.073	79.62
466.293	93.62
466.512	96.62
466.732	94.62
466.951	80.62
467.171	82.62
467.391	90.62
467.61	94.62
467.829	110.62
468.049	158.62
468.268	238.62
468.488	100.62
468.707	100.62
468.927	92.62
469.146	98.62
469.365	91.62
469.585	86.62
469.804	87.62
470.023	98.62
470.243	86.62
470.462	85.62
470.681	95.62
470.901	78.62
471.12	84.62
471.339	87.62
471.558	87.62
471.777	95.62
471.997	131.62
472.216	287.62
472.435	514.62
472.654	174.62
472.873	90.62
473.092	90.62
473.311	83.62
473.53	87.62
473.749	75.62
473.968	104.62
474.187	112.62
474.406	104.62
474.625	93.62
474.844	80.62
475.063	84.62
475.282	77.62
475.501	92.62
475.72	93.62
475.939	77.62
476.158	88.62
476.377	81.62
476.596	82.62
476.814	86.62
477.033	95.62
477.252	83.62
477.471	85.62
477.69	94.62
477.908	90.62
478.127	94.62
478.346	76.62
478.564	98.62
478.783	92.62
479.002	108.62
479.22	88.62
479.439	107.62
479.658	96.62
479.876	86.62
480.095	110.62
480.313	96.62
480.532	99.62
480.751	125.62
480.969	296.62
481.188	916.62
481.406	560.62
481.624	145.62
481.843	92.62
482.061	101.62
482.28	89.62
482.498	96.62
482.717	93.62
482.935	97.62
483.153	82.62
483.372	78.62
483.59	97.62
483.808	88.62
484.027	72.62
484.245	83.62
484.463	89.62
484.681	94.62
484.9	105.62
485.118	101.62
485.336	99.62
485.554	98.62
485.772	88.62
485.99	105.62
486.209	103.62
486.427	118.62
486.645	106.62
486.863	127.62
487.081	110.62
487.299	94.62
487.517	88.62
487.735	104.62
487.953	90.62
488.171	94.62
488.389	87.62
488.607	89.62
488.825	74.62
489.043	87.62
489.261	86.62
489.479	84.62
489.696	88.62
489.914	93.62
490.132	103.62
490.35	75.62
490.568	91.62
490.786	107.62
491.003	95.62
491.221	79.62
491.439	113.62
491.657	107.62
491.874	108.62
492.092	91.62
492.31	84.62
492.527	89.62
492.745	103.62
492.963	99.62
493.18	94.62
493.398	96.62
493.615	84.62
493.833	93.62
494.05	88.62
494.268	96.62
494.485	92.62
494.703	98.62
494.92	101.62
495.138	90.62
495.355	85.62
495.573	88.62
495.79	97.62
496.008	94.62
496.225	98.62
496.442	67.62
496.66	94.62
496.877	91.62
497.094	82.62
497.312	101.62
497.529	88.62
497.746	64.62
497.963	98.62
498.181	90.62
498.398	93.62
498.615	128.62
498.832	110.62
499.049	86.62
499.267	87.62
499.484	87.62
499.701	94.62
499.918	79.62
500.135	92.62
500.352	77.62
500.569	94.62
500.786	91.62
501.003	88.62
501.22	80.62
501.437	83.62
501.654	93.62
501.871	109.62
502.088	89.62
502.305	94.62
502.522	90.62
502.739	92.62
502.956	104.62
503.172	100.62
503.389	91.62
503.606	117.62
503.823	101.62
504.04	91.62
504.256	86.62
504.473	84.62
504.69	96.62
504.907	92.62
505.123	93.62
505.34	78.62
505.557	77.62
505.773	91.62
505.99	89.62
506.207	81.62
506.423	101.62
506.64	95.62
506.856	85.62
507.073	95.62
507.289	106.62
507.506	101.62
507.722	113.62
507.939	107.62
508.155	97.62
508.372	86.62
508.588	93.62
508.805	91.62
509.021	85.62
509.238	106.62
509.454	90.62
509.67	101.62
509.887	106.62
510.103	130.62
510.319	215.62
510.536	707.62
510.752	2246.62
510.968	615.62
511.184	142.62
511.401	122.62
511.617	97.62
511.833	91.62
512.049	102.62
512.265	90.62
512.481	93.62
512.698	103.62
512.914	87.62
513.13	103.62
513.346	94.62
513.562	104.62
513.778	81.62
513.994	100.62
514.21	109.62
514.426	119.62
514.642	140.62
514.858	131.62
