Data from Circ_1993_H10_HRD10591_00014.txt Node
Date: Wed Jan 03 11:44:04 EST 2024
User: Yrep
Spectrometer: HR+D1059
Trigger mode: 1
Integration Time (sec): 1.000000E-1
Scans to average: 1
Electric dark correction enabled: true
Nonlinearity correction enabled: false
Boxcar width: 0
XAxis mode: Wavelengths
Number of Pixels in Spectrum: 2048
>>>>>Begin Spectral Data<<<<<
223.165	-19.94
223.4	-19.94
223.635	-19.94
223.869	-18.94
224.104	-16.94
224.338	-9.94
224.573	-12.94
224.808	-12.94
225.042	-3.94
225.277	-3.94
225.511	-0.94
225.746	7.06
225.98	12.06
226.215	2.06
226.449	17.06
226.683	9.06
226.918	19.06
227.152	34.06
227.387	48.06
227.621	58.06
227.856	46.06
228.09	48.06
228.324	54.06
228.559	56.06
228.793	53.06
229.027	56.06
229.262	64.06
229.496	69.06
229.73	73.06
229.964	82.06
230.199	76.06
230.433	73.06
230.667	71.06
230.901	77.06
231.136	89.06
231.37	77.06
231.604	75.06
231.838	75.06
232.072	77.06
232.306	84.06
232.541	82.06
232.775	79.06
233.009	70.06
233.243	66.06
233.477	86.06
233.711	87.06
233.945	92.06
234.179	73.06
234.413	82.06
234.647	73.06
234.881	76.06
235.115	77.06
235.349	65.06
235.583	77.06
235.817	60.06
236.051	70.06
236.285	69.06
236.519	67.06
236.753	79.06
236.987	77.06
237.221	77.06
237.455	78.06
237.689	67.06
237.922	86.06
238.156	70.06
238.39	67.06
238.624	61.06
238.858	70.06
239.091	81.06
239.325	63.06
239.559	73.06
239.793	70.06
240.027	85.06
240.26	83.06
240.494	82.06
240.728	87.06
240.961	81.06
241.195	79.06
241.429	75.06
241.662	60.06
241.896	81.06
242.13	88.06
242.363	81.06
242.597	87.06
242.83	66.06
243.064	81.06
243.298	85.06
243.531	71.06
243.765	77.06
243.998	77.06
244.232	80.06
244.465	88.06
244.699	73.06
244.932	78.06
245.166	83.06
245.399	77.06
245.633	74.06
245.866	68.06
246.099	71.06
246.333	81.06
246.566	79.06
246.8	75.06
247.033	100.06
247.266	75.06
247.5	81.06
247.733	103.06
247.966	94.06
248.2	78.06
248.433	77.06
248.666	89.06
248.899	90.06
249.133	76.06
249.366	97.06
249.599	86.06
249.832	78.06
250.066	90.06
250.299	62.06
250.532	89.06
250.765	81.06
250.998	78.06
251.231	81.06
251.465	74.06
251.698	76.06
251.931	76.06
252.164	95.06
252.397	80.06
252.63	81.06
252.863	90.06
253.096	77.06
253.329	76.06
253.562	66.06
253.795	89.06
254.028	69.06
254.261	67.06
254.494	82.06
254.727	89.06
254.96	87.06
255.193	95.06
255.426	85.06
255.659	76.06
255.892	78.06
256.124	81.06
256.357	78.06
256.59	79.06
256.823	85.06
257.056	74.06
257.289	79.06
257.521	85.06
257.754	79.06
257.987	84.06
258.22	79.06
258.452	92.06
258.685	74.06
258.918	83.06
259.151	93.06
259.383	77.06
259.616	87.06
259.849	74.06
260.081	78.06
260.314	85.06
260.547	82.06
260.779	86.06
261.012	80.06
261.244	76.06
261.477	77.06
261.71	94.06
261.942	98.06
262.175	89.06
262.407	97.06
262.64	92.06
262.872	75.06
263.105	90.06
263.337	77.06
263.57	80.06
263.802	71.06
264.035	91.06
264.267	85.06
264.499	89.06
264.732	85.06
264.964	82.06
265.197	77.06
265.429	82.06
265.661	83.06
265.894	82.06
266.126	90.06
266.358	78.06
266.591	79.06
266.823	85.06
267.055	85.06
267.287	100.06
267.52	97.06
267.752	81.06
267.984	81.06
268.216	82.06
268.448	78.06
268.681	77.06
268.913	89.06
269.145	86.06
269.377	86.06
269.609	93.06
269.841	87.06
270.073	67.06
270.306	81.06
270.538	84.06
270.77	76.06
271.002	91.06
271.234	71.06
271.466	83.06
271.698	83.06
271.93	89.06
272.162	78.06
272.394	88.06
272.626	87.06
272.858	87.06
273.09	61.06
273.322	68.06
273.553	95.06
273.785	71.06
274.017	73.06
274.249	86.06
274.481	93.06
274.713	86.06
274.945	91.06
275.176	86.06
275.408	85.06
275.64	93.06
275.872	76.06
276.104	84.06
276.335	92.06
276.567	99.06
276.799	85.06
277.031	99.06
277.262	73.06
277.494	78.06
277.726	86.06
277.957	89.06
278.189	95.06
278.421	86.06
278.652	85.06
278.884	80.06
279.115	90.06
279.347	87.06
279.579	92.06
279.81	85.06
280.042	83.06
280.273	77.06
280.505	103.06
280.736	87.06
280.968	87.06
281.199	86.06
281.431	75.06
281.662	87.06
281.894	81.06
282.125	83.06
282.356	110.06
282.588	122.06
282.819	92.06
283.051	84.06
283.282	82.06
283.513	93.06
283.745	98.06
283.976	79.06
284.207	73.06
284.439	76.06
284.67	83.06
284.901	84.06
285.132	98.06
285.364	82.06
285.595	92.06
285.826	82.06
286.057	92.06
286.288	75.06
286.52	85.06
286.751	76.06
286.982	83.06
287.213	76.06
287.444	89.06
287.675	89.06
287.906	83.06
288.138	80.06
288.369	77.06
288.6	95.06
288.831	94.06
289.062	87.06
289.293	83.06
289.524	90.06
289.755	82.06
289.986	86.06
290.217	81.06
290.448	80.06
290.679	91.06
290.91	78.06
291.141	69.06
291.371	109.06
291.602	90.06
291.833	84.06
292.064	91.06
292.295	114.06
292.526	99.06
292.757	97.06
292.987	91.06
293.218	85.06
293.449	85.06
293.68	88.06
293.91	79.06
294.141	86.06
294.372	87.06
294.603	78.06
294.833	84.06
295.064	82.06
295.295	90.06
295.525	91.06
295.756	97.06
295.987	114.06
296.217	124.06
296.448	97.06
296.679	86.06
296.909	77.06
297.14	85.06
297.37	85.06
297.601	77.06
297.831	94.06
298.062	95.06
298.292	99.06
298.523	76.06
298.753	89.06
298.984	90.06
299.214	91.06
299.445	87.06
299.675	72.06
299.905	87.06
300.136	88.06
300.366	87.06
300.597	85.06
300.827	105.06
301.057	100.06
301.288	89.06
301.518	101.06
301.748	85.06
301.979	98.06
302.209	86.06
302.439	83.06
302.669	94.06
302.9	89.06
303.13	93.06
303.36	93.06
303.59	90.06
303.82	97.06
304.051	97.06
304.281	81.06
304.511	102.06
304.741	92.06
304.971	88.06
305.201	97.06
305.431	84.06
305.661	80.06
305.891	96.06
306.121	79.06
306.352	88.06
306.582	98.06
306.812	90.06
307.042	99.06
307.272	93.06
307.502	97.06
307.731	91.06
307.961	85.06
308.191	83.06
308.421	79.06
308.651	91.06
308.881	84.06
309.111	92.06
309.341	87.06
309.571	97.06
309.8	94.06
310.03	82.06
310.26	92.06
310.49	102.06
310.72	93.06
310.949	102.06
311.179	100.06
311.409	83.06
311.639	81.06
311.868	94.06
312.098	81.06
312.328	98.06
312.557	99.06
312.787	100.06
313.017	84.06
313.246	92.06
313.476	84.06
313.706	95.06
313.935	96.06
314.165	93.06
314.394	93.06
314.624	83.06
314.853	93.06
315.083	97.06
315.312	94.06
315.542	93.06
315.771	86.06
316.001	97.06
316.23	89.06
316.46	93.06
316.689	81.06
316.919	88.06
317.148	95.06
317.377	101.06
317.607	100.06
317.836	83.06
318.065	80.06
318.295	103.06
318.524	97.06
318.753	87.06
318.983	89.06
319.212	84.06
319.441	97.06
319.67	99.06
319.9	86.06
320.129	86.06
320.358	90.06
320.587	93.06
320.816	95.06
321.046	101.06
321.275	93.06
321.504	93.06
321.733	85.06
321.962	83.06
322.191	95.06
322.42	87.06
322.649	105.06
322.878	97.06
323.108	109.06
323.337	124.06
323.566	118.06
323.795	130.06
324.024	163.06
324.253	306.06
324.482	607.06
324.71	1209.06
324.939	1619.06
325.168	595.06
325.397	201.06
325.626	132.06
325.855	117.06
326.084	116.06
326.313	134.06
326.542	126.06
326.77	190.06
326.999	343.06
327.228	700.06
327.457	1283.06
327.686	1002.06
327.914	297.06
328.143	157.06
328.372	131.06
328.6	122.06
328.829	98.06
329.058	106.06
329.287	119.06
329.515	109.06
329.744	103.06
329.972	107.06
330.201	109.06
330.43	133.06
330.658	114.06
330.887	119.06
331.115	103.06
331.344	99.06
331.572	108.06
331.801	120.06
332.03	109.06
332.258	85.06
332.486	89.06
332.715	92.06
332.943	83.06
333.172	109.06
333.4	86.06
333.629	93.06
333.857	103.06
334.085	112.06
334.314	100.06
334.542	139.06
334.771	122.06
334.999	106.06
335.227	97.06
335.455	92.06
335.684	91.06
335.912	102.06
336.14	98.06
336.369	88.06
336.597	104.06
336.825	114.06
337.053	100.06
337.281	86.06
337.51	97.06
337.738	91.06
337.966	85.06
338.194	81.06
338.422	86.06
338.65	90.06
338.878	89.06
339.106	82.06
339.334	106.06
339.562	89.06
339.79	102.06
340.018	97.06
340.246	93.06
340.474	88.06
340.702	91.06
340.93	101.06
341.158	87.06
341.386	87.06
341.614	88.06
341.842	89.06
342.07	89.06
342.298	91.06
342.526	94.06
342.754	89.06
342.981	97.06
343.209	87.06
343.437	92.06
343.665	83.06
343.893	91.06
344.12	93.06
344.348	79.06
344.576	89.06
344.804	87.06
345.031	97.06
345.259	113.06
345.487	92.06
345.714	95.06
345.942	95.06
346.17	108.06
346.397	89.06
346.625	96.06
346.853	92.06
347.08	92.06
347.308	113.06
347.535	89.06
347.763	98.06
347.99	94.06
348.218	86.06
348.445	92.06
348.673	94.06
348.9	97.06
349.128	96.06
349.355	97.06
349.583	87.06
349.81	85.06
350.037	106.06
350.265	93.06
350.492	91.06
350.72	92.06
350.947	94.06
351.174	122.06
351.402	113.06
351.629	90.06
351.856	93.06
352.083	94.06
352.311	109.06
352.538	110.06
352.765	98.06
352.992	118.06
353.22	109.06
353.447	100.06
353.674	101.06
353.901	100.06
354.128	108.06
354.355	102.06
354.583	85.06
354.81	93.06
355.037	105.06
355.264	102.06
355.491	95.06
355.718	101.06
355.945	99.06
356.172	105.06
356.399	106.06
356.626	104.06
356.853	92.06
357.08	101.06
357.307	92.06
357.534	105.06
357.761	77.06
357.988	93.06
358.215	103.06
358.441	100.06
358.668	107.06
358.895	99.06
359.122	93.06
359.349	82.06
359.576	83.06
359.802	97.06
360.029	93.06
360.256	102.06
360.483	94.06
360.709	93.06
360.936	111.06
361.163	96.06
361.39	101.06
361.616	85.06
361.843	103.06
362.07	91.06
362.296	85.06
362.523	95.06
362.749	86.06
362.976	102.06
363.203	111.06
363.429	90.06
363.656	102.06
363.882	81.06
364.109	91.06
364.335	95.06
364.562	78.06
364.788	91.06
365.015	97.06
365.241	81.06
365.468	103.06
365.694	98.06
365.92	94.06
366.147	95.06
366.373	87.06
366.599	91.06
366.826	87.06
367.052	104.06
367.278	91.06
367.505	88.06
367.731	87.06
367.957	89.06
368.184	104.06
368.41	108.06
368.636	105.06
368.862	110.06
369.089	106.06
369.315	106.06
369.541	96.06
369.767	86.06
369.993	93.06
370.219	83.06
370.445	89.06
370.672	93.06
370.898	90.06
371.124	90.06
371.35	75.06
371.576	90.06
371.802	86.06
372.028	86.06
372.254	85.06
372.48	84.06
372.706	94.06
372.932	79.06
373.158	94.06
373.384	100.06
373.61	106.06
373.835	94.06
374.061	99.06
374.287	79.06
374.513	89.06
374.739	95.06
374.965	84.06
375.191	101.06
375.416	98.06
375.642	107.06
375.868	85.06
376.094	100.06
376.319	96.06
376.545	93.06
376.771	96.06
376.997	92.06
377.222	98.06
377.448	98.06
377.674	95.06
377.899	98.06
378.125	100.06
378.35	107.06
378.576	93.06
378.802	92.06
379.027	99.06
379.253	108.06
379.478	108.06
379.704	98.06
379.929	85.06
380.155	98.06
380.38	95.06
380.606	109.06
380.831	118.06
381.057	116.06
381.282	104.06
381.507	104.06
381.733	104.06
381.958	118.06
382.184	120.06
382.409	125.06
382.634	115.06
382.86	115.06
383.085	114.06
383.31	131.06
383.535	127.06
383.761	130.06
383.986	107.06
384.211	117.06
384.436	121.06
384.662	139.06
384.887	158.06
385.112	151.06
385.337	141.06
385.562	141.06
385.787	134.06
386.013	157.06
386.238	165.06
386.463	135.06
386.688	143.06
386.913	144.06
387.138	158.06
387.363	139.06
387.588	110.06
387.813	122.06
388.038	143.06
388.263	163.06
388.488	149.06
388.713	106.06
388.938	114.06
389.163	102.06
389.387	101.06
389.612	90.06
389.837	101.06
390.062	93.06
390.287	96.06
390.512	93.06
390.736	93.06
390.961	84.06
391.186	100.06
391.411	86.06
391.636	82.06
391.86	95.06
392.085	93.06
392.31	86.06
392.534	115.06
392.759	109.06
392.984	109.06
393.208	144.06
393.433	209.06
393.658	181.06
393.882	97.06
394.107	91.06
394.331	96.06
394.556	97.06
394.78	102.06
395.005	87.06
395.229	88.06
395.454	87.06
395.678	88.06
395.903	89.06
396.127	90.06
396.352	99.06
396.576	115.06
396.801	140.06
397.025	175.06
397.249	98.06
397.474	81.06
397.698	87.06
397.922	86.06
398.147	97.06
398.371	84.06
398.595	86.06
398.82	91.06
399.044	81.06
399.268	91.06
399.492	100.06
399.717	71.06
399.941	100.06
400.165	111.06
400.389	89.06
400.613	73.06
400.837	96.06
401.062	85.06
401.286	83.06
401.51	78.06
401.734	91.06
401.958	84.06
402.182	106.06
402.406	134.06
402.63	120.06
402.854	100.06
403.078	88.06
403.302	87.06
403.526	88.06
403.75	97.06
403.974	77.06
404.198	89.06
404.422	80.06
404.645	82.06
404.869	98.06
405.093	105.06
405.317	112.06
405.541	96.06
405.765	98.06
405.988	110.06
406.212	145.06
406.436	167.06
406.66	124.06
406.883	109.06
407.107	92.06
407.331	92.06
407.555	87.06
407.778	88.06
408.002	83.06
408.226	93.06
408.449	87.06
408.673	85.06
408.896	108.06
409.12	98.06
409.344	93.06
409.567	95.06
409.791	108.06
410.014	86.06
410.238	108.06
410.461	93.06
410.685	100.06
410.908	91.06
411.132	109.06
411.355	96.06
411.578	92.06
411.802	89.06
412.025	99.06
412.249	92.06
412.472	86.06
412.695	96.06
412.919	101.06
413.142	100.06
413.365	95.06
413.589	97.06
413.812	93.06
414.035	95.06
414.258	90.06
414.482	90.06
414.705	103.06
414.928	84.06
415.151	92.06
415.374	101.06
415.597	92.06
415.821	99.06
416.044	106.06
416.267	95.06
416.49	79.06
416.713	96.06
416.936	77.06
417.159	93.06
417.382	96.06
417.605	95.06
417.828	97.06
418.051	106.06
418.274	106.06
418.497	91.06
418.72	89.06
418.943	91.06
419.166	85.06
419.389	84.06
419.611	85.06
419.834	72.06
420.057	89.06
420.28	89.06
420.503	94.06
420.726	89.06
420.948	79.06
421.171	94.06
421.394	102.06
421.617	86.06
421.839	81.06
422.062	84.06
422.285	84.06
422.507	125.06
422.73	155.06
422.953	143.06
423.175	101.06
423.398	90.06
423.621	83.06
423.843	103.06
424.066	79.06
424.288	97.06
424.511	100.06
424.733	81.06
424.956	95.06
425.178	83.06
425.401	87.06
425.623	95.06
425.846	98.06
426.068	85.06
426.291	88.06
426.513	86.06
426.735	90.06
426.958	91.06
427.18	86.06
427.402	118.06
427.625	122.06
427.847	125.06
428.069	106.06
428.292	86.06
428.514	98.06
428.736	95.06
428.958	89.06
429.181	81.06
429.403	74.06
429.625	101.06
429.847	94.06
430.069	84.06
430.292	85.06
430.514	89.06
430.736	97.06
430.958	94.06
431.18	89.06
431.402	73.06
431.624	88.06
431.846	84.06
432.068	71.06
432.29	99.06
432.512	101.06
432.734	104.06
432.956	81.06
433.178	95.06
433.4	102.06
433.622	98.06
433.844	87.06
434.066	100.06
434.287	97.06
434.509	86.06
434.731	89.06
434.953	94.06
435.175	92.06
435.397	80.06
435.618	98.06
435.84	101.06
436.062	101.06
436.284	115.06
436.505	105.06
436.727	111.06
436.949	84.06
437.17	85.06
437.392	97.06
437.614	99.06
437.835	93.06
438.057	102.06
438.278	89.06
438.5	94.06
438.721	117.06
438.943	82.06
439.165	91.06
439.386	81.06
439.608	96.06
439.829	105.06
440.05	112.06
440.272	130.06
440.493	104.06
440.715	81.06
440.936	81.06
441.158	92.06
441.379	84.06
441.6	91.06
441.822	93.06
442.043	82.06
442.264	92.06
442.486	98.06
442.707	90.06
442.928	99.06
443.149	113.06
443.371	107.06
443.592	106.06
443.813	100.06
444.034	98.06
444.255	78.06
444.476	92.06
444.698	99.06
444.919	91.06
445.14	141.06
445.361	128.06
445.582	93.06
445.803	119.06
446.024	96.06
446.245	105.06
446.466	83.06
446.687	100.06
446.908	85.06
447.129	88.06
447.35	78.06
447.571	91.06
447.792	91.06
448.013	109.06
448.234	105.06
448.455	96.06
448.675	108.06
448.896	118.06
449.117	100.06
449.338	99.06
449.559	125.06
449.779	116.06
450	95.06
450.221	95.06
450.442	80.06
450.662	91.06
450.883	83.06
451.104	97.06
451.324	101.06
451.545	85.06
451.766	81.06
451.986	85.06
452.207	99.06
452.428	73.06
452.648	93.06
452.869	100.06
453.089	102.06
453.31	94.06
453.53	100.06
453.751	100.06
453.971	97.06
454.192	105.06
454.412	93.06
454.633	95.06
454.853	77.06
455.073	87.06
455.294	94.06
455.514	68.06
455.734	82.06
455.955	69.06
456.175	77.06
456.395	80.06
456.616	94.06
456.836	99.06
457.056	83.06
457.276	82.06
457.497	95.06
457.717	99.06
457.937	79.06
458.157	83.06
458.377	90.06
458.598	107.06
458.818	133.06
459.038	138.06
459.258	111.06
459.478	98.06
459.698	100.06
459.918	94.06
460.138	77.06
460.358	86.06
460.578	71.06
460.798	92.06
461.018	89.06
461.238	104.06
461.458	93.06
461.678	88.06
461.898	83.06
462.118	102.06
462.338	73.06
462.558	99.06
462.777	78.06
462.997	95.06
463.217	82.06
463.437	89.06
463.657	92.06
463.876	81.06
464.096	74.06
464.316	98.06
464.536	91.06
464.755	97.06
464.975	97.06
465.195	139.06
465.414	129.06
465.634	93.06
465.854	90.06
466.073	72.06
466.293	79.06
466.512	72.06
466.732	69.06
466.951	77.06
467.171	81.06
467.391	95.06
467.61	87.06
467.829	89.06
468.049	96.06
468.268	105.06
468.488	88.06
468.707	84.06
468.927	89.06
469.146	82.06
469.365	73.06
469.585	71.06
469.804	95.06
470.023	110.06
470.243	110.06
470.462	95.06
470.681	82.06
470.901	87.06
471.12	78.06
471.339	99.06
471.558	85.06
471.777	86.06
471.997	92.06
472.216	107.06
472.435	143.06
472.654	94.06
472.873	92.06
473.092	88.06
473.311	86.06
473.53	87.06
473.749	93.06
473.968	98.06
474.187	95.06
474.406	114.06
474.625	91.06
474.844	82.06
475.063	91.06
475.282	88.06
475.501	83.06
475.72	84.06
475.939	81.06
476.158	84.06
476.377	102.06
476.596	70.06
476.814	82.06
477.033	94.06
477.252	66.06
477.471	86.06
477.69	75.06
477.908	91.06
478.127	87.06
478.346	98.06
478.564	75.06
478.783	96.06
479.002	92.06
479.22	103.06
479.439	97.06
479.658	94.06
479.876	96.06
480.095	102.06
480.313	103.06
480.532	99.06
480.751	106.06
480.969	109.06
481.188	188.06
481.406	127.06
481.624	99.06
481.843	83.06
482.061	91.06
482.28	102.06
482.498	89.06
482.717	94.06
482.935	101.06
483.153	85.06
483.372	109.06
483.59	94.06
483.808	89.06
484.027	97.06
484.245	94.06
484.463	103.06
484.681	99.06
484.9	99.06
485.118	101.06
485.336	106.06
485.554	102.06
485.772	116.06
485.99	101.06
486.209	110.06
486.427	122.06
486.645	92.06
486.863	111.06
487.081	98.06
487.299	100.06
487.517	96.06
487.735	105.06
487.953	98.06
488.171	91.06
488.389	95.06
488.607	83.06
488.825	78.06
489.043	91.06
489.261	92.06
489.479	88.06
489.696	105.06
489.914	88.06
490.132	77.06
490.35	91.06
490.568	92.06
490.786	91.06
491.003	85.06
491.221	82.06
491.439	87.06
491.657	82.06
491.874	99.06
492.092	101.06
492.31	103.06
492.527	90.06
492.745	114.06
492.963	103.06
493.18	91.06
493.398	89.06
493.615	95.06
493.833	97.06
494.05	99.06
494.268	94.06
494.485	84.06
494.703	86.06
494.92	93.06
495.138	83.06
495.355	94.06
495.573	100.06
495.79	90.06
496.008	104.06
496.225	89.06
496.442	94.06
496.66	97.06
496.877	85.06
497.094	78.06
497.312	89.06
497.529	96.06
497.746	90.06
497.963	85.06
498.181	91.06
498.398	102.06
498.615	104.06
498.832	95.06
499.049	81.06
499.267	95.06
499.484	86.06
499.701	92.06
499.918	78.06
500.135	98.06
500.352	94.06
500.569	89.06
500.786	89.06
501.003	107.06
501.22	79.06
501.437	105.06
501.654	96.06
501.871	93.06
502.088	98.06
502.305	85.06
502.522	83.06
502.739	105.06
502.956	85.06
503.172	93.06
503.389	95.06
503.606	99.06
503.823	82.06
504.04	82.06
504.256	86.06
504.473	92.06
504.69	88.06
504.907	87.06
505.123	91.06
505.34	103.06
505.557	80.06
505.773	93.06
505.99	93.06
506.207	92.06
506.423	84.06
506.64	93.06
506.856	91.06
507.073	99.06
507.289	87.06
507.506	96.06
507.722	96.06
507.939	101.06
508.155	94.06
508.372	90.06
508.588	90.06
508.805	92.06
509.021	102.06
509.238	97.06
509.454	94.06
509.67	77.06
509.887	94.06
510.103	121.06
510.319	176.06
510.536	595.06
510.752	1755.06
510.968	513.06
511.184	140.06
511.401	111.06
511.617	99.06
511.833	91.06
512.049	106.06
512.265	96.06
512.481	85.06
512.698	85.06
512.914	99.06
513.13	90.06
513.346	94.06
513.562	90.06
513.778	97.06
513.994	93.06
514.21	108.06
514.426	114.06
514.642	116.06
514.858	118.06
515.074	142.06
515.29	350.06
515.506	1013.06
