Data from Circ_1993_H10_HRD10591_00027.txt Node
Date: Wed Jan 03 11:44:07 EST 2024
User: Yrep
Spectrometer: HR+D1059
Trigger mode: 1
Integration Time (sec): 1.000000E-1
Scans to average: 1
Electric dark correction enabled: true
Nonlinearity correction enabled: false
Boxcar width: 0
XAxis mode: Wavelengths
Number of Pixels in Spectrum: 2048
>>>>>Begin Spectral Data<<<<<
223.165	-24.12
223.4	-24.12
223.635	-24.12
223.869	-17.12
224.104	-17.12
224.338	-17.12
224.573	-23.12
224.808	-10.12
225.042	-5.12
225.277	2.88
225.511	-1.12
225.746	3.88
225.98	8.88
226.215	10.88
226.449	16.88
226.683	23.88
226.918	31.88
227.152	15.88
227.387	36.88
227.621	45.88
227.856	40.88
228.09	30.88
228.324	53.88
228.559	54.88
228.793	48.88
229.027	62.88
229.262	67.88
229.496	84.88
229.73	71.88
229.964	91.88
230.199	66.88
230.433	71.88
230.667	78.88
230.901	73.88
231.136	61.88
231.37	82.88
231.604	82.88
231.838	84.88
232.072	80.88
232.306	82.88
232.541	65.88
232.775	82.88
233.009	89.88
233.243	83.88
233.477	88.88
233.711	98.88
233.945	66.88
234.179	89.88
234.413	63.88
234.647	77.88
234.881	77.88
235.115	65.88
235.349	92.88
235.583	75.88
235.817	73.88
236.051	75.88
236.285	77.88
236.519	83.88
236.753	77.88
236.987	75.88
237.221	90.88
237.455	85.88
237.689	78.88
237.922	81.88
238.156	80.88
238.39	84.88
238.624	68.88
238.858	65.88
239.091	82.88
239.325	72.88
239.559	88.88
239.793	88.88
240.027	91.88
240.26	71.88
240.494	70.88
240.728	69.88
240.961	76.88
241.195	86.88
241.429	84.88
241.662	84.88
241.896	77.88
242.13	75.88
242.363	83.88
242.597	75.88
242.83	66.88
243.064	81.88
243.298	79.88
243.531	73.88
243.765	81.88
243.998	97.88
244.232	76.88
244.465	77.88
244.699	66.88
244.932	53.88
245.166	84.88
245.399	94.88
245.633	85.88
245.866	83.88
246.099	87.88
246.333	89.88
246.566	81.88
246.8	85.88
247.033	79.88
247.266	59.88
247.5	74.88
247.733	86.88
247.966	79.88
248.2	99.88
248.433	83.88
248.666	86.88
248.899	84.88
249.133	73.88
249.366	81.88
249.599	93.88
249.832	78.88
250.066	82.88
250.299	70.88
250.532	79.88
250.765	88.88
250.998	71.88
251.231	66.88
251.465	71.88
251.698	86.88
251.931	90.88
252.164	81.88
252.397	83.88
252.63	88.88
252.863	73.88
253.096	79.88
253.329	84.88
253.562	85.88
253.795	90.88
254.028	94.88
254.261	82.88
254.494	80.88
254.727	90.88
254.96	88.88
255.193	68.88
255.426	79.88
255.659	77.88
255.892	85.88
256.124	90.88
256.357	86.88
256.59	92.88
256.823	83.88
257.056	80.88
257.289	82.88
257.521	72.88
257.754	86.88
257.987	89.88
258.22	81.88
258.452	85.88
258.685	69.88
258.918	75.88
259.151	82.88
259.383	102.88
259.616	76.88
259.849	84.88
260.081	89.88
260.314	80.88
260.547	89.88
260.779	64.88
261.012	91.88
261.244	83.88
261.477	99.88
261.71	101.88
261.942	125.88
262.175	101.88
262.407	95.88
262.64	77.88
262.872	77.88
263.105	82.88
263.337	83.88
263.57	88.88
263.802	101.88
264.035	73.88
264.267	85.88
264.499	88.88
264.732	85.88
264.964	79.88
265.197	86.88
265.429	78.88
265.661	69.88
265.894	75.88
266.126	68.88
266.358	88.88
266.591	93.88
266.823	88.88
267.055	62.88
267.287	77.88
267.52	90.88
267.752	85.88
267.984	79.88
268.216	77.88
268.448	74.88
268.681	106.88
268.913	76.88
269.145	83.88
269.377	94.88
269.609	85.88
269.841	74.88
270.073	85.88
270.306	86.88
270.538	90.88
270.77	89.88
271.002	82.88
271.234	86.88
271.466	88.88
271.698	83.88
271.93	86.88
272.162	77.88
272.394	77.88
272.626	77.88
272.858	85.88
273.09	86.88
273.322	81.88
273.553	81.88
273.785	75.88
274.017	83.88
274.249	89.88
274.481	85.88
274.713	75.88
274.945	83.88
275.176	86.88
275.408	80.88
275.64	91.88
275.872	83.88
276.104	85.88
276.335	90.88
276.567	93.88
276.799	107.88
277.031	98.88
277.262	93.88
277.494	86.88
277.726	96.88
277.957	103.88
278.189	90.88
278.421	91.88
278.652	80.88
278.884	76.88
279.115	88.88
279.347	79.88
279.579	81.88
279.81	91.88
280.042	94.88
280.273	89.88
280.505	91.88
280.736	84.88
280.968	97.88
281.199	85.88
281.431	84.88
281.662	86.88
281.894	83.88
282.125	107.88
282.356	115.88
282.588	128.88
282.819	124.88
283.051	94.88
283.282	94.88
283.513	95.88
283.745	101.88
283.976	84.88
284.207	89.88
284.439	81.88
284.67	82.88
284.901	82.88
285.132	90.88
285.364	86.88
285.595	67.88
285.826	90.88
286.057	82.88
286.288	87.88
286.52	98.88
286.751	98.88
286.982	80.88
287.213	80.88
287.444	87.88
287.675	96.88
287.906	88.88
288.138	93.88
288.369	113.88
288.6	83.88
288.831	89.88
289.062	91.88
289.293	75.88
289.524	88.88
289.755	95.88
289.986	86.88
290.217	78.88
290.448	92.88
290.679	95.88
290.91	96.88
291.141	75.88
291.371	100.88
291.602	83.88
291.833	88.88
292.064	95.88
292.295	95.88
292.526	82.88
292.757	86.88
292.987	98.88
293.218	95.88
293.449	81.88
293.68	96.88
293.91	90.88
294.141	88.88
294.372	93.88
294.603	82.88
294.833	92.88
295.064	100.88
295.295	69.88
295.525	93.88
295.756	106.88
295.987	119.88
296.217	164.88
296.448	127.88
296.679	97.88
296.909	75.88
297.14	90.88
297.37	91.88
297.601	81.88
297.831	89.88
298.062	92.88
298.292	78.88
298.523	93.88
298.753	81.88
298.984	93.88
299.214	92.88
299.445	83.88
299.675	89.88
299.905	97.88
300.136	102.88
300.366	103.88
300.597	95.88
300.827	93.88
301.057	123.88
301.288	114.88
301.518	96.88
301.748	92.88
301.979	101.88
302.209	90.88
302.439	89.88
302.669	86.88
302.9	84.88
303.13	95.88
303.36	98.88
303.59	92.88
303.82	101.88
304.051	105.88
304.281	81.88
304.511	97.88
304.741	95.88
304.971	92.88
305.201	95.88
305.431	102.88
305.661	84.88
305.891	108.88
306.121	97.88
306.352	114.88
306.582	117.88
306.812	97.88
307.042	105.88
307.272	83.88
307.502	96.88
307.731	88.88
307.961	100.88
308.191	94.88
308.421	93.88
308.651	102.88
308.881	92.88
309.111	99.88
309.341	95.88
309.571	104.88
309.8	92.88
310.03	103.88
310.26	101.88
310.49	87.88
310.72	86.88
310.949	101.88
311.179	98.88
311.409	79.88
311.639	83.88
311.868	104.88
312.098	98.88
312.328	89.88
312.557	109.88
312.787	104.88
313.017	110.88
313.246	96.88
313.476	98.88
313.706	82.88
313.935	93.88
314.165	89.88
314.394	116.88
314.624	93.88
314.853	98.88
315.083	103.88
315.312	102.88
315.542	91.88
315.771	92.88
316.001	106.88
316.23	85.88
316.46	96.88
316.689	96.88
316.919	82.88
317.148	92.88
317.377	100.88
317.607	97.88
317.836	91.88
318.065	77.88
318.295	92.88
318.524	96.88
318.753	96.88
318.983	92.88
319.212	98.88
319.441	118.88
319.67	123.88
319.9	101.88
320.129	99.88
320.358	98.88
320.587	113.88
320.816	89.88
321.046	94.88
321.275	89.88
321.504	101.88
321.733	93.88
321.962	113.88
322.191	102.88
322.42	97.88
322.649	122.88
322.878	123.88
323.108	123.88
323.337	127.88
323.566	146.88
323.795	166.88
324.024	213.88
324.253	428.88
324.482	886.88
324.71	1839.88
324.939	2460.88
325.168	872.88
325.397	257.88
325.626	161.88
325.855	128.88
326.084	131.88
326.313	127.88
326.542	158.88
326.77	251.88
326.999	484.88
327.228	967.88
327.457	1831.88
327.686	1460.88
327.914	399.88
328.143	215.88
328.372	177.88
328.6	142.88
328.829	115.88
329.058	139.88
329.287	125.88
329.515	111.88
329.744	109.88
329.972	113.88
330.201	128.88
330.43	144.88
330.658	138.88
330.887	169.88
331.115	129.88
331.344	114.88
331.572	107.88
331.801	101.88
332.03	96.88
332.258	92.88
332.486	84.88
332.715	103.88
332.943	93.88
333.172	104.88
333.4	94.88
333.629	108.88
333.857	117.88
334.085	129.88
334.314	137.88
334.542	161.88
334.771	157.88
334.999	112.88
335.227	101.88
335.455	86.88
335.684	94.88
335.912	100.88
336.14	85.88
336.369	101.88
336.597	110.88
336.825	101.88
337.053	98.88
337.281	101.88
337.51	96.88
337.738	100.88
337.966	78.88
338.194	98.88
338.422	92.88
338.65	94.88
338.878	103.88
339.106	99.88
339.334	88.88
339.562	77.88
339.79	90.88
340.018	93.88
340.246	81.88
340.474	99.88
340.702	92.88
340.93	103.88
341.158	93.88
341.386	89.88
341.614	95.88
341.842	92.88
342.07	101.88
342.298	104.88
342.526	85.88
342.754	84.88
342.981	96.88
343.209	89.88
343.437	100.88
343.665	92.88
343.893	89.88
344.12	95.88
344.348	80.88
344.576	94.88
344.804	90.88
345.031	104.88
345.259	101.88
345.487	89.88
345.714	98.88
345.942	81.88
346.17	78.88
346.397	92.88
346.625	100.88
346.853	89.88
347.08	93.88
347.308	96.88
347.535	97.88
347.763	88.88
347.99	81.88
348.218	96.88
348.445	104.88
348.673	71.88
348.9	91.88
349.128	79.88
349.355	85.88
349.583	85.88
349.81	82.88
350.037	89.88
350.265	111.88
350.492	92.88
350.72	100.88
350.947	99.88
351.174	105.88
351.402	120.88
351.629	108.88
351.856	109.88
352.083	93.88
352.311	105.88
352.538	115.88
352.765	99.88
352.992	101.88
353.22	111.88
353.447	108.88
353.674	92.88
353.901	97.88
354.128	90.88
354.355	93.88
354.583	96.88
354.81	95.88
355.037	87.88
355.264	80.88
355.491	100.88
355.718	103.88
355.945	117.88
356.172	96.88
356.399	101.88
356.626	99.88
356.853	103.88
357.08	86.88
357.307	108.88
357.534	85.88
357.761	82.88
357.988	107.88
358.215	99.88
358.441	109.88
358.668	109.88
358.895	81.88
359.122	83.88
359.349	85.88
359.576	97.88
359.802	110.88
360.029	109.88
360.256	103.88
360.483	98.88
360.709	94.88
360.936	106.88
361.163	97.88
361.39	98.88
361.616	96.88
361.843	90.88
362.07	91.88
362.296	92.88
362.523	88.88
362.749	92.88
362.976	96.88
363.203	98.88
363.429	91.88
363.656	107.88
363.882	89.88
364.109	90.88
364.335	98.88
364.562	101.88
364.788	86.88
365.015	80.88
365.241	103.88
365.468	98.88
365.694	102.88
365.92	88.88
366.147	93.88
366.373	95.88
366.599	97.88
366.826	100.88
367.052	87.88
367.278	90.88
367.505	88.88
367.731	93.88
367.957	93.88
368.184	84.88
368.41	98.88
368.636	121.88
368.862	119.88
369.089	113.88
369.315	104.88
369.541	83.88
369.767	78.88
369.993	91.88
370.219	99.88
370.445	90.88
370.672	91.88
370.898	94.88
371.124	84.88
371.35	85.88
371.576	69.88
371.802	94.88
372.028	90.88
372.254	83.88
372.48	85.88
372.706	78.88
372.932	97.88
373.158	81.88
373.384	91.88
373.61	95.88
373.835	92.88
374.061	70.88
374.287	87.88
374.513	96.88
374.739	102.88
374.965	87.88
375.191	82.88
375.416	94.88
375.642	104.88
375.868	114.88
376.094	85.88
376.319	84.88
376.545	97.88
376.771	100.88
376.997	85.88
377.222	97.88
377.448	94.88
377.674	92.88
377.899	93.88
378.125	99.88
378.35	85.88
378.576	99.88
378.802	86.88
379.027	92.88
379.253	90.88
379.478	83.88
379.704	107.88
379.929	95.88
380.155	106.88
380.38	94.88
380.606	89.88
380.831	103.88
381.057	113.88
381.282	117.88
381.507	120.88
381.733	107.88
381.958	94.88
382.184	108.88
382.409	109.88
382.634	107.88
382.86	113.88
383.085	110.88
383.31	102.88
383.535	115.88
383.761	123.88
383.986	117.88
384.211	131.88
384.436	113.88
384.662	103.88
384.887	122.88
385.112	140.88
385.337	105.88
385.562	110.88
385.787	118.88
386.013	113.88
386.238	129.88
386.463	117.88
386.688	123.88
386.913	107.88
387.138	125.88
387.363	125.88
387.588	118.88
387.813	121.88
388.038	131.88
388.263	139.88
388.488	120.88
388.713	98.88
388.938	102.88
389.163	101.88
389.387	84.88
389.612	98.88
389.837	83.88
390.062	78.88
390.287	81.88
390.512	79.88
390.736	97.88
390.961	91.88
391.186	103.88
391.411	92.88
391.636	90.88
391.86	85.88
392.085	94.88
392.31	89.88
392.534	91.88
392.759	96.88
392.984	97.88
393.208	130.88
393.433	156.88
393.658	122.88
393.882	98.88
394.107	102.88
394.331	95.88
394.556	90.88
394.78	89.88
395.005	92.88
395.229	103.88
395.454	85.88
395.678	88.88
395.903	81.88
396.127	89.88
396.352	82.88
396.576	95.88
396.801	107.88
397.025	131.88
397.249	98.88
397.474	99.88
397.698	82.88
397.922	101.88
398.147	86.88
398.371	81.88
398.595	90.88
398.82	85.88
399.044	88.88
399.268	84.88
399.492	87.88
399.717	91.88
399.941	92.88
400.165	91.88
400.389	92.88
400.613	83.88
400.837	95.88
401.062	100.88
401.286	97.88
401.51	103.88
401.734	87.88
401.958	91.88
402.182	129.88
402.406	167.88
402.63	129.88
402.854	96.88
403.078	81.88
403.302	102.88
403.526	78.88
403.75	97.88
403.974	85.88
404.198	89.88
404.422	85.88
404.645	82.88
404.869	86.88
405.093	98.88
405.317	107.88
405.541	114.88
405.765	109.88
405.988	115.88
406.212	182.88
406.436	241.88
406.66	153.88
406.883	107.88
407.107	97.88
407.331	95.88
407.555	101.88
407.778	104.88
408.002	93.88
408.226	88.88
408.449	90.88
408.673	86.88
408.896	92.88
409.12	92.88
409.344	81.88
409.567	90.88
409.791	95.88
410.014	94.88
410.238	98.88
410.461	101.88
410.685	97.88
410.908	92.88
411.132	100.88
411.355	103.88
411.578	93.88
411.802	92.88
412.025	100.88
412.249	91.88
412.472	90.88
412.695	88.88
412.919	88.88
413.142	97.88
413.365	101.88
413.589	92.88
413.812	87.88
414.035	79.88
414.258	83.88
414.482	99.88
414.705	90.88
414.928	92.88
415.151	108.88
415.374	91.88
415.597	95.88
415.821	93.88
416.044	92.88
416.267	97.88
416.49	76.88
416.713	85.88
416.936	88.88
417.159	79.88
417.382	87.88
417.605	102.88
417.828	102.88
418.051	76.88
418.274	85.88
418.497	74.88
418.72	97.88
418.943	102.88
419.166	97.88
419.389	87.88
419.611	89.88
419.834	89.88
420.057	85.88
420.28	84.88
420.503	83.88
420.726	93.88
420.948	90.88
421.171	93.88
421.394	89.88
421.617	86.88
421.839	98.88
422.062	78.88
422.285	81.88
422.507	103.88
422.73	123.88
422.953	86.88
423.175	81.88
423.398	85.88
423.621	81.88
423.843	84.88
424.066	95.88
424.288	79.88
424.511	108.88
424.733	101.88
424.956	102.88
425.178	90.88
425.401	89.88
425.623	86.88
425.846	82.88
426.068	94.88
426.291	87.88
426.513	90.88
426.735	80.88
426.958	97.88
427.18	109.88
427.402	139.88
427.625	169.88
427.847	145.88
428.069	108.88
428.292	84.88
428.514	107.88
428.736	89.88
428.958	82.88
429.181	98.88
429.403	73.88
429.625	99.88
429.847	97.88
430.069	98.88
430.292	80.88
430.514	85.88
430.736	89.88
430.958	83.88
431.18	83.88
431.402	84.88
431.624	81.88
431.846	86.88
432.068	82.88
432.29	78.88
432.512	91.88
432.734	86.88
432.956	87.88
433.178	109.88
433.4	109.88
433.622	99.88
433.844	93.88
434.066	92.88
434.287	81.88
434.509	99.88
434.731	93.88
434.953	79.88
435.175	98.88
435.397	100.88
435.618	86.88
435.84	103.88
436.062	121.88
436.284	120.88
436.505	107.88
436.727	97.88
436.949	85.88
437.17	93.88
437.392	91.88
437.614	93.88
437.835	106.88
438.057	110.88
438.278	113.88
438.5	103.88
438.721	108.88
438.943	94.88
439.165	101.88
439.386	100.88
439.608	90.88
439.829	93.88
440.05	127.88
440.272	141.88
440.493	96.88
440.715	97.88
440.936	81.88
441.158	96.88
441.379	87.88
441.6	110.88
441.822	100.88
442.043	99.88
442.264	108.88
442.486	92.88
442.707	90.88
442.928	107.88
443.149	131.88
443.371	157.88
443.592	114.88
443.813	93.88
444.034	107.88
444.255	94.88
444.476	80.88
444.698	85.88
444.919	93.88
445.14	128.88
445.361	118.88
445.582	109.88
445.803	140.88
446.024	125.88
446.245	128.88
446.466	111.88
446.687	102.88
446.908	92.88
447.129	82.88
447.35	97.88
447.571	110.88
447.792	96.88
448.013	90.88
448.234	113.88
448.455	110.88
448.675	113.88
448.896	121.88
449.117	111.88
449.338	117.88
449.559	140.88
449.779	115.88
450	97.88
450.221	96.88
450.442	93.88
450.662	83.88
450.883	107.88
451.104	112.88
451.324	94.88
451.545	100.88
451.766	79.88
451.986	71.88
452.207	85.88
452.428	103.88
452.648	92.88
452.869	117.88
453.089	109.88
453.31	124.88
453.53	100.88
453.751	75.88
453.971	105.88
454.192	127.88
454.412	93.88
454.633	92.88
454.853	91.88
455.073	89.88
455.294	79.88
455.514	96.88
455.734	91.88
455.955	93.88
456.175	88.88
456.395	99.88
456.616	92.88
456.836	85.88
457.056	86.88
457.276	91.88
457.497	106.88
457.717	94.88
457.937	77.88
458.157	88.88
458.377	94.88
458.598	110.88
458.818	144.88
459.038	184.88
459.258	107.88
459.478	99.88
459.698	91.88
459.918	81.88
460.138	84.88
460.358	79.88
460.578	87.88
460.798	95.88
461.018	101.88
461.238	91.88
461.458	79.88
461.678	87.88
461.898	83.88
462.118	87.88
462.338	85.88
462.558	97.88
462.777	76.88
462.997	92.88
463.217	79.88
463.437	86.88
463.657	92.88
463.876	95.88
464.096	91.88
464.316	106.88
464.536	86.88
464.755	97.88
464.975	102.88
465.195	181.88
465.414	161.88
465.634	101.88
465.854	87.88
466.073	89.88
466.293	91.88
466.512	99.88
466.732	83.88
466.951	94.88
467.171	85.88
467.391	96.88
467.61	118.88
467.829	106.88
468.049	109.88
468.268	118.88
468.488	92.88
468.707	91.88
468.927	79.88
469.146	78.88
469.365	98.88
469.585	99.88
469.804	95.88
470.023	103.88
470.243	102.88
470.462	92.88
470.681	106.88
470.901	75.88
471.12	72.88
471.339	95.88
471.558	105.88
471.777	89.88
471.997	91.88
472.216	124.88
472.435	185.88
472.654	107.88
472.873	96.88
473.092	78.88
473.311	102.88
473.53	97.88
473.749	83.88
473.968	113.88
474.187	103.88
474.406	94.88
474.625	77.88
474.844	86.88
475.063	88.88
475.282	79.88
475.501	96.88
475.72	95.88
475.939	83.88
476.158	87.88
476.377	82.88
476.596	82.88
476.814	89.88
477.033	96.88
477.252	86.88
477.471	95.88
477.69	94.88
477.908	103.88
478.127	86.88
478.346	101.88
478.564	90.88
478.783	92.88
479.002	86.88
479.22	81.88
479.439	97.88
479.658	99.88
479.876	95.88
480.095	86.88
480.313	105.88
480.532	100.88
480.751	103.88
480.969	157.88
481.188	265.88
481.406	192.88
481.624	118.88
481.843	87.88
482.061	89.88
482.28	95.88
482.498	69.88
482.717	83.88
482.935	85.88
483.153	91.88
483.372	87.88
483.59	90.88
483.808	93.88
484.027	92.88
484.245	91.88
484.463	94.88
484.681	92.88
484.9	90.88
485.118	103.88
485.336	100.88
485.554	100.88
485.772	107.88
485.99	111.88
486.209	98.88
486.427	118.88
486.645	112.88
486.863	123.88
487.081	102.88
487.299	94.88
487.517	98.88
487.735	81.88
487.953	95.88
488.171	93.88
488.389	97.88
488.607	103.88
488.825	101.88
489.043	93.88
489.261	91.88
489.479	97.88
489.696	91.88
489.914	93.88
490.132	95.88
490.35	99.88
490.568	92.88
490.786	97.88
491.003	94.88
491.221	90.88
491.439	81.88
491.657	97.88
491.874	85.88
492.092	87.88
492.31	78.88
492.527	81.88
492.745	93.88
492.963	90.88
493.18	81.88
493.398	83.88
493.615	100.88
493.833	112.88
494.05	79.88
494.268	94.88
494.485	80.88
494.703	90.88
494.92	89.88
495.138	111.88
495.355	93.88
495.573	96.88
495.79	85.88
496.008	98.88
496.225	96.88
496.442	98.88
496.66	107.88
496.877	93.88
497.094	101.88
497.312	83.88
497.529	97.88
497.746	97.88
497.963	90.88
498.181	102.88
498.398	103.88
498.615	110.88
498.832	107.88
499.049	102.88
499.267	114.88
499.484	92.88
499.701	77.88
499.918	84.88
500.135	102.88
500.352	92.88
500.569	86.88
500.786	100.88
501.003	87.88
501.22	81.88
501.437	95.88
501.654	96.88
501.871	123.88
502.088	109.88
502.305	85.88
502.522	90.88
502.739	99.88
502.956	117.88
503.172	94.88
503.389	91.88
503.606	103.88
503.823	100.88
504.04	90.88
504.256	84.88
504.473	83.88
504.69	89.88
504.907	93.88
505.123	79.88
505.34	86.88
505.557	87.88
505.773	86.88
505.99	94.88
506.207	87.88
506.423	85.88
506.64	99.88
506.856	95.88
507.073	118.88
507.289	94.88
507.506	94.88
507.722	125.88
507.939	109.88
508.155	90.88
508.372	101.88
508.588	93.88
508.805	104.88
509.021	89.88
509.238	99.88
509.454	90.88
509.67	109.88
509.887	92.88
510.103	141.88
510.319	225.88
510.536	835.88
510.752	2622.88
510.968	714.88
511.184	166.88
511.401	123.88
511.617	100.88
511.833	85.88
512.049	93.88
512.265	82.88
512.481	90.88
512.698	85.88
512.914	78.88
513.13	93.88
513.346	86.88
513.562	91.88
513.778	93.88
513.994	97.88
514.21	91.88
514.426	123.88
514.642	136.88
514.858	144.88
