Data from Circ_1993_H10_HRD10591_00041.txt Node
Date: Wed Jan 03 11:44:10 EST 2024
User: Yrep
Spectrometer: HR+D1059
Trigger mode: 1
Integration Time (sec): 1.000000E-1
Scans to average: 1
Electric dark correction enabled: true
Nonlinearity correction enabled: false
Boxcar width: 0
XAxis mode: Wavelengths
Number of Pixels in Spectrum: 2048
>>>>>Begin Spectral Data<<<<<
223.165	-3
223.4	-3
223.635	-3
223.869	-14
224.104	-25
224.338	-17
224.573	-9
224.808	-8
225.042	-15
225.277	-25
225.511	7
225.746	-10
225.98	13
226.215	13
226.449	34
226.683	20
226.918	29
227.152	10
227.387	35
227.621	50
227.856	38
228.09	44
228.324	70
228.559	62
228.793	63
229.027	61
229.262	67
229.496	82
229.73	69
229.964	97
230.199	63
230.433	66
230.667	85
230.901	101
231.136	77
231.37	79
231.604	88
231.838	78
232.072	75
232.306	67
232.541	86
232.775	93
233.009	84
233.243	81
233.477	85
233.711	69
233.945	70
234.179	86
234.413	93
234.647	81
234.881	66
235.115	69
235.349	81
235.583	98
235.817	66
236.051	80
236.285	84
236.519	81
236.753	83
236.987	83
237.221	76
237.455	77
237.689	88
237.922	73
238.156	76
238.39	68
238.624	70
238.858	74
239.091	81
239.325	76
239.559	79
239.793	70
240.027	63
240.26	85
240.494	78
240.728	84
240.961	82
241.195	86
241.429	71
241.662	57
241.896	56
242.13	90
242.363	68
242.597	77
242.83	83
243.064	71
243.298	74
243.531	71
243.765	82
243.998	77
244.232	89
244.465	79
244.699	85
244.932	92
245.166	77
245.399	77
245.633	78
245.866	89
246.099	98
246.333	73
246.566	84
246.8	59
247.033	79
247.266	90
247.5	90
247.733	65
247.966	81
248.2	78
248.433	86
248.666	92
248.899	84
249.133	78
249.366	91
249.599	97
249.832	87
250.066	81
250.299	89
250.532	95
250.765	88
250.998	81
251.231	92
251.465	89
251.698	70
251.931	89
252.164	89
252.397	63
252.63	75
252.863	75
253.096	82
253.329	95
253.562	69
253.795	98
254.028	83
254.261	77
254.494	91
254.727	71
254.96	77
255.193	69
255.426	77
255.659	62
255.892	84
256.124	82
256.357	73
256.59	74
256.823	91
257.056	85
257.289	79
257.521	78
257.754	87
257.987	81
258.22	89
258.452	66
258.685	71
258.918	79
259.151	81
259.383	95
259.616	91
259.849	81
260.081	93
260.314	85
260.547	84
260.779	85
261.012	97
261.244	102
261.477	85
261.71	92
261.942	108
262.175	109
262.407	90
262.64	91
262.872	93
263.105	82
263.337	83
263.57	83
263.802	84
264.035	75
264.267	89
264.499	98
264.732	87
264.964	89
265.197	87
265.429	64
265.661	87
265.894	93
266.126	104
266.358	61
266.591	75
266.823	87
267.055	71
267.287	79
267.52	93
267.752	88
267.984	86
268.216	92
268.448	93
268.681	84
268.913	80
269.145	85
269.377	78
269.609	70
269.841	70
270.073	77
270.306	85
270.538	87
270.77	78
271.002	99
271.234	90
271.466	93
271.698	91
271.93	88
272.162	87
272.394	99
272.626	87
272.858	75
273.09	89
273.322	78
273.553	78
273.785	89
274.017	79
274.249	90
274.481	75
274.713	79
274.945	95
275.176	92
275.408	103
275.64	84
275.872	95
276.104	88
276.335	86
276.567	81
276.799	96
277.031	104
277.262	91
277.494	87
277.726	77
277.957	82
278.189	84
278.421	84
278.652	77
278.884	92
279.115	90
279.347	98
279.579	95
279.81	100
280.042	93
280.273	96
280.505	85
280.736	79
280.968	78
281.199	89
281.431	94
281.662	75
281.894	84
282.125	87
282.356	105
282.588	129
282.819	100
283.051	86
283.282	89
283.513	90
283.745	92
283.976	82
284.207	99
284.439	90
284.67	80
284.901	95
285.132	81
285.364	90
285.595	82
285.826	76
286.057	91
286.288	95
286.52	75
286.751	102
286.982	84
287.213	84
287.444	89
287.675	93
287.906	86
288.138	87
288.369	84
288.6	90
288.831	74
289.062	100
289.293	100
289.524	83
289.755	95
289.986	80
290.217	77
290.448	67
290.679	86
290.91	75
291.141	86
291.371	70
291.602	85
291.833	75
292.064	92
292.295	81
292.526	78
292.757	92
292.987	91
293.218	100
293.449	91
293.68	89
293.91	79
294.141	91
294.372	91
294.603	86
294.833	78
295.064	87
295.295	82
295.525	82
295.756	85
295.987	99
296.217	124
296.448	112
296.679	97
296.909	86
297.14	93
297.37	87
297.601	70
297.831	85
298.062	97
298.292	107
298.523	89
298.753	75
298.984	94
299.214	96
299.445	83
299.675	95
299.905	90
300.136	82
300.366	95
300.597	93
300.827	87
301.057	93
301.288	85
301.518	96
301.748	80
301.979	95
302.209	97
302.439	81
302.669	81
302.9	84
303.13	82
303.36	87
303.59	91
303.82	108
304.051	106
304.281	83
304.511	99
304.741	86
304.971	86
305.201	89
305.431	85
305.661	90
305.891	100
306.121	95
306.352	101
306.582	95
306.812	92
307.042	98
307.272	93
307.502	89
307.731	103
307.961	101
308.191	89
308.421	86
308.651	84
308.881	84
309.111	80
309.341	93
309.571	90
309.8	113
310.03	91
310.26	107
310.49	97
310.72	101
310.949	98
311.179	100
311.409	97
311.639	90
311.868	104
312.098	101
312.328	95
312.557	96
312.787	102
313.017	98
313.246	92
313.476	92
313.706	90
313.935	98
314.165	104
314.394	95
314.624	100
314.853	92
315.083	90
315.312	90
315.542	86
315.771	106
316.001	107
316.23	86
316.46	90
316.689	85
316.919	81
317.148	83
317.377	92
317.607	91
317.836	100
318.065	90
318.295	94
318.524	68
318.753	93
318.983	80
319.212	99
319.441	118
319.67	95
319.9	111
320.129	110
320.358	100
320.587	105
320.816	105
321.046	95
321.275	102
321.504	86
321.733	102
321.962	89
322.191	101
322.42	105
322.649	89
322.878	119
323.108	106
323.337	125
323.566	115
323.795	125
324.024	175
324.253	340
324.482	683
324.71	1383
324.939	1879
325.168	692
325.397	223
325.626	137
325.855	127
326.084	121
326.313	132
326.542	141
326.77	203
326.999	401
327.228	769
327.457	1420
327.686	1167
327.914	326
328.143	175
328.372	157
328.6	140
328.829	118
329.058	115
329.287	109
329.515	118
329.744	102
329.972	124
330.201	152
330.43	177
330.658	133
330.887	135
331.115	118
331.344	86
331.572	91
331.801	101
332.03	103
332.258	101
332.486	85
332.715	95
332.943	105
333.172	101
333.4	96
333.629	103
333.857	102
334.085	124
334.314	140
334.542	209
334.771	178
334.999	99
335.227	100
335.455	94
335.684	93
335.912	120
336.14	101
336.369	95
336.597	107
336.825	99
337.053	100
337.281	95
337.51	98
337.738	96
337.966	84
338.194	94
338.422	91
338.65	98
338.878	94
339.106	76
339.334	106
339.562	92
339.79	76
340.018	97
340.246	84
340.474	102
340.702	93
340.93	96
341.158	85
341.386	106
341.614	92
341.842	91
342.07	82
342.298	91
342.526	84
342.754	95
342.981	96
343.209	80
343.437	95
343.665	111
343.893	85
344.12	94
344.348	85
344.576	99
344.804	86
345.031	94
345.259	97
345.487	90
345.714	98
345.942	96
346.17	91
346.397	79
346.625	97
346.853	90
347.08	92
347.308	89
347.535	101
347.763	99
347.99	96
348.218	106
348.445	107
348.673	102
348.9	96
349.128	106
349.355	89
349.583	105
349.81	98
350.037	101
350.265	100
350.492	109
350.72	92
350.947	94
351.174	115
351.402	103
351.629	98
351.856	90
352.083	94
352.311	106
352.538	107
352.765	110
352.992	106
353.22	99
353.447	109
353.674	99
353.901	108
354.128	97
354.355	99
354.583	89
354.81	96
355.037	90
355.264	101
355.491	95
355.718	97
355.945	97
356.172	98
356.399	105
356.626	86
356.853	85
357.08	73
357.307	95
357.534	93
357.761	89
357.988	98
358.215	99
358.441	79
358.668	81
358.895	85
359.122	96
359.349	80
359.576	93
359.802	91
360.029	101
360.256	109
360.483	85
360.709	61
360.936	82
361.163	87
361.39	90
361.616	86
361.843	93
362.07	90
362.296	99
362.523	102
362.749	94
362.976	90
363.203	91
363.429	90
363.656	98
363.882	85
364.109	93
364.335	79
364.562	84
364.788	91
365.015	97
365.241	87
365.468	103
365.694	109
365.92	104
366.147	95
366.373	80
366.599	75
366.826	74
367.052	84
367.278	104
367.505	93
367.731	99
367.957	86
368.184	102
368.41	89
368.636	109
368.862	95
369.089	104
369.315	91
369.541	97
369.767	96
369.993	94
370.219	84
370.445	83
370.672	87
370.898	79
371.124	94
371.35	93
371.576	79
371.802	91
372.028	89
372.254	100
372.48	92
372.706	93
372.932	89
373.158	80
373.384	74
373.61	89
373.835	94
374.061	98
374.287	97
374.513	85
374.739	100
374.965	84
375.191	84
375.416	83
375.642	93
375.868	95
376.094	79
376.319	74
376.545	91
376.771	81
376.997	80
377.222	96
377.448	99
377.674	99
377.899	90
378.125	89
378.35	81
378.576	99
378.802	86
379.027	86
379.253	96
379.478	88
379.704	98
379.929	103
380.155	91
380.38	106
380.606	97
380.831	82
381.057	99
381.282	106
381.507	98
381.733	89
381.958	102
382.184	94
382.409	113
382.634	113
382.86	107
383.085	107
383.31	108
383.535	121
383.761	107
383.986	101
384.211	94
384.436	93
384.662	89
384.887	100
385.112	114
385.337	114
385.562	118
385.787	127
386.013	113
386.238	118
386.463	127
386.688	118
386.913	114
387.138	116
387.363	121
387.588	97
387.813	99
388.038	126
388.263	118
388.488	116
388.713	93
388.938	91
389.163	91
389.387	89
389.612	92
389.837	98
390.062	86
390.287	85
390.512	92
390.736	81
390.961	74
391.186	100
391.411	95
391.636	99
391.86	76
392.085	90
392.31	74
392.534	85
392.759	88
392.984	98
393.208	112
393.433	140
393.658	116
393.882	90
394.107	86
394.331	81
394.556	95
394.78	86
395.005	83
395.229	83
395.454	79
395.678	79
395.903	84
396.127	86
396.352	97
396.576	92
396.801	95
397.025	107
397.249	107
397.474	90
397.698	87
397.922	83
398.147	85
398.371	72
398.595	78
398.82	83
399.044	91
399.268	85
399.492	83
399.717	83
399.941	109
400.165	86
400.389	80
400.613	100
400.837	86
401.062	83
401.286	74
401.51	79
401.734	96
401.958	106
402.182	128
402.406	137
402.63	102
402.854	91
403.078	98
403.302	90
403.526	96
403.75	82
403.974	95
404.198	83
404.422	87
404.645	85
404.869	85
405.093	98
405.317	94
405.541	111
405.765	88
405.988	109
406.212	148
406.436	194
406.66	133
406.883	86
407.107	88
407.331	101
407.555	97
407.778	95
408.002	99
408.226	93
408.449	79
408.673	90
408.896	116
409.12	109
409.344	87
409.567	88
409.791	103
410.014	100
410.238	82
410.461	78
410.685	113
410.908	92
411.132	112
411.355	84
411.578	102
411.802	101
412.025	88
412.249	89
412.472	96
412.695	112
412.919	97
413.142	85
413.365	93
413.589	86
413.812	89
414.035	73
414.258	89
414.482	86
414.705	93
414.928	93
415.151	99
415.374	106
415.597	100
415.821	91
416.044	90
416.267	91
416.49	75
416.713	95
416.936	85
417.159	85
417.382	76
417.605	86
417.828	102
418.051	86
418.274	88
418.497	80
418.72	84
418.943	83
419.166	97
419.389	91
419.611	89
419.834	92
420.057	93
420.28	74
420.503	76
420.726	77
420.948	74
421.171	100
421.394	92
421.617	86
421.839	91
422.062	95
422.285	87
422.507	105
422.73	99
422.953	103
423.175	86
423.398	89
423.621	83
423.843	71
424.066	90
424.288	90
424.511	95
424.733	100
424.956	105
425.178	90
425.401	95
425.623	99
425.846	101
426.068	81
426.291	79
426.513	98
426.735	97
426.958	94
427.18	106
427.402	138
427.625	161
427.847	135
428.069	124
428.292	91
428.514	83
428.736	85
428.958	91
429.181	83
429.403	86
429.625	74
429.847	102
430.069	91
430.292	93
430.514	92
430.736	78
430.958	90
431.18	88
431.402	88
431.624	107
431.846	94
432.068	81
432.29	84
432.512	88
432.734	89
432.956	87
433.178	94
433.4	87
433.622	68
433.844	84
434.066	100
434.287	95
434.509	90
434.731	91
434.953	80
435.175	95
435.397	93
435.618	93
435.84	105
436.062	112
436.284	101
436.505	83
436.727	101
436.949	94
437.17	77
437.392	88
437.614	96
437.835	93
438.057	110
438.278	105
438.5	90
438.721	114
438.943	116
439.165	93
439.386	77
439.608	91
439.829	94
440.05	113
440.272	135
440.493	95
440.715	93
440.936	93
441.158	100
441.379	91
441.6	94
441.822	101
442.043	86
442.264	95
442.486	91
442.707	85
442.928	101
443.149	120
443.371	114
443.592	97
443.813	116
444.034	108
444.255	98
444.476	77
444.698	77
444.919	78
445.14	135
445.361	114
445.582	105
445.803	113
446.024	139
446.245	128
446.466	100
446.687	97
446.908	87
447.129	83
447.35	91
447.571	85
447.792	89
448.013	101
448.234	99
448.455	94
448.675	98
448.896	111
449.117	99
449.338	84
449.559	125
449.779	129
450	86
450.221	87
450.442	76
450.662	94
450.883	106
451.104	99
451.324	86
451.545	84
451.766	92
451.986	77
452.207	93
452.428	82
452.648	104
452.869	110
453.089	98
453.31	125
453.53	97
453.751	101
453.971	94
454.192	99
454.412	87
454.633	69
454.853	95
455.073	90
455.294	102
455.514	87
455.734	79
455.955	89
456.175	85
456.395	75
456.616	92
456.836	87
457.056	67
457.276	86
457.497	84
457.717	70
457.937	76
458.157	100
458.377	99
458.598	108
458.818	133
459.038	134
459.258	98
459.478	95
459.698	90
459.918	79
460.138	86
460.358	87
460.578	77
460.798	83
461.018	86
461.238	67
461.458	93
461.678	81
461.898	93
462.118	84
462.338	73
462.558	88
462.777	86
462.997	81
463.217	98
463.437	94
463.657	75
463.876	93
464.096	87
464.316	93
464.536	95
464.755	85
464.975	89
465.195	120
465.414	146
465.634	89
465.854	85
466.073	81
466.293	85
466.512	87
466.732	76
466.951	77
467.171	99
467.391	84
467.61	108
467.829	91
468.049	125
468.268	134
468.488	77
468.707	85
468.927	96
469.146	86
469.365	93
469.585	97
469.804	91
470.023	86
470.243	87
470.462	113
470.681	88
470.901	83
471.12	90
471.339	81
471.558	84
471.777	79
471.997	100
472.216	171
472.435	245
472.654	121
472.873	95
473.092	78
473.311	90
473.53	95
473.749	94
473.968	79
474.187	107
474.406	91
474.625	76
474.844	101
475.063	82
475.282	80
475.501	101
475.72	105
475.939	69
476.158	90
476.377	76
476.596	96
476.814	106
477.033	93
477.252	83
477.471	106
477.69	82
477.908	96
478.127	82
478.346	83
478.564	89
478.783	92
479.002	101
479.22	92
479.439	102
479.658	101
479.876	86
480.095	82
480.313	98
480.532	94
480.751	104
480.969	151
481.188	374
481.406	260
481.624	95
481.843	73
482.061	91
482.28	96
482.498	86
482.717	97
482.935	102
483.153	95
483.372	92
483.59	99
483.808	83
484.027	101
484.245	81
484.463	79
484.681	83
484.9	87
485.118	102
485.336	111
485.554	112
485.772	99
485.99	115
486.209	110
486.427	107
486.645	100
486.863	105
487.081	101
487.299	99
487.517	95
487.735	101
487.953	92
488.171	96
488.389	93
488.607	95
488.825	95
489.043	97
489.261	95
489.479	94
489.696	71
489.914	86
490.132	80
490.35	88
490.568	82
490.786	82
491.003	92
491.221	80
491.439	91
491.657	93
491.874	89
492.092	104
492.31	101
492.527	103
492.745	85
492.963	106
493.18	93
493.398	97
493.615	99
493.833	94
494.05	106
494.268	101
494.485	91
494.703	92
494.92	96
495.138	91
495.355	86
495.573	84
495.79	77
496.008	98
496.225	102
496.442	82
496.66	92
496.877	101
497.094	95
497.312	106
497.529	86
497.746	78
497.963	100
498.181	83
498.398	94
498.615	101
498.832	117
499.049	74
499.267	92
499.484	88
499.701	86
499.918	96
500.135	111
500.352	89
500.569	97
500.786	86
501.003	85
501.22	84
501.437	92
501.654	101
501.871	99
502.088	85
502.305	97
502.522	102
502.739	82
502.956	88
503.172	93
503.389	80
503.606	98
503.823	110
504.04	110
504.256	93
504.473	90
504.69	89
504.907	85
505.123	96
505.34	87
505.557	109
505.773	87
505.99	84
506.207	98
506.423	82
506.64	81
506.856	89
507.073	85
507.289	90
507.506	87
507.722	89
507.939	100
508.155	95
508.372	83
508.588	95
508.805	99
509.021	81
509.238	101
509.454	102
509.67	108
509.887	113
510.103	129
510.319	175
510.536	602
510.752	1916
510.968	529
511.184	144
511.401	107
511.617	83
511.833	93
512.049	93
512.265	81
512.481	85
512.698	97
512.914	97
513.13	90
513.346	79
513.562	89
513.778	94
513.994	94
514.21	104
514.426	100
514.642	118
514.858	110
515.074	158
515.29	384
515.506	1179
515.721	465
515.937	139
516.153	96
516.369	103
516.585	76
516.801	94
517.016	101
517.232	83
517.448	94
517.664	92
517.879	93
518.095	92
518.311	97
518.527	82
518.742	92
518.958	95
519.173	107
519.389	106
519.605	84
519.82	89
520.036	102
520.251	121
520.467	100
520.682	103
520.898	105
521.113	94
521.329	121
521.544	172
521.76	439
521.975	1910
522.19	1163
522.406	273
522.621	114
522.836	91
523.052	102
523.267	90
523.482	99
523.698	102
523.913	112
524.128	112
524.343	104
524.559	100
524.774	74
524.989	92
525.204	88
525.419	91
525.634	93
525.849	86
526.064	96
526.28	77
526.495	76
526.71	99
526.925	79
527.14	98
527.355	101
527.57	105
527.785	94
527.999	106
528.214	85
528.429	101
528.644	83
528.859	99
529.074	105
529.289	106
529.503	151
529.718	89
529.933	93
530.148	85
530.363	100
530.577	95
530.792	78
531.007	91
531.221	102
531.436	85
531.651	89
531.865	71
532.08	88
532.295	99
532.509	89
532.724	107
532.938	106
533.153	84
533.367	71
533.582	89
533.796	80
534.011	94
534.225	88
534.44	82
534.654	98
534.868	79
535.083	98
535.297	89
535.511	95
535.726	108
535.94	117
536.154	97
536.369	87
536.583	90
536.797	87
537.011	95
537.225	92
537.44	80
537.654	82
537.868	90
538.082	93
538.296	79
538.51	92
538.724	77
538.938	85
539.153	94
539.367	97
539.581	89
539.795	100
540.009	83
540.222	90
540.436	95
540.65	96
540.864	75
541.078	87
541.292	99
541.506	94
541.72	93
541.934	91
542.147	101
542.361	102
542.575	98
542.789	82
543.002	77
543.216	83
543.43	88
543.644	92
543.857	94
544.071	97
544.285	90
544.498	88
544.712	100
544.925	103
545.139	86
545.352	82
545.566	82
545.779	93
545.993	85
546.206	77
546.42	90
546.633	100
546.847	98
547.06	97
547.274	85
547.487	83
547.7	95
547.914	103
548.127	87
548.34	91
548.554	96
548.767	89
548.98	90
549.193	93
549.407	80
549.62	83
549.833	91
550.046	80
550.259	102
550.473	94
550.686	94
550.899	99
551.112	91
551.325	63
551.538	85
551.751	106
551.964	92
552.177	88
552.39	87
552.603	96
552.816	83
553.029	91
553.242	87
553.455	91
553.667	94
553.88	95
554.093	95
554.306	107
554.519	101
554.732	94
554.944	102
555.157	99
555.37	87
555.583	88
555.795	89
556.008	86
556.221	85
556.433	102
556.646	78
556.859	88
557.071	92
557.284	98
557.496	90
557.709	82
557.921	78
558.134	95
558.346	80
558.559	102
558.771	88
558.984	80
559.196	71
559.409	85
559.621	82
559.833	89
560.046	83
560.258	99
560.47	91
560.683	75
560.895	78
561.107	87
561.32	95
561.532	92
561.744	102
561.956	97
562.168	90
562.381	98
562.593	94
562.805	111
563.017	84
563.229	85
563.441	82
563.653	87
563.865	85
564.077	105
564.289	93
564.501	94
564.713	79
564.925	89
565.137	113
565.349	86
565.561	91
565.773	93
565.985	102
566.197	96
566.408	88
566.62	77
566.832	73
567.044	78
567.255	92
567.467	89
567.679	79
567.891	86
568.102	80
568.314	87
568.526	83
568.737	81
568.949	90
569.161	83
569.372	96
569.584	91
569.795	100
570.007	115
570.218	219
570.43	130
570.641	77
570.853	88
571.064	90
571.276	85
571.487	96
571.698	101
571.91	86
572.121	80
572.333	68
572.544	77
572.755	92
572.966	96
573.178	95
573.389	103
573.6	90
573.811	92
574.023	86
574.234	87
574.445	90
574.656	85
574.867	91
575.078	104
575.289	90
575.501	94
575.712	80
575.923	78
576.134	87
576.345	94
576.556	102
576.767	97
576.978	82
577.188	94
577.399	77
577.61	95
577.821	106
578.032	113
578.243	245
578.454	608
578.665	181
578.875	93
579.086	97
579.297	89
579.508	85
579.718	95
579.929	90
580.14	82
580.35	90
580.561	92
580.772	78
580.982	90
581.193	101
581.403	75
581.614	77
581.825	79
582.035	99
582.246	89
582.456	92
582.667	91
582.877	87
583.087	89
583.298	88
583.508	93
583.719	94
583.929	97
584.139	79
