Data from Circ_1993_H10_HRD10591_00001.txt Node
Date: Wed Jan 03 11:44:02 EST 2024
User: Yrep
Spectrometer: HR+D1059
Trigger mode: 1
Integration Time (sec): 1.000000E-1
Scans to average: 1
Electric dark correction enabled: true
Nonlinearity correction enabled: false
Boxcar width: 0
XAxis mode: Wavelengths
Number of Pixels in Spectrum: 2048
>>>>>Begin Spectral Data<<<<<
223.165	-17.62
223.4	-17.62
223.635	-17.62
223.869	-26.62
224.104	-11.62
224.338	-25.62
224.573	-14.62
224.808	-19.62
225.042	-1.62
225.277	-13.62
225.511	3.38
225.746	20.38
225.98	11.38
226.215	2.38
226.449	21.38
226.683	29.38
226.918	23.38
227.152	19.38
227.387	36.38
227.621	27.38
227.856	47.38
228.09	48.38
228.324	47.38
228.559	44.38
228.793	47.38
229.027	67.38
229.262	59.38
229.496	65.38
229.73	77.38
229.964	76.38
230.199	65.38
230.433	61.38
230.667	79.38
230.901	87.38
231.136	63.38
231.37	74.38
231.604	77.38
231.838	81.38
232.072	84.38
232.306	73.38
232.541	72.38
232.775	62.38
233.009	83.38
233.243	61.38
233.477	73.38
233.711	94.38
233.945	78.38
234.179	84.38
234.413	74.38
234.647	83.38
234.881	88.38
235.115	68.38
235.349	84.38
235.583	71.38
235.817	73.38
236.051	60.38
236.285	92.38
236.519	75.38
236.753	70.38
236.987	68.38
237.221	88.38
237.455	89.38
237.689	74.38
237.922	87.38
238.156	76.38
238.39	65.38
238.624	76.38
238.858	73.38
239.091	67.38
239.325	79.38
239.559	73.38
239.793	75.38
240.027	75.38
240.26	79.38
240.494	75.38
240.728	83.38
240.961	62.38
241.195	77.38
241.429	82.38
241.662	84.38
241.896	85.38
242.13	84.38
242.363	79.38
242.597	90.38
242.83	71.38
243.064	63.38
243.298	72.38
243.531	83.38
243.765	75.38
243.998	77.38
244.232	64.38
244.465	83.38
244.699	73.38
244.932	78.38
245.166	80.38
245.399	68.38
245.633	76.38
245.866	89.38
246.099	80.38
246.333	81.38
246.566	81.38
246.8	77.38
247.033	82.38
247.266	73.38
247.5	67.38
247.733	75.38
247.966	84.38
248.2	94.38
248.433	81.38
248.666	71.38
248.899	81.38
249.133	79.38
249.366	82.38
249.599	83.38
249.832	82.38
250.066	86.38
250.299	80.38
250.532	92.38
250.765	78.38
250.998	85.38
251.231	87.38
251.465	91.38
251.698	79.38
251.931	89.38
252.164	77.38
252.397	64.38
252.63	76.38
252.863	83.38
253.096	66.38
253.329	72.38
253.562	89.38
253.795	82.38
254.028	87.38
254.261	63.38
254.494	76.38
254.727	83.38
254.96	85.38
255.193	88.38
255.426	90.38
255.659	79.38
255.892	67.38
256.124	79.38
256.357	82.38
256.59	83.38
256.823	74.38
257.056	75.38
257.289	84.38
257.521	76.38
257.754	95.38
257.987	79.38
258.22	80.38
258.452	85.38
258.685	80.38
258.918	86.38
259.151	87.38
259.383	81.38
259.616	77.38
259.849	76.38
260.081	86.38
260.314	91.38
260.547	89.38
260.779	85.38
261.012	84.38
261.244	77.38
261.477	87.38
261.71	75.38
261.942	96.38
262.175	91.38
262.407	87.38
262.64	84.38
262.872	77.38
263.105	78.38
263.337	67.38
263.57	75.38
263.802	83.38
264.035	86.38
264.267	81.38
264.499	76.38
264.732	71.38
264.964	91.38
265.197	78.38
265.429	83.38
265.661	75.38
265.894	78.38
266.126	83.38
266.358	77.38
266.591	83.38
266.823	96.38
267.055	95.38
267.287	74.38
267.52	95.38
267.752	82.38
267.984	81.38
268.216	91.38
268.448	80.38
268.681	73.38
268.913	86.38
269.145	90.38
269.377	84.38
269.609	86.38
269.841	73.38
270.073	82.38
270.306	83.38
270.538	75.38
270.77	83.38
271.002	88.38
271.234	93.38
271.466	97.38
271.698	74.38
271.93	80.38
272.162	75.38
272.394	76.38
272.626	83.38
272.858	65.38
273.09	78.38
273.322	83.38
273.553	83.38
273.785	78.38
274.017	85.38
274.249	93.38
274.481	82.38
274.713	84.38
274.945	84.38
275.176	84.38
275.408	80.38
275.64	85.38
275.872	91.38
276.104	77.38
276.335	87.38
276.567	81.38
276.799	97.38
277.031	78.38
277.262	94.38
277.494	87.38
277.726	76.38
277.957	91.38
278.189	84.38
278.421	79.38
278.652	72.38
278.884	85.38
279.115	89.38
279.347	80.38
279.579	75.38
279.81	89.38
280.042	88.38
280.273	88.38
280.505	69.38
280.736	84.38
280.968	79.38
281.199	84.38
281.431	85.38
281.662	78.38
281.894	68.38
282.125	76.38
282.356	100.38
282.588	107.38
282.819	101.38
283.051	88.38
283.282	82.38
283.513	81.38
283.745	80.38
283.976	90.38
284.207	81.38
284.439	73.38
284.67	88.38
284.901	80.38
285.132	103.38
285.364	85.38
285.595	92.38
285.826	77.38
286.057	75.38
286.288	71.38
286.52	84.38
286.751	77.38
286.982	80.38
287.213	85.38
287.444	90.38
287.675	72.38
287.906	79.38
288.138	83.38
288.369	86.38
288.6	93.38
288.831	79.38
289.062	88.38
289.293	86.38
289.524	88.38
289.755	85.38
289.986	82.38
290.217	86.38
290.448	73.38
290.679	89.38
290.91	92.38
291.141	83.38
291.371	87.38
291.602	90.38
291.833	82.38
292.064	92.38
292.295	77.38
292.526	80.38
292.757	82.38
292.987	84.38
293.218	75.38
293.449	81.38
293.68	87.38
293.91	85.38
294.141	92.38
294.372	88.38
294.603	86.38
294.833	81.38
295.064	84.38
295.295	83.38
295.525	65.38
295.756	90.38
295.987	99.38
296.217	96.38
296.448	103.38
296.679	98.38
296.909	89.38
297.14	87.38
297.37	89.38
297.601	88.38
297.831	87.38
298.062	82.38
298.292	75.38
298.523	91.38
298.753	95.38
298.984	79.38
299.214	89.38
299.445	85.38
299.675	96.38
299.905	84.38
300.136	73.38
300.366	74.38
300.597	91.38
300.827	100.38
301.057	96.38
301.288	100.38
301.518	75.38
301.748	81.38
301.979	100.38
302.209	86.38
302.439	78.38
302.669	93.38
302.9	94.38
303.13	95.38
303.36	109.38
303.59	91.38
303.82	90.38
304.051	98.38
304.281	93.38
304.511	80.38
304.741	96.38
304.971	83.38
305.201	99.38
305.431	82.38
305.661	96.38
305.891	99.38
306.121	84.38
306.352	88.38
306.582	99.38
306.812	91.38
307.042	98.38
307.272	93.38
307.502	94.38
307.731	92.38
307.961	87.38
308.191	92.38
308.421	88.38
308.651	78.38
308.881	79.38
309.111	90.38
309.341	92.38
309.571	77.38
309.8	99.38
310.03	91.38
310.26	95.38
310.49	88.38
310.72	90.38
310.949	94.38
311.179	95.38
311.409	96.38
311.639	91.38
311.868	99.38
312.098	79.38
312.328	90.38
312.557	91.38
312.787	94.38
313.017	92.38
313.246	86.38
313.476	95.38
313.706	85.38
313.935	94.38
314.165	84.38
314.394	90.38
314.624	89.38
314.853	99.38
315.083	87.38
315.312	83.38
315.542	105.38
315.771	94.38
316.001	100.38
316.23	86.38
316.46	72.38
316.689	81.38
316.919	89.38
317.148	87.38
317.377	103.38
317.607	96.38
317.836	84.38
318.065	88.38
318.295	83.38
318.524	81.38
318.753	93.38
318.983	98.38
319.212	107.38
319.441	97.38
319.67	101.38
319.9	97.38
320.129	89.38
320.358	92.38
320.587	93.38
320.816	91.38
321.046	78.38
321.275	96.38
321.504	97.38
321.733	88.38
321.962	105.38
322.191	89.38
322.42	99.38
322.649	108.38
322.878	102.38
323.108	115.38
323.337	98.38
323.566	121.38
323.795	131.38
324.024	165.38
324.253	303.38
324.482	591.38
324.71	1190.38
324.939	1559.38
325.168	587.38
325.397	211.38
325.626	140.38
325.855	116.38
326.084	127.38
326.313	116.38
326.542	136.38
326.77	187.38
326.999	347.38
327.228	682.38
327.457	1236.38
327.686	981.38
327.914	287.38
328.143	157.38
328.372	128.38
328.6	104.38
328.829	116.38
329.058	107.38
329.287	108.38
329.515	97.38
329.744	107.38
329.972	95.38
330.201	100.38
330.43	114.38
330.658	112.38
330.887	116.38
331.115	113.38
331.344	88.38
331.572	92.38
331.801	83.38
332.03	88.38
332.258	99.38
332.486	98.38
332.715	91.38
332.943	100.38
333.172	95.38
333.4	103.38
333.629	93.38
333.857	101.38
334.085	98.38
334.314	101.38
334.542	117.38
334.771	119.38
334.999	103.38
335.227	94.38
335.455	81.38
335.684	105.38
335.912	98.38
336.14	107.38
336.369	91.38
336.597	94.38
336.825	103.38
337.053	96.38
337.281	96.38
337.51	92.38
337.738	105.38
337.966	106.38
338.194	96.38
338.422	92.38
338.65	81.38
338.878	87.38
339.106	88.38
339.334	93.38
339.562	89.38
339.79	95.38
340.018	79.38
340.246	77.38
340.474	88.38
340.702	89.38
340.93	94.38
341.158	91.38
341.386	94.38
341.614	104.38
341.842	93.38
342.07	112.38
342.298	99.38
342.526	94.38
342.754	88.38
342.981	82.38
343.209	79.38
343.437	90.38
343.665	93.38
343.893	91.38
344.12	105.38
344.348	90.38
344.576	86.38
344.804	87.38
345.031	83.38
345.259	84.38
345.487	79.38
345.714	94.38
345.942	77.38
346.17	98.38
346.397	80.38
346.625	81.38
346.853	91.38
347.08	88.38
347.308	80.38
347.535	98.38
347.763	81.38
347.99	98.38
348.218	92.38
348.445	74.38
348.673	98.38
348.9	82.38
349.128	107.38
349.355	92.38
349.583	93.38
349.81	83.38
350.037	88.38
350.265	83.38
350.492	95.38
350.72	99.38
350.947	100.38
351.174	99.38
351.402	108.38
351.629	101.38
351.856	107.38
352.083	96.38
352.311	96.38
352.538	112.38
352.765	107.38
352.992	107.38
353.22	107.38
353.447	109.38
353.674	101.38
353.901	98.38
354.128	111.38
354.355	104.38
354.583	115.38
354.81	99.38
355.037	97.38
355.264	76.38
355.491	96.38
355.718	100.38
355.945	107.38
356.172	100.38
356.399	107.38
356.626	82.38
356.853	93.38
357.08	98.38
357.307	112.38
357.534	83.38
357.761	100.38
357.988	103.38
358.215	116.38
358.441	143.38
358.668	136.38
358.895	118.38
359.122	111.38
359.349	97.38
359.576	99.38
359.802	78.38
360.029	102.38
360.256	105.38
360.483	92.38
360.709	86.38
360.936	88.38
361.163	96.38
361.39	100.38
361.616	105.38
361.843	81.38
362.07	95.38
362.296	97.38
362.523	83.38
362.749	99.38
362.976	90.38
363.203	84.38
363.429	88.38
363.656	86.38
363.882	89.38
364.109	84.38
364.335	83.38
364.562	90.38
364.788	92.38
365.015	79.38
365.241	73.38
365.468	98.38
365.694	93.38
365.92	78.38
366.147	84.38
366.373	85.38
366.599	89.38
366.826	91.38
367.052	92.38
367.278	87.38
367.505	102.38
367.731	81.38
367.957	95.38
368.184	91.38
368.41	87.38
368.636	95.38
368.862	102.38
369.089	106.38
369.315	93.38
369.541	93.38
369.767	80.38
369.993	84.38
370.219	86.38
370.445	77.38
370.672	77.38
370.898	74.38
371.124	81.38
371.35	103.38
371.576	71.38
371.802	99.38
372.028	87.38
372.254	77.38
372.48	90.38
372.706	95.38
372.932	84.38
373.158	98.38
373.384	85.38
373.61	102.38
373.835	112.38
374.061	88.38
374.287	92.38
374.513	85.38
374.739	86.38
374.965	97.38
375.191	103.38
375.416	103.38
375.642	98.38
375.868	97.38
376.094	84.38
376.319	93.38
376.545	92.38
376.771	99.38
376.997	96.38
377.222	96.38
377.448	91.38
377.674	111.38
377.899	109.38
378.125	96.38
378.35	121.38
378.576	128.38
378.802	105.38
379.027	105.38
379.253	109.38
379.478	106.38
379.704	122.38
379.929	133.38
380.155	88.38
380.38	117.38
380.606	120.38
380.831	129.38
381.057	128.38
381.282	117.38
381.507	123.38
381.733	135.38
381.958	138.38
382.184	136.38
382.409	133.38
382.634	155.38
382.86	134.38
383.085	150.38
383.31	170.38
383.535	169.38
383.761	151.38
383.986	153.38
384.211	157.38
384.436	173.38
384.662	168.38
384.887	194.38
385.112	200.38
385.337	192.38
385.562	204.38
385.787	184.38
386.013	186.38
386.238	190.38
386.463	196.38
386.688	188.38
386.913	195.38
387.138	216.38
387.363	185.38
387.588	147.38
387.813	146.38
388.038	214.38
388.263	240.38
388.488	216.38
388.713	116.38
388.938	109.38
389.163	105.38
389.387	104.38
389.612	92.38
389.837	87.38
390.062	85.38
390.287	100.38
390.512	108.38
390.736	89.38
390.961	81.38
391.186	98.38
391.411	100.38
391.636	91.38
391.86	87.38
392.085	83.38
392.31	91.38
392.534	99.38
392.759	76.38
392.984	113.38
393.208	164.38
393.433	258.38
393.658	210.38
393.882	97.38
394.107	77.38
394.331	91.38
394.556	100.38
394.78	87.38
395.005	81.38
395.229	98.38
395.454	66.38
395.678	85.38
395.903	76.38
396.127	100.38
396.352	87.38
396.576	112.38
396.801	156.38
397.025	177.38
397.249	118.38
397.474	91.38
397.698	95.38
397.922	80.38
398.147	71.38
398.371	97.38
398.595	73.38
398.82	91.38
399.044	87.38
399.268	84.38
399.492	89.38
399.717	94.38
399.941	83.38
400.165	77.38
400.389	80.38
400.613	95.38
400.837	103.38
401.062	81.38
401.286	89.38
401.51	77.38
401.734	87.38
401.958	96.38
402.182	100.38
402.406	112.38
402.63	106.38
402.854	84.38
403.078	86.38
403.302	94.38
403.526	94.38
403.75	72.38
403.974	84.38
404.198	92.38
404.422	83.38
404.645	81.38
404.869	81.38
405.093	85.38
405.317	94.38
405.541	100.38
405.765	102.38
405.988	102.38
406.212	120.38
406.436	164.38
406.66	126.38
406.883	95.38
407.107	85.38
407.331	93.38
407.555	96.38
407.778	94.38
408.002	95.38
408.226	100.38
408.449	97.38
408.673	97.38
408.896	84.38
409.12	88.38
409.344	90.38
409.567	98.38
409.791	97.38
410.014	101.38
410.238	98.38
410.461	97.38
410.685	101.38
410.908	100.38
411.132	100.38
411.355	98.38
411.578	96.38
411.802	92.38
412.025	91.38
412.249	82.38
412.472	89.38
412.695	96.38
412.919	81.38
413.142	88.38
413.365	93.38
413.589	90.38
413.812	102.38
414.035	101.38
414.258	96.38
414.482	106.38
414.705	98.38
414.928	108.38
415.151	114.38
415.374	107.38
415.597	90.38
415.821	81.38
416.044	84.38
416.267	92.38
416.49	99.38
416.713	87.38
416.936	92.38
417.159	79.38
417.382	100.38
417.605	111.38
417.828	82.38
418.051	87.38
418.274	99.38
418.497	103.38
418.72	82.38
418.943	98.38
419.166	90.38
419.389	100.38
419.611	106.38
419.834	112.38
420.057	96.38
420.28	97.38
420.503	92.38
420.726	93.38
420.948	79.38
421.171	91.38
421.394	97.38
421.617	111.38
421.839	92.38
422.062	97.38
422.285	101.38
422.507	132.38
422.73	189.38
422.953	162.38
423.175	107.38
423.398	78.38
423.621	96.38
423.843	88.38
424.066	103.38
424.288	97.38
424.511	93.38
424.733	91.38
424.956	95.38
425.178	85.38
425.401	90.38
425.623	109.38
425.846	87.38
426.068	82.38
426.291	73.38
426.513	75.38
426.735	94.38
426.958	87.38
427.18	95.38
427.402	123.38
427.625	109.38
427.847	112.38
428.069	98.38
428.292	89.38
428.514	83.38
428.736	88.38
428.958	83.38
429.181	77.38
429.403	76.38
429.625	85.38
429.847	90.38
430.069	88.38
430.292	84.38
430.514	98.38
430.736	79.38
430.958	92.38
431.18	98.38
431.402	81.38
431.624	86.38
431.846	80.38
432.068	87.38
432.29	76.38
432.512	84.38
432.734	79.38
432.956	97.38
433.178	93.38
433.4	101.38
433.622	94.38
433.844	88.38
434.066	101.38
434.287	109.38
434.509	84.38
434.731	96.38
434.953	88.38
435.175	88.38
435.397	86.38
435.618	84.38
435.84	117.38
436.062	106.38
436.284	117.38
436.505	104.38
436.727	98.38
436.949	81.38
437.17	83.38
437.392	100.38
437.614	94.38
437.835	94.38
438.057	108.38
438.278	93.38
438.5	104.38
438.721	101.38
438.943	76.38
439.165	80.38
439.386	68.38
439.608	80.38
439.829	102.38
440.05	113.38
440.272	103.38
440.493	100.38
440.715	96.38
440.936	90.38
441.158	91.38
441.379	78.38
441.6	92.38
441.822	90.38
442.043	82.38
442.264	106.38
442.486	101.38
442.707	102.38
442.928	108.38
443.149	103.38
443.371	109.38
443.592	84.38
443.813	106.38
444.034	99.38
444.255	95.38
444.476	82.38
444.698	74.38
444.919	88.38
445.14	124.38
445.361	105.38
445.582	106.38
445.803	123.38
446.024	103.38
446.245	116.38
446.466	101.38
446.687	85.38
446.908	93.38
447.129	83.38
447.35	90.38
447.571	83.38
447.792	92.38
448.013	84.38
448.234	86.38
448.455	101.38
448.675	98.38
448.896	95.38
449.117	82.38
449.338	109.38
449.559	111.38
449.779	106.38
450	98.38
450.221	80.38
450.442	88.38
450.662	86.38
450.883	95.38
451.104	82.38
451.324	98.38
451.545	90.38
451.766	93.38
451.986	82.38
452.207	76.38
452.428	64.38
452.648	104.38
452.869	91.38
453.089	104.38
453.31	92.38
453.53	96.38
453.751	87.38
453.971	83.38
454.192	96.38
454.412	99.38
454.633	87.38
454.853	91.38
455.073	77.38
455.294	81.38
455.514	86.38
455.734	106.38
455.955	89.38
456.175	84.38
456.395	71.38
456.616	76.38
456.836	79.38
457.056	91.38
457.276	84.38
457.497	83.38
457.717	95.38
457.937	84.38
458.157	85.38
458.377	75.38
458.598	85.38
458.818	114.38
459.038	122.38
459.258	103.38
459.478	97.38
459.698	96.38
459.918	97.38
460.138	78.38
460.358	80.38
460.578	90.38
460.798	79.38
461.018	82.38
461.238	94.38
461.458	77.38
461.678	88.38
461.898	84.38
462.118	103.38
462.338	96.38
462.558	86.38
462.777	85.38
462.997	89.38
463.217	93.38
463.437	81.38
463.657	82.38
463.876	85.38
464.096	83.38
464.316	92.38
464.536	83.38
464.755	83.38
464.975	93.38
465.195	121.38
465.414	116.38
465.634	80.38
465.854	81.38
466.073	98.38
466.293	91.38
466.512	83.38
466.732	88.38
466.951	84.38
467.171	96.38
467.391	95.38
467.61	79.38
467.829	86.38
468.049	102.38
468.268	87.38
468.488	82.38
468.707	98.38
468.927	83.38
469.146	98.38
469.365	91.38
469.585	78.38
469.804	98.38
470.023	82.38
470.243	80.38
470.462	100.38
470.681	94.38
470.901	96.38
471.12	90.38
471.339	75.38
471.558	99.38
471.777	74.38
471.997	86.38
472.216	121.38
472.435	130.38
472.654	94.38
472.873	94.38
473.092	86.38
473.311	95.38
473.53	104.38
473.749	92.38
473.968	98.38
474.187	88.38
474.406	84.38
474.625	87.38
474.844	83.38
475.063	81.38
475.282	87.38
475.501	77.38
475.72	79.38
475.939	60.38
476.158	71.38
476.377	83.38
476.596	95.38
476.814	88.38
477.033	102.38
477.252	92.38
477.471	65.38
477.69	73.38
477.908	79.38
478.127	90.38
478.346	87.38
478.564	79.38
478.783	95.38
479.002	84.38
479.22	87.38
479.439	91.38
479.658	98.38
479.876	80.38
480.095	77.38
480.313	85.38
480.532	100.38
480.751	82.38
480.969	104.38
481.188	165.38
481.406	137.38
481.624	93.38
481.843	83.38
482.061	83.38
482.28	84.38
482.498	79.38
482.717	80.38
482.935	87.38
483.153	79.38
483.372	98.38
483.59	92.38
483.808	100.38
484.027	91.38
484.245	100.38
484.463	96.38
484.681	89.38
484.9	99.38
485.118	95.38
485.336	95.38
485.554	104.38
485.772	111.38
485.99	123.38
486.209	116.38
486.427	111.38
486.645	125.38
486.863	107.38
487.081	106.38
487.299	100.38
487.517	92.38
487.735	103.38
487.953	81.38
488.171	95.38
488.389	92.38
488.607	95.38
488.825	91.38
489.043	79.38
489.261	83.38
489.479	84.38
489.696	90.38
489.914	93.38
490.132	87.38
490.35	92.38
490.568	79.38
490.786	81.38
491.003	86.38
491.221	95.38
491.439	102.38
491.657	91.38
491.874	107.38
492.092	99.38
492.31	93.38
492.527	90.38
492.745	84.38
492.963	85.38
493.18	81.38
493.398	90.38
493.615	97.38
493.833	82.38
494.05	88.38
494.268	103.38
494.485	88.38
494.703	88.38
494.92	88.38
495.138	89.38
495.355	84.38
495.573	92.38
495.79	90.38
496.008	106.38
496.225	100.38
496.442	87.38
496.66	94.38
496.877	82.38
497.094	87.38
497.312	75.38
497.529	85.38
497.746	99.38
497.963	77.38
498.181	78.38
498.398	92.38
498.615	105.38
498.832	97.38
499.049	81.38
499.267	92.38
499.484	90.38
499.701	105.38
499.918	85.38
500.135	84.38
500.352	89.38
500.569	81.38
500.786	85.38
501.003	79.38
501.22	81.38
501.437	98.38
501.654	95.38
501.871	102.38
502.088	91.38
502.305	91.38
502.522	83.38
502.739	96.38
502.956	98.38
503.172	88.38
503.389	103.38
503.606	92.38
503.823	96.38
504.04	93.38
504.256	78.38
504.473	81.38
504.69	79.38
504.907	95.38
505.123	87.38
505.34	97.38
505.557	94.38
505.773	90.38
505.99	98.38
506.207	87.38
506.423	79.38
506.64	74.38
506.856	79.38
507.073	88.38
507.289	83.38
507.506	95.38
507.722	92.38
507.939	99.38
508.155	84.38
508.372	86.38
508.588	95.38
508.805	96.38
509.021	95.38
509.238	95.38
509.454	107.38
509.67	97.38
509.887	103.38
510.103	100.38
510.319	143.38
510.536	519.38
510.752	1471.38
510.968	415.38
511.184	120.38
511.401	93.38
511.617	100.38
511.833	77.38
512.049	95.38
512.265	88.38
512.481	90.38
512.698	91.38
512.914	92.38
513.13	69.38
513.346	89.38
513.562	83.38
513.778	84.38
513.994	98.38
514.21	101.38
514.426	104.38
514.642	105.38
514.858	114.38
515.074	137.38
515.29	275.38
515.506	821.38
515.721	337.38
515.937	121.38
