Data from Circ_1993_H10_HRD10591_00013.txt Node
Date: Wed Jan 03 11:44:04 EST 2024
User: Yrep
Spectrometer: HR+D1059
Trigger mode: 1
Integration Time (sec): 1.000000E-1
Scans to average: 1
Electric dark correction enabled: true
Nonlinearity correction enabled: false
Boxcar width: 0
XAxis mode: Wavelengths
Number of Pixels in Spectrum: 2048
>>>>>Begin Spectral Data<<<<<
223.165	-13.5
223.4	-13.5
223.635	-13.5
223.869	-15.5
224.104	-22.5
224.338	-19.5
224.573	-9.5
224.808	-16.5
225.042	-19.5
225.277	-14.5
225.511	-3.5
225.746	17.5
225.98	9.5
226.215	19.5
226.449	14.5
226.683	23.5
226.918	26.5
227.152	23.5
227.387	38.5
227.621	48.5
227.856	41.5
228.09	45.5
228.324	39.5
228.559	45.5
228.793	61.5
229.027	77.5
229.262	59.5
229.496	64.5
229.73	66.5
229.964	80.5
230.199	82.5
230.433	82.5
230.667	84.5
230.901	89.5
231.136	82.5
231.37	64.5
231.604	73.5
231.838	69.5
232.072	75.5
232.306	70.5
232.541	81.5
232.775	76.5
233.009	81.5
233.243	73.5
233.477	79.5
233.711	74.5
233.945	101.5
234.179	70.5
234.413	83.5
234.647	73.5
234.881	76.5
235.115	73.5
235.349	75.5
235.583	66.5
235.817	94.5
236.051	81.5
236.285	76.5
236.519	76.5
236.753	82.5
236.987	81.5
237.221	94.5
237.455	83.5
237.689	78.5
237.922	71.5
238.156	74.5
238.39	73.5
238.624	69.5
238.858	73.5
239.091	78.5
239.325	86.5
239.559	80.5
239.793	59.5
240.027	68.5
240.26	73.5
240.494	77.5
240.728	74.5
240.961	60.5
241.195	68.5
241.429	74.5
241.662	66.5
241.896	63.5
242.13	77.5
242.363	82.5
242.597	77.5
242.83	79.5
243.064	85.5
243.298	72.5
243.531	79.5
243.765	80.5
243.998	79.5
244.232	80.5
244.465	95.5
244.699	81.5
244.932	65.5
245.166	76.5
245.399	86.5
245.633	87.5
245.866	75.5
246.099	74.5
246.333	78.5
246.566	76.5
246.8	86.5
247.033	92.5
247.266	77.5
247.5	68.5
247.733	66.5
247.966	77.5
248.2	76.5
248.433	63.5
248.666	68.5
248.899	80.5
249.133	85.5
249.366	96.5
249.599	76.5
249.832	75.5
250.066	92.5
250.299	70.5
250.532	72.5
250.765	83.5
250.998	77.5
251.231	89.5
251.465	81.5
251.698	76.5
251.931	81.5
252.164	86.5
252.397	66.5
252.63	77.5
252.863	81.5
253.096	91.5
253.329	75.5
253.562	75.5
253.795	89.5
254.028	88.5
254.261	85.5
254.494	74.5
254.727	82.5
254.96	85.5
255.193	77.5
255.426	85.5
255.659	73.5
255.892	92.5
256.124	70.5
256.357	80.5
256.59	82.5
256.823	80.5
257.056	81.5
257.289	90.5
257.521	98.5
257.754	84.5
257.987	71.5
258.22	95.5
258.452	74.5
258.685	85.5
258.918	62.5
259.151	83.5
259.383	81.5
259.616	71.5
259.849	81.5
260.081	86.5
260.314	86.5
260.547	82.5
260.779	78.5
261.012	86.5
261.244	82.5
261.477	96.5
261.71	90.5
261.942	106.5
262.175	102.5
262.407	87.5
262.64	76.5
262.872	81.5
263.105	74.5
263.337	81.5
263.57	82.5
263.802	82.5
264.035	70.5
264.267	76.5
264.499	101.5
264.732	77.5
264.964	84.5
265.197	73.5
265.429	71.5
265.661	90.5
265.894	86.5
266.126	81.5
266.358	88.5
266.591	90.5
266.823	85.5
267.055	107.5
267.287	84.5
267.52	75.5
267.752	71.5
267.984	74.5
268.216	83.5
268.448	83.5
268.681	85.5
268.913	78.5
269.145	83.5
269.377	98.5
269.609	90.5
269.841	83.5
270.073	78.5
270.306	88.5
270.538	68.5
270.77	70.5
271.002	83.5
271.234	79.5
271.466	81.5
271.698	69.5
271.93	82.5
272.162	71.5
272.394	81.5
272.626	90.5
272.858	79.5
273.09	78.5
273.322	90.5
273.553	86.5
273.785	78.5
274.017	79.5
274.249	85.5
274.481	78.5
274.713	71.5
274.945	76.5
275.176	79.5
275.408	85.5
275.64	82.5
275.872	86.5
276.104	86.5
276.335	64.5
276.567	101.5
276.799	91.5
277.031	87.5
277.262	103.5
277.494	84.5
277.726	95.5
277.957	77.5
278.189	86.5
278.421	96.5
278.652	82.5
278.884	78.5
279.115	75.5
279.347	79.5
279.579	96.5
279.81	81.5
280.042	96.5
280.273	82.5
280.505	90.5
280.736	84.5
280.968	99.5
281.199	95.5
281.431	94.5
281.662	74.5
281.894	84.5
282.125	78.5
282.356	108.5
282.588	105.5
282.819	104.5
283.051	89.5
283.282	77.5
283.513	89.5
283.745	92.5
283.976	90.5
284.207	90.5
284.439	88.5
284.67	98.5
284.901	87.5
285.132	91.5
285.364	87.5
285.595	84.5
285.826	78.5
286.057	86.5
286.288	85.5
286.52	76.5
286.751	87.5
286.982	76.5
287.213	79.5
287.444	89.5
287.675	80.5
287.906	94.5
288.138	67.5
288.369	93.5
288.6	83.5
288.831	76.5
289.062	82.5
289.293	86.5
289.524	88.5
289.755	86.5
289.986	79.5
290.217	98.5
290.448	86.5
290.679	90.5
290.91	73.5
291.141	76.5
291.371	75.5
291.602	87.5
291.833	73.5
292.064	80.5
292.295	80.5
292.526	90.5
292.757	78.5
292.987	97.5
293.218	85.5
293.449	82.5
293.68	91.5
293.91	89.5
294.141	77.5
294.372	86.5
294.603	78.5
294.833	83.5
295.064	86.5
295.295	88.5
295.525	94.5
295.756	103.5
295.987	102.5
296.217	105.5
296.448	101.5
296.679	90.5
296.909	86.5
297.14	91.5
297.37	86.5
297.601	84.5
297.831	95.5
298.062	102.5
298.292	91.5
298.523	77.5
298.753	85.5
298.984	100.5
299.214	80.5
299.445	89.5
299.675	85.5
299.905	110.5
300.136	98.5
300.366	92.5
300.597	99.5
300.827	99.5
301.057	85.5
301.288	97.5
301.518	90.5
301.748	85.5
301.979	83.5
302.209	67.5
302.439	90.5
302.669	100.5
302.9	82.5
303.13	94.5
303.36	96.5
303.59	94.5
303.82	107.5
304.051	96.5
304.281	96.5
304.511	85.5
304.741	80.5
304.971	89.5
305.201	77.5
305.431	93.5
305.661	89.5
305.891	82.5
306.121	96.5
306.352	109.5
306.582	89.5
306.812	98.5
307.042	97.5
307.272	101.5
307.502	85.5
307.731	99.5
307.961	77.5
308.191	86.5
308.421	88.5
308.651	94.5
308.881	86.5
309.111	90.5
309.341	90.5
309.571	96.5
309.8	98.5
310.03	104.5
310.26	98.5
310.49	86.5
310.72	97.5
310.949	94.5
311.179	94.5
311.409	93.5
311.639	92.5
311.868	98.5
312.098	98.5
312.328	84.5
312.557	96.5
312.787	98.5
313.017	99.5
313.246	84.5
313.476	102.5
313.706	96.5
313.935	93.5
314.165	94.5
314.394	86.5
314.624	91.5
314.853	97.5
315.083	95.5
315.312	92.5
315.542	97.5
315.771	99.5
316.001	101.5
316.23	83.5
316.46	97.5
316.689	90.5
316.919	84.5
317.148	91.5
317.377	90.5
317.607	98.5
317.836	93.5
318.065	86.5
318.295	95.5
318.524	81.5
318.753	87.5
318.983	100.5
319.212	92.5
319.441	98.5
319.67	98.5
319.9	98.5
320.129	92.5
320.358	90.5
320.587	106.5
320.816	88.5
321.046	97.5
321.275	83.5
321.504	101.5
321.733	95.5
321.962	94.5
322.191	92.5
322.42	78.5
322.649	107.5
322.878	103.5
323.108	100.5
323.337	121.5
323.566	132.5
323.795	133.5
324.024	174.5
324.253	302.5
324.482	581.5
324.71	1166.5
324.939	1517.5
325.168	563.5
325.397	191.5
325.626	145.5
325.855	132.5
326.084	126.5
326.313	139.5
326.542	139.5
326.77	193.5
326.999	341.5
327.228	704.5
327.457	1233.5
327.686	1006.5
327.914	277.5
328.143	168.5
328.372	123.5
328.6	127.5
328.829	108.5
329.058	108.5
329.287	138.5
329.515	102.5
329.744	127.5
329.972	103.5
330.201	105.5
330.43	118.5
330.658	111.5
330.887	110.5
331.115	92.5
331.344	101.5
331.572	96.5
331.801	110.5
332.03	102.5
332.258	94.5
332.486	92.5
332.715	89.5
332.943	109.5
333.172	95.5
333.4	104.5
333.629	102.5
333.857	97.5
334.085	104.5
334.314	101.5
334.542	121.5
334.771	125.5
334.999	100.5
335.227	98.5
335.455	92.5
335.684	100.5
335.912	94.5
336.14	101.5
336.369	93.5
336.597	95.5
336.825	106.5
337.053	108.5
337.281	84.5
337.51	82.5
337.738	94.5
337.966	110.5
338.194	91.5
338.422	96.5
338.65	82.5
338.878	99.5
339.106	92.5
339.334	89.5
339.562	83.5
339.79	87.5
340.018	99.5
340.246	85.5
340.474	98.5
340.702	93.5
340.93	86.5
341.158	90.5
341.386	89.5
341.614	94.5
341.842	99.5
342.07	101.5
342.298	77.5
342.526	90.5
342.754	90.5
342.981	95.5
343.209	89.5
343.437	118.5
343.665	93.5
343.893	97.5
344.12	100.5
344.348	82.5
344.576	89.5
344.804	100.5
345.031	87.5
345.259	107.5
345.487	93.5
345.714	92.5
345.942	82.5
346.17	95.5
346.397	90.5
346.625	72.5
346.853	98.5
347.08	91.5
347.308	82.5
347.535	100.5
347.763	97.5
347.99	102.5
348.218	93.5
348.445	100.5
348.673	84.5
348.9	99.5
349.128	102.5
349.355	98.5
349.583	103.5
349.81	85.5
350.037	90.5
350.265	97.5
350.492	99.5
350.72	103.5
350.947	94.5
351.174	97.5
351.402	107.5
351.629	92.5
351.856	104.5
352.083	99.5
352.311	111.5
352.538	98.5
352.765	107.5
352.992	119.5
353.22	123.5
353.447	105.5
353.674	88.5
353.901	99.5
354.128	98.5
354.355	82.5
354.583	92.5
354.81	103.5
355.037	109.5
355.264	77.5
355.491	98.5
355.718	94.5
355.945	101.5
356.172	101.5
356.399	90.5
356.626	97.5
356.853	103.5
357.08	102.5
357.307	101.5
357.534	86.5
357.761	114.5
357.988	103.5
358.215	104.5
358.441	111.5
358.668	112.5
358.895	110.5
359.122	101.5
359.349	100.5
359.576	92.5
359.802	95.5
360.029	111.5
360.256	101.5
360.483	104.5
360.709	84.5
360.936	102.5
361.163	83.5
361.39	98.5
361.616	95.5
361.843	82.5
362.07	109.5
362.296	105.5
362.523	80.5
362.749	74.5
362.976	80.5
363.203	95.5
363.429	100.5
363.656	102.5
363.882	90.5
364.109	81.5
364.335	89.5
364.562	114.5
364.788	93.5
365.015	93.5
365.241	91.5
365.468	109.5
365.694	107.5
365.92	95.5
366.147	96.5
366.373	93.5
366.599	91.5
366.826	79.5
367.052	75.5
367.278	96.5
367.505	92.5
367.731	89.5
367.957	100.5
368.184	84.5
368.41	88.5
368.636	102.5
368.862	113.5
369.089	102.5
369.315	89.5
369.541	94.5
369.767	96.5
369.993	98.5
370.219	83.5
370.445	77.5
370.672	83.5
370.898	78.5
371.124	89.5
371.35	83.5
371.576	91.5
371.802	76.5
372.028	102.5
372.254	94.5
372.48	99.5
372.706	85.5
372.932	95.5
373.158	84.5
373.384	89.5
373.61	82.5
373.835	97.5
374.061	80.5
374.287	93.5
374.513	99.5
374.739	93.5
374.965	87.5
375.191	101.5
375.416	94.5
375.642	92.5
375.868	94.5
376.094	97.5
376.319	93.5
376.545	87.5
376.771	92.5
376.997	77.5
377.222	105.5
377.448	95.5
377.674	96.5
377.899	91.5
378.125	106.5
378.35	97.5
378.576	97.5
378.802	103.5
379.027	94.5
379.253	107.5
379.478	112.5
379.704	99.5
379.929	92.5
380.155	112.5
380.38	105.5
380.606	102.5
380.831	106.5
381.057	128.5
381.282	113.5
381.507	113.5
381.733	118.5
381.958	123.5
382.184	105.5
382.409	115.5
382.634	138.5
382.86	113.5
383.085	117.5
383.31	132.5
383.535	121.5
383.761	129.5
383.986	114.5
384.211	125.5
384.436	132.5
384.662	130.5
384.887	142.5
385.112	142.5
385.337	148.5
385.562	138.5
385.787	147.5
386.013	129.5
386.238	146.5
386.463	132.5
386.688	155.5
386.913	159.5
387.138	165.5
387.363	137.5
387.588	122.5
387.813	121.5
388.038	144.5
388.263	165.5
388.488	171.5
388.713	113.5
388.938	93.5
389.163	103.5
389.387	96.5
389.612	103.5
389.837	84.5
390.062	97.5
390.287	100.5
390.512	81.5
390.736	87.5
390.961	108.5
391.186	91.5
391.411	96.5
391.636	103.5
391.86	89.5
392.085	84.5
392.31	84.5
392.534	87.5
392.759	89.5
392.984	108.5
393.208	151.5
393.433	206.5
393.658	161.5
393.882	99.5
394.107	83.5
394.331	73.5
394.556	78.5
394.78	90.5
395.005	93.5
395.229	79.5
395.454	87.5
395.678	89.5
395.903	80.5
396.127	81.5
396.352	103.5
396.576	105.5
396.801	119.5
397.025	156.5
397.249	117.5
397.474	87.5
397.698	86.5
397.922	77.5
398.147	85.5
398.371	93.5
398.595	89.5
398.82	90.5
399.044	84.5
399.268	80.5
399.492	95.5
399.717	89.5
399.941	76.5
400.165	91.5
400.389	93.5
400.613	88.5
400.837	91.5
401.062	82.5
401.286	89.5
401.51	79.5
401.734	92.5
401.958	115.5
402.182	107.5
402.406	111.5
402.63	96.5
402.854	100.5
403.078	90.5
403.302	97.5
403.526	91.5
403.75	92.5
403.974	82.5
404.198	82.5
404.422	82.5
404.645	78.5
404.869	99.5
405.093	86.5
405.317	95.5
405.541	86.5
405.765	106.5
405.988	105.5
406.212	129.5
406.436	179.5
406.66	122.5
406.883	96.5
407.107	90.5
407.331	89.5
407.555	93.5
407.778	96.5
408.002	83.5
408.226	92.5
408.449	85.5
408.673	100.5
408.896	80.5
409.12	94.5
409.344	89.5
409.567	81.5
409.791	98.5
410.014	98.5
410.238	97.5
410.461	99.5
410.685	95.5
410.908	108.5
411.132	100.5
411.355	116.5
411.578	90.5
411.802	93.5
412.025	80.5
412.249	87.5
412.472	85.5
412.695	96.5
412.919	90.5
413.142	81.5
413.365	76.5
413.589	90.5
413.812	92.5
414.035	94.5
414.258	99.5
414.482	90.5
414.705	94.5
414.928	95.5
415.151	97.5
415.374	104.5
415.597	90.5
415.821	87.5
416.044	87.5
416.267	94.5
416.49	82.5
416.713	87.5
416.936	97.5
417.159	85.5
417.382	99.5
417.605	90.5
417.828	96.5
418.051	94.5
418.274	90.5
418.497	90.5
418.72	94.5
418.943	89.5
419.166	91.5
419.389	92.5
419.611	101.5
419.834	82.5
420.057	94.5
420.28	83.5
420.503	81.5
420.726	90.5
420.948	91.5
421.171	89.5
421.394	96.5
421.617	86.5
421.839	88.5
422.062	85.5
422.285	90.5
422.507	104.5
422.73	137.5
422.953	118.5
423.175	98.5
423.398	87.5
423.621	93.5
423.843	85.5
424.066	86.5
424.288	93.5
424.511	95.5
424.733	103.5
424.956	111.5
425.178	95.5
425.401	98.5
425.623	83.5
425.846	78.5
426.068	88.5
426.291	96.5
426.513	89.5
426.735	69.5
426.958	93.5
427.18	95.5
427.402	116.5
427.625	134.5
427.847	118.5
428.069	90.5
428.292	104.5
428.514	95.5
428.736	70.5
428.958	83.5
429.181	87.5
429.403	84.5
429.625	99.5
429.847	105.5
430.069	91.5
430.292	85.5
430.514	91.5
430.736	81.5
430.958	93.5
431.18	83.5
431.402	96.5
431.624	81.5
431.846	77.5
432.068	95.5
432.29	91.5
432.512	84.5
432.734	103.5
432.956	90.5
433.178	101.5
433.4	77.5
433.622	89.5
433.844	87.5
434.066	105.5
434.287	93.5
434.509	83.5
434.731	75.5
434.953	83.5
435.175	91.5
435.397	87.5
435.618	94.5
435.84	87.5
436.062	96.5
436.284	99.5
436.505	110.5
436.727	105.5
436.949	89.5
437.17	88.5
437.392	96.5
437.614	97.5
437.835	104.5
438.057	107.5
438.278	85.5
438.5	99.5
438.721	113.5
438.943	93.5
439.165	80.5
439.386	82.5
439.608	107.5
439.829	102.5
440.05	102.5
440.272	114.5
440.493	83.5
440.715	81.5
440.936	95.5
441.158	78.5
441.379	87.5
441.6	97.5
441.822	86.5
442.043	102.5
442.264	110.5
442.486	87.5
442.707	94.5
442.928	81.5
443.149	107.5
443.371	106.5
443.592	98.5
443.813	96.5
444.034	91.5
444.255	92.5
444.476	84.5
444.698	86.5
444.919	74.5
445.14	144.5
445.361	135.5
445.582	107.5
445.803	112.5
446.024	118.5
446.245	108.5
446.466	102.5
446.687	91.5
446.908	66.5
447.129	96.5
447.35	95.5
447.571	92.5
447.792	99.5
448.013	96.5
448.234	95.5
448.455	89.5
448.675	101.5
448.896	101.5
449.117	85.5
449.338	90.5
449.559	95.5
449.779	115.5
450	86.5
450.221	99.5
450.442	80.5
450.662	90.5
450.883	89.5
451.104	95.5
451.324	94.5
451.545	85.5
451.766	99.5
451.986	83.5
452.207	91.5
452.428	97.5
452.648	92.5
452.869	101.5
453.089	106.5
453.31	101.5
453.53	95.5
453.751	93.5
453.971	100.5
454.192	110.5
454.412	88.5
454.633	79.5
454.853	92.5
455.073	82.5
455.294	92.5
455.514	93.5
455.734	93.5
455.955	84.5
456.175	80.5
456.395	96.5
456.616	93.5
456.836	86.5
457.056	77.5
457.276	86.5
457.497	89.5
457.717	97.5
457.937	82.5
458.157	86.5
458.377	97.5
458.598	115.5
458.818	119.5
459.038	119.5
459.258	100.5
459.478	87.5
459.698	77.5
459.918	78.5
460.138	80.5
460.358	81.5
460.578	80.5
460.798	83.5
461.018	95.5
461.238	63.5
461.458	89.5
461.678	82.5
461.898	91.5
462.118	88.5
462.338	83.5
462.558	76.5
462.777	96.5
462.997	83.5
463.217	83.5
463.437	78.5
463.657	71.5
463.876	78.5
464.096	85.5
464.316	82.5
464.536	102.5
464.755	105.5
464.975	93.5
465.195	143.5
465.414	133.5
465.634	93.5
465.854	91.5
466.073	78.5
466.293	82.5
466.512	85.5
466.732	86.5
466.951	78.5
467.171	81.5
467.391	86.5
467.61	94.5
467.829	72.5
468.049	81.5
468.268	98.5
468.488	100.5
468.707	90.5
468.927	92.5
469.146	77.5
469.365	93.5
469.585	91.5
469.804	97.5
470.023	90.5
470.243	75.5
470.462	99.5
470.681	98.5
470.901	83.5
471.12	80.5
471.339	94.5
471.558	83.5
471.777	86.5
471.997	90.5
472.216	100.5
472.435	106.5
472.654	101.5
472.873	106.5
473.092	82.5
473.311	95.5
473.53	93.5
473.749	85.5
473.968	89.5
474.187	92.5
474.406	90.5
474.625	98.5
474.844	86.5
475.063	78.5
475.282	86.5
475.501	85.5
475.72	78.5
475.939	75.5
476.158	92.5
476.377	102.5
476.596	85.5
476.814	97.5
477.033	82.5
477.252	94.5
477.471	78.5
477.69	69.5
477.908	77.5
478.127	85.5
478.346	94.5
478.564	91.5
478.783	102.5
479.002	70.5
479.22	81.5
479.439	83.5
479.658	83.5
479.876	92.5
480.095	74.5
480.313	86.5
480.532	90.5
480.751	86.5
480.969	113.5
481.188	175.5
481.406	126.5
481.624	98.5
481.843	80.5
482.061	86.5
482.28	86.5
482.498	93.5
482.717	103.5
482.935	71.5
483.153	95.5
483.372	84.5
483.59	81.5
483.808	100.5
484.027	88.5
484.245	104.5
484.463	87.5
484.681	94.5
484.9	93.5
485.118	107.5
485.336	100.5
485.554	83.5
485.772	105.5
485.99	110.5
486.209	95.5
486.427	105.5
486.645	110.5
486.863	117.5
487.081	98.5
487.299	102.5
487.517	88.5
487.735	101.5
487.953	100.5
488.171	98.5
488.389	86.5
488.607	95.5
488.825	98.5
489.043	73.5
489.261	97.5
489.479	98.5
489.696	94.5
489.914	94.5
490.132	101.5
490.35	89.5
490.568	89.5
490.786	97.5
491.003	68.5
491.221	84.5
491.439	77.5
491.657	99.5
491.874	97.5
492.092	83.5
492.31	76.5
492.527	103.5
492.745	106.5
492.963	92.5
493.18	89.5
493.398	101.5
493.615	102.5
493.833	93.5
494.05	96.5
494.268	78.5
494.485	91.5
494.703	100.5
494.92	89.5
495.138	87.5
495.355	86.5
495.573	95.5
495.79	98.5
496.008	95.5
496.225	97.5
496.442	100.5
496.66	91.5
496.877	79.5
497.094	92.5
497.312	94.5
497.529	101.5
497.746	87.5
497.963	73.5
498.181	84.5
498.398	78.5
498.615	107.5
498.832	90.5
499.049	88.5
499.267	80.5
499.484	97.5
499.701	86.5
499.918	91.5
500.135	83.5
500.352	79.5
500.569	91.5
500.786	99.5
501.003	88.5
501.22	97.5
501.437	101.5
501.654	95.5
501.871	92.5
502.088	80.5
502.305	89.5
502.522	90.5
502.739	96.5
502.956	95.5
503.172	99.5
503.389	90.5
503.606	97.5
503.823	98.5
504.04	84.5
504.256	83.5
504.473	79.5
504.69	76.5
504.907	86.5
505.123	88.5
505.34	97.5
505.557	87.5
505.773	92.5
505.99	76.5
506.207	84.5
506.423	96.5
506.64	93.5
506.856	90.5
507.073	84.5
507.289	91.5
507.506	91.5
507.722	92.5
507.939	102.5
508.155	89.5
508.372	92.5
508.588	92.5
508.805	88.5
509.021	88.5
509.238	89.5
509.454	90.5
509.67	83.5
509.887	119.5
510.103	102.5
510.319	168.5
510.536	564.5
510.752	1636.5
510.968	479.5
511.184	131.5
511.401	85.5
511.617	92.5
511.833	83.5
512.049	83.5
512.265	95.5
512.481	88.5
512.698	98.5
512.914	81.5
513.13	95.5
513.346	89.5
513.562	81.5
513.778	78.5
513.994	84.5
514.21	83.5
514.426	96.5
514.642	99.5
514.858	111.5
515.074	133.5
515.29	329.5
515.506	958.5
515.721	369.5
515.937	135.5
516.153	91.5
516.369	92.5
516.585	90.5
516.801	89.5
517.016	87.5
517.232	85.5
517.448	87.5
517.664	75.5
517.879	77.5
518.095	95.5
518.311	88.5
518.527	76.5
518.742	82.5
518.958	98.5
519.173	90.5
519.389	79.5
519.605	85.5
519.82	85.5
520.036	85.5
520.251	104.5
520.467	112.5
520.682	103.5
520.898	92.5
521.113	93.5
521.329	122.5
521.544	162.5
521.76	387.5
521.975	1522.5
522.19	929.5
522.406	241.5
522.621	120.5
522.836	96.5
523.052	86.5
523.267	87.5
523.482	96.5
523.698	92.5
523.913	108.5
524.128	90.5
524.343	99.5
524.559	97.5
524.774	94.5
524.989	102.5
525.204	97.5
525.419	100.5
525.634	86.5
525.849	96.5
526.064	91.5
526.28	79.5
526.495	86.5
526.71	95.5
526.925	91.5
527.14	92.5
527.355	87.5
527.57	83.5
527.785	85.5
527.999	79.5
528.214	93.5
528.429	103.5
528.644	96.5
528.859	86.5
529.074	102.5
529.289	118.5
529.503	145.5
529.718	89.5
529.933	103.5
530.148	88.5
530.363	79.5
530.577	102.5
530.792	113.5
531.007	91.5
531.221	84.5
531.436	93.5
531.651	92.5
531.865	86.5
532.08	98.5
532.295	97.5
532.509	82.5
532.724	77.5
532.938	75.5
533.153	88.5
533.367	96.5
533.582	86.5
533.796	93.5
534.011	86.5
534.225	86.5
534.44	97.5
534.654	95.5
534.868	83.5
535.083	83.5
535.297	96.5
535.511	86.5
