Data from Circ_1993_H10_HRD10591_00037.txt Node
Date: Wed Jan 03 11:44:09 EST 2024
User: Yrep
Spectrometer: HR+D1059
Trigger mode: 1
Integration Time (sec): 1.000000E-1
Scans to average: 1
Electric dark correction enabled: true
Nonlinearity correction enabled: false
Boxcar width: 0
XAxis mode: Wavelengths
Number of Pixels in Spectrum: 2048
>>>>>Begin Spectral Data<<<<<
223.165	-16.12
223.4	-16.12
223.635	-16.12
223.869	-23.12
224.104	-19.12
224.338	-5.12
224.573	-4.12
224.808	-23.12
225.042	-16.12
225.277	-6.12
225.511	-9.12
225.746	0.88
225.98	13.88
226.215	16.88
226.449	9.88
226.683	18.88
226.918	29.88
227.152	31.88
227.387	38.88
227.621	28.88
227.856	50.88
228.09	44.88
228.324	46.88
228.559	37.88
228.793	68.88
229.027	50.88
229.262	59.88
229.496	61.88
229.73	75.88
229.964	74.88
230.199	82.88
230.433	73.88
230.667	78.88
230.901	78.88
231.136	68.88
231.37	78.88
231.604	67.88
231.838	80.88
232.072	88.88
232.306	85.88
232.541	76.88
232.775	85.88
233.009	83.88
233.243	77.88
233.477	77.88
233.711	70.88
233.945	83.88
234.179	91.88
234.413	93.88
234.647	100.88
234.881	89.88
235.115	90.88
235.349	82.88
235.583	73.88
235.817	70.88
236.051	77.88
236.285	76.88
236.519	88.88
236.753	82.88
236.987	96.88
237.221	103.88
237.455	84.88
237.689	95.88
237.922	67.88
238.156	79.88
238.39	83.88
238.624	84.88
238.858	86.88
239.091	69.88
239.325	80.88
239.559	93.88
239.793	72.88
240.027	76.88
240.26	75.88
240.494	78.88
240.728	76.88
240.961	73.88
241.195	75.88
241.429	67.88
241.662	69.88
241.896	73.88
242.13	72.88
242.363	85.88
242.597	61.88
242.83	75.88
243.064	61.88
243.298	79.88
243.531	88.88
243.765	104.88
243.998	69.88
244.232	79.88
244.465	81.88
244.699	77.88
244.932	93.88
245.166	74.88
245.399	80.88
245.633	87.88
245.866	88.88
246.099	74.88
246.333	85.88
246.566	88.88
246.8	80.88
247.033	75.88
247.266	78.88
247.5	70.88
247.733	80.88
247.966	80.88
248.2	85.88
248.433	80.88
248.666	85.88
248.899	79.88
249.133	87.88
249.366	93.88
249.599	100.88
249.832	81.88
250.066	90.88
250.299	72.88
250.532	75.88
250.765	91.88
250.998	83.88
251.231	72.88
251.465	89.88
251.698	81.88
251.931	79.88
252.164	82.88
252.397	73.88
252.63	83.88
252.863	72.88
253.096	65.88
253.329	74.88
253.562	93.88
253.795	88.88
254.028	87.88
254.261	104.88
254.494	82.88
254.727	90.88
254.96	71.88
255.193	81.88
255.426	69.88
255.659	88.88
255.892	89.88
256.124	77.88
256.357	72.88
256.59	76.88
256.823	77.88
257.056	77.88
257.289	88.88
257.521	91.88
257.754	74.88
257.987	88.88
258.22	74.88
258.452	80.88
258.685	81.88
258.918	92.88
259.151	84.88
259.383	75.88
259.616	84.88
259.849	65.88
260.081	78.88
260.314	85.88
260.547	87.88
260.779	69.88
261.012	76.88
261.244	86.88
261.477	84.88
261.71	95.88
261.942	97.88
262.175	99.88
262.407	84.88
262.64	68.88
262.872	86.88
263.105	87.88
263.337	74.88
263.57	81.88
263.802	83.88
264.035	76.88
264.267	80.88
264.499	75.88
264.732	88.88
264.964	74.88
265.197	79.88
265.429	70.88
265.661	84.88
265.894	76.88
266.126	73.88
266.358	77.88
266.591	71.88
266.823	82.88
267.055	82.88
267.287	88.88
267.52	69.88
267.752	84.88
267.984	86.88
268.216	91.88
268.448	62.88
268.681	92.88
268.913	97.88
269.145	85.88
269.377	78.88
269.609	97.88
269.841	76.88
270.073	82.88
270.306	67.88
270.538	65.88
270.77	84.88
271.002	88.88
271.234	84.88
271.466	93.88
271.698	97.88
271.93	80.88
272.162	88.88
272.394	93.88
272.626	75.88
272.858	99.88
273.09	81.88
273.322	91.88
273.553	73.88
273.785	82.88
274.017	69.88
274.249	77.88
274.481	64.88
274.713	75.88
274.945	88.88
275.176	92.88
275.408	89.88
275.64	93.88
275.872	76.88
276.104	84.88
276.335	86.88
276.567	90.88
276.799	106.88
277.031	93.88
277.262	86.88
277.494	84.88
277.726	85.88
277.957	81.88
278.189	78.88
278.421	86.88
278.652	85.88
278.884	73.88
279.115	82.88
279.347	84.88
279.579	86.88
279.81	92.88
280.042	78.88
280.273	92.88
280.505	90.88
280.736	78.88
280.968	83.88
281.199	77.88
281.431	83.88
281.662	78.88
281.894	93.88
282.125	96.88
282.356	112.88
282.588	122.88
282.819	115.88
283.051	95.88
283.282	87.88
283.513	86.88
283.745	97.88
283.976	85.88
284.207	75.88
284.439	85.88
284.67	86.88
284.901	67.88
285.132	69.88
285.364	94.88
285.595	70.88
285.826	96.88
286.057	93.88
286.288	79.88
286.52	101.88
286.751	78.88
286.982	108.88
287.213	82.88
287.444	85.88
287.675	97.88
287.906	88.88
288.138	96.88
288.369	95.88
288.6	70.88
288.831	72.88
289.062	80.88
289.293	87.88
289.524	80.88
289.755	76.88
289.986	68.88
290.217	83.88
290.448	81.88
290.679	86.88
290.91	82.88
291.141	91.88
291.371	78.88
291.602	86.88
291.833	90.88
292.064	112.88
292.295	87.88
292.526	83.88
292.757	74.88
292.987	83.88
293.218	71.88
293.449	86.88
293.68	93.88
293.91	110.88
294.141	93.88
294.372	95.88
294.603	92.88
294.833	80.88
295.064	77.88
295.295	88.88
295.525	100.88
295.756	99.88
295.987	125.88
296.217	147.88
296.448	122.88
296.679	92.88
296.909	90.88
297.14	76.88
297.37	77.88
297.601	84.88
297.831	86.88
298.062	75.88
298.292	77.88
298.523	78.88
298.753	94.88
298.984	85.88
299.214	92.88
299.445	89.88
299.675	89.88
299.905	95.88
300.136	76.88
300.366	76.88
300.597	83.88
300.827	106.88
301.057	87.88
301.288	92.88
301.518	98.88
301.748	78.88
301.979	114.88
302.209	91.88
302.439	105.88
302.669	90.88
302.9	88.88
303.13	83.88
303.36	100.88
303.59	84.88
303.82	90.88
304.051	98.88
304.281	95.88
304.511	73.88
304.741	83.88
304.971	81.88
305.201	84.88
305.431	89.88
305.661	100.88
305.891	102.88
306.121	91.88
306.352	105.88
306.582	99.88
306.812	93.88
307.042	85.88
307.272	95.88
307.502	81.88
307.731	98.88
307.961	109.88
308.191	88.88
308.421	101.88
308.651	87.88
308.881	100.88
309.111	80.88
309.341	100.88
309.571	104.88
309.8	103.88
310.03	111.88
310.26	93.88
310.49	98.88
310.72	95.88
310.949	85.88
311.179	98.88
311.409	92.88
311.639	91.88
311.868	100.88
312.098	117.88
312.328	97.88
312.557	89.88
312.787	100.88
313.017	85.88
313.246	89.88
313.476	106.88
313.706	94.88
313.935	102.88
314.165	102.88
314.394	108.88
314.624	94.88
314.853	96.88
315.083	94.88
315.312	86.88
315.542	103.88
315.771	99.88
316.001	90.88
316.23	96.88
316.46	92.88
316.689	86.88
316.919	78.88
317.148	87.88
317.377	90.88
317.607	88.88
317.836	99.88
318.065	89.88
318.295	98.88
318.524	100.88
318.753	91.88
318.983	101.88
319.212	96.88
319.441	102.88
319.67	105.88
319.9	96.88
320.129	96.88
320.358	99.88
320.587	105.88
320.816	95.88
321.046	82.88
321.275	93.88
321.504	94.88
321.733	91.88
321.962	94.88
322.191	92.88
322.42	93.88
322.649	100.88
322.878	105.88
323.108	106.88
323.337	127.88
323.566	131.88
323.795	155.88
324.024	204.88
324.253	371.88
324.482	750.88
324.71	1501.88
324.939	2039.88
325.168	745.88
325.397	237.88
325.626	152.88
325.855	123.88
326.084	121.88
326.313	129.88
326.542	144.88
326.77	222.88
326.999	415.88
327.228	874.88
327.457	1601.88
327.686	1274.88
327.914	365.88
328.143	219.88
328.372	177.88
328.6	140.88
328.829	117.88
329.058	129.88
329.287	101.88
329.515	103.88
329.744	121.88
329.972	109.88
330.201	136.88
330.43	170.88
330.658	132.88
330.887	146.88
331.115	117.88
331.344	93.88
331.572	96.88
331.801	95.88
332.03	100.88
332.258	91.88
332.486	94.88
332.715	93.88
332.943	96.88
333.172	93.88
333.4	95.88
333.629	105.88
333.857	121.88
334.085	124.88
334.314	139.88
334.542	180.88
334.771	178.88
334.999	105.88
335.227	96.88
335.455	93.88
335.684	100.88
335.912	95.88
336.14	90.88
336.369	105.88
336.597	84.88
336.825	108.88
337.053	85.88
337.281	87.88
337.51	86.88
337.738	89.88
337.966	95.88
338.194	110.88
338.422	98.88
338.65	91.88
338.878	88.88
339.106	86.88
339.334	74.88
339.562	93.88
339.79	78.88
340.018	105.88
340.246	87.88
340.474	101.88
340.702	104.88
340.93	83.88
341.158	91.88
341.386	97.88
341.614	99.88
341.842	102.88
342.07	90.88
342.298	77.88
342.526	96.88
342.754	104.88
342.981	85.88
343.209	99.88
343.437	102.88
343.665	85.88
343.893	106.88
344.12	95.88
344.348	91.88
344.576	93.88
344.804	93.88
345.031	88.88
345.259	74.88
345.487	91.88
345.714	92.88
345.942	89.88
346.17	85.88
346.397	96.88
346.625	93.88
346.853	85.88
347.08	82.88
347.308	99.88
347.535	98.88
347.763	96.88
347.99	97.88
348.218	84.88
348.445	98.88
348.673	107.88
348.9	88.88
349.128	90.88
349.355	88.88
349.583	94.88
349.81	102.88
350.037	84.88
350.265	99.88
350.492	96.88
350.72	86.88
350.947	102.88
351.174	109.88
351.402	111.88
351.629	109.88
351.856	114.88
352.083	100.88
352.311	116.88
352.538	102.88
352.765	116.88
352.992	108.88
353.22	101.88
353.447	97.88
353.674	97.88
353.901	101.88
354.128	85.88
354.355	91.88
354.583	105.88
354.81	92.88
355.037	100.88
355.264	84.88
355.491	92.88
355.718	101.88
355.945	88.88
356.172	89.88
356.399	101.88
356.626	92.88
356.853	96.88
357.08	89.88
357.307	81.88
357.534	91.88
357.761	93.88
357.988	93.88
358.215	107.88
358.441	101.88
358.668	94.88
358.895	104.88
359.122	102.88
359.349	91.88
359.576	89.88
359.802	100.88
360.029	98.88
360.256	107.88
360.483	88.88
360.709	83.88
360.936	98.88
361.163	84.88
361.39	73.88
361.616	88.88
361.843	90.88
362.07	92.88
362.296	83.88
362.523	79.88
362.749	88.88
362.976	89.88
363.203	93.88
363.429	94.88
363.656	97.88
363.882	84.88
364.109	97.88
364.335	90.88
364.562	97.88
364.788	80.88
365.015	91.88
365.241	109.88
365.468	108.88
365.694	97.88
365.92	101.88
366.147	96.88
366.373	98.88
366.599	84.88
366.826	86.88
367.052	94.88
367.278	97.88
367.505	89.88
367.731	87.88
367.957	81.88
368.184	93.88
368.41	84.88
368.636	103.88
368.862	100.88
369.089	97.88
369.315	100.88
369.541	92.88
369.767	94.88
369.993	94.88
370.219	93.88
370.445	89.88
370.672	93.88
370.898	88.88
371.124	88.88
371.35	88.88
371.576	81.88
371.802	78.88
372.028	91.88
372.254	85.88
372.48	92.88
372.706	76.88
372.932	101.88
373.158	88.88
373.384	90.88
373.61	88.88
373.835	86.88
374.061	89.88
374.287	80.88
374.513	83.88
374.739	75.88
374.965	82.88
375.191	94.88
375.416	89.88
375.642	98.88
375.868	88.88
376.094	82.88
376.319	98.88
376.545	97.88
376.771	83.88
376.997	93.88
377.222	92.88
377.448	90.88
377.674	86.88
377.899	96.88
378.125	92.88
378.35	92.88
378.576	97.88
378.802	78.88
379.027	90.88
379.253	96.88
379.478	96.88
379.704	100.88
379.929	96.88
380.155	93.88
380.38	90.88
380.606	97.88
380.831	96.88
381.057	102.88
381.282	92.88
381.507	101.88
381.733	103.88
381.958	113.88
382.184	102.88
382.409	101.88
382.634	107.88
382.86	99.88
383.085	108.88
383.31	113.88
383.535	106.88
383.761	95.88
383.986	102.88
384.211	96.88
384.436	103.88
384.662	103.88
384.887	118.88
385.112	108.88
385.337	112.88
385.562	109.88
385.787	104.88
386.013	109.88
386.238	113.88
386.463	117.88
386.688	119.88
386.913	117.88
387.138	118.88
387.363	114.88
387.588	121.88
387.813	109.88
388.038	120.88
388.263	118.88
388.488	110.88
388.713	106.88
388.938	94.88
389.163	99.88
389.387	93.88
389.612	99.88
389.837	95.88
390.062	111.88
390.287	113.88
390.512	90.88
390.736	93.88
390.961	91.88
391.186	104.88
391.411	76.88
391.636	93.88
391.86	84.88
392.085	96.88
392.31	93.88
392.534	68.88
392.759	86.88
392.984	87.88
393.208	119.88
393.433	124.88
393.658	132.88
393.882	98.88
394.107	91.88
394.331	81.88
394.556	93.88
394.78	83.88
395.005	102.88
395.229	103.88
395.454	78.88
395.678	78.88
395.903	89.88
396.127	89.88
396.352	74.88
396.576	89.88
396.801	118.88
397.025	123.88
397.249	96.88
397.474	82.88
397.698	101.88
397.922	90.88
398.147	83.88
398.371	85.88
398.595	76.88
398.82	87.88
399.044	78.88
399.268	88.88
399.492	101.88
399.717	89.88
399.941	81.88
400.165	91.88
400.389	85.88
400.613	102.88
400.837	88.88
401.062	92.88
401.286	92.88
401.51	93.88
401.734	74.88
401.958	99.88
402.182	114.88
402.406	155.88
402.63	109.88
402.854	84.88
403.078	88.88
403.302	93.88
403.526	93.88
403.75	98.88
403.974	91.88
404.198	96.88
404.422	84.88
404.645	96.88
404.869	100.88
405.093	99.88
405.317	94.88
405.541	98.88
405.765	94.88
405.988	109.88
406.212	161.88
406.436	219.88
406.66	149.88
406.883	98.88
407.107	87.88
407.331	100.88
407.555	91.88
407.778	96.88
408.002	88.88
408.226	77.88
408.449	87.88
408.673	99.88
408.896	98.88
409.12	93.88
409.344	86.88
409.567	88.88
409.791	84.88
410.014	89.88
410.238	76.88
410.461	80.88
410.685	93.88
410.908	98.88
411.132	101.88
411.355	88.88
411.578	91.88
411.802	90.88
412.025	96.88
412.249	84.88
412.472	102.88
412.695	99.88
412.919	88.88
413.142	81.88
413.365	92.88
413.589	83.88
413.812	94.88
414.035	100.88
414.258	92.88
414.482	97.88
414.705	98.88
414.928	96.88
415.151	86.88
415.374	94.88
415.597	91.88
415.821	84.88
416.044	92.88
416.267	66.88
416.49	87.88
416.713	90.88
416.936	92.88
417.159	90.88
417.382	97.88
417.605	91.88
417.828	97.88
418.051	88.88
418.274	93.88
418.497	96.88
418.72	90.88
418.943	98.88
419.166	92.88
419.389	95.88
419.611	74.88
419.834	78.88
420.057	90.88
420.28	95.88
420.503	112.88
420.726	92.88
420.948	95.88
421.171	92.88
421.394	76.88
421.617	90.88
421.839	80.88
422.062	93.88
422.285	85.88
422.507	93.88
422.73	111.88
422.953	106.88
423.175	80.88
423.398	76.88
423.621	74.88
423.843	62.88
424.066	87.88
424.288	82.88
424.511	92.88
424.733	90.88
424.956	94.88
425.178	91.88
425.401	93.88
425.623	98.88
425.846	95.88
426.068	84.88
426.291	101.88
426.513	92.88
426.735	95.88
426.958	94.88
427.18	111.88
427.402	138.88
427.625	137.88
427.847	124.88
428.069	117.88
428.292	91.88
428.514	81.88
428.736	89.88
428.958	79.88
429.181	76.88
429.403	89.88
429.625	92.88
429.847	81.88
430.069	94.88
430.292	91.88
430.514	88.88
430.736	81.88
430.958	82.88
431.18	102.88
431.402	84.88
431.624	89.88
431.846	82.88
432.068	76.88
432.29	74.88
432.512	88.88
432.734	100.88
432.956	90.88
433.178	103.88
433.4	91.88
433.622	95.88
433.844	77.88
434.066	91.88
434.287	89.88
434.509	82.88
434.731	61.88
434.953	88.88
435.175	83.88
435.397	96.88
435.618	85.88
435.84	99.88
436.062	112.88
436.284	110.88
436.505	96.88
436.727	102.88
436.949	92.88
437.17	89.88
437.392	88.88
437.614	93.88
437.835	107.88
438.057	100.88
438.278	100.88
438.5	110.88
438.721	112.88
438.943	105.88
439.165	99.88
439.386	85.88
439.608	90.88
439.829	101.88
440.05	126.88
440.272	146.88
440.493	105.88
440.715	84.88
440.936	89.88
441.158	101.88
441.379	91.88
441.6	86.88
441.822	85.88
442.043	80.88
442.264	104.88
442.486	101.88
442.707	88.88
442.928	105.88
443.149	129.88
443.371	130.88
443.592	108.88
443.813	112.88
444.034	97.88
444.255	90.88
444.476	78.88
444.698	92.88
444.919	95.88
445.14	128.88
445.361	112.88
445.582	108.88
445.803	150.88
446.024	121.88
446.245	136.88
446.466	110.88
446.687	101.88
446.908	91.88
447.129	98.88
447.35	86.88
447.571	74.88
447.792	84.88
448.013	93.88
448.234	100.88
448.455	105.88
448.675	115.88
448.896	109.88
449.117	112.88
449.338	101.88
449.559	117.88
449.779	140.88
450	93.88
450.221	87.88
450.442	83.88
450.662	93.88
450.883	90.88
451.104	111.88
451.324	82.88
451.545	67.88
451.766	85.88
451.986	90.88
452.207	92.88
452.428	98.88
452.648	91.88
452.869	103.88
453.089	112.88
453.31	98.88
453.53	83.88
453.751	93.88
453.971	102.88
454.192	101.88
454.412	92.88
454.633	88.88
454.853	79.88
455.073	75.88
455.294	93.88
455.514	104.88
455.734	91.88
455.955	83.88
456.175	83.88
456.395	89.88
456.616	94.88
456.836	77.88
457.056	90.88
457.276	74.88
457.497	99.88
457.717	86.88
457.937	83.88
458.157	84.88
458.377	94.88
458.598	99.88
458.818	138.88
459.038	135.88
459.258	100.88
459.478	87.88
459.698	93.88
459.918	89.88
460.138	88.88
460.358	81.88
460.578	89.88
460.798	87.88
461.018	102.88
461.238	98.88
461.458	82.88
461.678	88.88
461.898	87.88
462.118	84.88
462.338	86.88
462.558	94.88
462.777	78.88
462.997	77.88
463.217	84.88
463.437	74.88
463.657	99.88
463.876	74.88
464.096	90.88
464.316	94.88
464.536	106.88
464.755	84.88
464.975	89.88
465.195	161.88
465.414	158.88
465.634	95.88
465.854	106.88
466.073	102.88
466.293	97.88
466.512	85.88
466.732	81.88
466.951	97.88
467.171	103.88
467.391	97.88
467.61	105.88
467.829	98.88
468.049	124.88
468.268	105.88
468.488	91.88
468.707	90.88
468.927	88.88
469.146	89.88
469.365	87.88
469.585	77.88
469.804	89.88
470.023	91.88
470.243	103.88
470.462	92.88
470.681	97.88
470.901	93.88
471.12	75.88
471.339	100.88
471.558	100.88
471.777	98.88
471.997	94.88
472.216	150.88
472.435	213.88
472.654	110.88
472.873	95.88
473.092	91.88
473.311	85.88
473.53	96.88
473.749	86.88
473.968	102.88
474.187	104.88
474.406	85.88
474.625	93.88
474.844	84.88
475.063	84.88
475.282	90.88
475.501	98.88
475.72	90.88
475.939	87.88
476.158	76.88
476.377	76.88
476.596	87.88
476.814	96.88
477.033	83.88
477.252	86.88
477.471	96.88
477.69	84.88
477.908	85.88
478.127	87.88
478.346	90.88
478.564	89.88
478.783	91.88
479.002	83.88
479.22	93.88
479.439	106.88
479.658	102.88
479.876	97.88
480.095	93.88
480.313	95.88
480.532	100.88
480.751	108.88
480.969	142.88
481.188	347.88
481.406	230.88
481.624	103.88
481.843	94.88
482.061	88.88
482.28	95.88
482.498	82.88
482.717	96.88
482.935	96.88
483.153	97.88
483.372	82.88
483.59	98.88
483.808	90.88
484.027	69.88
484.245	99.88
484.463	89.88
484.681	89.88
484.9	92.88
485.118	80.88
485.336	102.88
485.554	100.88
485.772	103.88
485.99	111.88
486.209	107.88
486.427	111.88
486.645	120.88
486.863	115.88
487.081	94.88
487.299	98.88
487.517	85.88
487.735	91.88
487.953	99.88
488.171	97.88
488.389	109.88
488.607	102.88
488.825	81.88
489.043	91.88
489.261	76.88
489.479	73.88
489.696	88.88
489.914	72.88
490.132	93.88
490.35	95.88
490.568	99.88
490.786	90.88
491.003	91.88
491.221	76.88
491.439	91.88
491.657	91.88
491.874	101.88
492.092	92.88
492.31	83.88
492.527	88.88
492.745	85.88
492.963	91.88
493.18	106.88
493.398	97.88
493.615	90.88
493.833	95.88
494.05	87.88
494.268	88.88
494.485	89.88
494.703	93.88
494.92	95.88
495.138	86.88
495.355	75.88
495.573	88.88
495.79	91.88
496.008	104.88
496.225	88.88
496.442	97.88
496.66	94.88
496.877	83.88
497.094	92.88
497.312	77.88
497.529	84.88
497.746	93.88
497.963	77.88
498.181	81.88
498.398	97.88
498.615	108.88
498.832	101.88
499.049	95.88
499.267	84.88
499.484	74.88
499.701	85.88
499.918	92.88
500.135	88.88
500.352	96.88
500.569	86.88
500.786	95.88
501.003	91.88
501.22	99.88
501.437	89.88
501.654	94.88
501.871	106.88
502.088	103.88
502.305	95.88
502.522	102.88
502.739	89.88
502.956	76.88
503.172	94.88
503.389	91.88
503.606	118.88
503.823	115.88
504.04	78.88
504.256	87.88
504.473	81.88
504.69	92.88
504.907	93.88
505.123	88.88
505.34	82.88
505.557	86.88
505.773	87.88
505.99	87.88
506.207	98.88
506.423	90.88
506.64	98.88
506.856	85.88
507.073	94.88
507.289	82.88
507.506	106.88
507.722	114.88
507.939	102.88
508.155	94.88
508.372	83.88
508.588	99.88
508.805	102.88
509.021	90.88
509.238	108.88
509.454	99.88
509.67	106.88
509.887	107.88
510.103	121.88
510.319	195.88
510.536	685.88
510.752	2156.88
510.968	609.88
511.184	144.88
511.401	114.88
511.617	105.88
511.833	81.88
512.049	89.88
512.265	92.88
512.481	92.88
512.698	95.88
512.914	92.88
513.13	91.88
513.346	105.88
513.562	87.88
513.778	89.88
513.994	84.88
514.21	94.88
514.426	100.88
514.642	127.88
514.858	110.88
515.074	163.88
515.29	421.88
515.506	1359.88
