Data from Circ_1993_H10_HRD10591_00093.txt Node
Date: Wed Jan 03 11:44:20 EST 2024
User: Yrep
Spectrometer: HR+D1059
Trigger mode: 1
Integration Time (sec): 1.000000E-1
Scans to average: 1
Electric dark correction enabled: true
Nonlinearity correction enabled: false
Boxcar width: 0
XAxis mode: Wavelengths
Number of Pixels in Spectrum: 2048
>>>>>Begin Spectral Data<<<<<
223.165	-5.62
223.4	-5.62
223.635	-5.62
223.869	-7.62
224.104	-35.62
224.338	-16.62
224.573	-21.62
224.808	-7.62
225.042	1.38
225.277	-11.62
225.511	-5.62
225.746	3.38
225.98	-2.62
226.215	12.38
226.449	17.38
226.683	12.38
226.918	42.38
227.152	25.38
227.387	32.38
227.621	37.38
227.856	50.38
228.09	49.38
228.324	54.38
228.559	46.38
228.793	46.38
229.027	56.38
229.262	70.38
229.496	75.38
229.73	87.38
229.964	77.38
230.199	64.38
230.433	81.38
230.667	93.38
230.901	66.38
231.136	77.38
231.37	71.38
231.604	72.38
231.838	74.38
232.072	79.38
232.306	76.38
232.541	75.38
232.775	75.38
233.009	87.38
233.243	96.38
233.477	76.38
233.711	83.38
233.945	87.38
234.179	83.38
234.413	75.38
234.647	78.38
234.881	74.38
235.115	59.38
235.349	73.38
235.583	94.38
235.817	84.38
236.051	80.38
236.285	74.38
236.519	76.38
236.753	81.38
236.987	86.38
237.221	89.38
237.455	78.38
237.689	67.38
237.922	86.38
238.156	74.38
238.39	76.38
238.624	74.38
238.858	69.38
239.091	72.38
239.325	75.38
239.559	67.38
239.793	78.38
240.027	70.38
240.26	67.38
240.494	87.38
240.728	77.38
240.961	74.38
241.195	80.38
241.429	81.38
241.662	62.38
241.896	73.38
242.13	68.38
242.363	83.38
242.597	78.38
242.83	84.38
243.064	87.38
243.298	68.38
243.531	68.38
243.765	75.38
243.998	84.38
244.232	74.38
244.465	83.38
244.699	71.38
244.932	64.38
245.166	72.38
245.399	71.38
245.633	75.38
245.866	86.38
246.099	77.38
246.333	83.38
246.566	73.38
246.8	76.38
247.033	75.38
247.266	90.38
247.5	83.38
247.733	83.38
247.966	88.38
248.2	72.38
248.433	77.38
248.666	70.38
248.899	85.38
249.133	89.38
249.366	89.38
249.599	86.38
249.832	81.38
250.066	82.38
250.299	104.38
250.532	83.38
250.765	81.38
250.998	88.38
251.231	82.38
251.465	86.38
251.698	86.38
251.931	76.38
252.164	81.38
252.397	84.38
252.63	79.38
252.863	80.38
253.096	78.38
253.329	85.38
253.562	84.38
253.795	74.38
254.028	81.38
254.261	92.38
254.494	78.38
254.727	81.38
254.96	63.38
255.193	81.38
255.426	95.38
255.659	63.38
255.892	93.38
256.124	83.38
256.357	75.38
256.59	82.38
256.823	88.38
257.056	90.38
257.289	82.38
257.521	77.38
257.754	82.38
257.987	72.38
258.22	95.38
258.452	88.38
258.685	63.38
258.918	82.38
259.151	80.38
259.383	78.38
259.616	67.38
259.849	76.38
260.081	80.38
260.314	86.38
260.547	83.38
260.779	77.38
261.012	80.38
261.244	95.38
261.477	86.38
261.71	88.38
261.942	105.38
262.175	115.38
262.407	84.38
262.64	82.38
262.872	78.38
263.105	74.38
263.337	84.38
263.57	75.38
263.802	71.38
264.035	91.38
264.267	84.38
264.499	74.38
264.732	73.38
264.964	82.38
265.197	71.38
265.429	74.38
265.661	85.38
265.894	68.38
266.126	78.38
266.358	86.38
266.591	95.38
266.823	95.38
267.055	77.38
267.287	63.38
267.52	86.38
267.752	82.38
267.984	80.38
268.216	88.38
268.448	90.38
268.681	80.38
268.913	83.38
269.145	82.38
269.377	66.38
269.609	86.38
269.841	89.38
270.073	77.38
270.306	80.38
270.538	79.38
270.77	68.38
271.002	84.38
271.234	87.38
271.466	87.38
271.698	79.38
271.93	76.38
272.162	73.38
272.394	87.38
272.626	72.38
272.858	81.38
273.09	83.38
273.322	76.38
273.553	81.38
273.785	79.38
274.017	82.38
274.249	74.38
274.481	88.38
274.713	79.38
274.945	87.38
275.176	91.38
275.408	83.38
275.64	87.38
275.872	93.38
276.104	80.38
276.335	91.38
276.567	95.38
276.799	104.38
277.031	96.38
277.262	106.38
277.494	96.38
277.726	79.38
277.957	91.38
278.189	100.38
278.421	73.38
278.652	81.38
278.884	77.38
279.115	91.38
279.347	81.38
279.579	89.38
279.81	89.38
280.042	106.38
280.273	93.38
280.505	77.38
280.736	92.38
280.968	77.38
281.199	92.38
281.431	87.38
281.662	87.38
281.894	87.38
282.125	97.38
282.356	107.38
282.588	123.38
282.819	98.38
283.051	82.38
283.282	87.38
283.513	97.38
283.745	86.38
283.976	90.38
284.207	100.38
284.439	87.38
284.67	101.38
284.901	81.38
285.132	86.38
285.364	72.38
285.595	97.38
285.826	94.38
286.057	88.38
286.288	88.38
286.52	88.38
286.751	78.38
286.982	98.38
287.213	83.38
287.444	90.38
287.675	84.38
287.906	83.38
288.138	87.38
288.369	90.38
288.6	84.38
288.831	95.38
289.062	77.38
289.293	100.38
289.524	82.38
289.755	94.38
289.986	91.38
290.217	89.38
290.448	94.38
290.679	74.38
290.91	95.38
291.141	83.38
291.371	89.38
291.602	72.38
291.833	93.38
292.064	74.38
292.295	97.38
292.526	73.38
292.757	88.38
292.987	85.38
293.218	79.38
293.449	87.38
293.68	95.38
293.91	79.38
294.141	85.38
294.372	77.38
294.603	61.38
294.833	99.38
295.064	79.38
295.295	78.38
295.525	93.38
295.756	103.38
295.987	106.38
296.217	130.38
296.448	109.38
296.679	92.38
296.909	87.38
297.14	86.38
297.37	100.38
297.601	87.38
297.831	88.38
298.062	79.38
298.292	85.38
298.523	92.38
298.753	79.38
298.984	68.38
299.214	82.38
299.445	90.38
299.675	91.38
299.905	99.38
300.136	80.38
300.366	85.38
300.597	80.38
300.827	88.38
301.057	104.38
301.288	105.38
301.518	96.38
301.748	96.38
301.979	116.38
302.209	90.38
302.439	84.38
302.669	81.38
302.9	88.38
303.13	79.38
303.36	91.38
303.59	90.38
303.82	103.38
304.051	84.38
304.281	83.38
304.511	94.38
304.741	76.38
304.971	78.38
305.201	83.38
305.431	78.38
305.661	80.38
305.891	92.38
306.121	92.38
306.352	98.38
306.582	99.38
306.812	100.38
307.042	103.38
307.272	104.38
307.502	115.38
307.731	97.38
307.961	94.38
308.191	89.38
308.421	84.38
308.651	77.38
308.881	85.38
309.111	103.38
309.341	78.38
309.571	78.38
309.8	103.38
310.03	84.38
310.26	89.38
310.49	92.38
310.72	104.38
310.949	99.38
311.179	99.38
311.409	106.38
311.639	96.38
311.868	100.38
312.098	84.38
312.328	85.38
312.557	105.38
312.787	91.38
313.017	92.38
313.246	84.38
313.476	81.38
313.706	88.38
313.935	97.38
314.165	104.38
314.394	92.38
314.624	83.38
314.853	94.38
315.083	86.38
315.312	79.38
315.542	79.38
315.771	92.38
316.001	102.38
316.23	98.38
316.46	100.38
316.689	92.38
316.919	95.38
317.148	97.38
317.377	86.38
317.607	92.38
317.836	92.38
318.065	98.38
318.295	83.38
318.524	95.38
318.753	95.38
318.983	103.38
319.212	88.38
319.441	105.38
319.67	110.38
319.9	102.38
320.129	101.38
320.358	101.38
320.587	78.38
320.816	96.38
321.046	96.38
321.275	96.38
321.504	88.38
321.733	96.38
321.962	90.38
322.191	102.38
322.42	94.38
322.649	117.38
322.878	110.38
323.108	102.38
323.337	99.38
323.566	116.38
323.795	121.38
324.024	176.38
324.253	348.38
324.482	694.38
324.71	1363.38
324.939	1809.38
325.168	688.38
325.397	201.38
325.626	127.38
325.855	121.38
326.084	107.38
326.313	121.38
326.542	135.38
326.77	183.38
326.999	404.38
327.228	795.38
327.457	1421.38
327.686	1113.38
327.914	346.38
328.143	210.38
328.372	203.38
328.6	148.38
328.829	114.38
329.058	114.38
329.287	126.38
329.515	98.38
329.744	108.38
329.972	158.38
330.201	222.38
330.43	281.38
330.658	182.38
330.887	134.38
331.115	118.38
331.344	109.38
331.572	112.38
331.801	107.38
332.03	101.38
332.258	102.38
332.486	102.38
332.715	97.38
332.943	98.38
333.172	107.38
333.4	93.38
333.629	116.38
333.857	121.38
334.085	149.38
334.314	235.38
334.542	349.38
334.771	335.38
334.999	143.38
335.227	82.38
335.455	88.38
335.684	94.38
335.912	108.38
336.14	98.38
336.369	88.38
336.597	90.38
336.825	85.38
337.053	86.38
337.281	98.38
337.51	97.38
337.738	78.38
337.966	84.38
338.194	85.38
338.422	91.38
338.65	77.38
338.878	90.38
339.106	86.38
339.334	97.38
339.562	94.38
339.79	90.38
340.018	90.38
340.246	99.38
340.474	92.38
340.702	76.38
340.93	101.38
341.158	100.38
341.386	85.38
341.614	102.38
341.842	76.38
342.07	96.38
342.298	87.38
342.526	76.38
342.754	90.38
342.981	85.38
343.209	88.38
343.437	88.38
343.665	74.38
343.893	87.38
344.12	94.38
344.348	106.38
344.576	78.38
344.804	84.38
345.031	87.38
345.259	80.38
345.487	85.38
345.714	90.38
345.942	81.38
346.17	83.38
346.397	94.38
346.625	90.38
346.853	79.38
347.08	80.38
347.308	91.38
347.535	90.38
347.763	90.38
347.99	91.38
348.218	88.38
348.445	99.38
348.673	98.38
348.9	83.38
349.128	86.38
349.355	107.38
349.583	87.38
349.81	95.38
350.037	87.38
350.265	80.38
350.492	94.38
350.72	88.38
350.947	100.38
351.174	106.38
351.402	95.38
351.629	107.38
351.856	90.38
352.083	100.38
352.311	98.38
352.538	98.38
352.765	101.38
352.992	103.38
353.22	113.38
353.447	93.38
353.674	102.38
353.901	91.38
354.128	92.38
354.355	95.38
354.583	70.38
354.81	93.38
355.037	90.38
355.264	84.38
355.491	87.38
355.718	89.38
355.945	92.38
356.172	81.38
356.399	82.38
356.626	85.38
356.853	89.38
357.08	88.38
357.307	97.38
357.534	99.38
357.761	95.38
357.988	81.38
358.215	96.38
358.441	107.38
358.668	95.38
358.895	76.38
359.122	102.38
359.349	90.38
359.576	98.38
359.802	112.38
360.029	97.38
360.256	115.38
360.483	92.38
360.709	91.38
360.936	84.38
361.163	78.38
361.39	91.38
361.616	94.38
361.843	83.38
362.07	75.38
362.296	86.38
362.523	89.38
362.749	81.38
362.976	76.38
363.203	87.38
363.429	85.38
363.656	86.38
363.882	81.38
364.109	84.38
364.335	73.38
364.562	88.38
364.788	86.38
365.015	82.38
365.241	94.38
365.468	102.38
365.694	88.38
365.92	72.38
366.147	93.38
366.373	80.38
366.599	84.38
366.826	96.38
367.052	77.38
367.278	84.38
367.505	95.38
367.731	99.38
367.957	91.38
368.184	91.38
368.41	85.38
368.636	99.38
368.862	105.38
369.089	99.38
369.315	92.38
369.541	78.38
369.767	93.38
369.993	80.38
370.219	83.38
370.445	89.38
370.672	86.38
370.898	75.38
371.124	84.38
371.35	91.38
371.576	79.38
371.802	81.38
372.028	73.38
372.254	72.38
372.48	93.38
372.706	90.38
372.932	75.38
373.158	83.38
373.384	84.38
373.61	81.38
373.835	99.38
374.061	88.38
374.287	88.38
374.513	104.38
374.739	92.38
374.965	83.38
375.191	100.38
375.416	91.38
375.642	90.38
375.868	95.38
376.094	90.38
376.319	80.38
376.545	77.38
376.771	96.38
376.997	94.38
377.222	72.38
377.448	82.38
377.674	95.38
377.899	87.38
378.125	91.38
378.35	80.38
378.576	86.38
378.802	84.38
379.027	80.38
379.253	83.38
379.478	89.38
379.704	84.38
379.929	83.38
380.155	86.38
380.38	87.38
380.606	92.38
380.831	86.38
381.057	87.38
381.282	83.38
381.507	85.38
381.733	91.38
381.958	82.38
382.184	91.38
382.409	100.38
382.634	99.38
382.86	99.38
383.085	85.38
383.31	99.38
383.535	97.38
383.761	99.38
383.986	99.38
384.211	83.38
384.436	95.38
384.662	96.38
384.887	85.38
385.112	98.38
385.337	103.38
385.562	100.38
385.787	93.38
386.013	98.38
386.238	106.38
386.463	107.38
386.688	122.38
386.913	98.38
387.138	96.38
387.363	87.38
387.588	99.38
387.813	84.38
388.038	112.38
388.263	109.38
388.488	106.38
388.713	86.38
388.938	91.38
389.163	105.38
389.387	95.38
389.612	92.38
389.837	88.38
390.062	88.38
390.287	88.38
390.512	94.38
390.736	90.38
390.961	96.38
391.186	100.38
391.411	91.38
391.636	84.38
391.86	70.38
392.085	86.38
392.31	87.38
392.534	78.38
392.759	90.38
392.984	81.38
393.208	95.38
393.433	106.38
393.658	91.38
393.882	86.38
394.107	90.38
394.331	77.38
394.556	67.38
394.78	94.38
395.005	98.38
395.229	78.38
395.454	83.38
395.678	81.38
395.903	78.38
396.127	81.38
396.352	89.38
396.576	79.38
396.801	114.38
397.025	94.38
397.249	103.38
397.474	87.38
397.698	83.38
397.922	79.38
398.147	81.38
398.371	67.38
398.595	78.38
398.82	76.38
399.044	91.38
399.268	90.38
399.492	84.38
399.717	83.38
399.941	83.38
400.165	92.38
400.389	84.38
400.613	84.38
400.837	88.38
401.062	86.38
401.286	85.38
401.51	81.38
401.734	82.38
401.958	104.38
402.182	120.38
402.406	128.38
402.63	105.38
402.854	92.38
403.078	85.38
403.302	88.38
403.526	92.38
403.75	83.38
403.974	80.38
404.198	90.38
404.422	70.38
404.645	85.38
404.869	86.38
405.093	105.38
405.317	89.38
405.541	112.38
405.765	96.38
405.988	109.38
406.212	150.38
406.436	184.38
406.66	125.38
406.883	98.38
407.107	80.38
407.331	77.38
407.555	86.38
407.778	87.38
408.002	86.38
408.226	79.38
408.449	89.38
408.673	79.38
408.896	90.38
409.12	98.38
409.344	84.38
409.567	79.38
409.791	84.38
410.014	89.38
410.238	95.38
410.461	97.38
410.685	82.38
410.908	82.38
411.132	90.38
411.355	95.38
411.578	83.38
411.802	98.38
412.025	67.38
412.249	96.38
412.472	89.38
412.695	107.38
412.919	85.38
413.142	83.38
413.365	87.38
413.589	92.38
413.812	94.38
414.035	107.38
414.258	89.38
414.482	89.38
414.705	97.38
414.928	94.38
415.151	89.38
415.374	90.38
415.597	88.38
415.821	90.38
416.044	80.38
416.267	89.38
416.49	82.38
416.713	101.38
416.936	78.38
417.159	94.38
417.382	82.38
417.605	85.38
417.828	77.38
418.051	82.38
418.274	95.38
418.497	88.38
418.72	74.38
418.943	97.38
419.166	88.38
419.389	94.38
419.611	82.38
419.834	92.38
420.057	78.38
420.28	81.38
420.503	90.38
420.726	87.38
420.948	86.38
421.171	96.38
421.394	97.38
421.617	83.38
421.839	92.38
422.062	79.38
422.285	98.38
422.507	100.38
422.73	91.38
422.953	84.38
423.175	94.38
423.398	86.38
423.621	87.38
423.843	78.38
424.066	90.38
424.288	104.38
424.511	91.38
424.733	85.38
424.956	115.38
425.178	101.38
425.401	86.38
425.623	91.38
425.846	79.38
426.068	82.38
426.291	95.38
426.513	90.38
426.735	81.38
426.958	81.38
427.18	100.38
427.402	131.38
427.625	151.38
427.847	114.38
428.069	122.38
428.292	99.38
428.514	84.38
428.736	86.38
428.958	72.38
429.181	90.38
429.403	83.38
429.625	76.38
429.847	73.38
430.069	84.38
430.292	94.38
430.514	74.38
430.736	83.38
430.958	84.38
431.18	93.38
431.402	82.38
431.624	88.38
431.846	80.38
432.068	84.38
432.29	87.38
432.512	89.38
432.734	77.38
432.956	99.38
433.178	80.38
433.4	106.38
433.622	80.38
433.844	90.38
434.066	85.38
434.287	95.38
434.509	80.38
434.731	91.38
434.953	86.38
435.175	77.38
435.397	90.38
435.618	106.38
435.84	97.38
436.062	111.38
436.284	112.38
436.505	100.38
436.727	97.38
436.949	97.38
437.17	90.38
437.392	86.38
437.614	98.38
437.835	104.38
438.057	99.38
438.278	92.38
438.5	90.38
438.721	111.38
438.943	102.38
439.165	83.38
439.386	94.38
439.608	92.38
439.829	90.38
440.05	115.38
440.272	135.38
440.493	99.38
440.715	74.38
440.936	91.38
441.158	93.38
441.379	87.38
441.6	89.38
441.822	81.38
442.043	79.38
442.264	95.38
442.486	106.38
442.707	91.38
442.928	108.38
443.149	109.38
443.371	122.38
443.592	98.38
443.813	100.38
444.034	97.38
444.255	92.38
444.476	84.38
444.698	83.38
444.919	86.38
445.14	129.38
445.361	113.38
445.582	106.38
445.803	115.38
446.024	119.38
446.245	115.38
446.466	95.38
446.687	94.38
446.908	92.38
447.129	73.38
447.35	79.38
447.571	89.38
447.792	90.38
448.013	98.38
448.234	105.38
448.455	104.38
448.675	107.38
448.896	104.38
449.117	91.38
449.338	85.38
449.559	116.38
449.779	108.38
450	93.38
450.221	96.38
450.442	94.38
450.662	94.38
450.883	105.38
451.104	99.38
451.324	95.38
451.545	80.38
451.766	97.38
451.986	83.38
452.207	95.38
452.428	74.38
452.648	89.38
452.869	110.38
453.089	100.38
453.31	103.38
453.53	90.38
453.751	83.38
453.971	94.38
454.192	112.38
454.412	86.38
454.633	84.38
454.853	85.38
455.073	77.38
455.294	95.38
455.514	96.38
455.734	87.38
455.955	88.38
456.175	99.38
456.395	85.38
456.616	88.38
456.836	91.38
457.056	76.38
457.276	79.38
457.497	78.38
457.717	85.38
457.937	77.38
458.157	83.38
458.377	88.38
458.598	112.38
458.818	146.38
459.038	145.38
459.258	117.38
459.478	100.38
459.698	76.38
459.918	86.38
460.138	91.38
460.358	78.38
460.578	89.38
460.798	92.38
461.018	88.38
461.238	86.38
461.458	83.38
461.678	93.38
461.898	80.38
462.118	98.38
462.338	100.38
462.558	93.38
462.777	82.38
462.997	90.38
463.217	96.38
463.437	82.38
463.657	88.38
463.876	74.38
464.096	92.38
464.316	91.38
464.536	80.38
464.755	89.38
464.975	97.38
465.195	147.38
465.414	144.38
465.634	98.38
465.854	93.38
466.073	75.38
466.293	72.38
466.512	89.38
466.732	72.38
466.951	90.38
467.171	75.38
467.391	90.38
467.61	96.38
467.829	107.38
468.049	168.38
468.268	188.38
468.488	101.38
468.707	96.38
468.927	93.38
469.146	71.38
469.365	74.38
469.585	74.38
469.804	90.38
470.023	92.38
470.243	78.38
470.462	94.38
470.681	96.38
470.901	97.38
471.12	90.38
471.339	90.38
471.558	89.38
471.777	98.38
471.997	132.38
472.216	264.38
472.435	489.38
472.654	168.38
472.873	102.38
473.092	98.38
473.311	97.38
473.53	84.38
473.749	74.38
473.968	82.38
474.187	97.38
474.406	96.38
474.625	75.38
474.844	71.38
475.063	86.38
475.282	78.38
475.501	73.38
475.72	81.38
475.939	101.38
476.158	66.38
476.377	82.38
476.596	88.38
476.814	96.38
477.033	91.38
477.252	84.38
477.471	73.38
477.69	93.38
477.908	89.38
478.127	90.38
478.346	73.38
478.564	81.38
478.783	94.38
479.002	98.38
479.22	88.38
479.439	98.38
479.658	93.38
479.876	90.38
480.095	86.38
480.313	92.38
480.532	101.38
480.751	112.38
480.969	266.38
481.188	816.38
481.406	478.38
481.624	149.38
481.843	110.38
482.061	91.38
482.28	84.38
482.498	84.38
482.717	73.38
482.935	100.38
483.153	92.38
483.372	87.38
483.59	103.38
483.808	90.38
484.027	93.38
484.245	89.38
484.463	90.38
484.681	85.38
484.9	94.38
485.118	99.38
485.336	76.38
485.554	99.38
485.772	95.38
485.99	89.38
486.209	104.38
486.427	117.38
486.645	106.38
486.863	98.38
487.081	90.38
487.299	79.38
487.517	81.38
487.735	92.38
487.953	105.38
488.171	95.38
488.389	109.38
488.607	79.38
488.825	74.38
489.043	83.38
489.261	95.38
489.479	86.38
489.696	74.38
489.914	82.38
490.132	83.38
490.35	87.38
490.568	71.38
490.786	98.38
491.003	97.38
491.221	80.38
491.439	84.38
491.657	69.38
491.874	88.38
492.092	71.38
492.31	76.38
492.527	98.38
492.745	91.38
492.963	82.38
493.18	83.38
493.398	85.38
493.615	95.38
493.833	78.38
494.05	94.38
494.268	84.38
494.485	83.38
494.703	100.38
494.92	100.38
495.138	72.38
495.355	94.38
495.573	98.38
495.79	101.38
496.008	82.38
496.225	74.38
496.442	91.38
496.66	84.38
496.877	74.38
497.094	75.38
497.312	92.38
497.529	99.38
497.746	99.38
497.963	74.38
498.181	82.38
498.398	99.38
498.615	100.38
498.832	84.38
499.049	75.38
499.267	79.38
499.484	89.38
499.701	94.38
499.918	94.38
500.135	81.38
500.352	86.38
500.569	96.38
500.786	90.38
501.003	86.38
501.22	83.38
501.437	102.38
501.654	94.38
501.871	93.38
502.088	81.38
502.305	81.38
502.522	75.38
502.739	81.38
502.956	97.38
503.172	76.38
503.389	91.38
503.606	107.38
503.823	100.38
504.04	100.38
504.256	89.38
504.473	96.38
504.69	78.38
504.907	83.38
505.123	83.38
505.34	88.38
505.557	88.38
505.773	90.38
505.99	96.38
506.207	84.38
506.423	88.38
506.64	92.38
506.856	80.38
507.073	90.38
507.289	101.38
507.506	87.38
507.722	95.38
507.939	102.38
508.155	87.38
508.372	86.38
508.588	77.38
508.805	83.38
509.021	96.38
509.238	92.38
509.454	92.38
509.67	112.38
509.887	104.38
510.103	113.38
510.319	194.38
510.536	663.38
510.752	2045.38
510.968	582.38
511.184	157.38
511.401	105.38
511.617	101.38
511.833	96.38
512.049	77.38
512.265	73.38
512.481	99.38
512.698	72.38
512.914	86.38
513.13	86.38
513.346	85.38
513.562	96.38
513.778	96.38
513.994	91.38
514.21	109.38
514.426	98.38
514.642	117.38
514.858	125.38
515.074	161.38
515.29	401.38
515.506	1284.38
515.721	495.38
515.937	139.38
516.153	85.38
516.369	81.38
516.585	95.38
516.801	84.38
