Data from Circ_1993_H10_HRD10591_00012.txt Node
Date: Wed Jan 03 11:44:04 EST 2024
User: Yrep
Spectrometer: HR+D1059
Trigger mode: 1
Integration Time (sec): 1.000000E-1
Scans to average: 1
Electric dark correction enabled: true
Nonlinearity correction enabled: false
Boxcar width: 0
XAxis mode: Wavelengths
Number of Pixels in Spectrum: 2048
>>>>>Begin Spectral Data<<<<<
223.165	-13.62
223.4	-13.62
223.635	-13.62
223.869	-14.62
224.104	-12.62
224.338	-20.62
224.573	-11.62
224.808	-14.62
225.042	-9.62
225.277	-6.62
225.511	-9.62
225.746	3.38
225.98	7.38
226.215	13.38
226.449	13.38
226.683	25.38
226.918	19.38
227.152	31.38
227.387	33.38
227.621	35.38
227.856	37.38
228.09	46.38
228.324	51.38
228.559	53.38
228.793	51.38
229.027	55.38
229.262	79.38
229.496	75.38
229.73	85.38
229.964	69.38
230.199	80.38
230.433	66.38
230.667	89.38
230.901	79.38
231.136	81.38
231.37	83.38
231.604	81.38
231.838	84.38
232.072	72.38
232.306	76.38
232.541	84.38
232.775	73.38
233.009	77.38
233.243	90.38
233.477	88.38
233.711	72.38
233.945	79.38
234.179	80.38
234.413	76.38
234.647	95.38
234.881	85.38
235.115	73.38
235.349	73.38
235.583	67.38
235.817	67.38
236.051	68.38
236.285	76.38
236.519	72.38
236.753	74.38
236.987	78.38
237.221	73.38
237.455	73.38
237.689	67.38
237.922	81.38
238.156	68.38
238.39	71.38
238.624	79.38
238.858	76.38
239.091	69.38
239.325	84.38
239.559	89.38
239.793	80.38
240.027	89.38
240.26	76.38
240.494	67.38
240.728	79.38
240.961	73.38
241.195	68.38
241.429	74.38
241.662	66.38
241.896	65.38
242.13	75.38
242.363	61.38
242.597	71.38
242.83	75.38
243.064	87.38
243.298	74.38
243.531	75.38
243.765	72.38
243.998	74.38
244.232	73.38
244.465	79.38
244.699	75.38
244.932	73.38
245.166	70.38
245.399	65.38
245.633	78.38
245.866	83.38
246.099	79.38
246.333	72.38
246.566	89.38
246.8	75.38
247.033	74.38
247.266	75.38
247.5	66.38
247.733	74.38
247.966	81.38
248.2	98.38
248.433	75.38
248.666	83.38
248.899	73.38
249.133	61.38
249.366	96.38
249.599	79.38
249.832	73.38
250.066	72.38
250.299	67.38
250.532	77.38
250.765	68.38
250.998	72.38
251.231	90.38
251.465	74.38
251.698	84.38
251.931	83.38
252.164	73.38
252.397	81.38
252.63	91.38
252.863	71.38
253.096	77.38
253.329	67.38
253.562	81.38
253.795	58.38
254.028	80.38
254.261	65.38
254.494	65.38
254.727	82.38
254.96	91.38
255.193	68.38
255.426	65.38
255.659	59.38
255.892	81.38
256.124	73.38
256.357	80.38
256.59	90.38
256.823	71.38
257.056	81.38
257.289	78.38
257.521	86.38
257.754	82.38
257.987	85.38
258.22	92.38
258.452	88.38
258.685	72.38
258.918	66.38
259.151	87.38
259.383	92.38
259.616	69.38
259.849	82.38
260.081	73.38
260.314	90.38
260.547	80.38
260.779	74.38
261.012	71.38
261.244	87.38
261.477	81.38
261.71	85.38
261.942	92.38
262.175	83.38
262.407	71.38
262.64	80.38
262.872	83.38
263.105	76.38
263.337	89.38
263.57	80.38
263.802	84.38
264.035	64.38
264.267	83.38
264.499	78.38
264.732	80.38
264.964	75.38
265.197	80.38
265.429	86.38
265.661	84.38
265.894	83.38
266.126	76.38
266.358	81.38
266.591	71.38
266.823	89.38
267.055	71.38
267.287	85.38
267.52	75.38
267.752	82.38
267.984	78.38
268.216	85.38
268.448	82.38
268.681	82.38
268.913	83.38
269.145	69.38
269.377	80.38
269.609	73.38
269.841	91.38
270.073	73.38
270.306	81.38
270.538	88.38
270.77	82.38
271.002	73.38
271.234	81.38
271.466	81.38
271.698	86.38
271.93	73.38
272.162	70.38
272.394	81.38
272.626	79.38
272.858	74.38
273.09	69.38
273.322	93.38
273.553	76.38
273.785	84.38
274.017	91.38
274.249	84.38
274.481	77.38
274.713	87.38
274.945	87.38
275.176	79.38
275.408	98.38
275.64	86.38
275.872	85.38
276.104	75.38
276.335	82.38
276.567	84.38
276.799	94.38
277.031	97.38
277.262	82.38
277.494	93.38
277.726	77.38
277.957	84.38
278.189	74.38
278.421	83.38
278.652	85.38
278.884	81.38
279.115	89.38
279.347	92.38
279.579	86.38
279.81	92.38
280.042	85.38
280.273	83.38
280.505	77.38
280.736	74.38
280.968	108.38
281.199	94.38
281.431	97.38
281.662	92.38
281.894	77.38
282.125	92.38
282.356	96.38
282.588	125.38
282.819	105.38
283.051	87.38
283.282	89.38
283.513	79.38
283.745	89.38
283.976	105.38
284.207	75.38
284.439	89.38
284.67	80.38
284.901	68.38
285.132	88.38
285.364	85.38
285.595	96.38
285.826	78.38
286.057	80.38
286.288	72.38
286.52	74.38
286.751	93.38
286.982	82.38
287.213	80.38
287.444	98.38
287.675	72.38
287.906	98.38
288.138	82.38
288.369	93.38
288.6	92.38
288.831	85.38
289.062	85.38
289.293	81.38
289.524	88.38
289.755	84.38
289.986	76.38
290.217	95.38
290.448	91.38
290.679	81.38
290.91	88.38
291.141	73.38
291.371	85.38
291.602	94.38
291.833	87.38
292.064	82.38
292.295	95.38
292.526	78.38
292.757	88.38
292.987	95.38
293.218	112.38
293.449	83.38
293.68	88.38
293.91	85.38
294.141	91.38
294.372	83.38
294.603	97.38
294.833	84.38
295.064	98.38
295.295	92.38
295.525	80.38
295.756	94.38
295.987	99.38
296.217	109.38
296.448	123.38
296.679	90.38
296.909	84.38
297.14	102.38
297.37	62.38
297.601	88.38
297.831	92.38
298.062	83.38
298.292	87.38
298.523	85.38
298.753	90.38
298.984	82.38
299.214	93.38
299.445	97.38
299.675	100.38
299.905	103.38
300.136	96.38
300.366	66.38
300.597	87.38
300.827	99.38
301.057	91.38
301.288	97.38
301.518	87.38
301.748	77.38
301.979	106.38
302.209	92.38
302.439	93.38
302.669	91.38
302.9	96.38
303.13	101.38
303.36	84.38
303.59	95.38
303.82	96.38
304.051	96.38
304.281	84.38
304.511	63.38
304.741	75.38
304.971	93.38
305.201	76.38
305.431	89.38
305.661	99.38
305.891	78.38
306.121	90.38
306.352	90.38
306.582	79.38
306.812	69.38
307.042	90.38
307.272	91.38
307.502	90.38
307.731	93.38
307.961	104.38
308.191	88.38
308.421	103.38
308.651	94.38
308.881	105.38
309.111	87.38
309.341	79.38
309.571	88.38
309.8	91.38
310.03	94.38
310.26	85.38
310.49	98.38
310.72	100.38
310.949	100.38
311.179	96.38
311.409	82.38
311.639	87.38
311.868	112.38
312.098	106.38
312.328	87.38
312.557	87.38
312.787	99.38
313.017	99.38
313.246	99.38
313.476	89.38
313.706	71.38
313.935	106.38
314.165	96.38
314.394	97.38
314.624	96.38
314.853	94.38
315.083	92.38
315.312	89.38
315.542	81.38
315.771	91.38
316.001	94.38
316.23	100.38
316.46	108.38
316.689	91.38
316.919	69.38
317.148	105.38
317.377	96.38
317.607	97.38
317.836	81.38
318.065	78.38
318.295	92.38
318.524	66.38
318.753	89.38
318.983	83.38
319.212	83.38
319.441	95.38
319.67	100.38
319.9	91.38
320.129	88.38
320.358	91.38
320.587	96.38
320.816	98.38
321.046	100.38
321.275	85.38
321.504	94.38
321.733	94.38
321.962	100.38
322.191	100.38
322.42	94.38
322.649	87.38
322.878	105.38
323.108	100.38
323.337	120.38
323.566	114.38
323.795	132.38
324.024	177.38
324.253	290.38
324.482	590.38
324.71	1187.38
324.939	1471.38
325.168	582.38
325.397	183.38
325.626	109.38
325.855	116.38
326.084	105.38
326.313	108.38
326.542	131.38
326.77	185.38
326.999	346.38
327.228	671.38
327.457	1202.38
327.686	945.38
327.914	279.38
328.143	169.38
328.372	120.38
328.6	111.38
328.829	100.38
329.058	99.38
329.287	122.38
329.515	106.38
329.744	102.38
329.972	108.38
330.201	115.38
330.43	130.38
330.658	106.38
330.887	132.38
331.115	100.38
331.344	94.38
331.572	104.38
331.801	89.38
332.03	97.38
332.258	87.38
332.486	74.38
332.715	91.38
332.943	93.38
333.172	100.38
333.4	101.38
333.629	93.38
333.857	105.38
334.085	109.38
334.314	105.38
334.542	115.38
334.771	116.38
334.999	95.38
335.227	105.38
335.455	96.38
335.684	99.38
335.912	94.38
336.14	95.38
336.369	94.38
336.597	94.38
336.825	93.38
337.053	95.38
337.281	92.38
337.51	98.38
337.738	88.38
337.966	75.38
338.194	102.38
338.422	95.38
338.65	90.38
338.878	81.38
339.106	97.38
339.334	95.38
339.562	91.38
339.79	99.38
340.018	97.38
340.246	79.38
340.474	93.38
340.702	91.38
340.93	91.38
341.158	88.38
341.386	91.38
341.614	97.38
341.842	82.38
342.07	76.38
342.298	78.38
342.526	95.38
342.754	96.38
342.981	90.38
343.209	83.38
343.437	84.38
343.665	84.38
343.893	91.38
344.12	91.38
344.348	93.38
344.576	97.38
344.804	72.38
345.031	98.38
345.259	90.38
345.487	84.38
345.714	89.38
345.942	84.38
346.17	96.38
346.397	96.38
346.625	82.38
346.853	85.38
347.08	92.38
347.308	79.38
347.535	98.38
347.763	100.38
347.99	106.38
348.218	100.38
348.445	87.38
348.673	83.38
348.9	92.38
349.128	95.38
349.355	96.38
349.583	95.38
349.81	96.38
350.037	99.38
350.265	100.38
350.492	99.38
350.72	96.38
350.947	107.38
351.174	92.38
351.402	97.38
351.629	82.38
351.856	93.38
352.083	106.38
352.311	96.38
352.538	109.38
352.765	111.38
352.992	113.38
353.22	105.38
353.447	99.38
353.674	104.38
353.901	102.38
354.128	105.38
354.355	108.38
354.583	74.38
354.81	101.38
355.037	92.38
355.264	102.38
355.491	98.38
355.718	95.38
355.945	90.38
356.172	111.38
356.399	90.38
356.626	89.38
356.853	81.38
357.08	100.38
357.307	82.38
357.534	76.38
357.761	110.38
357.988	116.38
358.215	113.38
358.441	110.38
358.668	115.38
358.895	102.38
359.122	105.38
359.349	91.38
359.576	97.38
359.802	93.38
360.029	88.38
360.256	101.38
360.483	91.38
360.709	87.38
360.936	95.38
361.163	91.38
361.39	87.38
361.616	87.38
361.843	87.38
362.07	74.38
362.296	84.38
362.523	101.38
362.749	92.38
362.976	81.38
363.203	94.38
363.429	92.38
363.656	89.38
363.882	87.38
364.109	76.38
364.335	85.38
364.562	91.38
364.788	106.38
365.015	93.38
365.241	103.38
365.468	92.38
365.694	87.38
365.92	86.38
366.147	83.38
366.373	98.38
366.599	89.38
366.826	80.38
367.052	87.38
367.278	92.38
367.505	83.38
367.731	91.38
367.957	81.38
368.184	84.38
368.41	92.38
368.636	95.38
368.862	111.38
369.089	96.38
369.315	91.38
369.541	92.38
369.767	90.38
369.993	86.38
370.219	97.38
370.445	93.38
370.672	86.38
370.898	95.38
371.124	81.38
371.35	79.38
371.576	87.38
371.802	85.38
372.028	77.38
372.254	87.38
372.48	87.38
372.706	91.38
372.932	90.38
373.158	85.38
373.384	97.38
373.61	99.38
373.835	92.38
374.061	94.38
374.287	95.38
374.513	81.38
374.739	76.38
374.965	80.38
375.191	80.38
375.416	85.38
375.642	79.38
375.868	87.38
376.094	92.38
376.319	96.38
376.545	86.38
376.771	82.38
376.997	89.38
377.222	85.38
377.448	96.38
377.674	102.38
377.899	108.38
378.125	98.38
378.35	109.38
378.576	100.38
378.802	101.38
379.027	105.38
379.253	101.38
379.478	101.38
379.704	118.38
379.929	123.38
380.155	109.38
380.38	99.38
380.606	103.38
380.831	107.38
381.057	113.38
381.282	124.38
381.507	113.38
381.733	118.38
381.958	130.38
382.184	106.38
382.409	119.38
382.634	121.38
382.86	129.38
383.085	125.38
383.31	133.38
383.535	124.38
383.761	146.38
383.986	125.38
384.211	127.38
384.436	139.38
384.662	132.38
384.887	156.38
385.112	157.38
385.337	153.38
385.562	148.38
385.787	155.38
386.013	151.38
386.238	164.38
386.463	139.38
386.688	132.38
386.913	151.38
387.138	170.38
387.363	154.38
387.588	119.38
387.813	127.38
388.038	154.38
388.263	188.38
388.488	164.38
388.713	125.38
388.938	111.38
389.163	105.38
389.387	78.38
389.612	90.38
389.837	99.38
390.062	85.38
390.287	88.38
390.512	92.38
390.736	93.38
390.961	92.38
391.186	92.38
391.411	97.38
391.636	81.38
391.86	90.38
392.085	98.38
392.31	80.38
392.534	75.38
392.759	97.38
392.984	94.38
393.208	123.38
393.433	196.38
393.658	159.38
393.882	101.38
394.107	92.38
394.331	98.38
394.556	83.38
394.78	100.38
395.005	85.38
395.229	84.38
395.454	87.38
395.678	95.38
395.903	92.38
396.127	91.38
396.352	82.38
396.576	101.38
396.801	126.38
397.025	150.38
397.249	112.38
397.474	89.38
397.698	84.38
397.922	78.38
398.147	92.38
398.371	98.38
398.595	88.38
398.82	94.38
399.044	90.38
399.268	82.38
399.492	86.38
399.717	94.38
399.941	77.38
400.165	79.38
400.389	80.38
400.613	81.38
400.837	88.38
401.062	75.38
401.286	83.38
401.51	76.38
401.734	91.38
401.958	85.38
402.182	95.38
402.406	120.38
402.63	104.38
402.854	90.38
403.078	80.38
403.302	96.38
403.526	90.38
403.75	75.38
403.974	71.38
404.198	87.38
404.422	75.38
404.645	106.38
404.869	79.38
405.093	87.38
405.317	91.38
405.541	86.38
405.765	104.38
405.988	103.38
406.212	123.38
406.436	175.38
406.66	110.38
406.883	92.38
407.107	86.38
407.331	97.38
407.555	83.38
407.778	98.38
408.002	79.38
408.226	90.38
408.449	93.38
408.673	92.38
408.896	91.38
409.12	98.38
409.344	83.38
409.567	91.38
409.791	77.38
410.014	92.38
410.238	95.38
410.461	89.38
410.685	86.38
410.908	80.38
411.132	99.38
411.355	86.38
411.578	83.38
411.802	93.38
412.025	90.38
412.249	91.38
412.472	94.38
412.695	89.38
412.919	104.38
413.142	108.38
413.365	97.38
413.589	79.38
413.812	90.38
414.035	99.38
414.258	96.38
414.482	91.38
414.705	69.38
414.928	86.38
415.151	92.38
415.374	111.38
415.597	92.38
415.821	90.38
416.044	89.38
416.267	87.38
416.49	77.38
416.713	87.38
416.936	95.38
417.159	75.38
417.382	89.38
417.605	87.38
417.828	89.38
418.051	89.38
418.274	95.38
418.497	85.38
418.72	83.38
418.943	88.38
419.166	87.38
419.389	96.38
419.611	90.38
419.834	80.38
420.057	94.38
420.28	84.38
420.503	87.38
420.726	84.38
420.948	104.38
421.171	85.38
421.394	87.38
421.617	79.38
421.839	101.38
422.062	91.38
422.285	97.38
422.507	121.38
422.73	147.38
422.953	128.38
423.175	99.38
423.398	99.38
423.621	96.38
423.843	91.38
424.066	88.38
424.288	73.38
424.511	94.38
424.733	86.38
424.956	106.38
425.178	97.38
425.401	84.38
425.623	88.38
425.846	95.38
426.068	82.38
426.291	83.38
426.513	80.38
426.735	90.38
426.958	72.38
427.18	92.38
427.402	106.38
427.625	129.38
427.847	107.38
428.069	101.38
428.292	85.38
428.514	71.38
428.736	81.38
428.958	89.38
429.181	88.38
429.403	95.38
429.625	89.38
429.847	84.38
430.069	85.38
430.292	98.38
430.514	85.38
430.736	101.38
430.958	82.38
431.18	71.38
431.402	75.38
431.624	83.38
431.846	78.38
432.068	77.38
432.29	83.38
432.512	96.38
432.734	93.38
432.956	109.38
433.178	92.38
433.4	96.38
433.622	92.38
433.844	90.38
434.066	95.38
434.287	97.38
434.509	94.38
434.731	97.38
434.953	89.38
435.175	88.38
435.397	88.38
435.618	86.38
435.84	85.38
436.062	110.38
436.284	115.38
436.505	88.38
436.727	99.38
436.949	86.38
437.17	91.38
437.392	85.38
437.614	96.38
437.835	87.38
438.057	107.38
438.278	101.38
438.5	91.38
438.721	93.38
438.943	90.38
439.165	94.38
439.386	85.38
439.608	100.38
439.829	97.38
440.05	109.38
440.272	137.38
440.493	94.38
440.715	79.38
440.936	76.38
441.158	73.38
441.379	77.38
441.6	74.38
441.822	88.38
442.043	99.38
442.264	88.38
442.486	95.38
442.707	85.38
442.928	93.38
443.149	88.38
443.371	96.38
443.592	101.38
443.813	99.38
444.034	113.38
444.255	77.38
444.476	83.38
444.698	84.38
444.919	108.38
445.14	124.38
445.361	109.38
445.582	103.38
445.803	108.38
446.024	102.38
446.245	115.38
446.466	110.38
446.687	89.38
446.908	77.38
447.129	89.38
447.35	74.38
447.571	94.38
447.792	101.38
448.013	98.38
448.234	97.38
448.455	105.38
448.675	93.38
448.896	110.38
449.117	89.38
449.338	104.38
449.559	104.38
449.779	115.38
450	87.38
450.221	76.38
450.442	76.38
450.662	85.38
450.883	93.38
451.104	103.38
451.324	81.38
451.545	88.38
451.766	87.38
451.986	73.38
452.207	93.38
452.428	84.38
452.648	95.38
452.869	101.38
453.089	100.38
453.31	100.38
453.53	84.38
453.751	91.38
453.971	91.38
454.192	97.38
454.412	84.38
454.633	77.38
454.853	96.38
455.073	92.38
455.294	78.38
455.514	93.38
455.734	84.38
455.955	88.38
456.175	86.38
456.395	88.38
456.616	76.38
456.836	71.38
457.056	62.38
457.276	79.38
457.497	99.38
457.717	82.38
457.937	97.38
458.157	92.38
458.377	82.38
458.598	77.38
458.818	111.38
459.038	105.38
459.258	96.38
459.478	90.38
459.698	84.38
459.918	77.38
460.138	96.38
460.358	90.38
460.578	98.38
460.798	79.38
461.018	78.38
461.238	97.38
461.458	76.38
461.678	84.38
461.898	85.38
462.118	77.38
462.338	91.38
462.558	88.38
462.777	82.38
462.997	92.38
463.217	83.38
463.437	84.38
463.657	89.38
463.876	88.38
464.096	90.38
464.316	91.38
464.536	98.38
464.755	89.38
464.975	108.38
465.195	137.38
465.414	119.38
465.634	101.38
465.854	84.38
466.073	91.38
466.293	84.38
466.512	75.38
466.732	72.38
466.951	83.38
467.171	88.38
467.391	87.38
467.61	97.38
467.829	79.38
468.049	96.38
468.268	88.38
468.488	74.38
468.707	90.38
468.927	92.38
469.146	82.38
469.365	90.38
469.585	65.38
469.804	101.38
470.023	71.38
470.243	94.38
470.462	97.38
470.681	109.38
470.901	88.38
471.12	82.38
471.339	77.38
471.558	83.38
471.777	90.38
471.997	78.38
472.216	106.38
472.435	128.38
472.654	94.38
472.873	89.38
473.092	87.38
473.311	76.38
473.53	94.38
473.749	91.38
473.968	73.38
474.187	99.38
474.406	90.38
474.625	90.38
474.844	83.38
475.063	88.38
475.282	69.38
475.501	80.38
475.72	87.38
475.939	78.38
476.158	73.38
476.377	94.38
476.596	89.38
476.814	73.38
477.033	95.38
477.252	92.38
477.471	89.38
477.69	90.38
477.908	87.38
478.127	72.38
478.346	84.38
478.564	91.38
478.783	101.38
479.002	104.38
479.22	92.38
479.439	92.38
479.658	88.38
479.876	85.38
480.095	101.38
480.313	85.38
480.532	91.38
480.751	74.38
480.969	99.38
481.188	165.38
481.406	121.38
481.624	98.38
481.843	83.38
482.061	97.38
482.28	90.38
482.498	90.38
482.717	81.38
482.935	89.38
483.153	89.38
483.372	84.38
483.59	87.38
483.808	84.38
484.027	100.38
484.245	95.38
484.463	94.38
484.681	88.38
484.9	87.38
485.118	115.38
485.336	113.38
485.554	83.38
485.772	107.38
485.99	116.38
486.209	106.38
486.427	106.38
486.645	119.38
486.863	112.38
487.081	117.38
487.299	85.38
487.517	91.38
487.735	103.38
487.953	97.38
488.171	104.38
488.389	84.38
488.607	93.38
488.825	93.38
489.043	98.38
489.261	84.38
489.479	72.38
489.696	77.38
489.914	94.38
490.132	98.38
490.35	98.38
490.568	82.38
490.786	87.38
491.003	76.38
491.221	69.38
491.439	79.38
491.657	106.38
491.874	71.38
492.092	83.38
492.31	91.38
492.527	85.38
492.745	83.38
492.963	85.38
493.18	99.38
493.398	96.38
493.615	119.38
493.833	98.38
494.05	85.38
494.268	100.38
494.485	92.38
494.703	86.38
494.92	94.38
495.138	87.38
495.355	88.38
495.573	93.38
495.79	93.38
496.008	85.38
496.225	98.38
496.442	79.38
496.66	85.38
496.877	80.38
497.094	104.38
497.312	74.38
497.529	98.38
497.746	84.38
497.963	93.38
498.181	89.38
498.398	101.38
498.615	91.38
498.832	101.38
499.049	94.38
499.267	101.38
499.484	98.38
499.701	87.38
499.918	76.38
500.135	105.38
500.352	90.38
500.569	87.38
500.786	99.38
501.003	93.38
501.22	85.38
501.437	85.38
501.654	92.38
501.871	87.38
502.088	83.38
502.305	93.38
502.522	79.38
502.739	85.38
502.956	87.38
503.172	90.38
503.389	89.38
503.606	97.38
503.823	114.38
504.04	87.38
504.256	80.38
504.473	90.38
504.69	89.38
504.907	96.38
505.123	88.38
505.34	93.38
505.557	91.38
505.773	79.38
505.99	89.38
506.207	91.38
506.423	87.38
506.64	94.38
506.856	80.38
507.073	88.38
507.289	108.38
507.506	104.38
507.722	99.38
507.939	107.38
508.155	93.38
508.372	82.38
508.588	85.38
508.805	87.38
509.021	89.38
509.238	102.38
509.454	100.38
509.67	106.38
509.887	87.38
510.103	106.38
510.319	174.38
510.536	553.38
510.752	1601.38
510.968	482.38
511.184	108.38
511.401	98.38
511.617	106.38
511.833	97.38
512.049	87.38
512.265	98.38
512.481	95.38
512.698	89.38
512.914	92.38
513.13	104.38
513.346	83.38
513.562	101.38
513.778	73.38
513.994	95.38
514.21	109.38
514.426	107.38
514.642	103.38
514.858	101.38
515.074	128.38
515.29	315.38
515.506	919.38
515.721	362.38
515.937	121.38
516.153	91.38
