Data from Circ_1993_H10_HRD10591_00065.txt Node
Date: Wed Jan 03 11:44:15 EST 2024
User: Yrep
Spectrometer: HR+D1059
Trigger mode: 1
Integration Time (sec): 1.000000E-1
Scans to average: 1
Electric dark correction enabled: true
Nonlinearity correction enabled: false
Boxcar width: 0
XAxis mode: Wavelengths
Number of Pixels in Spectrum: 2048
>>>>>Begin Spectral Data<<<<<
223.165	-19.56
223.4	-19.56
223.635	-19.56
223.869	-10.56
224.104	6.44
224.338	-8.56
224.573	-6.56
224.808	-20.56
225.042	-9.56
225.277	-5.56
225.511	-9.56
225.746	-14.56
225.98	5.44
226.215	-3.56
226.449	17.44
226.683	13.44
226.918	31.44
227.152	34.44
227.387	48.44
227.621	42.44
227.856	31.44
228.09	35.44
228.324	51.44
228.559	54.44
228.793	71.44
229.027	63.44
229.262	82.44
229.496	92.44
229.73	87.44
229.964	84.44
230.199	80.44
230.433	69.44
230.667	91.44
230.901	80.44
231.136	71.44
231.37	89.44
231.604	67.44
231.838	86.44
232.072	70.44
232.306	69.44
232.541	74.44
232.775	85.44
233.009	84.44
233.243	66.44
233.477	70.44
233.711	91.44
233.945	85.44
234.179	76.44
234.413	91.44
234.647	76.44
234.881	80.44
235.115	85.44
235.349	84.44
235.583	78.44
235.817	71.44
236.051	67.44
236.285	78.44
236.519	72.44
236.753	74.44
236.987	78.44
237.221	92.44
237.455	88.44
237.689	83.44
237.922	76.44
238.156	82.44
238.39	66.44
238.624	69.44
238.858	77.44
239.091	85.44
239.325	72.44
239.559	89.44
239.793	79.44
240.027	92.44
240.26	79.44
240.494	83.44
240.728	62.44
240.961	64.44
241.195	64.44
241.429	79.44
241.662	81.44
241.896	91.44
242.13	79.44
242.363	69.44
242.597	92.44
242.83	85.44
243.064	74.44
243.298	75.44
243.531	71.44
243.765	65.44
243.998	76.44
244.232	90.44
244.465	84.44
244.699	75.44
244.932	87.44
245.166	77.44
245.399	74.44
245.633	81.44
245.866	82.44
246.099	79.44
246.333	82.44
246.566	93.44
246.8	90.44
247.033	72.44
247.266	67.44
247.5	82.44
247.733	76.44
247.966	78.44
248.2	95.44
248.433	85.44
248.666	73.44
248.899	79.44
249.133	77.44
249.366	97.44
249.599	95.44
249.832	82.44
250.066	72.44
250.299	86.44
250.532	93.44
250.765	69.44
250.998	76.44
251.231	74.44
251.465	79.44
251.698	74.44
251.931	89.44
252.164	92.44
252.397	80.44
252.63	77.44
252.863	78.44
253.096	69.44
253.329	82.44
253.562	80.44
253.795	91.44
254.028	90.44
254.261	85.44
254.494	76.44
254.727	76.44
254.96	84.44
255.193	87.44
255.426	82.44
255.659	91.44
255.892	98.44
256.124	81.44
256.357	79.44
256.59	83.44
256.823	84.44
257.056	89.44
257.289	91.44
257.521	68.44
257.754	78.44
257.987	72.44
258.22	92.44
258.452	91.44
258.685	83.44
258.918	85.44
259.151	82.44
259.383	89.44
259.616	95.44
259.849	75.44
260.081	93.44
260.314	87.44
260.547	90.44
260.779	65.44
261.012	87.44
261.244	94.44
261.477	98.44
261.71	97.44
261.942	119.44
262.175	123.44
262.407	98.44
262.64	84.44
262.872	70.44
263.105	87.44
263.337	96.44
263.57	98.44
263.802	82.44
264.035	72.44
264.267	80.44
264.499	92.44
264.732	83.44
264.964	84.44
265.197	85.44
265.429	86.44
265.661	90.44
265.894	89.44
266.126	80.44
266.358	91.44
266.591	85.44
266.823	80.44
267.055	78.44
267.287	96.44
267.52	91.44
267.752	76.44
267.984	86.44
268.216	94.44
268.448	90.44
268.681	97.44
268.913	78.44
269.145	69.44
269.377	82.44
269.609	94.44
269.841	88.44
270.073	84.44
270.306	91.44
270.538	92.44
270.77	83.44
271.002	94.44
271.234	89.44
271.466	88.44
271.698	94.44
271.93	81.44
272.162	90.44
272.394	90.44
272.626	85.44
272.858	80.44
273.09	80.44
273.322	90.44
273.553	88.44
273.785	83.44
274.017	90.44
274.249	82.44
274.481	87.44
274.713	85.44
274.945	98.44
275.176	82.44
275.408	88.44
275.64	86.44
275.872	94.44
276.104	104.44
276.335	98.44
276.567	104.44
276.799	109.44
277.031	92.44
277.262	108.44
277.494	94.44
277.726	95.44
277.957	88.44
278.189	89.44
278.421	99.44
278.652	81.44
278.884	96.44
279.115	92.44
279.347	86.44
279.579	98.44
279.81	93.44
280.042	101.44
280.273	94.44
280.505	102.44
280.736	105.44
280.968	90.44
281.199	83.44
281.431	86.44
281.662	86.44
281.894	93.44
282.125	88.44
282.356	140.44
282.588	141.44
282.819	120.44
283.051	86.44
283.282	83.44
283.513	85.44
283.745	87.44
283.976	94.44
284.207	79.44
284.439	91.44
284.67	95.44
284.901	94.44
285.132	88.44
285.364	84.44
285.595	100.44
285.826	83.44
286.057	69.44
286.288	87.44
286.52	90.44
286.751	84.44
286.982	84.44
287.213	80.44
287.444	82.44
287.675	82.44
287.906	94.44
288.138	99.44
288.369	93.44
288.6	99.44
288.831	102.44
289.062	94.44
289.293	92.44
289.524	85.44
289.755	85.44
289.986	90.44
290.217	93.44
290.448	94.44
290.679	89.44
290.91	99.44
291.141	81.44
291.371	83.44
291.602	98.44
291.833	82.44
292.064	91.44
292.295	81.44
292.526	71.44
292.757	80.44
292.987	101.44
293.218	78.44
293.449	90.44
293.68	91.44
293.91	75.44
294.141	84.44
294.372	84.44
294.603	100.44
294.833	94.44
295.064	95.44
295.295	85.44
295.525	91.44
295.756	102.44
295.987	119.44
296.217	164.44
296.448	126.44
296.679	102.44
296.909	93.44
297.14	95.44
297.37	99.44
297.601	75.44
297.831	93.44
298.062	91.44
298.292	94.44
298.523	97.44
298.753	99.44
298.984	84.44
299.214	84.44
299.445	90.44
299.675	95.44
299.905	101.44
300.136	67.44
300.366	85.44
300.597	90.44
300.827	82.44
301.057	92.44
301.288	121.44
301.518	96.44
301.748	92.44
301.979	102.44
302.209	113.44
302.439	103.44
302.669	104.44
302.9	94.44
303.13	92.44
303.36	99.44
303.59	106.44
303.82	108.44
304.051	96.44
304.281	87.44
304.511	110.44
304.741	91.44
304.971	96.44
305.201	87.44
305.431	86.44
305.661	94.44
305.891	76.44
306.121	113.44
306.352	109.44
306.582	102.44
306.812	85.44
307.042	91.44
307.272	90.44
307.502	83.44
307.731	116.44
307.961	86.44
308.191	82.44
308.421	100.44
308.651	82.44
308.881	96.44
309.111	91.44
309.341	97.44
309.571	97.44
309.8	90.44
310.03	106.44
310.26	98.44
310.49	96.44
310.72	86.44
310.949	103.44
311.179	97.44
311.409	99.44
311.639	92.44
311.868	97.44
312.098	88.44
312.328	100.44
312.557	102.44
312.787	119.44
313.017	91.44
313.246	92.44
313.476	88.44
313.706	98.44
313.935	86.44
314.165	87.44
314.394	115.44
314.624	106.44
314.853	91.44
315.083	91.44
315.312	92.44
315.542	77.44
315.771	96.44
316.001	100.44
316.23	87.44
316.46	82.44
316.689	104.44
316.919	112.44
317.148	102.44
317.377	103.44
317.607	107.44
317.836	95.44
318.065	100.44
318.295	82.44
318.524	93.44
318.753	103.44
318.983	88.44
319.212	100.44
319.441	118.44
319.67	106.44
319.9	94.44
320.129	100.44
320.358	89.44
320.587	94.44
320.816	117.44
321.046	104.44
321.275	93.44
321.504	83.44
321.733	96.44
321.962	106.44
322.191	93.44
322.42	101.44
322.649	116.44
322.878	121.44
323.108	124.44
323.337	143.44
323.566	145.44
323.795	168.44
324.024	226.44
324.253	444.44
324.482	980.44
324.71	2051.44
324.939	2675.44
325.168	970.44
325.397	277.44
325.626	154.44
325.855	144.44
326.084	142.44
326.313	143.44
326.542	176.44
326.77	266.44
326.999	515.44
327.228	1080.44
327.457	2008.44
327.686	1565.44
327.914	438.44
328.143	238.44
328.372	210.44
328.6	166.44
328.829	122.44
329.058	139.44
329.287	148.44
329.515	114.44
329.744	117.44
329.972	141.44
330.201	207.44
330.43	275.44
330.658	186.44
330.887	170.44
331.115	148.44
331.344	112.44
331.572	97.44
331.801	102.44
332.03	113.44
332.258	100.44
332.486	106.44
332.715	98.44
332.943	105.44
333.172	103.44
333.4	107.44
333.629	126.44
333.857	134.44
334.085	161.44
334.314	209.44
334.542	326.44
334.771	294.44
334.999	131.44
335.227	109.44
335.455	101.44
335.684	100.44
335.912	97.44
336.14	95.44
336.369	106.44
336.597	104.44
336.825	93.44
337.053	101.44
337.281	83.44
337.51	104.44
337.738	86.44
337.966	74.44
338.194	107.44
338.422	106.44
338.65	103.44
338.878	101.44
339.106	84.44
339.334	92.44
339.562	108.44
339.79	95.44
340.018	102.44
340.246	115.44
340.474	76.44
340.702	94.44
340.93	95.44
341.158	98.44
341.386	99.44
341.614	107.44
341.842	88.44
342.07	105.44
342.298	95.44
342.526	94.44
342.754	93.44
342.981	102.44
343.209	89.44
343.437	113.44
343.665	100.44
343.893	91.44
344.12	104.44
344.348	85.44
344.576	92.44
344.804	90.44
345.031	86.44
345.259	102.44
345.487	78.44
345.714	102.44
345.942	108.44
346.17	87.44
346.397	84.44
346.625	95.44
346.853	90.44
347.08	82.44
347.308	104.44
347.535	110.44
347.763	99.44
347.99	112.44
348.218	92.44
348.445	114.44
348.673	109.44
348.9	94.44
349.128	90.44
349.355	88.44
349.583	88.44
349.81	98.44
350.037	93.44
350.265	103.44
350.492	101.44
350.72	92.44
350.947	96.44
351.174	92.44
351.402	118.44
351.629	102.44
351.856	93.44
352.083	113.44
352.311	100.44
352.538	108.44
352.765	123.44
352.992	132.44
353.22	111.44
353.447	113.44
353.674	86.44
353.901	103.44
354.128	94.44
354.355	102.44
354.583	110.44
354.81	93.44
355.037	104.44
355.264	110.44
355.491	82.44
355.718	95.44
355.945	99.44
356.172	98.44
356.399	85.44
356.626	98.44
356.853	100.44
357.08	93.44
357.307	90.44
357.534	94.44
357.761	99.44
357.988	91.44
358.215	103.44
358.441	86.44
358.668	100.44
358.895	96.44
359.122	90.44
359.349	86.44
359.576	105.44
359.802	103.44
360.029	123.44
360.256	126.44
360.483	112.44
360.709	94.44
360.936	107.44
361.163	98.44
361.39	110.44
361.616	104.44
361.843	99.44
362.07	94.44
362.296	95.44
362.523	91.44
362.749	82.44
362.976	97.44
363.203	89.44
363.429	107.44
363.656	101.44
363.882	87.44
364.109	98.44
364.335	93.44
364.562	83.44
364.788	95.44
365.015	100.44
365.241	98.44
365.468	116.44
365.694	104.44
365.92	97.44
366.147	99.44
366.373	90.44
366.599	87.44
366.826	80.44
367.052	93.44
367.278	103.44
367.505	110.44
367.731	97.44
367.957	105.44
368.184	99.44
368.41	94.44
368.636	123.44
368.862	121.44
369.089	120.44
369.315	101.44
369.541	88.44
369.767	98.44
369.993	101.44
370.219	99.44
370.445	89.44
370.672	78.44
370.898	86.44
371.124	95.44
371.35	90.44
371.576	87.44
371.802	93.44
372.028	83.44
372.254	83.44
372.48	97.44
372.706	99.44
372.932	96.44
373.158	82.44
373.384	99.44
373.61	99.44
373.835	92.44
374.061	99.44
374.287	103.44
374.513	99.44
374.739	104.44
374.965	101.44
375.191	84.44
375.416	95.44
375.642	101.44
375.868	90.44
376.094	99.44
376.319	100.44
376.545	100.44
376.771	96.44
376.997	91.44
377.222	91.44
377.448	91.44
377.674	87.44
377.899	109.44
378.125	102.44
378.35	86.44
378.576	94.44
378.802	70.44
379.027	95.44
379.253	79.44
379.478	99.44
379.704	102.44
379.929	87.44
380.155	96.44
380.38	86.44
380.606	91.44
380.831	99.44
381.057	101.44
381.282	94.44
381.507	101.44
381.733	92.44
381.958	99.44
382.184	92.44
382.409	94.44
382.634	114.44
382.86	94.44
383.085	106.44
383.31	95.44
383.535	103.44
383.761	109.44
383.986	97.44
384.211	108.44
384.436	102.44
384.662	104.44
384.887	101.44
385.112	115.44
385.337	100.44
385.562	103.44
385.787	115.44
386.013	109.44
386.238	122.44
386.463	109.44
386.688	118.44
386.913	111.44
387.138	113.44
387.363	104.44
387.588	101.44
387.813	100.44
388.038	113.44
388.263	113.44
388.488	101.44
388.713	92.44
388.938	88.44
389.163	98.44
389.387	92.44
389.612	92.44
389.837	98.44
390.062	103.44
390.287	96.44
390.512	98.44
390.736	84.44
390.961	87.44
391.186	107.44
391.411	89.44
391.636	96.44
391.86	85.44
392.085	91.44
392.31	86.44
392.534	90.44
392.759	93.44
392.984	84.44
393.208	90.44
393.433	127.44
393.658	119.44
393.882	108.44
394.107	95.44
394.331	78.44
394.556	94.44
394.78	104.44
395.005	85.44
395.229	91.44
395.454	94.44
395.678	100.44
395.903	87.44
396.127	97.44
396.352	93.44
396.576	99.44
396.801	99.44
397.025	122.44
397.249	91.44
397.474	88.44
397.698	88.44
397.922	104.44
398.147	99.44
398.371	95.44
398.595	95.44
398.82	98.44
399.044	91.44
399.268	94.44
399.492	98.44
399.717	98.44
399.941	92.44
400.165	92.44
400.389	94.44
400.613	82.44
400.837	111.44
401.062	86.44
401.286	84.44
401.51	93.44
401.734	102.44
401.958	103.44
402.182	129.44
402.406	171.44
402.63	129.44
402.854	102.44
403.078	87.44
403.302	80.44
403.526	89.44
403.75	86.44
403.974	82.44
404.198	79.44
404.422	84.44
404.645	82.44
404.869	104.44
405.093	94.44
405.317	98.44
405.541	113.44
405.765	103.44
405.988	141.44
406.212	190.44
406.436	275.44
406.66	176.44
406.883	106.44
407.107	97.44
407.331	95.44
407.555	107.44
407.778	94.44
408.002	99.44
408.226	106.44
408.449	96.44
408.673	83.44
408.896	81.44
409.12	89.44
409.344	104.44
409.567	91.44
409.791	91.44
410.014	89.44
410.238	74.44
410.461	85.44
410.685	84.44
410.908	96.44
411.132	106.44
411.355	102.44
411.578	102.44
411.802	101.44
412.025	95.44
412.249	102.44
412.472	98.44
412.695	115.44
412.919	108.44
413.142	92.44
413.365	78.44
413.589	78.44
413.812	94.44
414.035	92.44
414.258	89.44
414.482	81.44
414.705	90.44
414.928	94.44
415.151	101.44
415.374	85.44
415.597	93.44
415.821	101.44
416.044	82.44
416.267	82.44
416.49	83.44
416.713	84.44
416.936	88.44
417.159	96.44
417.382	92.44
417.605	95.44
417.828	107.44
418.051	104.44
418.274	89.44
418.497	103.44
418.72	86.44
418.943	92.44
419.166	75.44
419.389	80.44
419.611	92.44
419.834	86.44
420.057	98.44
420.28	92.44
420.503	99.44
420.726	86.44
420.948	98.44
421.171	105.44
421.394	86.44
421.617	91.44
421.839	97.44
422.062	98.44
422.285	79.44
422.507	102.44
422.73	104.44
422.953	96.44
423.175	111.44
423.398	97.44
423.621	93.44
423.843	93.44
424.066	95.44
424.288	93.44
424.511	96.44
424.733	118.44
424.956	112.44
425.178	95.44
425.401	108.44
425.623	99.44
425.846	101.44
426.068	90.44
426.291	91.44
426.513	85.44
426.735	89.44
426.958	92.44
427.18	121.44
427.402	164.44
427.625	189.44
427.847	158.44
428.069	134.44
428.292	102.44
428.514	92.44
428.736	82.44
428.958	86.44
429.181	102.44
429.403	91.44
429.625	83.44
429.847	80.44
430.069	104.44
430.292	100.44
430.514	96.44
430.736	90.44
430.958	106.44
431.18	90.44
431.402	89.44
431.624	85.44
431.846	79.44
432.068	89.44
432.29	96.44
432.512	87.44
432.734	96.44
432.956	109.44
433.178	111.44
433.4	95.44
433.622	100.44
433.844	82.44
434.066	95.44
434.287	92.44
434.509	80.44
434.731	86.44
434.953	82.44
435.175	89.44
435.397	93.44
435.618	95.44
435.84	104.44
436.062	132.44
436.284	123.44
436.505	117.44
436.727	114.44
436.949	95.44
437.17	82.44
437.392	92.44
437.614	97.44
437.835	117.44
438.057	130.44
438.278	104.44
438.5	99.44
438.721	119.44
438.943	107.44
439.165	101.44
439.386	90.44
439.608	100.44
439.829	117.44
440.05	131.44
440.272	145.44
440.493	110.44
440.715	99.44
440.936	109.44
441.158	82.44
441.379	99.44
441.6	95.44
441.822	89.44
442.043	109.44
442.264	110.44
442.486	104.44
442.707	116.44
442.928	115.44
443.149	135.44
443.371	132.44
443.592	104.44
443.813	121.44
444.034	108.44
444.255	103.44
444.476	104.44
444.698	91.44
444.919	92.44
445.14	138.44
445.361	123.44
445.582	131.44
445.803	150.44
446.024	144.44
446.245	139.44
446.466	120.44
446.687	88.44
446.908	96.44
447.129	112.44
447.35	79.44
447.571	86.44
447.792	95.44
448.013	96.44
448.234	110.44
448.455	118.44
448.675	122.44
448.896	129.44
449.117	108.44
449.338	111.44
449.559	152.44
449.779	129.44
450	90.44
450.221	90.44
450.442	88.44
450.662	97.44
450.883	116.44
451.104	129.44
451.324	75.44
451.545	87.44
451.766	77.44
451.986	83.44
452.207	99.44
452.428	99.44
452.648	101.44
452.869	123.44
453.089	115.44
453.31	127.44
453.53	99.44
453.751	93.44
453.971	98.44
454.192	128.44
454.412	101.44
454.633	107.44
454.853	92.44
455.073	92.44
455.294	107.44
455.514	93.44
455.734	90.44
455.955	96.44
456.175	97.44
456.395	84.44
456.616	89.44
456.836	87.44
457.056	82.44
457.276	82.44
457.497	81.44
457.717	72.44
457.937	82.44
458.157	85.44
458.377	90.44
458.598	106.44
458.818	179.44
459.038	174.44
459.258	123.44
459.478	104.44
459.698	90.44
459.918	93.44
460.138	84.44
460.358	82.44
460.578	95.44
460.798	88.44
461.018	94.44
461.238	78.44
461.458	91.44
461.678	83.44
461.898	91.44
462.118	86.44
462.338	85.44
462.558	91.44
462.777	98.44
462.997	82.44
463.217	86.44
463.437	93.44
463.657	83.44
463.876	85.44
464.096	91.44
464.316	92.44
464.536	94.44
464.755	115.44
464.975	123.44
465.195	191.44
465.414	175.44
465.634	90.44
465.854	89.44
466.073	101.44
466.293	91.44
466.512	97.44
466.732	95.44
466.951	85.44
467.171	92.44
467.391	105.44
467.61	123.44
467.829	118.44
468.049	150.44
468.268	184.44
468.488	102.44
468.707	94.44
468.927	95.44
469.146	96.44
469.365	95.44
469.585	88.44
469.804	111.44
470.023	100.44
470.243	81.44
470.462	109.44
470.681	121.44
470.901	96.44
471.12	95.44
471.339	90.44
471.558	91.44
471.777	95.44
471.997	119.44
472.216	228.44
472.435	430.44
472.654	157.44
472.873	95.44
473.092	79.44
473.311	87.44
473.53	97.44
473.749	89.44
473.968	92.44
474.187	96.44
474.406	90.44
474.625	97.44
474.844	90.44
475.063	94.44
475.282	96.44
475.501	88.44
475.72	94.44
475.939	86.44
476.158	94.44
476.377	83.44
476.596	83.44
476.814	98.44
477.033	101.44
477.252	88.44
477.471	95.44
477.69	95.44
477.908	105.44
478.127	102.44
478.346	97.44
478.564	82.44
478.783	100.44
479.002	108.44
479.22	90.44
479.439	112.44
479.658	121.44
479.876	94.44
480.095	99.44
480.313	103.44
480.532	98.44
480.751	124.44
480.969	243.44
481.188	699.44
481.406	463.44
481.624	132.44
481.843	106.44
482.061	97.44
482.28	91.44
482.498	95.44
482.717	83.44
482.935	94.44
483.153	81.44
483.372	90.44
483.59	107.44
483.808	84.44
484.027	94.44
484.245	92.44
484.463	89.44
484.681	101.44
484.9	97.44
485.118	104.44
485.336	101.44
485.554	124.44
485.772	103.44
485.99	108.44
486.209	115.44
486.427	105.44
486.645	107.44
486.863	126.44
487.081	89.44
487.299	102.44
487.517	114.44
487.735	94.44
487.953	105.44
488.171	90.44
488.389	101.44
488.607	105.44
488.825	79.44
489.043	98.44
489.261	100.44
489.479	91.44
489.696	91.44
489.914	92.44
490.132	88.44
490.35	97.44
490.568	91.44
490.786	96.44
491.003	85.44
491.221	94.44
491.439	109.44
491.657	96.44
491.874	79.44
492.092	106.44
492.31	96.44
492.527	94.44
492.745	84.44
492.963	104.44
493.18	94.44
493.398	93.44
493.615	100.44
493.833	112.44
494.05	91.44
494.268	84.44
494.485	97.44
494.703	92.44
494.92	93.44
495.138	101.44
495.355	87.44
495.573	88.44
495.79	82.44
496.008	86.44
496.225	91.44
496.442	94.44
496.66	86.44
496.877	94.44
497.094	92.44
497.312	82.44
497.529	92.44
497.746	98.44
497.963	88.44
498.181	96.44
498.398	97.44
498.615	105.44
498.832	120.44
499.049	112.44
499.267	97.44
499.484	96.44
499.701	84.44
499.918	93.44
500.135	87.44
500.352	96.44
500.569	95.44
500.786	98.44
501.003	82.44
501.22	104.44
501.437	99.44
501.654	105.44
501.871	103.44
502.088	92.44
502.305	95.44
502.522	90.44
502.739	102.44
502.956	85.44
503.172	95.44
503.389	87.44
503.606	100.44
503.823	93.44
504.04	105.44
504.256	76.44
504.473	92.44
504.69	102.44
504.907	102.44
505.123	96.44
505.34	91.44
505.557	96.44
505.773	96.44
505.99	88.44
506.207	89.44
506.423	79.44
506.64	91.44
506.856	94.44
507.073	84.44
507.289	105.44
507.506	109.44
507.722	112.44
507.939	119.44
508.155	103.44
508.372	99.44
508.588	82.44
508.805	100.44
509.021	80.44
509.238	104.44
509.454	100.44
509.67	101.44
509.887	107.44
510.103	135.44
510.319	231.44
510.536	931.44
510.752	3047.44
510.968	796.44
511.184	165.44
511.401	119.44
511.617	103.44
511.833	106.44
512.049	87.44
512.265	93.44
512.481	103.44
512.698	91.44
512.914	95.44
513.13	84.44
513.346	97.44
513.562	96.44
513.778	97.44
513.994	93.44
