Data from Circ_1993_H10_HRD10591_00062.txt Node
Date: Wed Jan 03 11:44:14 EST 2024
User: Yrep
Spectrometer: HR+D1059
Trigger mode: 1
Integration Time (sec): 1.000000E-1
Scans to average: 1
Electric dark correction enabled: true
Nonlinearity correction enabled: false
Boxcar width: 0
XAxis mode: Wavelengths
Number of Pixels in Spectrum: 2048
>>>>>Begin Spectral Data<<<<<
223.165	-29.25
223.4	-29.25
223.635	-29.25
223.869	-21.25
224.104	-5.25
224.338	-22.25
224.573	-17.25
224.808	-12.25
225.042	-2.25
225.277	-3.25
225.511	-11.25
225.746	3.75
225.98	29.75
226.215	8.75
226.449	15.75
226.683	20.75
226.918	25.75
227.152	19.75
227.387	37.75
227.621	41.75
227.856	46.75
228.09	47.75
228.324	46.75
228.559	45.75
228.793	55.75
229.027	48.75
229.262	50.75
229.496	65.75
229.73	82.75
229.964	87.75
230.199	92.75
230.433	76.75
230.667	86.75
230.901	74.75
231.136	89.75
231.37	75.75
231.604	77.75
231.838	76.75
232.072	73.75
232.306	85.75
232.541	79.75
232.775	78.75
233.009	97.75
233.243	84.75
233.477	66.75
233.711	78.75
233.945	77.75
234.179	82.75
234.413	78.75
234.647	63.75
234.881	82.75
235.115	84.75
235.349	74.75
235.583	80.75
235.817	73.75
236.051	91.75
236.285	88.75
236.519	78.75
236.753	74.75
236.987	70.75
237.221	78.75
237.455	82.75
237.689	75.75
237.922	60.75
238.156	82.75
238.39	88.75
238.624	80.75
238.858	67.75
239.091	85.75
239.325	75.75
239.559	72.75
239.793	60.75
240.027	81.75
240.26	81.75
240.494	73.75
240.728	64.75
240.961	80.75
241.195	76.75
241.429	74.75
241.662	78.75
241.896	71.75
242.13	72.75
242.363	63.75
242.597	62.75
242.83	81.75
243.064	74.75
243.298	87.75
243.531	75.75
243.765	77.75
243.998	70.75
244.232	78.75
244.465	80.75
244.699	82.75
244.932	69.75
245.166	76.75
245.399	79.75
245.633	67.75
245.866	70.75
246.099	69.75
246.333	81.75
246.566	86.75
246.8	61.75
247.033	56.75
247.266	61.75
247.5	67.75
247.733	75.75
247.966	76.75
248.2	61.75
248.433	63.75
248.666	91.75
248.899	80.75
249.133	92.75
249.366	102.75
249.599	107.75
249.832	92.75
250.066	76.75
250.299	77.75
250.532	64.75
250.765	87.75
250.998	91.75
251.231	84.75
251.465	83.75
251.698	81.75
251.931	79.75
252.164	78.75
252.397	79.75
252.63	85.75
252.863	86.75
253.096	71.75
253.329	78.75
253.562	82.75
253.795	75.75
254.028	90.75
254.261	83.75
254.494	85.75
254.727	93.75
254.96	74.75
255.193	99.75
255.426	83.75
255.659	86.75
255.892	97.75
256.124	91.75
256.357	79.75
256.59	80.75
256.823	81.75
257.056	88.75
257.289	98.75
257.521	84.75
257.754	78.75
257.987	86.75
258.22	87.75
258.452	90.75
258.685	78.75
258.918	76.75
259.151	75.75
259.383	78.75
259.616	90.75
259.849	74.75
260.081	72.75
260.314	74.75
260.547	78.75
260.779	78.75
261.012	68.75
261.244	78.75
261.477	92.75
261.71	85.75
261.942	107.75
262.175	121.75
262.407	99.75
262.64	88.75
262.872	79.75
263.105	85.75
263.337	81.75
263.57	69.75
263.802	78.75
264.035	58.75
264.267	84.75
264.499	83.75
264.732	79.75
264.964	71.75
265.197	96.75
265.429	88.75
265.661	81.75
265.894	96.75
266.126	76.75
266.358	83.75
266.591	83.75
266.823	83.75
267.055	73.75
267.287	85.75
267.52	93.75
267.752	88.75
267.984	79.75
268.216	97.75
268.448	94.75
268.681	101.75
268.913	95.75
269.145	96.75
269.377	83.75
269.609	84.75
269.841	98.75
270.073	95.75
270.306	67.75
270.538	77.75
270.77	83.75
271.002	60.75
271.234	92.75
271.466	96.75
271.698	101.75
271.93	84.75
272.162	85.75
272.394	91.75
272.626	78.75
272.858	88.75
273.09	78.75
273.322	99.75
273.553	80.75
273.785	91.75
274.017	88.75
274.249	97.75
274.481	86.75
274.713	76.75
274.945	93.75
275.176	89.75
275.408	87.75
275.64	85.75
275.872	94.75
276.104	109.75
276.335	94.75
276.567	89.75
276.799	111.75
277.031	118.75
277.262	107.75
277.494	85.75
277.726	77.75
277.957	88.75
278.189	84.75
278.421	91.75
278.652	89.75
278.884	87.75
279.115	87.75
279.347	90.75
279.579	92.75
279.81	96.75
280.042	100.75
280.273	101.75
280.505	97.75
280.736	84.75
280.968	88.75
281.199	91.75
281.431	84.75
281.662	95.75
281.894	78.75
282.125	89.75
282.356	113.75
282.588	139.75
282.819	120.75
283.051	98.75
283.282	82.75
283.513	92.75
283.745	99.75
283.976	84.75
284.207	93.75
284.439	78.75
284.67	84.75
284.901	82.75
285.132	88.75
285.364	92.75
285.595	93.75
285.826	91.75
286.057	102.75
286.288	84.75
286.52	79.75
286.751	86.75
286.982	86.75
287.213	96.75
287.444	92.75
287.675	95.75
287.906	88.75
288.138	97.75
288.369	93.75
288.6	94.75
288.831	77.75
289.062	82.75
289.293	82.75
289.524	84.75
289.755	93.75
289.986	89.75
290.217	88.75
290.448	82.75
290.679	78.75
290.91	85.75
291.141	95.75
291.371	81.75
291.602	92.75
291.833	88.75
292.064	80.75
292.295	88.75
292.526	92.75
292.757	94.75
292.987	81.75
293.218	84.75
293.449	92.75
293.68	93.75
293.91	97.75
294.141	81.75
294.372	99.75
294.603	99.75
294.833	91.75
295.064	90.75
295.295	90.75
295.525	103.75
295.756	72.75
295.987	105.75
296.217	153.75
296.448	110.75
296.679	83.75
296.909	95.75
297.14	92.75
297.37	87.75
297.601	97.75
297.831	83.75
298.062	90.75
298.292	79.75
298.523	97.75
298.753	81.75
298.984	85.75
299.214	88.75
299.445	97.75
299.675	101.75
299.905	93.75
300.136	89.75
300.366	96.75
300.597	97.75
300.827	84.75
301.057	117.75
301.288	96.75
301.518	109.75
301.748	102.75
301.979	101.75
302.209	94.75
302.439	101.75
302.669	83.75
302.9	81.75
303.13	100.75
303.36	88.75
303.59	100.75
303.82	91.75
304.051	94.75
304.281	88.75
304.511	90.75
304.741	96.75
304.971	83.75
305.201	101.75
305.431	101.75
305.661	92.75
305.891	90.75
306.121	96.75
306.352	98.75
306.582	114.75
306.812	82.75
307.042	85.75
307.272	92.75
307.502	97.75
307.731	93.75
307.961	102.75
308.191	96.75
308.421	86.75
308.651	82.75
308.881	93.75
309.111	82.75
309.341	95.75
309.571	106.75
309.8	100.75
310.03	89.75
310.26	97.75
310.49	95.75
310.72	103.75
310.949	105.75
311.179	117.75
311.409	84.75
311.639	84.75
311.868	88.75
312.098	103.75
312.328	116.75
312.557	94.75
312.787	105.75
313.017	109.75
313.246	89.75
313.476	97.75
313.706	91.75
313.935	95.75
314.165	104.75
314.394	106.75
314.624	101.75
314.853	96.75
315.083	106.75
315.312	84.75
315.542	82.75
315.771	93.75
316.001	88.75
316.23	83.75
316.46	90.75
316.689	82.75
316.919	88.75
317.148	75.75
317.377	83.75
317.607	95.75
317.836	97.75
318.065	78.75
318.295	83.75
318.524	95.75
318.753	94.75
318.983	84.75
319.212	99.75
319.441	110.75
319.67	109.75
319.9	102.75
320.129	85.75
320.358	104.75
320.587	88.75
320.816	110.75
321.046	106.75
321.275	98.75
321.504	85.75
321.733	100.75
321.962	97.75
322.191	105.75
322.42	97.75
322.649	114.75
322.878	98.75
323.108	106.75
323.337	130.75
323.566	127.75
323.795	156.75
324.024	203.75
324.253	413.75
324.482	909.75
324.71	1815.75
324.939	2400.75
325.168	861.75
325.397	240.75
325.626	154.75
325.855	127.75
326.084	118.75
326.313	133.75
326.542	152.75
326.77	233.75
326.999	489.75
327.228	1008.75
327.457	1859.75
327.686	1428.75
327.914	402.75
328.143	240.75
328.372	199.75
328.6	153.75
328.829	109.75
329.058	121.75
329.287	122.75
329.515	109.75
329.744	131.75
329.972	143.75
330.201	196.75
330.43	252.75
330.658	169.75
330.887	152.75
331.115	126.75
331.344	114.75
331.572	116.75
331.801	99.75
332.03	100.75
332.258	95.75
332.486	89.75
332.715	97.75
332.943	93.75
333.172	97.75
333.4	96.75
333.629	103.75
333.857	137.75
334.085	141.75
334.314	210.75
334.542	303.75
334.771	286.75
334.999	141.75
335.227	107.75
335.455	91.75
335.684	98.75
335.912	114.75
336.14	88.75
336.369	89.75
336.597	85.75
336.825	101.75
337.053	89.75
337.281	72.75
337.51	103.75
337.738	84.75
337.966	106.75
338.194	109.75
338.422	81.75
338.65	108.75
338.878	98.75
339.106	96.75
339.334	88.75
339.562	85.75
339.79	93.75
340.018	92.75
340.246	96.75
340.474	93.75
340.702	84.75
340.93	90.75
341.158	90.75
341.386	101.75
341.614	100.75
341.842	99.75
342.07	96.75
342.298	92.75
342.526	97.75
342.754	91.75
342.981	83.75
343.209	88.75
343.437	101.75
343.665	92.75
343.893	93.75
344.12	93.75
344.348	99.75
344.576	76.75
344.804	85.75
345.031	96.75
345.259	97.75
345.487	94.75
345.714	93.75
345.942	97.75
346.17	107.75
346.397	97.75
346.625	96.75
346.853	100.75
347.08	88.75
347.308	81.75
347.535	101.75
347.763	92.75
347.99	100.75
348.218	108.75
348.445	95.75
348.673	101.75
348.9	101.75
349.128	83.75
349.355	96.75
349.583	105.75
349.81	109.75
350.037	96.75
350.265	87.75
350.492	99.75
350.72	96.75
350.947	88.75
351.174	114.75
351.402	120.75
351.629	102.75
351.856	105.75
352.083	100.75
352.311	94.75
352.538	103.75
352.765	107.75
352.992	113.75
353.22	129.75
353.447	101.75
353.674	106.75
353.901	89.75
354.128	102.75
354.355	94.75
354.583	104.75
354.81	109.75
355.037	97.75
355.264	100.75
355.491	91.75
355.718	95.75
355.945	84.75
356.172	89.75
356.399	98.75
356.626	86.75
356.853	94.75
357.08	64.75
357.307	101.75
357.534	92.75
357.761	90.75
357.988	87.75
358.215	102.75
358.441	96.75
358.668	97.75
358.895	85.75
359.122	93.75
359.349	92.75
359.576	92.75
359.802	105.75
360.029	121.75
360.256	109.75
360.483	106.75
360.709	85.75
360.936	99.75
361.163	84.75
361.39	92.75
361.616	88.75
361.843	85.75
362.07	96.75
362.296	100.75
362.523	103.75
362.749	81.75
362.976	94.75
363.203	88.75
363.429	75.75
363.656	80.75
363.882	77.75
364.109	95.75
364.335	96.75
364.562	85.75
364.788	86.75
365.015	92.75
365.241	102.75
365.468	97.75
365.694	110.75
365.92	93.75
366.147	86.75
366.373	83.75
366.599	93.75
366.826	96.75
367.052	101.75
367.278	92.75
367.505	97.75
367.731	80.75
367.957	87.75
368.184	92.75
368.41	88.75
368.636	104.75
368.862	117.75
369.089	102.75
369.315	100.75
369.541	84.75
369.767	87.75
369.993	98.75
370.219	81.75
370.445	89.75
370.672	83.75
370.898	81.75
371.124	80.75
371.35	78.75
371.576	85.75
371.802	84.75
372.028	106.75
372.254	100.75
372.48	95.75
372.706	100.75
372.932	86.75
373.158	75.75
373.384	91.75
373.61	75.75
373.835	92.75
374.061	86.75
374.287	92.75
374.513	87.75
374.739	95.75
374.965	87.75
375.191	92.75
375.416	91.75
375.642	83.75
375.868	90.75
376.094	103.75
376.319	94.75
376.545	85.75
376.771	84.75
376.997	84.75
377.222	61.75
377.448	92.75
377.674	90.75
377.899	82.75
378.125	94.75
378.35	96.75
378.576	94.75
378.802	89.75
379.027	101.75
379.253	98.75
379.478	99.75
379.704	101.75
379.929	93.75
380.155	89.75
380.38	84.75
380.606	89.75
380.831	102.75
381.057	91.75
381.282	93.75
381.507	91.75
381.733	100.75
381.958	96.75
382.184	107.75
382.409	97.75
382.634	116.75
382.86	106.75
383.085	96.75
383.31	112.75
383.535	93.75
383.761	102.75
383.986	100.75
384.211	103.75
384.436	96.75
384.662	94.75
384.887	103.75
385.112	91.75
385.337	111.75
385.562	98.75
385.787	99.75
386.013	97.75
386.238	113.75
386.463	101.75
386.688	127.75
386.913	102.75
387.138	109.75
387.363	92.75
387.588	101.75
387.813	101.75
388.038	103.75
388.263	115.75
388.488	120.75
388.713	96.75
388.938	84.75
389.163	94.75
389.387	81.75
389.612	89.75
389.837	107.75
390.062	84.75
390.287	91.75
390.512	106.75
390.736	79.75
390.961	93.75
391.186	95.75
391.411	96.75
391.636	84.75
391.86	91.75
392.085	101.75
392.31	83.75
392.534	83.75
392.759	78.75
392.984	92.75
393.208	92.75
393.433	125.75
393.658	110.75
393.882	96.75
394.107	84.75
394.331	81.75
394.556	79.75
394.78	94.75
395.005	101.75
395.229	88.75
395.454	82.75
395.678	89.75
395.903	76.75
396.127	87.75
396.352	90.75
396.576	91.75
396.801	83.75
397.025	106.75
397.249	96.75
397.474	105.75
397.698	112.75
397.922	87.75
398.147	79.75
398.371	90.75
398.595	78.75
398.82	91.75
399.044	81.75
399.268	102.75
399.492	94.75
399.717	72.75
399.941	92.75
400.165	88.75
400.389	73.75
400.613	85.75
400.837	85.75
401.062	84.75
401.286	98.75
401.51	93.75
401.734	92.75
401.958	106.75
402.182	122.75
402.406	151.75
402.63	103.75
402.854	88.75
403.078	92.75
403.302	79.75
403.526	84.75
403.75	98.75
403.974	89.75
404.198	100.75
404.422	93.75
404.645	96.75
404.869	89.75
405.093	100.75
405.317	107.75
405.541	106.75
405.765	108.75
405.988	115.75
406.212	164.75
406.436	238.75
406.66	144.75
406.883	95.75
407.107	94.75
407.331	86.75
407.555	106.75
407.778	109.75
408.002	98.75
408.226	79.75
408.449	68.75
408.673	92.75
408.896	93.75
409.12	92.75
409.344	80.75
409.567	84.75
409.791	87.75
410.014	83.75
410.238	92.75
410.461	71.75
410.685	96.75
410.908	103.75
411.132	114.75
411.355	100.75
411.578	91.75
411.802	80.75
412.025	76.75
412.249	75.75
412.472	82.75
412.695	91.75
412.919	101.75
413.142	85.75
413.365	84.75
413.589	94.75
413.812	83.75
414.035	87.75
414.258	90.75
414.482	92.75
414.705	89.75
414.928	103.75
415.151	84.75
415.374	75.75
415.597	83.75
415.821	90.75
416.044	84.75
416.267	89.75
416.49	104.75
416.713	93.75
416.936	95.75
417.159	76.75
417.382	97.75
417.605	95.75
417.828	90.75
418.051	91.75
418.274	71.75
418.497	81.75
418.72	91.75
418.943	81.75
419.166	73.75
419.389	90.75
419.611	92.75
419.834	65.75
420.057	82.75
420.28	99.75
420.503	94.75
420.726	84.75
420.948	83.75
421.171	86.75
421.394	99.75
421.617	84.75
421.839	80.75
422.062	80.75
422.285	98.75
422.507	90.75
422.73	101.75
422.953	107.75
423.175	82.75
423.398	88.75
423.621	88.75
423.843	88.75
424.066	77.75
424.288	93.75
424.511	98.75
424.733	99.75
424.956	106.75
425.178	97.75
425.401	102.75
425.623	95.75
425.846	93.75
426.068	81.75
426.291	95.75
426.513	89.75
426.735	101.75
426.958	98.75
427.18	103.75
427.402	139.75
427.625	185.75
427.847	154.75
428.069	116.75
428.292	94.75
428.514	100.75
428.736	90.75
428.958	90.75
429.181	100.75
429.403	81.75
429.625	80.75
429.847	89.75
430.069	95.75
430.292	102.75
430.514	80.75
430.736	75.75
430.958	77.75
431.18	72.75
431.402	94.75
431.624	75.75
431.846	76.75
432.068	93.75
432.29	88.75
432.512	101.75
432.734	85.75
432.956	112.75
433.178	108.75
433.4	100.75
433.622	83.75
433.844	105.75
434.066	93.75
434.287	99.75
434.509	89.75
434.731	93.75
434.953	86.75
435.175	76.75
435.397	94.75
435.618	78.75
435.84	89.75
436.062	127.75
436.284	97.75
436.505	108.75
436.727	98.75
436.949	98.75
437.17	100.75
437.392	87.75
437.614	88.75
437.835	96.75
438.057	113.75
438.278	96.75
438.5	95.75
438.721	125.75
438.943	93.75
439.165	91.75
439.386	83.75
439.608	97.75
439.829	102.75
440.05	125.75
440.272	146.75
440.493	102.75
440.715	99.75
440.936	74.75
441.158	90.75
441.379	74.75
441.6	70.75
441.822	92.75
442.043	81.75
442.264	100.75
442.486	110.75
442.707	106.75
442.928	101.75
443.149	128.75
443.371	119.75
443.592	109.75
443.813	106.75
444.034	110.75
444.255	86.75
444.476	78.75
444.698	83.75
444.919	69.75
445.14	139.75
445.361	127.75
445.582	108.75
445.803	140.75
446.024	132.75
446.245	133.75
446.466	107.75
446.687	90.75
446.908	91.75
447.129	88.75
447.35	71.75
447.571	103.75
447.792	92.75
448.013	106.75
448.234	121.75
448.455	89.75
448.675	106.75
448.896	111.75
449.117	96.75
449.338	119.75
449.559	140.75
449.779	143.75
450	99.75
450.221	84.75
450.442	85.75
450.662	86.75
450.883	105.75
451.104	95.75
451.324	90.75
451.545	98.75
451.766	98.75
451.986	85.75
452.207	89.75
452.428	90.75
452.648	105.75
452.869	113.75
453.089	118.75
453.31	120.75
453.53	89.75
453.751	95.75
453.971	112.75
454.192	110.75
454.412	93.75
454.633	104.75
454.853	97.75
455.073	76.75
455.294	69.75
455.514	80.75
455.734	86.75
455.955	97.75
456.175	79.75
456.395	92.75
456.616	74.75
456.836	84.75
457.056	87.75
457.276	74.75
457.497	80.75
457.717	77.75
457.937	81.75
458.157	87.75
458.377	78.75
458.598	103.75
458.818	158.75
459.038	152.75
459.258	112.75
459.478	86.75
459.698	85.75
459.918	97.75
460.138	74.75
460.358	79.75
460.578	83.75
460.798	98.75
461.018	89.75
461.238	76.75
461.458	80.75
461.678	97.75
461.898	79.75
462.118	97.75
462.338	82.75
462.558	90.75
462.777	75.75
462.997	96.75
463.217	93.75
463.437	73.75
463.657	90.75
463.876	89.75
464.096	88.75
464.316	106.75
464.536	91.75
464.755	90.75
464.975	106.75
465.195	183.75
465.414	166.75
465.634	90.75
465.854	92.75
466.073	103.75
466.293	89.75
466.512	86.75
466.732	88.75
466.951	82.75
467.171	82.75
467.391	106.75
467.61	119.75
467.829	107.75
468.049	133.75
468.268	184.75
468.488	109.75
468.707	86.75
468.927	82.75
469.146	93.75
469.365	90.75
469.585	92.75
469.804	92.75
470.023	91.75
470.243	92.75
470.462	93.75
470.681	95.75
470.901	96.75
471.12	86.75
471.339	88.75
471.558	91.75
471.777	98.75
471.997	113.75
472.216	239.75
472.435	345.75
472.654	138.75
472.873	105.75
473.092	83.75
473.311	91.75
473.53	95.75
473.749	92.75
473.968	93.75
474.187	99.75
474.406	86.75
474.625	80.75
474.844	94.75
475.063	92.75
475.282	76.75
475.501	85.75
475.72	82.75
475.939	83.75
476.158	87.75
476.377	87.75
476.596	81.75
476.814	94.75
477.033	88.75
477.252	98.75
477.471	84.75
477.69	100.75
477.908	102.75
478.127	88.75
478.346	86.75
478.564	88.75
478.783	98.75
479.002	107.75
479.22	89.75
479.439	97.75
479.658	113.75
479.876	90.75
480.095	82.75
480.313	96.75
480.532	95.75
480.751	114.75
480.969	203.75
481.188	625.75
481.406	412.75
481.624	102.75
481.843	86.75
482.061	70.75
482.28	75.75
482.498	86.75
482.717	101.75
482.935	94.75
483.153	82.75
483.372	88.75
483.59	80.75
483.808	79.75
484.027	65.75
484.245	88.75
484.463	84.75
484.681	88.75
484.9	98.75
485.118	93.75
485.336	97.75
485.554	103.75
485.772	111.75
485.99	103.75
486.209	104.75
486.427	108.75
486.645	121.75
486.863	107.75
487.081	115.75
487.299	98.75
487.517	108.75
487.735	100.75
487.953	94.75
488.171	90.75
488.389	108.75
488.607	99.75
488.825	79.75
489.043	95.75
489.261	92.75
489.479	78.75
489.696	82.75
489.914	81.75
490.132	81.75
490.35	101.75
490.568	105.75
490.786	91.75
491.003	79.75
491.221	89.75
491.439	89.75
491.657	106.75
491.874	97.75
492.092	93.75
492.31	101.75
492.527	94.75
492.745	89.75
492.963	105.75
493.18	81.75
493.398	80.75
493.615	94.75
493.833	84.75
494.05	75.75
494.268	84.75
494.485	97.75
494.703	86.75
494.92	85.75
495.138	82.75
495.355	69.75
495.573	94.75
495.79	82.75
496.008	86.75
496.225	100.75
496.442	73.75
496.66	97.75
496.877	84.75
497.094	90.75
497.312	98.75
497.529	92.75
497.746	93.75
497.963	104.75
498.181	85.75
498.398	96.75
498.615	117.75
498.832	103.75
499.049	82.75
499.267	102.75
499.484	92.75
499.701	92.75
499.918	107.75
500.135	93.75
500.352	103.75
500.569	98.75
500.786	94.75
501.003	88.75
501.22	83.75
501.437	87.75
501.654	90.75
501.871	110.75
502.088	88.75
502.305	82.75
502.522	78.75
502.739	88.75
502.956	94.75
503.172	102.75
503.389	101.75
503.606	98.75
503.823	90.75
504.04	101.75
504.256	96.75
504.473	92.75
504.69	78.75
504.907	94.75
505.123	87.75
505.34	80.75
505.557	85.75
505.773	76.75
505.99	93.75
506.207	98.75
506.423	103.75
506.64	104.75
506.856	93.75
507.073	89.75
507.289	76.75
507.506	93.75
507.722	107.75
507.939	117.75
508.155	92.75
508.372	92.75
508.588	86.75
508.805	93.75
509.021	95.75
509.238	90.75
509.454	94.75
509.67	100.75
509.887	107.75
510.103	122.75
510.319	239.75
510.536	790.75
510.752	2550.75
510.968	700.75
511.184	154.75
511.401	107.75
511.617	106.75
511.833	89.75
512.049	97.75
512.265	102.75
512.481	80.75
512.698	92.75
512.914	83.75
513.13	82.75
513.346	90.75
513.562	73.75
513.778	89.75
513.994	90.75
514.21	108.75
514.426	126.75
514.642	129.75
514.858	114.75
515.074	176.75
