Data from Circ_1993_H10_HRD10591_00094.txt Node
Date: Wed Jan 03 11:44:20 EST 2024
User: Yrep
Spectrometer: HR+D1059
Trigger mode: 1
Integration Time (sec): 1.000000E-1
Scans to average: 1
Electric dark correction enabled: true
Nonlinearity correction enabled: false
Boxcar width: 0
XAxis mode: Wavelengths
Number of Pixels in Spectrum: 2048
>>>>>Begin Spectral Data<<<<<
223.165	-13.62
223.4	-13.62
223.635	-13.62
223.869	-25.62
224.104	-5.62
224.338	-18.62
224.573	-20.62
224.808	-14.62
225.042	-2.62
225.277	-5.62
225.511	-4.62
225.746	7.38
225.98	6.38
226.215	7.38
226.449	16.38
226.683	25.38
226.918	16.38
227.152	32.38
227.387	38.38
227.621	20.38
227.856	46.38
228.09	58.38
228.324	51.38
228.559	69.38
228.793	168.38
229.027	444.38
229.262	508.38
229.496	577.38
229.73	763.38
229.964	747.38
230.199	524.38
230.433	460.38
230.667	465.38
230.901	459.38
231.136	451.38
231.37	443.38
231.604	467.38
231.838	450.38
232.072	469.38
232.306	470.38
232.541	478.38
232.775	467.38
233.009	457.38
233.243	488.38
233.477	474.38
233.711	483.38
233.945	500.38
234.179	500.38
234.413	518.38
234.647	531.38
234.881	489.38
235.115	534.38
235.349	574.38
235.583	559.38
235.817	575.38
236.051	610.38
236.285	630.38
236.519	624.38
236.753	700.38
236.987	870.38
237.221	1275.38
237.455	1408.38
237.689	869.38
237.922	726.38
238.156	720.38
238.39	659.38
238.624	664.38
238.858	660.38
239.091	661.38
239.325	668.38
239.559	691.38
239.793	717.38
240.027	767.38
240.26	886.38
240.494	896.38
240.728	915.38
240.961	890.38
241.195	802.38
241.429	815.38
241.662	786.38
241.896	771.38
242.13	772.38
242.363	786.38
242.597	812.38
242.83	851.38
243.064	848.38
243.298	851.38
243.531	850.38
243.765	867.38
243.998	859.38
244.232	873.38
244.465	901.38
244.699	926.38
244.932	932.38
245.166	902.38
245.399	949.38
245.633	908.38
245.866	946.38
246.099	922.38
246.333	963.38
246.566	963.38
246.8	975.38
247.033	1013.38
247.266	1076.38
247.5	1108.38
247.733	1166.38
247.966	1147.38
248.2	1135.38
248.433	1157.38
248.666	1238.38
248.899	1332.38
249.133	1448.38
249.366	1444.38
249.599	1374.38
249.832	1298.38
250.066	1371.38
250.299	1567.38
250.532	1873.38
250.765	1918.38
250.998	1872.38
251.231	1749.38
251.465	1567.38
251.698	1535.38
251.931	1439.38
252.164	1441.38
252.397	1478.38
252.63	1511.38
252.863	1542.38
253.096	1667.38
253.329	1724.38
253.562	1620.38
253.795	1570.38
254.028	1581.38
254.261	1636.38
254.494	1816.38
254.727	2107.38
254.96	2181.38
255.193	1989.38
255.426	1884.38
255.659	2040.38
255.892	2446.38
256.124	2974.38
256.357	2671.38
256.59	2158.38
256.823	1900.38
257.056	1838.38
257.289	1696.38
257.521	1705.38
257.754	1672.38
257.987	1646.38
258.22	1608.38
258.452	1628.38
258.685	1611.38
258.918	1648.38
259.151	1670.38
259.383	1717.38
259.616	1721.38
259.849	1787.38
260.081	1919.38
260.314	2066.38
260.547	1980.38
260.779	1835.38
261.012	1750.38
261.244	1704.38
261.477	1721.38
261.71	1701.38
261.942	1751.38
262.175	1774.38
262.407	1710.38
262.64	1664.38
262.872	1662.38
263.105	1671.38
263.337	1674.38
263.57	1676.38
263.802	1702.38
264.035	1642.38
264.267	1694.38
264.499	1691.38
264.732	1735.38
264.964	1711.38
265.197	1744.38
265.429	1755.38
265.661	1734.38
265.894	1730.38
266.126	1784.38
266.358	1795.38
266.591	1788.38
266.823	1835.38
267.055	1907.38
267.287	1905.38
267.52	1853.38
267.752	1932.38
267.984	1890.38
268.216	1941.38
268.448	1932.38
268.681	1979.38
268.913	2102.38
269.145	2277.38
269.377	2325.38
269.609	2239.38
269.841	2235.38
270.073	2324.38
270.306	2595.38
270.538	2758.38
270.77	2611.38
271.002	2400.38
271.234	2415.38
271.466	2560.38
271.698	2678.38
271.93	2646.38
272.162	2647.38
272.394	2576.38
272.626	2490.38
272.858	2332.38
273.09	2283.38
273.322	2308.38
273.553	2262.38
273.785	2264.38
274.017	2267.38
274.249	2291.38
274.481	2244.38
274.713	2298.38
274.945	2320.38
275.176	2324.38
275.408	2283.38
275.64	2338.38
275.872	2304.38
276.104	2380.38
276.335	2373.38
276.567	2448.38
276.799	2627.38
277.031	2865.38
277.262	2982.38
277.494	2860.38
277.726	2656.38
277.957	2594.38
278.189	2527.38
278.421	2480.38
278.652	2448.38
278.884	2422.38
279.115	2453.38
279.347	2507.38
279.579	2470.38
279.81	2502.38
280.042	2527.38
280.273	2638.38
280.505	2570.38
280.736	2550.38
280.968	2497.38
281.199	2517.38
281.431	2530.38
281.662	2499.38
281.894	2525.38
282.125	2586.38
282.356	2734.38
282.588	2877.38
282.819	2685.38
283.051	2575.38
283.282	2580.38
283.513	2618.38
283.745	2648.38
283.976	2662.38
284.207	2672.38
284.439	2631.38
284.67	2636.38
284.901	2680.38
285.132	2677.38
285.364	2658.38
285.595	2672.38
285.826	2746.38
286.057	2758.38
286.288	2723.38
286.52	2714.38
286.751	2768.38
286.982	2698.38
287.213	2772.38
287.444	2750.38
287.675	2890.38
287.906	2939.38
288.138	2984.38
288.369	2944.38
288.6	2936.38
288.831	2894.38
289.062	2917.38
289.293	2855.38
289.524	2835.38
289.755	2832.38
289.986	2836.38
290.217	2840.38
290.448	2854.38
290.679	2849.38
290.91	2851.38
291.141	2855.38
291.371	2850.38
291.602	2866.38
291.833	2823.38
292.064	2851.38
292.295	2814.38
292.526	2853.38
292.757	2866.38
292.987	2840.38
293.218	2806.38
293.449	2882.38
293.68	2884.38
293.91	2881.38
294.141	2846.38
294.372	2800.38
294.603	2846.38
294.833	2875.38
295.064	2920.38
295.295	2964.38
295.525	2927.38
295.756	2951.38
295.987	3046.38
296.217	3228.38
296.448	3173.38
296.679	3020.38
296.909	2974.38
297.14	3023.38
297.37	3040.38
297.601	3080.38
297.831	3061.38
298.062	3090.38
298.292	3085.38
298.523	3125.38
298.753	3152.38
298.984	3136.38
299.214	3100.38
299.445	3142.38
299.675	3130.38
299.905	3194.38
300.136	3151.38
300.366	3162.38
300.597	3194.38
300.827	3325.38
301.057	3318.38
301.288	3386.38
301.518	3346.38
301.748	3408.38
301.979	3454.38
302.209	3459.38
302.439	3365.38
302.669	3366.38
302.9	3312.38
303.13	3328.38
303.36	3414.38
303.59	3432.38
303.82	3434.38
304.051	3402.38
304.281	3376.38
304.511	3293.38
304.741	3362.38
304.971	3336.38
305.201	3333.38
305.431	3330.38
305.661	3315.38
305.891	3329.38
306.121	3293.38
306.352	3399.38
306.582	3304.38
306.812	3294.38
307.042	3321.38
307.272	3367.38
307.502	3424.38
307.731	3358.38
307.961	3355.38
308.191	3347.38
308.421	3327.38
308.651	3365.38
308.881	3335.38
309.111	3334.38
309.341	3429.38
309.571	3460.38
309.8	3488.38
310.03	3608.38
310.26	3621.38
310.49	3616.38
310.72	3710.38
310.949	3826.38
311.179	3722.38
311.409	3605.38
311.639	3723.38
311.868	3725.38
312.098	3776.38
312.328	3834.38
312.557	3856.38
312.787	4037.38
313.017	3904.38
313.246	3824.38
313.476	3786.38
313.706	3853.38
313.935	3889.38
314.165	3991.38
314.394	3995.38
314.624	3915.38
314.853	3940.38
315.083	3830.38
315.312	3773.38
315.542	3812.38
315.771	3718.38
316.001	3742.38
316.23	3763.38
316.46	3750.38
316.689	3812.38
316.919	3762.38
317.148	3880.38
317.377	3837.38
317.607	3813.38
317.836	3848.38
318.065	3769.38
318.295	3788.38
318.524	3754.38
318.753	3722.38
318.983	3746.38
319.212	3693.38
319.441	3814.38
319.67	3834.38
319.9	3718.38
320.129	3785.38
320.358	3728.38
320.587	3806.38
320.816	3835.38
321.046	3861.38
321.275	3870.38
321.504	3876.38
321.733	3935.38
321.962	4027.38
322.191	4044.38
322.42	4222.38
322.649	4269.38
322.878	4334.38
323.108	4375.38
323.337	4636.38
323.566	4713.38
323.795	5100.38
324.024	5589.38
324.253	7246.38
324.482	10649.38
324.71	15025.38
324.939	15624.38
325.168	12415.38
325.397	6509.38
325.626	5365.38
325.855	4982.38
326.084	4947.38
326.313	4938.38
326.542	5077.38
326.77	5737.38
326.999	7026.38
327.228	10163.38
327.457	14205.38
327.686	13529.38
327.914	7809.38
328.143	6761.38
328.372	6561.38
328.6	6016.38
328.829	5642.38
329.058	5863.38
329.287	5823.38
329.515	5726.38
329.744	5883.38
329.972	6589.38
330.201	7654.38
330.43	8257.38
330.658	7141.38
330.887	6574.38
331.115	5911.38
331.344	5490.38
331.572	5328.38
331.801	5391.38
332.03	5394.38
332.258	5296.38
332.486	5367.38
332.715	5479.38
332.943	5639.38
333.172	5899.38
333.4	6206.38
333.629	6487.38
333.857	6954.38
334.085	7710.38
334.314	8818.38
334.542	10263.38
334.771	9543.38
334.999	7060.38
335.227	6247.38
335.455	5790.38
335.684	5582.38
335.912	5447.38
336.14	5306.38
336.369	5250.38
336.597	5221.38
336.825	5231.38
337.053	5011.38
337.281	5006.38
337.51	4912.38
337.738	4889.38
337.966	4913.38
338.194	4907.38
338.422	4710.38
338.65	4679.38
338.878	4658.38
339.106	4668.38
339.334	4550.38
339.562	4574.38
339.79	4534.38
340.018	4471.38
340.246	4458.38
340.474	4550.38
340.702	4562.38
340.93	4542.38
341.158	4480.38
341.386	4475.38
341.614	4433.38
341.842	4414.38
342.07	4429.38
342.298	4365.38
342.526	4428.38
342.754	4402.38
342.981	4391.38
343.209	4463.38
343.437	4667.38
343.665	4926.38
343.893	5210.38
344.12	5197.38
344.348	4936.38
344.576	4814.38
344.804	4812.38
345.031	4669.38
345.259	4652.38
345.487	4474.38
345.714	4364.38
345.942	4339.38
346.17	4307.38
346.397	4241.38
346.625	4241.38
346.853	4224.38
347.08	4228.38
347.308	4246.38
347.535	4366.38
347.763	4341.38
347.99	4247.38
348.218	4282.38
348.445	4375.38
348.673	4316.38
348.9	4254.38
349.128	4184.38
349.355	4086.38
349.583	4134.38
349.81	4162.38
350.037	4080.38
350.265	4022.38
350.492	4140.38
350.72	4155.38
350.947	4171.38
351.174	4152.38
351.402	4282.38
351.629	4244.38
351.856	4195.38
352.083	4243.38
352.311	4330.38
352.538	4328.38
352.765	4274.38
352.992	4248.38
353.22	4199.38
353.447	4157.38
353.674	4118.38
353.901	4029.38
354.128	4055.38
354.355	4049.38
354.583	4019.38
354.81	3996.38
355.037	4016.38
355.264	3968.38
355.491	3966.38
355.718	4021.38
355.945	3998.38
356.172	4014.38
356.399	4002.38
356.626	4024.38
356.853	4071.38
357.08	4002.38
357.307	4022.38
357.534	3998.38
357.761	4049.38
357.988	4078.38
358.215	4058.38
358.441	4103.38
358.668	4109.38
358.895	4130.38
359.122	4133.38
359.349	4194.38
359.576	4342.38
359.802	4399.38
360.029	4600.38
360.256	4595.38
360.483	4436.38
360.709	4268.38
360.936	4275.38
361.163	4234.38
361.39	4239.38
361.616	4306.38
361.843	4153.38
362.07	4229.38
362.296	4268.38
362.523	4183.38
362.749	4186.38
362.976	4223.38
363.203	4218.38
363.429	4071.38
363.656	4194.38
363.882	4114.38
364.109	4075.38
364.335	4088.38
364.562	4086.38
364.788	4067.38
365.015	4130.38
365.241	4110.38
365.468	4136.38
365.694	4173.38
365.92	4146.38
366.147	4060.38
366.373	4120.38
366.599	4096.38
366.826	4018.38
367.052	3992.38
367.278	4131.38
367.505	4140.38
367.731	4134.38
367.957	4129.38
368.184	4189.38
368.41	4233.38
368.636	4296.38
368.862	4324.38
369.089	4242.38
369.315	4203.38
369.541	4176.38
369.767	4251.38
369.993	4278.38
370.219	4219.38
370.445	4235.38
370.672	4307.38
370.898	4252.38
371.124	4314.38
371.35	4330.38
371.576	4335.38
371.802	4349.38
372.028	4314.38
372.254	4337.38
372.48	4438.38
372.706	4491.38
372.932	4518.38
373.158	4456.38
373.384	4386.38
373.61	4337.38
373.835	4427.38
374.061	4402.38
374.287	4490.38
374.513	4558.38
374.739	4684.38
374.965	4761.38
375.191	4703.38
375.416	4726.38
375.642	4570.38
375.868	4517.38
376.094	4446.38
376.319	4440.38
376.545	4356.38
376.771	4416.38
376.997	4398.38
377.222	4410.38
377.448	4347.38
377.674	4381.38
377.899	4303.38
378.125	4304.38
378.35	4216.38
378.576	4302.38
378.802	4291.38
379.027	4363.38
379.253	4344.38
379.478	4289.38
379.704	4305.38
379.929	4280.38
380.155	4346.38
380.38	4282.38
380.606	4388.38
380.831	4370.38
381.057	4444.38
381.282	4346.38
381.507	4374.38
381.733	4455.38
381.958	4440.38
382.184	4520.38
382.409	4541.38
382.634	4672.38
382.86	4592.38
383.085	4674.38
383.31	4756.38
383.535	4762.38
383.761	4791.38
383.986	4896.38
384.211	4944.38
384.436	5000.38
384.662	5047.38
384.887	5206.38
385.112	5180.38
385.337	5264.38
385.562	5213.38
385.787	5326.38
386.013	5376.38
386.238	5302.38
386.463	5326.38
386.688	5294.38
386.913	5167.38
387.138	5150.38
387.363	5166.38
387.588	5108.38
387.813	5136.38
388.038	5166.38
388.263	5162.38
388.488	5270.38
388.713	5186.38
388.938	5203.38
389.163	5166.38
389.387	5147.38
389.612	5109.38
389.837	5159.38
390.062	5090.38
390.287	5107.38
390.512	5174.38
390.736	5213.38
390.961	5277.38
391.186	5301.38
391.411	5475.38
391.636	5682.38
391.86	5768.38
392.085	5847.38
392.31	5671.38
392.534	5607.38
392.759	5508.38
392.984	5475.38
393.208	5436.38
393.433	5414.38
393.658	5436.38
393.882	5403.38
394.107	5420.38
394.331	5441.38
394.556	5444.38
394.78	5587.38
395.005	5540.38
395.229	5551.38
395.454	5765.38
395.678	5836.38
395.903	5800.38
396.127	5874.38
396.352	5735.38
396.576	5571.38
396.801	5513.38
397.025	5657.38
397.249	5687.38
397.474	5790.38
397.698	5921.38
397.922	6045.38
398.147	6114.38
398.371	6225.38
398.595	6335.38
398.82	6580.38
399.044	7102.38
399.268	7818.38
399.492	8981.38
399.717	9595.38
399.941	9300.38
400.165	8672.38
400.389	7996.38
400.613	7286.38
400.837	6884.38
401.062	6720.38
401.286	6572.38
401.51	6580.38
401.734	6521.38
401.958	6623.38
402.182	6696.38
402.406	6811.38
402.63	6952.38
402.854	7011.38
403.078	7134.38
403.302	7212.38
403.526	7294.38
403.75	7476.38
403.974	7525.38
404.198	7463.38
404.422	7702.38
404.645	7682.38
404.869	7858.38
405.093	8302.38
405.317	8646.38
405.541	8538.38
405.765	7750.38
405.988	7452.38
406.212	7674.38
406.436	7685.38
406.66	7830.38
406.883	7824.38
407.107	8286.38
407.331	8846.38
407.555	9323.38
407.778	8948.38
408.002	8262.38
408.226	7942.38
408.449	7766.38
408.673	7612.38
408.896	7848.38
409.12	7968.38
409.344	7471.38
409.567	7237.38
409.791	7306.38
410.014	7124.38
410.238	7030.38
410.461	7033.38
410.685	7121.38
410.908	7171.38
411.132	7406.38
411.355	7420.38
411.578	7072.38
411.802	6977.38
412.025	7015.38
412.249	7451.38
412.472	7952.38
412.695	8307.38
412.919	7661.38
413.142	7215.38
413.365	6980.38
413.589	6820.38
413.812	6660.38
414.035	6519.38
414.258	6639.38
414.482	6600.38
414.705	6652.38
414.928	6482.38
415.151	6559.38
415.374	6566.38
415.597	6352.38
415.821	6426.38
416.044	6357.38
416.267	6420.38
416.49	6272.38
416.713	6291.38
416.936	6381.38
417.159	6411.38
417.382	6536.38
417.605	6560.38
417.828	6722.38
418.051	6717.38
418.274	6591.38
418.497	6423.38
418.72	6615.38
418.943	6559.38
419.166	7039.38
419.389	7298.38
419.611	7343.38
419.834	7218.38
420.057	7184.38
420.28	7297.38
420.503	7073.38
420.726	6985.38
420.948	6994.38
421.171	7233.38
421.394	7073.38
421.617	6734.38
421.839	6680.38
422.062	6656.38
422.285	6912.38
422.507	7444.38
422.73	7932.38
422.953	7410.38
423.175	6998.38
423.398	7020.38
423.621	6974.38
423.843	7238.38
424.066	7210.38
424.288	7056.38
424.511	7349.38
424.733	7701.38
424.956	8165.38
425.178	7662.38
425.401	7836.38
425.623	7663.38
425.846	6765.38
426.068	6623.38
426.291	6586.38
426.513	6577.38
426.735	6685.38
426.958	7079.38
427.18	7765.38
427.402	8930.38
427.625	9102.38
427.847	8258.38
428.069	7800.38
428.292	6923.38
428.514	6309.38
428.736	6064.38
428.958	6022.38
429.181	5935.38
429.403	5900.38
429.625	6090.38
429.847	6330.38
430.069	6798.38
430.292	6379.38
430.514	5837.38
430.736	5910.38
430.958	5745.38
431.18	5634.38
431.402	5728.38
431.624	5659.38
431.846	5816.38
432.068	5727.38
432.29	5831.38
432.512	5700.38
432.734	5905.38
432.956	5786.38
433.178	5887.38
433.4	5850.38
433.622	5766.38
433.844	5894.38
434.066	5765.38
434.287	5926.38
434.509	6063.38
434.731	6399.38
434.953	6492.38
435.175	6552.38
435.397	6680.38
435.618	6649.38
435.84	6918.38
436.062	7671.38
436.284	7684.38
436.505	6466.38
436.727	6198.38
436.949	6053.38
437.17	5844.38
437.392	5781.38
437.614	5970.38
437.835	6311.38
438.057	7202.38
438.278	7758.38
438.5	7749.38
438.721	8502.38
438.943	7427.38
439.165	6268.38
439.386	6172.38
439.608	6230.38
439.829	6273.38
440.05	6699.38
440.272	6933.38
440.493	6459.38
440.715	6165.38
440.936	6081.38
441.158	6146.38
441.379	6276.38
441.6	6687.38
441.822	6838.38
442.043	7204.38
442.264	7935.38
442.486	7571.38
442.707	6831.38
442.928	6721.38
443.149	6867.38
443.371	7086.38
443.592	7576.38
443.813	8504.38
444.034	8494.38
444.255	7371.38
444.476	7328.38
444.698	7494.38
444.919	7539.38
445.14	7351.38
445.361	7255.38
445.582	7382.38
445.803	7954.38
446.024	8492.38
446.245	8163.38
446.466	7276.38
446.687	6357.38
446.908	6100.38
447.129	5815.38
447.35	5652.38
447.571	5629.38
447.792	5602.38
448.013	5622.38
448.234	5858.38
448.455	6420.38
448.675	7557.38
448.896	7909.38
449.117	6623.38
449.338	6860.38
449.559	8029.38
449.779	8229.38
450	6359.38
450.221	5747.38
450.442	5470.38
450.662	5481.38
450.883	5518.38
451.104	5627.38
451.324	5488.38
451.545	5406.38
451.766	5249.38
451.986	5045.38
452.207	5118.38
452.428	5066.38
452.648	5090.38
452.869	5081.38
453.089	5215.38
453.31	5302.38
453.53	5160.38
453.751	5030.38
453.971	5109.38
454.192	5201.38
454.412	4971.38
454.633	4976.38
454.853	4940.38
455.073	4984.38
455.294	5299.38
455.514	5821.38
455.734	5382.38
455.955	4842.38
456.175	4724.38
456.395	4676.38
456.616	4657.38
456.836	4740.38
457.056	4710.38
457.276	4663.38
457.497	4806.38
457.717	4755.38
457.937	4866.38
458.157	4931.38
458.377	4991.38
458.598	5334.38
458.818	6034.38
459.038	6653.38
459.258	6574.38
459.478	5864.38
459.698	5861.38
459.918	5963.38
460.138	6110.38
460.358	6300.38
460.578	6299.38
460.798	6386.38
461.018	6339.38
461.238	6268.38
461.458	6312.38
461.678	6230.38
461.898	6362.38
462.118	6479.38
462.338	6732.38
462.558	6893.38
462.777	7204.38
462.997	7725.38
463.217	8168.38
463.437	7939.38
463.657	7468.38
463.876	7192.38
464.096	7207.38
464.316	7257.38
464.536	7203.38
464.755	6992.38
464.975	6833.38
465.195	7054.38
465.414	7007.38
465.634	6314.38
465.854	5973.38
466.073	5708.38
466.293	5558.38
466.512	5429.38
466.732	5298.38
466.951	5361.38
467.171	5291.38
467.391	5344.38
467.61	5444.38
467.829	5578.38
468.049	5755.38
468.268	6116.38
468.488	5474.38
468.707	5307.38
468.927	5219.38
469.146	5151.38
469.365	5217.38
469.585	5181.38
469.804	5366.38
470.023	5514.38
470.243	5555.38
470.462	5626.38
470.681	5738.38
470.901	5682.38
471.12	5515.38
471.339	5464.38
471.558	5413.38
471.777	5445.38
471.997	5527.38
472.216	6373.38
472.435	7874.38
472.654	6551.38
472.873	5720.38
473.092	5475.38
473.311	5342.38
473.53	5347.38
473.749	5395.38
473.968	5866.38
474.187	6782.38
474.406	6291.38
474.625	5519.38
474.844	5241.38
475.063	5150.38
475.282	5199.38
475.501	5290.38
475.72	5215.38
475.939	5288.38
476.158	5326.38
476.377	5399.38
476.596	5296.38
476.814	5438.38
477.033	5522.38
477.252	5579.38
477.471	5700.38
477.69	5812.38
477.908	5939.38
478.127	5999.38
478.346	6138.38
478.564	6252.38
478.783	6316.38
479.002	6434.38
479.22	6433.38
479.439	6539.38
479.658	6637.38
479.876	6672.38
480.095	7020.38
480.313	7358.38
480.532	7451.38
480.751	7413.38
480.969	8272.38
481.188	11322.38
481.406	11114.38
481.624	8446.38
481.843	7469.38
482.061	7003.38
482.28	6724.38
482.498	6486.38
482.717	6375.38
482.935	6376.38
483.153	6279.38
483.372	6212.38
483.59	6211.38
483.808	6236.38
484.027	6176.38
484.245	6232.38
484.463	6236.38
484.681	6398.38
484.9	6330.38
485.118	6356.38
485.336	6516.38
485.554	6445.38
485.772	6514.38
485.99	6497.38
486.209	6636.38
486.427	6628.38
486.645	6579.38
486.863	6764.38
487.081	6620.38
487.299	6592.38
487.517	6592.38
487.735	6597.38
487.953	6491.38
