Data from Circ_1993_H10_HRD10591_00024.txt Node
Date: Wed Jan 03 11:44:06 EST 2024
User: Yrep
Spectrometer: HR+D1059
Trigger mode: 1
Integration Time (sec): 1.000000E-1
Scans to average: 1
Electric dark correction enabled: true
Nonlinearity correction enabled: false
Boxcar width: 0
XAxis mode: Wavelengths
Number of Pixels in Spectrum: 2048
>>>>>Begin Spectral Data<<<<<
223.165	-9.81
223.4	-9.81
223.635	-9.81
223.869	-3.81
224.104	-28.81
224.338	-18.81
224.573	-13.81
224.808	-13.81
225.042	-19.81
225.277	-1.81
225.511	4.19
225.746	-0.81
225.98	6.19
226.215	12.19
226.449	4.19
226.683	22.19
226.918	31.19
227.152	31.19
227.387	40.19
227.621	37.19
227.856	51.19
228.09	56.19
228.324	51.19
228.559	46.19
228.793	66.19
229.027	53.19
229.262	81.19
229.496	80.19
229.73	76.19
229.964	85.19
230.199	73.19
230.433	80.19
230.667	87.19
230.901	80.19
231.136	78.19
231.37	80.19
231.604	82.19
231.838	81.19
232.072	74.19
232.306	80.19
232.541	85.19
232.775	70.19
233.009	85.19
233.243	85.19
233.477	81.19
233.711	85.19
233.945	72.19
234.179	66.19
234.413	70.19
234.647	73.19
234.881	71.19
235.115	82.19
235.349	93.19
235.583	80.19
235.817	73.19
236.051	83.19
236.285	79.19
236.519	84.19
236.753	88.19
236.987	87.19
237.221	95.19
237.455	91.19
237.689	91.19
237.922	69.19
238.156	75.19
238.39	67.19
238.624	80.19
238.858	79.19
239.091	75.19
239.325	78.19
239.559	85.19
239.793	69.19
240.027	83.19
240.26	72.19
240.494	68.19
240.728	83.19
240.961	77.19
241.195	93.19
241.429	75.19
241.662	91.19
241.896	79.19
242.13	80.19
242.363	69.19
242.597	75.19
242.83	61.19
243.064	72.19
243.298	58.19
243.531	83.19
243.765	80.19
243.998	81.19
244.232	88.19
244.465	74.19
244.699	87.19
244.932	65.19
245.166	67.19
245.399	75.19
245.633	77.19
245.866	84.19
246.099	98.19
246.333	85.19
246.566	69.19
246.8	88.19
247.033	77.19
247.266	59.19
247.5	69.19
247.733	88.19
247.966	87.19
248.2	87.19
248.433	72.19
248.666	91.19
248.899	83.19
249.133	89.19
249.366	96.19
249.599	91.19
249.832	83.19
250.066	70.19
250.299	81.19
250.532	86.19
250.765	72.19
250.998	80.19
251.231	91.19
251.465	91.19
251.698	81.19
251.931	75.19
252.164	81.19
252.397	89.19
252.63	63.19
252.863	105.19
253.096	81.19
253.329	85.19
253.562	78.19
253.795	87.19
254.028	80.19
254.261	88.19
254.494	77.19
254.727	85.19
254.96	89.19
255.193	73.19
255.426	80.19
255.659	76.19
255.892	96.19
256.124	82.19
256.357	89.19
256.59	102.19
256.823	85.19
257.056	73.19
257.289	72.19
257.521	94.19
257.754	85.19
257.987	96.19
258.22	77.19
258.452	93.19
258.685	102.19
258.918	95.19
259.151	78.19
259.383	95.19
259.616	88.19
259.849	91.19
260.081	98.19
260.314	99.19
260.547	90.19
260.779	85.19
261.012	93.19
261.244	88.19
261.477	99.19
261.71	87.19
261.942	125.19
262.175	121.19
262.407	83.19
262.64	81.19
262.872	91.19
263.105	82.19
263.337	81.19
263.57	90.19
263.802	94.19
264.035	72.19
264.267	85.19
264.499	99.19
264.732	86.19
264.964	88.19
265.197	81.19
265.429	83.19
265.661	76.19
265.894	76.19
266.126	91.19
266.358	81.19
266.591	89.19
266.823	84.19
267.055	87.19
267.287	78.19
267.52	89.19
267.752	81.19
267.984	94.19
268.216	79.19
268.448	77.19
268.681	88.19
268.913	87.19
269.145	79.19
269.377	81.19
269.609	87.19
269.841	83.19
270.073	89.19
270.306	96.19
270.538	71.19
270.77	86.19
271.002	95.19
271.234	95.19
271.466	105.19
271.698	93.19
271.93	82.19
272.162	98.19
272.394	96.19
272.626	83.19
272.858	75.19
273.09	96.19
273.322	86.19
273.553	75.19
273.785	87.19
274.017	79.19
274.249	95.19
274.481	85.19
274.713	93.19
274.945	103.19
275.176	86.19
275.408	80.19
275.64	90.19
275.872	81.19
276.104	90.19
276.335	88.19
276.567	95.19
276.799	111.19
277.031	83.19
277.262	94.19
277.494	99.19
277.726	93.19
277.957	77.19
278.189	81.19
278.421	88.19
278.652	87.19
278.884	95.19
279.115	87.19
279.347	75.19
279.579	75.19
279.81	90.19
280.042	87.19
280.273	93.19
280.505	99.19
280.736	75.19
280.968	92.19
281.199	88.19
281.431	72.19
281.662	83.19
281.894	85.19
282.125	117.19
282.356	128.19
282.588	128.19
282.819	123.19
283.051	90.19
283.282	94.19
283.513	94.19
283.745	87.19
283.976	85.19
284.207	80.19
284.439	93.19
284.67	91.19
284.901	97.19
285.132	94.19
285.364	87.19
285.595	102.19
285.826	86.19
286.057	99.19
286.288	88.19
286.52	96.19
286.751	83.19
286.982	96.19
287.213	83.19
287.444	89.19
287.675	99.19
287.906	97.19
288.138	83.19
288.369	99.19
288.6	92.19
288.831	84.19
289.062	91.19
289.293	100.19
289.524	82.19
289.755	83.19
289.986	93.19
290.217	89.19
290.448	90.19
290.679	101.19
290.91	80.19
291.141	99.19
291.371	92.19
291.602	99.19
291.833	94.19
292.064	85.19
292.295	87.19
292.526	91.19
292.757	88.19
292.987	103.19
293.218	83.19
293.449	81.19
293.68	87.19
293.91	87.19
294.141	103.19
294.372	92.19
294.603	90.19
294.833	96.19
295.064	108.19
295.295	91.19
295.525	91.19
295.756	101.19
295.987	97.19
296.217	136.19
296.448	140.19
296.679	89.19
296.909	85.19
297.14	77.19
297.37	101.19
297.601	100.19
297.831	84.19
298.062	91.19
298.292	93.19
298.523	102.19
298.753	93.19
298.984	77.19
299.214	93.19
299.445	100.19
299.675	94.19
299.905	86.19
300.136	87.19
300.366	99.19
300.597	105.19
300.827	93.19
301.057	94.19
301.288	108.19
301.518	108.19
301.748	95.19
301.979	105.19
302.209	93.19
302.439	85.19
302.669	89.19
302.9	89.19
303.13	94.19
303.36	91.19
303.59	79.19
303.82	99.19
304.051	109.19
304.281	98.19
304.511	95.19
304.741	95.19
304.971	86.19
305.201	93.19
305.431	100.19
305.661	97.19
305.891	96.19
306.121	87.19
306.352	102.19
306.582	98.19
306.812	82.19
307.042	94.19
307.272	89.19
307.502	102.19
307.731	99.19
307.961	106.19
308.191	77.19
308.421	109.19
308.651	105.19
308.881	84.19
309.111	103.19
309.341	95.19
309.571	101.19
309.8	100.19
310.03	109.19
310.26	103.19
310.49	96.19
310.72	107.19
310.949	123.19
311.179	109.19
311.409	105.19
311.639	99.19
311.868	90.19
312.098	101.19
312.328	88.19
312.557	111.19
312.787	89.19
313.017	102.19
313.246	83.19
313.476	70.19
313.706	103.19
313.935	100.19
314.165	99.19
314.394	94.19
314.624	94.19
314.853	102.19
315.083	100.19
315.312	89.19
315.542	112.19
315.771	84.19
316.001	92.19
316.23	96.19
316.46	76.19
316.689	83.19
316.919	97.19
317.148	108.19
317.377	103.19
317.607	92.19
317.836	87.19
318.065	85.19
318.295	98.19
318.524	105.19
318.753	89.19
318.983	101.19
319.212	99.19
319.441	128.19
319.67	105.19
319.9	97.19
320.129	98.19
320.358	96.19
320.587	97.19
320.816	103.19
321.046	105.19
321.275	116.19
321.504	96.19
321.733	106.19
321.962	98.19
322.191	102.19
322.42	113.19
322.649	111.19
322.878	101.19
323.108	120.19
323.337	135.19
323.566	124.19
323.795	165.19
324.024	198.19
324.253	393.19
324.482	792.19
324.71	1669.19
324.939	2191.19
325.168	793.19
325.397	257.19
325.626	144.19
325.855	121.19
326.084	111.19
326.313	122.19
326.542	155.19
326.77	232.19
326.999	448.19
327.228	914.19
327.457	1663.19
327.686	1331.19
327.914	371.19
328.143	203.19
328.372	154.19
328.6	123.19
328.829	128.19
329.058	129.19
329.287	142.19
329.515	113.19
329.744	112.19
329.972	109.19
330.201	123.19
330.43	127.19
330.658	118.19
330.887	147.19
331.115	125.19
331.344	93.19
331.572	95.19
331.801	100.19
332.03	104.19
332.258	97.19
332.486	108.19
332.715	108.19
332.943	100.19
333.172	95.19
333.4	119.19
333.629	103.19
333.857	117.19
334.085	117.19
334.314	122.19
334.542	147.19
334.771	143.19
334.999	110.19
335.227	100.19
335.455	105.19
335.684	99.19
335.912	95.19
336.14	88.19
336.369	111.19
336.597	108.19
336.825	105.19
337.053	96.19
337.281	98.19
337.51	101.19
337.738	91.19
337.966	97.19
338.194	111.19
338.422	89.19
338.65	85.19
338.878	92.19
339.106	96.19
339.334	115.19
339.562	88.19
339.79	85.19
340.018	92.19
340.246	89.19
340.474	105.19
340.702	80.19
340.93	89.19
341.158	95.19
341.386	86.19
341.614	103.19
341.842	96.19
342.07	90.19
342.298	80.19
342.526	100.19
342.754	95.19
342.981	104.19
343.209	99.19
343.437	103.19
343.665	85.19
343.893	91.19
344.12	93.19
344.348	87.19
344.576	89.19
344.804	67.19
345.031	88.19
345.259	103.19
345.487	100.19
345.714	93.19
345.942	104.19
346.17	94.19
346.397	100.19
346.625	79.19
346.853	89.19
347.08	89.19
347.308	105.19
347.535	92.19
347.763	100.19
347.99	105.19
348.218	104.19
348.445	97.19
348.673	101.19
348.9	103.19
349.128	100.19
349.355	107.19
349.583	90.19
349.81	88.19
350.037	101.19
350.265	86.19
350.492	74.19
350.72	88.19
350.947	95.19
351.174	112.19
351.402	112.19
351.629	110.19
351.856	117.19
352.083	98.19
352.311	95.19
352.538	111.19
352.765	111.19
352.992	115.19
353.22	120.19
353.447	105.19
353.674	91.19
353.901	100.19
354.128	96.19
354.355	79.19
354.583	101.19
354.81	106.19
355.037	94.19
355.264	96.19
355.491	107.19
355.718	87.19
355.945	100.19
356.172	95.19
356.399	84.19
356.626	106.19
356.853	88.19
357.08	99.19
357.307	91.19
357.534	94.19
357.761	98.19
357.988	106.19
358.215	88.19
358.441	102.19
358.668	104.19
358.895	98.19
359.122	108.19
359.349	104.19
359.576	109.19
359.802	101.19
360.029	112.19
360.256	118.19
360.483	107.19
360.709	95.19
360.936	93.19
361.163	92.19
361.39	94.19
361.616	94.19
361.843	81.19
362.07	103.19
362.296	97.19
362.523	89.19
362.749	93.19
362.976	93.19
363.203	98.19
363.429	88.19
363.656	96.19
363.882	89.19
364.109	104.19
364.335	91.19
364.562	96.19
364.788	92.19
365.015	95.19
365.241	107.19
365.468	105.19
365.694	93.19
365.92	77.19
366.147	97.19
366.373	86.19
366.599	73.19
366.826	81.19
367.052	104.19
367.278	94.19
367.505	87.19
367.731	97.19
367.957	94.19
368.184	102.19
368.41	109.19
368.636	97.19
368.862	115.19
369.089	115.19
369.315	98.19
369.541	96.19
369.767	96.19
369.993	81.19
370.219	89.19
370.445	80.19
370.672	84.19
370.898	100.19
371.124	97.19
371.35	97.19
371.576	93.19
371.802	88.19
372.028	92.19
372.254	92.19
372.48	99.19
372.706	88.19
372.932	85.19
373.158	101.19
373.384	90.19
373.61	80.19
373.835	84.19
374.061	98.19
374.287	100.19
374.513	104.19
374.739	90.19
374.965	99.19
375.191	95.19
375.416	79.19
375.642	83.19
375.868	89.19
376.094	87.19
376.319	80.19
376.545	78.19
376.771	94.19
376.997	84.19
377.222	103.19
377.448	104.19
377.674	91.19
377.899	93.19
378.125	96.19
378.35	87.19
378.576	90.19
378.802	100.19
379.027	94.19
379.253	95.19
379.478	100.19
379.704	91.19
379.929	99.19
380.155	102.19
380.38	102.19
380.606	95.19
380.831	105.19
381.057	102.19
381.282	111.19
381.507	101.19
381.733	108.19
381.958	117.19
382.184	113.19
382.409	99.19
382.634	111.19
382.86	108.19
383.085	109.19
383.31	97.19
383.535	104.19
383.761	103.19
383.986	108.19
384.211	104.19
384.436	121.19
384.662	124.19
384.887	110.19
385.112	113.19
385.337	121.19
385.562	115.19
385.787	128.19
386.013	126.19
386.238	134.19
386.463	113.19
386.688	128.19
386.913	120.19
387.138	134.19
387.363	117.19
387.588	113.19
387.813	106.19
388.038	123.19
388.263	131.19
388.488	127.19
388.713	99.19
388.938	99.19
389.163	93.19
389.387	98.19
389.612	98.19
389.837	95.19
390.062	96.19
390.287	99.19
390.512	97.19
390.736	88.19
390.961	98.19
391.186	90.19
391.411	98.19
391.636	96.19
391.86	85.19
392.085	81.19
392.31	91.19
392.534	81.19
392.759	92.19
392.984	91.19
393.208	128.19
393.433	162.19
393.658	123.19
393.882	102.19
394.107	99.19
394.331	88.19
394.556	95.19
394.78	90.19
395.005	93.19
395.229	102.19
395.454	82.19
395.678	81.19
395.903	99.19
396.127	88.19
396.352	96.19
396.576	104.19
396.801	134.19
397.025	131.19
397.249	86.19
397.474	85.19
397.698	88.19
397.922	86.19
398.147	89.19
398.371	92.19
398.595	101.19
398.82	92.19
399.044	83.19
399.268	93.19
399.492	77.19
399.717	78.19
399.941	103.19
400.165	90.19
400.389	92.19
400.613	97.19
400.837	89.19
401.062	93.19
401.286	94.19
401.51	93.19
401.734	87.19
401.958	82.19
402.182	126.19
402.406	162.19
402.63	115.19
402.854	80.19
403.078	64.19
403.302	95.19
403.526	81.19
403.75	99.19
403.974	91.19
404.198	80.19
404.422	96.19
404.645	91.19
404.869	95.19
405.093	95.19
405.317	87.19
405.541	96.19
405.765	100.19
405.988	123.19
406.212	183.19
406.436	223.19
406.66	161.19
406.883	109.19
407.107	91.19
407.331	96.19
407.555	100.19
407.778	80.19
408.002	84.19
408.226	95.19
408.449	88.19
408.673	99.19
408.896	82.19
409.12	85.19
409.344	97.19
409.567	86.19
409.791	90.19
410.014	107.19
410.238	109.19
410.461	90.19
410.685	96.19
410.908	96.19
411.132	105.19
411.355	117.19
411.578	92.19
411.802	88.19
412.025	88.19
412.249	86.19
412.472	100.19
412.695	95.19
412.919	105.19
413.142	87.19
413.365	76.19
413.589	97.19
413.812	90.19
414.035	92.19
414.258	94.19
414.482	107.19
414.705	104.19
414.928	93.19
415.151	78.19
415.374	98.19
415.597	104.19
415.821	86.19
416.044	82.19
416.267	92.19
416.49	101.19
416.713	104.19
416.936	93.19
417.159	85.19
417.382	84.19
417.605	88.19
417.828	96.19
418.051	98.19
418.274	108.19
418.497	80.19
418.72	85.19
418.943	78.19
419.166	101.19
419.389	103.19
419.611	83.19
419.834	87.19
420.057	85.19
420.28	96.19
420.503	89.19
420.726	90.19
420.948	91.19
421.171	85.19
421.394	102.19
421.617	90.19
421.839	104.19
422.062	97.19
422.285	91.19
422.507	116.19
422.73	125.19
422.953	99.19
423.175	94.19
423.398	85.19
423.621	95.19
423.843	85.19
424.066	88.19
424.288	100.19
424.511	85.19
424.733	92.19
424.956	99.19
425.178	102.19
425.401	119.19
425.623	128.19
425.846	100.19
426.068	96.19
426.291	96.19
426.513	83.19
426.735	81.19
426.958	87.19
427.18	108.19
427.402	141.19
427.625	161.19
427.847	139.19
428.069	124.19
428.292	96.19
428.514	97.19
428.736	82.19
428.958	82.19
429.181	86.19
429.403	86.19
429.625	77.19
429.847	102.19
430.069	103.19
430.292	98.19
430.514	98.19
430.736	93.19
430.958	82.19
431.18	89.19
431.402	88.19
431.624	87.19
431.846	90.19
432.068	91.19
432.29	85.19
432.512	90.19
432.734	96.19
432.956	97.19
433.178	94.19
433.4	106.19
433.622	91.19
433.844	85.19
434.066	109.19
434.287	81.19
434.509	95.19
434.731	95.19
434.953	81.19
435.175	78.19
435.397	94.19
435.618	94.19
435.84	111.19
436.062	119.19
436.284	108.19
436.505	95.19
436.727	110.19
436.949	94.19
437.17	90.19
437.392	94.19
437.614	93.19
437.835	109.19
438.057	114.19
438.278	84.19
438.5	96.19
438.721	133.19
438.943	98.19
439.165	92.19
439.386	101.19
439.608	94.19
439.829	95.19
440.05	123.19
440.272	149.19
440.493	109.19
440.715	101.19
440.936	88.19
441.158	92.19
441.379	81.19
441.6	96.19
441.822	99.19
442.043	97.19
442.264	109.19
442.486	103.19
442.707	92.19
442.928	109.19
443.149	127.19
443.371	135.19
443.592	107.19
443.813	130.19
444.034	112.19
444.255	103.19
444.476	89.19
444.698	81.19
444.919	84.19
445.14	140.19
445.361	139.19
445.582	126.19
445.803	149.19
446.024	143.19
446.245	136.19
446.466	115.19
446.687	106.19
446.908	91.19
447.129	89.19
447.35	91.19
447.571	91.19
447.792	84.19
448.013	95.19
448.234	95.19
448.455	95.19
448.675	116.19
448.896	126.19
449.117	96.19
449.338	108.19
449.559	124.19
449.779	113.19
450	103.19
450.221	87.19
450.442	81.19
450.662	107.19
450.883	105.19
451.104	100.19
451.324	105.19
451.545	88.19
451.766	80.19
451.986	85.19
452.207	81.19
452.428	83.19
452.648	106.19
452.869	109.19
453.089	110.19
453.31	116.19
453.53	109.19
453.751	88.19
453.971	88.19
454.192	110.19
454.412	101.19
454.633	96.19
454.853	93.19
455.073	85.19
455.294	99.19
455.514	100.19
455.734	85.19
455.955	93.19
456.175	82.19
456.395	64.19
456.616	99.19
456.836	95.19
457.056	91.19
457.276	88.19
457.497	89.19
457.717	96.19
457.937	101.19
458.157	84.19
458.377	100.19
458.598	100.19
458.818	155.19
459.038	167.19
459.258	123.19
459.478	88.19
459.698	73.19
459.918	104.19
460.138	84.19
460.358	85.19
460.578	102.19
460.798	106.19
461.018	89.19
461.238	85.19
461.458	86.19
461.678	86.19
461.898	87.19
462.118	96.19
462.338	88.19
462.558	93.19
462.777	88.19
462.997	88.19
463.217	89.19
463.437	86.19
463.657	94.19
463.876	77.19
464.096	94.19
464.316	110.19
464.536	99.19
464.755	91.19
464.975	119.19
465.195	176.19
465.414	161.19
465.634	93.19
465.854	97.19
466.073	89.19
466.293	91.19
466.512	80.19
466.732	97.19
466.951	98.19
467.171	92.19
467.391	104.19
467.61	98.19
467.829	101.19
468.049	108.19
468.268	114.19
468.488	89.19
468.707	94.19
468.927	104.19
469.146	89.19
469.365	89.19
469.585	84.19
469.804	95.19
470.023	96.19
470.243	94.19
470.462	88.19
470.681	112.19
470.901	98.19
471.12	91.19
471.339	95.19
471.558	95.19
471.777	91.19
471.997	88.19
472.216	122.19
472.435	173.19
472.654	113.19
472.873	92.19
473.092	84.19
473.311	93.19
473.53	85.19
473.749	89.19
473.968	100.19
474.187	98.19
474.406	93.19
474.625	86.19
474.844	92.19
475.063	84.19
475.282	96.19
475.501	89.19
475.72	95.19
475.939	93.19
476.158	79.19
476.377	85.19
476.596	88.19
476.814	81.19
477.033	90.19
477.252	96.19
477.471	91.19
477.69	95.19
477.908	97.19
478.127	97.19
478.346	99.19
478.564	99.19
478.783	97.19
479.002	86.19
479.22	82.19
479.439	88.19
479.658	92.19
479.876	95.19
480.095	101.19
480.313	110.19
480.532	98.19
480.751	86.19
480.969	125.19
481.188	241.19
481.406	159.19
481.624	104.19
481.843	92.19
482.061	85.19
482.28	103.19
482.498	81.19
482.717	99.19
482.935	97.19
483.153	100.19
483.372	99.19
483.59	88.19
483.808	93.19
484.027	92.19
484.245	91.19
484.463	97.19
484.681	95.19
484.9	94.19
485.118	93.19
485.336	85.19
485.554	92.19
485.772	123.19
485.99	114.19
486.209	115.19
486.427	111.19
486.645	102.19
486.863	110.19
487.081	104.19
487.299	115.19
487.517	108.19
487.735	75.19
487.953	88.19
488.171	102.19
488.389	100.19
488.607	98.19
488.825	97.19
489.043	96.19
489.261	106.19
489.479	100.19
489.696	91.19
489.914	104.19
490.132	86.19
490.35	97.19
490.568	99.19
490.786	85.19
491.003	86.19
491.221	83.19
491.439	89.19
491.657	90.19
491.874	86.19
492.092	81.19
492.31	83.19
492.527	81.19
492.745	92.19
492.963	109.19
493.18	81.19
493.398	94.19
493.615	93.19
493.833	97.19
494.05	104.19
494.268	80.19
494.485	92.19
494.703	89.19
494.92	91.19
495.138	88.19
495.355	94.19
495.573	81.19
495.79	105.19
496.008	101.19
496.225	85.19
496.442	100.19
496.66	94.19
496.877	98.19
497.094	91.19
497.312	95.19
497.529	101.19
497.746	101.19
497.963	99.19
498.181	96.19
498.398	94.19
498.615	109.19
498.832	99.19
499.049	97.19
499.267	109.19
499.484	95.19
499.701	86.19
499.918	87.19
500.135	87.19
500.352	91.19
500.569	101.19
500.786	98.19
501.003	99.19
501.22	94.19
501.437	110.19
501.654	98.19
501.871	107.19
502.088	114.19
502.305	90.19
502.522	94.19
502.739	83.19
502.956	84.19
503.172	92.19
503.389	96.19
503.606	110.19
503.823	95.19
504.04	97.19
504.256	95.19
504.473	95.19
504.69	97.19
504.907	89.19
505.123	97.19
505.34	87.19
505.557	107.19
505.773	91.19
505.99	101.19
506.207	86.19
506.423	94.19
506.64	87.19
506.856	95.19
507.073	102.19
507.289	93.19
507.506	89.19
507.722	118.19
507.939	112.19
508.155	92.19
508.372	91.19
508.588	108.19
508.805	91.19
509.021	87.19
509.238	102.19
509.454	89.19
509.67	100.19
509.887	118.19
510.103	136.19
510.319	211.19
510.536	767.19
510.752	2387.19
510.968	648.19
511.184	160.19
511.401	110.19
511.617	95.19
511.833	80.19
512.049	90.19
512.265	110.19
512.481	93.19
512.698	91.19
512.914	93.19
513.13	94.19
513.346	86.19
513.562	93.19
513.778	95.19
513.994	92.19
514.21	101.19
514.426	124.19
