Data from Circ_1993_H10_HRD10591_00028.txt Node
Date: Wed Jan 03 11:44:07 EST 2024
User: Yrep
Spectrometer: HR+D1059
Trigger mode: 1
Integration Time (sec): 1.000000E-1
Scans to average: 1
Electric dark correction enabled: true
Nonlinearity correction enabled: false
Boxcar width: 0
XAxis mode: Wavelengths
Number of Pixels in Spectrum: 2048
>>>>>Begin Spectral Data<<<<<
223.165	-24.88
223.4	-24.88
223.635	-24.88
223.869	-12.88
224.104	-18.88
224.338	-24.88
224.573	-24.88
224.808	-14.88
225.042	-2.88
225.277	-2.88
225.511	-23.88
225.746	6.12
225.98	14.12
226.215	17.12
226.449	32.12
226.683	26.12
226.918	24.12
227.152	31.12
227.387	48.12
227.621	53.12
227.856	64.12
228.09	51.12
228.324	51.12
228.559	67.12
228.793	62.12
229.027	74.12
229.262	64.12
229.496	83.12
229.73	87.12
229.964	86.12
230.199	79.12
230.433	98.12
230.667	73.12
230.901	77.12
231.136	81.12
231.37	81.12
231.604	83.12
231.838	91.12
232.072	97.12
232.306	79.12
232.541	85.12
232.775	87.12
233.009	89.12
233.243	91.12
233.477	70.12
233.711	84.12
233.945	88.12
234.179	91.12
234.413	85.12
234.647	93.12
234.881	86.12
235.115	78.12
235.349	80.12
235.583	78.12
235.817	84.12
236.051	77.12
236.285	77.12
236.519	72.12
236.753	78.12
236.987	79.12
237.221	85.12
237.455	86.12
237.689	75.12
237.922	83.12
238.156	77.12
238.39	93.12
238.624	75.12
238.858	78.12
239.091	100.12
239.325	74.12
239.559	99.12
239.793	82.12
240.027	87.12
240.26	78.12
240.494	75.12
240.728	87.12
240.961	73.12
241.195	69.12
241.429	85.12
241.662	81.12
241.896	85.12
242.13	82.12
242.363	63.12
242.597	88.12
242.83	88.12
243.064	57.12
243.298	71.12
243.531	73.12
243.765	87.12
243.998	86.12
244.232	96.12
244.465	74.12
244.699	70.12
244.932	70.12
245.166	70.12
245.399	84.12
245.633	91.12
245.866	88.12
246.099	77.12
246.333	80.12
246.566	72.12
246.8	83.12
247.033	94.12
247.266	74.12
247.5	81.12
247.733	91.12
247.966	80.12
248.2	61.12
248.433	67.12
248.666	84.12
248.899	87.12
249.133	80.12
249.366	96.12
249.599	94.12
249.832	89.12
250.066	79.12
250.299	90.12
250.532	83.12
250.765	81.12
250.998	87.12
251.231	86.12
251.465	82.12
251.698	94.12
251.931	86.12
252.164	84.12
252.397	87.12
252.63	99.12
252.863	80.12
253.096	97.12
253.329	93.12
253.562	75.12
253.795	91.12
254.028	84.12
254.261	94.12
254.494	74.12
254.727	87.12
254.96	92.12
255.193	90.12
255.426	83.12
255.659	82.12
255.892	87.12
256.124	79.12
256.357	109.12
256.59	73.12
256.823	89.12
257.056	94.12
257.289	87.12
257.521	99.12
257.754	79.12
257.987	74.12
258.22	84.12
258.452	93.12
258.685	86.12
258.918	89.12
259.151	94.12
259.383	100.12
259.616	82.12
259.849	82.12
260.081	87.12
260.314	82.12
260.547	85.12
260.779	94.12
261.012	82.12
261.244	91.12
261.477	91.12
261.71	107.12
261.942	117.12
262.175	99.12
262.407	98.12
262.64	93.12
262.872	89.12
263.105	70.12
263.337	87.12
263.57	85.12
263.802	89.12
264.035	94.12
264.267	88.12
264.499	95.12
264.732	88.12
264.964	90.12
265.197	89.12
265.429	90.12
265.661	97.12
265.894	78.12
266.126	87.12
266.358	84.12
266.591	94.12
266.823	94.12
267.055	76.12
267.287	85.12
267.52	81.12
267.752	105.12
267.984	87.12
268.216	79.12
268.448	93.12
268.681	109.12
268.913	96.12
269.145	78.12
269.377	93.12
269.609	93.12
269.841	90.12
270.073	80.12
270.306	96.12
270.538	92.12
270.77	89.12
271.002	91.12
271.234	78.12
271.466	90.12
271.698	89.12
271.93	90.12
272.162	97.12
272.394	97.12
272.626	82.12
272.858	87.12
273.09	102.12
273.322	93.12
273.553	80.12
273.785	100.12
274.017	98.12
274.249	90.12
274.481	80.12
274.713	89.12
274.945	93.12
275.176	99.12
275.408	89.12
275.64	83.12
275.872	95.12
276.104	86.12
276.335	74.12
276.567	101.12
276.799	105.12
277.031	97.12
277.262	94.12
277.494	81.12
277.726	105.12
277.957	100.12
278.189	91.12
278.421	88.12
278.652	88.12
278.884	93.12
279.115	90.12
279.347	90.12
279.579	80.12
279.81	101.12
280.042	97.12
280.273	89.12
280.505	81.12
280.736	90.12
280.968	80.12
281.199	88.12
281.431	88.12
281.662	96.12
281.894	102.12
282.125	100.12
282.356	105.12
282.588	137.12
282.819	117.12
283.051	86.12
283.282	92.12
283.513	93.12
283.745	94.12
283.976	93.12
284.207	84.12
284.439	84.12
284.67	88.12
284.901	93.12
285.132	81.12
285.364	83.12
285.595	93.12
285.826	84.12
286.057	86.12
286.288	90.12
286.52	94.12
286.751	95.12
286.982	103.12
287.213	97.12
287.444	90.12
287.675	74.12
287.906	93.12
288.138	95.12
288.369	106.12
288.6	99.12
288.831	91.12
289.062	86.12
289.293	81.12
289.524	94.12
289.755	85.12
289.986	82.12
290.217	91.12
290.448	88.12
290.679	82.12
290.91	94.12
291.141	78.12
291.371	84.12
291.602	86.12
291.833	90.12
292.064	99.12
292.295	109.12
292.526	96.12
292.757	104.12
292.987	94.12
293.218	82.12
293.449	84.12
293.68	80.12
293.91	107.12
294.141	87.12
294.372	91.12
294.603	96.12
294.833	76.12
295.064	103.12
295.295	99.12
295.525	85.12
295.756	110.12
295.987	112.12
296.217	129.12
296.448	115.12
296.679	96.12
296.909	93.12
297.14	80.12
297.37	77.12
297.601	98.12
297.831	103.12
298.062	97.12
298.292	79.12
298.523	96.12
298.753	93.12
298.984	90.12
299.214	87.12
299.445	106.12
299.675	91.12
299.905	94.12
300.136	97.12
300.366	89.12
300.597	113.12
300.827	97.12
301.057	101.12
301.288	104.12
301.518	103.12
301.748	83.12
301.979	108.12
302.209	85.12
302.439	98.12
302.669	88.12
302.9	91.12
303.13	93.12
303.36	87.12
303.59	111.12
303.82	113.12
304.051	104.12
304.281	96.12
304.511	102.12
304.741	98.12
304.971	90.12
305.201	101.12
305.431	92.12
305.661	95.12
305.891	90.12
306.121	97.12
306.352	102.12
306.582	120.12
306.812	85.12
307.042	105.12
307.272	101.12
307.502	99.12
307.731	96.12
307.961	95.12
308.191	90.12
308.421	95.12
308.651	104.12
308.881	101.12
309.111	97.12
309.341	86.12
309.571	92.12
309.8	112.12
310.03	104.12
310.26	95.12
310.49	87.12
310.72	107.12
310.949	105.12
311.179	97.12
311.409	95.12
311.639	90.12
311.868	92.12
312.098	96.12
312.328	92.12
312.557	108.12
312.787	110.12
313.017	94.12
313.246	99.12
313.476	97.12
313.706	88.12
313.935	98.12
314.165	97.12
314.394	112.12
314.624	101.12
314.853	98.12
315.083	116.12
315.312	97.12
315.542	101.12
315.771	83.12
316.001	82.12
316.23	99.12
316.46	104.12
316.689	90.12
316.919	101.12
317.148	104.12
317.377	78.12
317.607	107.12
317.836	83.12
318.065	91.12
318.295	92.12
318.524	90.12
318.753	86.12
318.983	109.12
319.212	100.12
319.441	102.12
319.67	108.12
319.9	92.12
320.129	89.12
320.358	81.12
320.587	104.12
320.816	97.12
321.046	108.12
321.275	94.12
321.504	85.12
321.733	97.12
321.962	119.12
322.191	111.12
322.42	114.12
322.649	111.12
322.878	112.12
323.108	121.12
323.337	126.12
323.566	119.12
323.795	149.12
324.024	208.12
324.253	379.12
324.482	773.12
324.71	1546.12
324.939	2133.12
325.168	775.12
325.397	234.12
325.626	139.12
325.855	142.12
326.084	135.12
326.313	126.12
326.542	146.12
326.77	223.12
326.999	434.12
327.228	922.12
327.457	1633.12
327.686	1297.12
327.914	354.12
328.143	210.12
328.372	155.12
328.6	136.12
328.829	105.12
329.058	131.12
329.287	121.12
329.515	119.12
329.744	106.12
329.972	106.12
330.201	145.12
330.43	157.12
330.658	133.12
330.887	146.12
331.115	117.12
331.344	93.12
331.572	98.12
331.801	103.12
332.03	112.12
332.258	99.12
332.486	95.12
332.715	92.12
332.943	102.12
333.172	102.12
333.4	102.12
333.629	109.12
333.857	112.12
334.085	118.12
334.314	129.12
334.542	177.12
334.771	175.12
334.999	117.12
335.227	98.12
335.455	117.12
335.684	110.12
335.912	108.12
336.14	94.12
336.369	101.12
336.597	119.12
336.825	101.12
337.053	100.12
337.281	104.12
337.51	92.12
337.738	112.12
337.966	93.12
338.194	99.12
338.422	110.12
338.65	95.12
338.878	100.12
339.106	91.12
339.334	89.12
339.562	93.12
339.79	93.12
340.018	84.12
340.246	103.12
340.474	104.12
340.702	91.12
340.93	96.12
341.158	106.12
341.386	104.12
341.614	105.12
341.842	99.12
342.07	99.12
342.298	91.12
342.526	96.12
342.754	103.12
342.981	101.12
343.209	99.12
343.437	103.12
343.665	85.12
343.893	88.12
344.12	104.12
344.348	95.12
344.576	101.12
344.804	103.12
345.031	87.12
345.259	92.12
345.487	91.12
345.714	101.12
345.942	100.12
346.17	98.12
346.397	106.12
346.625	106.12
346.853	93.12
347.08	83.12
347.308	92.12
347.535	88.12
347.763	94.12
347.99	100.12
348.218	105.12
348.445	112.12
348.673	91.12
348.9	98.12
349.128	113.12
349.355	94.12
349.583	90.12
349.81	94.12
350.037	103.12
350.265	106.12
350.492	100.12
350.72	103.12
350.947	110.12
351.174	113.12
351.402	113.12
351.629	98.12
351.856	100.12
352.083	102.12
352.311	94.12
352.538	111.12
352.765	106.12
352.992	107.12
353.22	116.12
353.447	122.12
353.674	99.12
353.901	87.12
354.128	97.12
354.355	99.12
354.583	95.12
354.81	111.12
355.037	97.12
355.264	102.12
355.491	90.12
355.718	101.12
355.945	93.12
356.172	110.12
356.399	105.12
356.626	104.12
356.853	96.12
357.08	95.12
357.307	101.12
357.534	97.12
357.761	94.12
357.988	86.12
358.215	101.12
358.441	112.12
358.668	98.12
358.895	83.12
359.122	93.12
359.349	90.12
359.576	97.12
359.802	116.12
360.029	117.12
360.256	112.12
360.483	114.12
360.709	93.12
360.936	101.12
361.163	88.12
361.39	100.12
361.616	88.12
361.843	93.12
362.07	91.12
362.296	94.12
362.523	82.12
362.749	100.12
362.976	102.12
363.203	91.12
363.429	86.12
363.656	92.12
363.882	99.12
364.109	111.12
364.335	93.12
364.562	96.12
364.788	97.12
365.015	98.12
365.241	96.12
365.468	107.12
365.694	105.12
365.92	104.12
366.147	106.12
366.373	111.12
366.599	111.12
366.826	87.12
367.052	90.12
367.278	84.12
367.505	94.12
367.731	96.12
367.957	91.12
368.184	89.12
368.41	104.12
368.636	103.12
368.862	104.12
369.089	117.12
369.315	105.12
369.541	95.12
369.767	95.12
369.993	77.12
370.219	94.12
370.445	94.12
370.672	99.12
370.898	85.12
371.124	95.12
371.35	89.12
371.576	102.12
371.802	100.12
372.028	85.12
372.254	97.12
372.48	96.12
372.706	82.12
372.932	89.12
373.158	92.12
373.384	99.12
373.61	96.12
373.835	94.12
374.061	97.12
374.287	121.12
374.513	103.12
374.739	101.12
374.965	82.12
375.191	83.12
375.416	105.12
375.642	88.12
375.868	99.12
376.094	97.12
376.319	91.12
376.545	88.12
376.771	97.12
376.997	91.12
377.222	91.12
377.448	93.12
377.674	89.12
377.899	97.12
378.125	93.12
378.35	97.12
378.576	94.12
378.802	102.12
379.027	105.12
379.253	105.12
379.478	94.12
379.704	97.12
379.929	92.12
380.155	98.12
380.38	110.12
380.606	105.12
380.831	97.12
381.057	110.12
381.282	118.12
381.507	101.12
381.733	104.12
381.958	111.12
382.184	112.12
382.409	104.12
382.634	123.12
382.86	105.12
383.085	116.12
383.31	117.12
383.535	114.12
383.761	111.12
383.986	107.12
384.211	108.12
384.436	114.12
384.662	118.12
384.887	128.12
385.112	121.12
385.337	122.12
385.562	107.12
385.787	127.12
386.013	121.12
386.238	125.12
386.463	122.12
386.688	115.12
386.913	110.12
387.138	119.12
387.363	118.12
387.588	111.12
387.813	117.12
388.038	125.12
388.263	136.12
388.488	133.12
388.713	117.12
388.938	98.12
389.163	107.12
389.387	108.12
389.612	97.12
389.837	93.12
390.062	92.12
390.287	98.12
390.512	109.12
390.736	99.12
390.961	97.12
391.186	105.12
391.411	90.12
391.636	95.12
391.86	91.12
392.085	100.12
392.31	101.12
392.534	74.12
392.759	98.12
392.984	106.12
393.208	112.12
393.433	142.12
393.658	137.12
393.882	106.12
394.107	88.12
394.331	87.12
394.556	89.12
394.78	92.12
395.005	88.12
395.229	80.12
395.454	90.12
395.678	89.12
395.903	107.12
396.127	89.12
396.352	102.12
396.576	101.12
396.801	105.12
397.025	131.12
397.249	81.12
397.474	99.12
397.698	91.12
397.922	96.12
398.147	97.12
398.371	71.12
398.595	86.12
398.82	82.12
399.044	96.12
399.268	97.12
399.492	91.12
399.717	104.12
399.941	100.12
400.165	99.12
400.389	86.12
400.613	93.12
400.837	102.12
401.062	91.12
401.286	94.12
401.51	74.12
401.734	110.12
401.958	105.12
402.182	127.12
402.406	159.12
402.63	123.12
402.854	106.12
403.078	93.12
403.302	99.12
403.526	107.12
403.75	93.12
403.974	84.12
404.198	102.12
404.422	96.12
404.645	95.12
404.869	92.12
405.093	110.12
405.317	106.12
405.541	97.12
405.765	97.12
405.988	123.12
406.212	165.12
406.436	212.12
406.66	146.12
406.883	112.12
407.107	104.12
407.331	120.12
407.555	88.12
407.778	110.12
408.002	93.12
408.226	89.12
408.449	95.12
408.673	104.12
408.896	78.12
409.12	101.12
409.344	107.12
409.567	95.12
409.791	88.12
410.014	104.12
410.238	86.12
410.461	97.12
410.685	106.12
410.908	94.12
411.132	108.12
411.355	113.12
411.578	100.12
411.802	80.12
412.025	101.12
412.249	107.12
412.472	114.12
412.695	98.12
412.919	99.12
413.142	99.12
413.365	102.12
413.589	79.12
413.812	95.12
414.035	96.12
414.258	89.12
414.482	99.12
414.705	93.12
414.928	106.12
415.151	102.12
415.374	100.12
415.597	103.12
415.821	102.12
416.044	95.12
416.267	100.12
416.49	85.12
416.713	98.12
416.936	89.12
417.159	90.12
417.382	102.12
417.605	90.12
417.828	99.12
418.051	94.12
418.274	100.12
418.497	99.12
418.72	88.12
418.943	103.12
419.166	108.12
419.389	92.12
419.611	107.12
419.834	94.12
420.057	97.12
420.28	85.12
420.503	91.12
420.726	95.12
420.948	101.12
421.171	106.12
421.394	118.12
421.617	83.12
421.839	101.12
422.062	82.12
422.285	103.12
422.507	97.12
422.73	126.12
422.953	114.12
423.175	97.12
423.398	97.12
423.621	91.12
423.843	92.12
424.066	91.12
424.288	87.12
424.511	80.12
424.733	85.12
424.956	107.12
425.178	111.12
425.401	95.12
425.623	108.12
425.846	92.12
426.068	109.12
426.291	97.12
426.513	87.12
426.735	94.12
426.958	103.12
427.18	111.12
427.402	135.12
427.625	179.12
427.847	134.12
428.069	107.12
428.292	101.12
428.514	86.12
428.736	102.12
428.958	104.12
429.181	85.12
429.403	104.12
429.625	104.12
429.847	91.12
430.069	111.12
430.292	103.12
430.514	101.12
430.736	85.12
430.958	88.12
431.18	90.12
431.402	94.12
431.624	95.12
431.846	101.12
432.068	98.12
432.29	103.12
432.512	107.12
432.734	96.12
432.956	88.12
433.178	107.12
433.4	109.12
433.622	92.12
433.844	95.12
434.066	90.12
434.287	93.12
434.509	89.12
434.731	85.12
434.953	95.12
435.175	95.12
435.397	77.12
435.618	97.12
435.84	113.12
436.062	120.12
436.284	135.12
436.505	106.12
436.727	108.12
436.949	110.12
437.17	103.12
437.392	98.12
437.614	87.12
437.835	110.12
438.057	107.12
438.278	90.12
438.5	104.12
438.721	123.12
438.943	105.12
439.165	84.12
439.386	91.12
439.608	84.12
439.829	103.12
440.05	121.12
440.272	142.12
440.493	107.12
440.715	99.12
440.936	91.12
441.158	99.12
441.379	95.12
441.6	94.12
441.822	83.12
442.043	99.12
442.264	113.12
442.486	99.12
442.707	94.12
442.928	104.12
443.149	136.12
443.371	134.12
443.592	99.12
443.813	103.12
444.034	125.12
444.255	97.12
444.476	83.12
444.698	81.12
444.919	96.12
445.14	144.12
445.361	122.12
445.582	114.12
445.803	133.12
446.024	122.12
446.245	141.12
446.466	106.12
446.687	97.12
446.908	91.12
447.129	95.12
447.35	91.12
447.571	89.12
447.792	99.12
448.013	100.12
448.234	104.12
448.455	103.12
448.675	117.12
448.896	123.12
449.117	99.12
449.338	108.12
449.559	130.12
449.779	137.12
450	91.12
450.221	101.12
450.442	82.12
450.662	95.12
450.883	108.12
451.104	117.12
451.324	91.12
451.545	84.12
451.766	82.12
451.986	83.12
452.207	94.12
452.428	91.12
452.648	104.12
452.869	105.12
453.089	106.12
453.31	120.12
453.53	97.12
453.751	89.12
453.971	105.12
454.192	108.12
454.412	81.12
454.633	89.12
454.853	92.12
455.073	100.12
455.294	95.12
455.514	102.12
455.734	92.12
455.955	91.12
456.175	90.12
456.395	94.12
456.616	84.12
456.836	90.12
457.056	95.12
457.276	82.12
457.497	97.12
457.717	87.12
457.937	92.12
458.157	98.12
458.377	102.12
458.598	103.12
458.818	146.12
459.038	150.12
459.258	116.12
459.478	67.12
459.698	89.12
459.918	87.12
460.138	89.12
460.358	86.12
460.578	86.12
460.798	91.12
461.018	101.12
461.238	96.12
461.458	81.12
461.678	80.12
461.898	88.12
462.118	88.12
462.338	90.12
462.558	88.12
462.777	83.12
462.997	93.12
463.217	96.12
463.437	97.12
463.657	91.12
463.876	87.12
464.096	88.12
464.316	100.12
464.536	102.12
464.755	104.12
464.975	109.12
465.195	167.12
465.414	138.12
465.634	105.12
465.854	90.12
466.073	82.12
466.293	82.12
466.512	94.12
466.732	98.12
466.951	90.12
467.171	90.12
467.391	92.12
467.61	94.12
467.829	114.12
468.049	112.12
468.268	117.12
468.488	101.12
468.707	78.12
468.927	83.12
469.146	73.12
469.365	93.12
469.585	85.12
469.804	86.12
470.023	101.12
470.243	94.12
470.462	111.12
470.681	106.12
470.901	99.12
471.12	89.12
471.339	86.12
471.558	96.12
471.777	95.12
471.997	101.12
472.216	131.12
472.435	198.12
472.654	118.12
472.873	104.12
473.092	80.12
473.311	71.12
473.53	89.12
473.749	96.12
473.968	103.12
474.187	107.12
474.406	100.12
474.625	96.12
474.844	96.12
475.063	94.12
475.282	92.12
475.501	93.12
475.72	102.12
475.939	84.12
476.158	94.12
476.377	87.12
476.596	96.12
476.814	74.12
477.033	103.12
477.252	105.12
477.471	84.12
477.69	94.12
477.908	91.12
478.127	93.12
478.346	91.12
478.564	97.12
478.783	85.12
479.002	99.12
479.22	90.12
479.439	102.12
479.658	115.12
479.876	108.12
480.095	89.12
480.313	109.12
480.532	89.12
480.751	102.12
480.969	128.12
481.188	288.12
481.406	213.12
481.624	113.12
481.843	89.12
482.061	80.12
482.28	95.12
482.498	88.12
482.717	97.12
482.935	107.12
483.153	103.12
483.372	73.12
483.59	88.12
483.808	95.12
484.027	77.12
484.245	93.12
484.463	96.12
484.681	91.12
484.9	99.12
485.118	103.12
485.336	110.12
485.554	101.12
485.772	98.12
485.99	124.12
486.209	101.12
486.427	112.12
486.645	135.12
486.863	127.12
487.081	107.12
487.299	111.12
487.517	87.12
487.735	106.12
487.953	101.12
488.171	93.12
488.389	99.12
488.607	106.12
488.825	78.12
489.043	100.12
489.261	112.12
489.479	107.12
489.696	104.12
489.914	94.12
490.132	89.12
490.35	91.12
490.568	87.12
490.786	93.12
491.003	85.12
491.221	88.12
491.439	93.12
491.657	93.12
491.874	98.12
492.092	89.12
492.31	91.12
492.527	105.12
492.745	107.12
492.963	98.12
493.18	99.12
493.398	103.12
493.615	93.12
493.833	110.12
494.05	87.12
494.268	97.12
494.485	101.12
494.703	81.12
494.92	83.12
495.138	89.12
495.355	75.12
495.573	94.12
495.79	94.12
496.008	104.12
496.225	90.12
496.442	99.12
496.66	90.12
496.877	83.12
497.094	101.12
497.312	86.12
497.529	85.12
497.746	97.12
497.963	98.12
498.181	83.12
498.398	99.12
498.615	106.12
498.832	98.12
499.049	94.12
499.267	89.12
499.484	79.12
499.701	94.12
499.918	96.12
500.135	99.12
500.352	96.12
500.569	93.12
500.786	85.12
501.003	102.12
501.22	104.12
501.437	92.12
501.654	90.12
501.871	97.12
502.088	94.12
502.305	104.12
502.522	112.12
502.739	102.12
502.956	86.12
503.172	101.12
503.389	79.12
503.606	120.12
503.823	109.12
504.04	97.12
504.256	86.12
504.473	87.12
504.69	86.12
504.907	101.12
505.123	96.12
505.34	89.12
505.557	80.12
505.773	96.12
505.99	85.12
506.207	96.12
506.423	102.12
506.64	100.12
506.856	106.12
507.073	101.12
507.289	70.12
507.506	91.12
507.722	108.12
507.939	105.12
508.155	106.12
508.372	107.12
508.588	85.12
508.805	95.12
509.021	99.12
509.238	88.12
509.454	102.12
509.67	111.12
509.887	119.12
510.103	129.12
510.319	214.12
510.536	684.12
510.752	2170.12
510.968	604.12
511.184	144.12
511.401	109.12
511.617	106.12
511.833	105.12
512.049	117.12
512.265	101.12
512.481	96.12
512.698	91.12
512.914	96.12
513.13	90.12
513.346	91.12
