Data from Circ_1993_H10_HRD10591_00050.txt Node
Date: Wed Jan 03 11:44:12 EST 2024
User: Yrep
Spectrometer: HR+D1059
Trigger mode: 1
Integration Time (sec): 1.000000E-1
Scans to average: 1
Electric dark correction enabled: true
Nonlinearity correction enabled: false
Boxcar width: 0
XAxis mode: Wavelengths
Number of Pixels in Spectrum: 2048
>>>>>Begin Spectral Data<<<<<
223.165	-10.12
223.4	-10.12
223.635	-10.12
223.869	-16.12
224.104	-16.12
224.338	-31.12
224.573	-10.12
224.808	-16.12
225.042	-11.12
225.277	3.88
225.511	-6.12
225.746	12.88
225.98	4.88
226.215	8.88
226.449	9.88
226.683	13.88
226.918	28.88
227.152	33.88
227.387	39.88
227.621	44.88
227.856	61.88
228.09	51.88
228.324	49.88
228.559	62.88
228.793	67.88
229.027	74.88
229.262	60.88
229.496	70.88
229.73	77.88
229.964	89.88
230.199	80.88
230.433	70.88
230.667	73.88
230.901	73.88
231.136	74.88
231.37	91.88
231.604	81.88
231.838	88.88
232.072	76.88
232.306	80.88
232.541	94.88
232.775	81.88
233.009	73.88
233.243	77.88
233.477	82.88
233.711	84.88
233.945	91.88
234.179	89.88
234.413	84.88
234.647	84.88
234.881	76.88
235.115	80.88
235.349	80.88
235.583	84.88
235.817	78.88
236.051	88.88
236.285	78.88
236.519	88.88
236.753	87.88
236.987	69.88
237.221	69.88
237.455	92.88
237.689	96.88
237.922	71.88
238.156	73.88
238.39	65.88
238.624	80.88
238.858	74.88
239.091	70.88
239.325	77.88
239.559	93.88
239.793	85.88
240.027	73.88
240.26	81.88
240.494	107.88
240.728	72.88
240.961	79.88
241.195	76.88
241.429	87.88
241.662	70.88
241.896	85.88
242.13	79.88
242.363	73.88
242.597	84.88
242.83	76.88
243.064	87.88
243.298	82.88
243.531	76.88
243.765	86.88
243.998	104.88
244.232	85.88
244.465	76.88
244.699	87.88
244.932	90.88
245.166	71.88
245.399	78.88
245.633	74.88
245.866	84.88
246.099	78.88
246.333	93.88
246.566	77.88
246.8	76.88
247.033	84.88
247.266	81.88
247.5	80.88
247.733	98.88
247.966	74.88
248.2	86.88
248.433	85.88
248.666	87.88
248.899	83.88
249.133	89.88
249.366	91.88
249.599	86.88
249.832	85.88
250.066	78.88
250.299	88.88
250.532	73.88
250.765	79.88
250.998	90.88
251.231	87.88
251.465	65.88
251.698	80.88
251.931	86.88
252.164	86.88
252.397	69.88
252.63	84.88
252.863	78.88
253.096	92.88
253.329	82.88
253.562	74.88
253.795	82.88
254.028	73.88
254.261	86.88
254.494	81.88
254.727	86.88
254.96	80.88
255.193	86.88
255.426	72.88
255.659	97.88
255.892	84.88
256.124	94.88
256.357	77.88
256.59	74.88
256.823	96.88
257.056	78.88
257.289	100.88
257.521	86.88
257.754	75.88
257.987	98.88
258.22	89.88
258.452	95.88
258.685	81.88
258.918	96.88
259.151	92.88
259.383	83.88
259.616	85.88
259.849	81.88
260.081	87.88
260.314	84.88
260.547	97.88
260.779	76.88
261.012	94.88
261.244	87.88
261.477	93.88
261.71	104.88
261.942	94.88
262.175	93.88
262.407	89.88
262.64	98.88
262.872	86.88
263.105	88.88
263.337	86.88
263.57	78.88
263.802	71.88
264.035	80.88
264.267	86.88
264.499	89.88
264.732	83.88
264.964	91.88
265.197	84.88
265.429	76.88
265.661	71.88
265.894	83.88
266.126	82.88
266.358	81.88
266.591	104.88
266.823	68.88
267.055	90.88
267.287	88.88
267.52	85.88
267.752	90.88
267.984	100.88
268.216	80.88
268.448	92.88
268.681	84.88
268.913	100.88
269.145	80.88
269.377	82.88
269.609	99.88
269.841	89.88
270.073	90.88
270.306	90.88
270.538	90.88
270.77	80.88
271.002	95.88
271.234	80.88
271.466	94.88
271.698	90.88
271.93	70.88
272.162	86.88
272.394	86.88
272.626	105.88
272.858	90.88
273.09	91.88
273.322	96.88
273.553	92.88
273.785	92.88
274.017	88.88
274.249	98.88
274.481	89.88
274.713	103.88
274.945	106.88
275.176	94.88
275.408	86.88
275.64	83.88
275.872	82.88
276.104	89.88
276.335	90.88
276.567	106.88
276.799	115.88
277.031	106.88
277.262	92.88
277.494	98.88
277.726	95.88
277.957	88.88
278.189	101.88
278.421	95.88
278.652	90.88
278.884	104.88
279.115	98.88
279.347	94.88
279.579	99.88
279.81	93.88
280.042	92.88
280.273	103.88
280.505	94.88
280.736	95.88
280.968	111.88
281.199	93.88
281.431	91.88
281.662	88.88
281.894	100.88
282.125	93.88
282.356	111.88
282.588	132.88
282.819	93.88
283.051	88.88
283.282	89.88
283.513	88.88
283.745	86.88
283.976	87.88
284.207	94.88
284.439	90.88
284.67	91.88
284.901	95.88
285.132	96.88
285.364	98.88
285.595	95.88
285.826	90.88
286.057	82.88
286.288	86.88
286.52	82.88
286.751	96.88
286.982	95.88
287.213	86.88
287.444	73.88
287.675	68.88
287.906	88.88
288.138	93.88
288.369	85.88
288.6	86.88
288.831	90.88
289.062	96.88
289.293	109.88
289.524	90.88
289.755	82.88
289.986	80.88
290.217	97.88
290.448	92.88
290.679	110.88
290.91	93.88
291.141	82.88
291.371	94.88
291.602	88.88
291.833	93.88
292.064	102.88
292.295	88.88
292.526	79.88
292.757	103.88
292.987	101.88
293.218	80.88
293.449	90.88
293.68	81.88
293.91	101.88
294.141	97.88
294.372	96.88
294.603	98.88
294.833	90.88
295.064	75.88
295.295	97.88
295.525	105.88
295.756	104.88
295.987	95.88
296.217	122.88
296.448	126.88
296.679	94.88
296.909	81.88
297.14	96.88
297.37	80.88
297.601	99.88
297.831	86.88
298.062	85.88
298.292	72.88
298.523	100.88
298.753	90.88
298.984	94.88
299.214	109.88
299.445	101.88
299.675	84.88
299.905	96.88
300.136	92.88
300.366	86.88
300.597	89.88
300.827	100.88
301.057	97.88
301.288	111.88
301.518	85.88
301.748	81.88
301.979	95.88
302.209	94.88
302.439	89.88
302.669	95.88
302.9	101.88
303.13	90.88
303.36	97.88
303.59	91.88
303.82	119.88
304.051	104.88
304.281	96.88
304.511	90.88
304.741	92.88
304.971	94.88
305.201	81.88
305.431	101.88
305.661	101.88
305.891	85.88
306.121	99.88
306.352	102.88
306.582	101.88
306.812	121.88
307.042	99.88
307.272	88.88
307.502	98.88
307.731	105.88
307.961	84.88
308.191	92.88
308.421	95.88
308.651	94.88
308.881	87.88
309.111	93.88
309.341	86.88
309.571	106.88
309.8	92.88
310.03	82.88
310.26	95.88
310.49	99.88
310.72	116.88
310.949	104.88
311.179	102.88
311.409	96.88
311.639	89.88
311.868	103.88
312.098	86.88
312.328	99.88
312.557	107.88
312.787	89.88
313.017	115.88
313.246	88.88
313.476	96.88
313.706	91.88
313.935	94.88
314.165	116.88
314.394	97.88
314.624	92.88
314.853	97.88
315.083	89.88
315.312	103.88
315.542	74.88
315.771	102.88
316.001	93.88
316.23	81.88
316.46	100.88
316.689	92.88
316.919	89.88
317.148	94.88
317.377	92.88
317.607	88.88
317.836	90.88
318.065	99.88
318.295	89.88
318.524	98.88
318.753	91.88
318.983	91.88
319.212	105.88
319.441	111.88
319.67	105.88
319.9	91.88
320.129	89.88
320.358	95.88
320.587	97.88
320.816	98.88
321.046	97.88
321.275	97.88
321.504	94.88
321.733	99.88
321.962	105.88
322.191	88.88
322.42	106.88
322.649	99.88
322.878	122.88
323.108	110.88
323.337	124.88
323.566	103.88
323.795	131.88
324.024	176.88
324.253	314.88
324.482	638.88
324.71	1310.88
324.939	1718.88
325.168	622.88
325.397	206.88
325.626	133.88
325.855	129.88
326.084	125.88
326.313	114.88
326.542	122.88
326.77	192.88
326.999	384.88
327.228	777.88
327.457	1371.88
327.686	1092.88
327.914	319.88
328.143	184.88
328.372	176.88
328.6	121.88
328.829	114.88
329.058	113.88
329.287	110.88
329.515	115.88
329.744	98.88
329.972	116.88
330.201	162.88
330.43	181.88
330.658	137.88
330.887	122.88
331.115	113.88
331.344	109.88
331.572	110.88
331.801	111.88
332.03	101.88
332.258	102.88
332.486	87.88
332.715	99.88
332.943	110.88
333.172	108.88
333.4	106.88
333.629	101.88
333.857	103.88
334.085	138.88
334.314	146.88
334.542	225.88
334.771	209.88
334.999	127.88
335.227	90.88
335.455	102.88
335.684	96.88
335.912	98.88
336.14	97.88
336.369	92.88
336.597	101.88
336.825	102.88
337.053	117.88
337.281	92.88
337.51	85.88
337.738	102.88
337.966	107.88
338.194	90.88
338.422	103.88
338.65	116.88
338.878	86.88
339.106	87.88
339.334	90.88
339.562	80.88
339.79	101.88
340.018	94.88
340.246	95.88
340.474	102.88
340.702	113.88
340.93	102.88
341.158	99.88
341.386	92.88
341.614	93.88
341.842	95.88
342.07	84.88
342.298	92.88
342.526	104.88
342.754	109.88
342.981	94.88
343.209	85.88
343.437	101.88
343.665	100.88
343.893	95.88
344.12	101.88
344.348	93.88
344.576	100.88
344.804	98.88
345.031	100.88
345.259	97.88
345.487	81.88
345.714	96.88
345.942	101.88
346.17	94.88
346.397	86.88
346.625	95.88
346.853	92.88
347.08	84.88
347.308	94.88
347.535	100.88
347.763	84.88
347.99	100.88
348.218	110.88
348.445	97.88
348.673	87.88
348.9	100.88
349.128	98.88
349.355	100.88
349.583	101.88
349.81	89.88
350.037	97.88
350.265	97.88
350.492	98.88
350.72	87.88
350.947	119.88
351.174	89.88
351.402	99.88
351.629	103.88
351.856	103.88
352.083	101.88
352.311	105.88
352.538	93.88
352.765	112.88
352.992	107.88
353.22	116.88
353.447	114.88
353.674	105.88
353.901	105.88
354.128	84.88
354.355	96.88
354.583	98.88
354.81	117.88
355.037	101.88
355.264	100.88
355.491	99.88
355.718	103.88
355.945	69.88
356.172	108.88
356.399	99.88
356.626	103.88
356.853	102.88
357.08	93.88
357.307	116.88
357.534	96.88
357.761	91.88
357.988	103.88
358.215	112.88
358.441	100.88
358.668	76.88
358.895	83.88
359.122	94.88
359.349	102.88
359.576	89.88
359.802	101.88
360.029	96.88
360.256	99.88
360.483	103.88
360.709	92.88
360.936	98.88
361.163	104.88
361.39	88.88
361.616	83.88
361.843	84.88
362.07	95.88
362.296	104.88
362.523	89.88
362.749	98.88
362.976	82.88
363.203	92.88
363.429	97.88
363.656	76.88
363.882	84.88
364.109	91.88
364.335	94.88
364.562	88.88
364.788	102.88
365.015	104.88
365.241	93.88
365.468	103.88
365.694	110.88
365.92	97.88
366.147	103.88
366.373	102.88
366.599	81.88
366.826	93.88
367.052	104.88
367.278	107.88
367.505	90.88
367.731	103.88
367.957	94.88
368.184	96.88
368.41	110.88
368.636	109.88
368.862	96.88
369.089	105.88
369.315	89.88
369.541	98.88
369.767	82.88
369.993	84.88
370.219	80.88
370.445	105.88
370.672	101.88
370.898	106.88
371.124	84.88
371.35	71.88
371.576	95.88
371.802	106.88
372.028	98.88
372.254	88.88
372.48	109.88
372.706	99.88
372.932	104.88
373.158	82.88
373.384	95.88
373.61	93.88
373.835	103.88
374.061	89.88
374.287	88.88
374.513	102.88
374.739	95.88
374.965	96.88
375.191	110.88
375.416	88.88
375.642	86.88
375.868	105.88
376.094	108.88
376.319	86.88
376.545	99.88
376.771	91.88
376.997	98.88
377.222	98.88
377.448	98.88
377.674	103.88
377.899	101.88
378.125	63.88
378.35	106.88
378.576	92.88
378.802	89.88
379.027	96.88
379.253	83.88
379.478	89.88
379.704	115.88
379.929	93.88
380.155	106.88
380.38	102.88
380.606	88.88
380.831	88.88
381.057	117.88
381.282	101.88
381.507	95.88
381.733	119.88
381.958	100.88
382.184	109.88
382.409	111.88
382.634	109.88
382.86	103.88
383.085	109.88
383.31	104.88
383.535	96.88
383.761	109.88
383.986	111.88
384.211	121.88
384.436	116.88
384.662	96.88
384.887	108.88
385.112	121.88
385.337	120.88
385.562	109.88
385.787	110.88
386.013	124.88
386.238	132.88
386.463	117.88
386.688	122.88
386.913	129.88
387.138	115.88
387.363	100.88
387.588	112.88
387.813	103.88
388.038	110.88
388.263	126.88
388.488	117.88
388.713	108.88
388.938	98.88
389.163	101.88
389.387	104.88
389.612	100.88
389.837	91.88
390.062	98.88
390.287	83.88
390.512	96.88
390.736	102.88
390.961	100.88
391.186	101.88
391.411	104.88
391.636	93.88
391.86	100.88
392.085	92.88
392.31	90.88
392.534	105.88
392.759	94.88
392.984	87.88
393.208	109.88
393.433	125.88
393.658	112.88
393.882	91.88
394.107	94.88
394.331	86.88
394.556	81.88
394.78	88.88
395.005	89.88
395.229	84.88
395.454	96.88
395.678	96.88
395.903	87.88
396.127	86.88
396.352	87.88
396.576	90.88
396.801	103.88
397.025	106.88
397.249	84.88
397.474	94.88
397.698	83.88
397.922	81.88
398.147	85.88
398.371	94.88
398.595	76.88
398.82	92.88
399.044	95.88
399.268	90.88
399.492	91.88
399.717	89.88
399.941	99.88
400.165	101.88
400.389	114.88
400.613	100.88
400.837	90.88
401.062	88.88
401.286	86.88
401.51	97.88
401.734	103.88
401.958	105.88
402.182	114.88
402.406	142.88
402.63	107.88
402.854	110.88
403.078	74.88
403.302	72.88
403.526	82.88
403.75	84.88
403.974	87.88
404.198	95.88
404.422	87.88
404.645	97.88
404.869	96.88
405.093	96.88
405.317	108.88
405.541	97.88
405.765	101.88
405.988	111.88
406.212	150.88
406.436	183.88
406.66	125.88
406.883	101.88
407.107	114.88
407.331	112.88
407.555	99.88
407.778	84.88
408.002	90.88
408.226	92.88
408.449	83.88
408.673	88.88
408.896	94.88
409.12	100.88
409.344	80.88
409.567	95.88
409.791	97.88
410.014	103.88
410.238	118.88
410.461	94.88
410.685	95.88
410.908	100.88
411.132	111.88
411.355	104.88
411.578	80.88
411.802	92.88
412.025	90.88
412.249	82.88
412.472	99.88
412.695	94.88
412.919	99.88
413.142	72.88
413.365	94.88
413.589	104.88
413.812	95.88
414.035	117.88
414.258	93.88
414.482	94.88
414.705	82.88
414.928	107.88
415.151	101.88
415.374	97.88
415.597	97.88
415.821	92.88
416.044	94.88
416.267	84.88
416.49	94.88
416.713	101.88
416.936	99.88
417.159	95.88
417.382	104.88
417.605	96.88
417.828	96.88
418.051	88.88
418.274	84.88
418.497	93.88
418.72	95.88
418.943	83.88
419.166	91.88
419.389	86.88
419.611	77.88
419.834	89.88
420.057	88.88
420.28	85.88
420.503	98.88
420.726	88.88
420.948	95.88
421.171	105.88
421.394	95.88
421.617	86.88
421.839	108.88
422.062	88.88
422.285	105.88
422.507	106.88
422.73	112.88
422.953	80.88
423.175	85.88
423.398	86.88
423.621	87.88
423.843	94.88
424.066	97.88
424.288	82.88
424.511	91.88
424.733	91.88
424.956	110.88
425.178	100.88
425.401	98.88
425.623	109.88
425.846	102.88
426.068	100.88
426.291	88.88
426.513	98.88
426.735	105.88
426.958	93.88
427.18	98.88
427.402	127.88
427.625	153.88
427.847	129.88
428.069	130.88
428.292	96.88
428.514	87.88
428.736	95.88
428.958	79.88
429.181	95.88
429.403	100.88
429.625	88.88
429.847	91.88
430.069	112.88
430.292	101.88
430.514	79.88
430.736	89.88
430.958	92.88
431.18	83.88
431.402	84.88
431.624	81.88
431.846	91.88
432.068	101.88
432.29	72.88
432.512	99.88
432.734	92.88
432.956	86.88
433.178	94.88
433.4	97.88
433.622	92.88
433.844	88.88
434.066	100.88
434.287	90.88
434.509	86.88
434.731	80.88
434.953	97.88
435.175	95.88
435.397	103.88
435.618	105.88
435.84	118.88
436.062	121.88
436.284	123.88
436.505	95.88
436.727	99.88
436.949	81.88
437.17	83.88
437.392	94.88
437.614	89.88
437.835	78.88
438.057	105.88
438.278	118.88
438.5	114.88
438.721	108.88
438.943	100.88
439.165	90.88
439.386	89.88
439.608	93.88
439.829	97.88
440.05	94.88
440.272	116.88
440.493	100.88
440.715	84.88
440.936	92.88
441.158	95.88
441.379	93.88
441.6	100.88
441.822	85.88
442.043	98.88
442.264	101.88
442.486	98.88
442.707	94.88
442.928	104.88
443.149	118.88
443.371	124.88
443.592	113.88
443.813	109.88
444.034	100.88
444.255	109.88
444.476	86.88
444.698	97.88
444.919	85.88
445.14	145.88
445.361	114.88
445.582	113.88
445.803	111.88
446.024	121.88
446.245	128.88
446.466	106.88
446.687	94.88
446.908	100.88
447.129	83.88
447.35	97.88
447.571	91.88
447.792	100.88
448.013	104.88
448.234	103.88
448.455	79.88
448.675	94.88
448.896	113.88
449.117	88.88
449.338	106.88
449.559	128.88
449.779	119.88
450	100.88
450.221	80.88
450.442	92.88
450.662	94.88
450.883	97.88
451.104	114.88
451.324	83.88
451.545	100.88
451.766	87.88
451.986	84.88
452.207	95.88
452.428	102.88
452.648	92.88
452.869	101.88
453.089	113.88
453.31	105.88
453.53	94.88
453.751	105.88
453.971	89.88
454.192	90.88
454.412	94.88
454.633	94.88
454.853	86.88
455.073	79.88
455.294	96.88
455.514	94.88
455.734	85.88
455.955	82.88
456.175	78.88
456.395	100.88
456.616	86.88
456.836	87.88
457.056	77.88
457.276	77.88
457.497	103.88
457.717	69.88
457.937	94.88
458.157	94.88
458.377	96.88
458.598	86.88
458.818	121.88
459.038	144.88
459.258	112.88
459.478	86.88
459.698	80.88
459.918	70.88
460.138	85.88
460.358	88.88
460.578	93.88
460.798	82.88
461.018	92.88
461.238	87.88
461.458	98.88
461.678	76.88
461.898	87.88
462.118	88.88
462.338	97.88
462.558	98.88
462.777	85.88
462.997	90.88
463.217	89.88
463.437	76.88
463.657	82.88
463.876	76.88
464.096	101.88
464.316	90.88
464.536	77.88
464.755	105.88
464.975	119.88
465.195	155.88
465.414	126.88
465.634	106.88
465.854	101.88
466.073	97.88
466.293	98.88
466.512	91.88
466.732	90.88
466.951	102.88
467.171	97.88
467.391	95.88
467.61	73.88
467.829	106.88
468.049	119.88
468.268	130.88
468.488	87.88
468.707	90.88
468.927	97.88
469.146	97.88
469.365	81.88
469.585	100.88
469.804	106.88
470.023	99.88
470.243	112.88
470.462	102.88
470.681	105.88
470.901	93.88
471.12	84.88
471.339	77.88
471.558	93.88
471.777	97.88
471.997	112.88
472.216	170.88
472.435	263.88
472.654	122.88
472.873	94.88
473.092	82.88
473.311	90.88
473.53	94.88
473.749	87.88
473.968	93.88
474.187	95.88
474.406	88.88
474.625	89.88
474.844	94.88
475.063	84.88
475.282	88.88
475.501	84.88
475.72	98.88
475.939	96.88
476.158	89.88
476.377	96.88
476.596	89.88
476.814	88.88
477.033	86.88
477.252	97.88
477.471	88.88
477.69	99.88
477.908	104.88
478.127	116.88
478.346	102.88
478.564	84.88
478.783	91.88
479.002	84.88
479.22	104.88
479.439	101.88
479.658	99.88
479.876	104.88
480.095	102.88
480.313	104.88
480.532	98.88
480.751	105.88
480.969	166.88
481.188	413.88
481.406	290.88
481.624	129.88
481.843	90.88
482.061	78.88
482.28	90.88
482.498	89.88
482.717	95.88
482.935	89.88
483.153	88.88
483.372	90.88
483.59	90.88
483.808	89.88
484.027	95.88
484.245	90.88
484.463	94.88
484.681	87.88
484.9	91.88
485.118	97.88
485.336	88.88
485.554	110.88
485.772	108.88
485.99	113.88
486.209	105.88
486.427	104.88
486.645	112.88
486.863	106.88
487.081	112.88
487.299	102.88
487.517	104.88
487.735	92.88
487.953	89.88
488.171	102.88
488.389	98.88
488.607	108.88
488.825	99.88
489.043	88.88
489.261	68.88
489.479	77.88
489.696	80.88
489.914	92.88
490.132	75.88
490.35	101.88
490.568	88.88
490.786	95.88
491.003	99.88
491.221	81.88
491.439	99.88
491.657	97.88
491.874	95.88
492.092	104.88
492.31	104.88
492.527	99.88
492.745	100.88
492.963	99.88
493.18	98.88
493.398	92.88
493.615	105.88
493.833	90.88
494.05	83.88
494.268	90.88
494.485	81.88
494.703	89.88
494.92	94.88
495.138	85.88
495.355	101.88
495.573	97.88
495.79	87.88
496.008	101.88
496.225	94.88
496.442	87.88
496.66	104.88
496.877	98.88
497.094	104.88
497.312	97.88
497.529	91.88
497.746	83.88
497.963	97.88
498.181	87.88
498.398	92.88
498.615	98.88
498.832	112.88
499.049	88.88
499.267	93.88
499.484	99.88
499.701	88.88
499.918	90.88
500.135	98.88
500.352	90.88
500.569	96.88
500.786	87.88
501.003	102.88
501.22	90.88
501.437	99.88
501.654	93.88
501.871	88.88
502.088	88.88
502.305	90.88
502.522	94.88
502.739	104.88
502.956	102.88
503.172	84.88
503.389	92.88
503.606	104.88
503.823	83.88
504.04	93.88
504.256	106.88
504.473	103.88
504.69	104.88
504.907	103.88
505.123	100.88
505.34	103.88
505.557	89.88
505.773	87.88
505.99	88.88
506.207	85.88
506.423	90.88
506.64	93.88
506.856	92.88
507.073	93.88
507.289	103.88
507.506	92.88
507.722	107.88
507.939	114.88
508.155	85.88
508.372	82.88
508.588	90.88
508.805	103.88
509.021	109.88
509.238	105.88
509.454	100.88
509.67	99.88
509.887	110.88
510.103	119.88
510.319	162.88
510.536	608.88
510.752	1807.88
510.968	517.88
511.184	138.88
511.401	96.88
511.617	97.88
511.833	99.88
512.049	97.88
512.265	90.88
512.481	96.88
512.698	89.88
512.914	105.88
513.13	99.88
513.346	103.88
513.562	104.88
513.778	102.88
513.994	91.88
