Data from Circ_1993_H10_HRD10591_00043.txt Node
Date: Wed Jan 03 11:44:10 EST 2024
User: Yrep
Spectrometer: HR+D1059
Trigger mode: 1
Integration Time (sec): 1.000000E-1
Scans to average: 1
Electric dark correction enabled: true
Nonlinearity correction enabled: false
Boxcar width: 0
XAxis mode: Wavelengths
Number of Pixels in Spectrum: 2048
>>>>>Begin Spectral Data<<<<<
223.165	-15.31
223.4	-15.31
223.635	-15.31
223.869	-13.31
224.104	-4.31
224.338	-17.31
224.573	-11.31
224.808	-13.31
225.042	-10.31
225.277	-9.31
225.511	-2.31
225.746	-5.31
225.98	-9.31
226.215	22.69
226.449	17.69
226.683	22.69
226.918	27.69
227.152	20.69
227.387	37.69
227.621	28.69
227.856	26.69
228.09	38.69
228.324	48.69
228.559	60.69
228.793	60.69
229.027	62.69
229.262	66.69
229.496	76.69
229.73	57.69
229.964	76.69
230.199	76.69
230.433	72.69
230.667	92.69
230.901	82.69
231.136	78.69
231.37	86.69
231.604	81.69
231.838	73.69
232.072	80.69
232.306	73.69
232.541	85.69
232.775	78.69
233.009	76.69
233.243	88.69
233.477	98.69
233.711	73.69
233.945	85.69
234.179	74.69
234.413	93.69
234.647	83.69
234.881	83.69
235.115	69.69
235.349	69.69
235.583	80.69
235.817	72.69
236.051	81.69
236.285	89.69
236.519	68.69
236.753	72.69
236.987	95.69
237.221	77.69
237.455	85.69
237.689	64.69
237.922	72.69
238.156	73.69
238.39	83.69
238.624	53.69
238.858	83.69
239.091	84.69
239.325	84.69
239.559	73.69
239.793	77.69
240.027	83.69
240.26	64.69
240.494	92.69
240.728	83.69
240.961	78.69
241.195	85.69
241.429	79.69
241.662	76.69
241.896	77.69
242.13	63.69
242.363	86.69
242.597	73.69
242.83	83.69
243.064	80.69
243.298	74.69
243.531	77.69
243.765	89.69
243.998	88.69
244.232	83.69
244.465	77.69
244.699	68.69
244.932	79.69
245.166	56.69
245.399	88.69
245.633	80.69
245.866	75.69
246.099	96.69
246.333	73.69
246.566	68.69
246.8	96.69
247.033	74.69
247.266	80.69
247.5	77.69
247.733	67.69
247.966	80.69
248.2	86.69
248.433	82.69
248.666	76.69
248.899	84.69
249.133	77.69
249.366	83.69
249.599	104.69
249.832	88.69
250.066	92.69
250.299	91.69
250.532	84.69
250.765	76.69
250.998	78.69
251.231	67.69
251.465	69.69
251.698	92.69
251.931	74.69
252.164	76.69
252.397	82.69
252.63	77.69
252.863	69.69
253.096	79.69
253.329	74.69
253.562	65.69
253.795	83.69
254.028	87.69
254.261	76.69
254.494	74.69
254.727	73.69
254.96	85.69
255.193	80.69
255.426	84.69
255.659	71.69
255.892	86.69
256.124	75.69
256.357	77.69
256.59	84.69
256.823	80.69
257.056	80.69
257.289	90.69
257.521	88.69
257.754	80.69
257.987	90.69
258.22	83.69
258.452	84.69
258.685	85.69
258.918	67.69
259.151	95.69
259.383	83.69
259.616	90.69
259.849	89.69
260.081	78.69
260.314	92.69
260.547	86.69
260.779	84.69
261.012	75.69
261.244	61.69
261.477	82.69
261.71	91.69
261.942	104.69
262.175	95.69
262.407	87.69
262.64	78.69
262.872	84.69
263.105	74.69
263.337	81.69
263.57	85.69
263.802	89.69
264.035	76.69
264.267	78.69
264.499	95.69
264.732	79.69
264.964	86.69
265.197	85.69
265.429	75.69
265.661	89.69
265.894	88.69
266.126	88.69
266.358	81.69
266.591	72.69
266.823	87.69
267.055	77.69
267.287	91.69
267.52	91.69
267.752	77.69
267.984	73.69
268.216	86.69
268.448	72.69
268.681	85.69
268.913	83.69
269.145	81.69
269.377	92.69
269.609	80.69
269.841	83.69
270.073	84.69
270.306	87.69
270.538	95.69
270.77	87.69
271.002	85.69
271.234	77.69
271.466	81.69
271.698	74.69
271.93	96.69
272.162	83.69
272.394	95.69
272.626	80.69
272.858	93.69
273.09	84.69
273.322	85.69
273.553	78.69
273.785	92.69
274.017	65.69
274.249	82.69
274.481	82.69
274.713	76.69
274.945	82.69
275.176	83.69
275.408	95.69
275.64	84.69
275.872	81.69
276.104	82.69
276.335	83.69
276.567	99.69
276.799	92.69
277.031	83.69
277.262	84.69
277.494	83.69
277.726	69.69
277.957	98.69
278.189	84.69
278.421	81.69
278.652	90.69
278.884	99.69
279.115	82.69
279.347	83.69
279.579	85.69
279.81	79.69
280.042	93.69
280.273	79.69
280.505	76.69
280.736	81.69
280.968	84.69
281.199	85.69
281.431	89.69
281.662	84.69
281.894	90.69
282.125	89.69
282.356	93.69
282.588	112.69
282.819	106.69
283.051	90.69
283.282	90.69
283.513	93.69
283.745	70.69
283.976	86.69
284.207	89.69
284.439	76.69
284.67	92.69
284.901	72.69
285.132	88.69
285.364	71.69
285.595	89.69
285.826	77.69
286.057	83.69
286.288	81.69
286.52	76.69
286.751	82.69
286.982	81.69
287.213	81.69
287.444	75.69
287.675	100.69
287.906	89.69
288.138	100.69
288.369	72.69
288.6	81.69
288.831	91.69
289.062	86.69
289.293	88.69
289.524	80.69
289.755	74.69
289.986	79.69
290.217	86.69
290.448	84.69
290.679	106.69
290.91	84.69
291.141	61.69
291.371	79.69
291.602	99.69
291.833	77.69
292.064	76.69
292.295	81.69
292.526	79.69
292.757	74.69
292.987	97.69
293.218	88.69
293.449	85.69
293.68	80.69
293.91	87.69
294.141	85.69
294.372	79.69
294.603	80.69
294.833	89.69
295.064	83.69
295.295	80.69
295.525	81.69
295.756	116.69
295.987	122.69
296.217	117.69
296.448	108.69
296.679	79.69
296.909	94.69
297.14	88.69
297.37	81.69
297.601	96.69
297.831	82.69
298.062	102.69
298.292	92.69
298.523	93.69
298.753	89.69
298.984	97.69
299.214	85.69
299.445	82.69
299.675	80.69
299.905	93.69
300.136	84.69
300.366	91.69
300.597	78.69
300.827	91.69
301.057	84.69
301.288	106.69
301.518	89.69
301.748	90.69
301.979	104.69
302.209	88.69
302.439	97.69
302.669	80.69
302.9	90.69
303.13	89.69
303.36	82.69
303.59	82.69
303.82	90.69
304.051	79.69
304.281	95.69
304.511	83.69
304.741	88.69
304.971	94.69
305.201	80.69
305.431	94.69
305.661	80.69
305.891	93.69
306.121	90.69
306.352	107.69
306.582	107.69
306.812	87.69
307.042	97.69
307.272	88.69
307.502	102.69
307.731	94.69
307.961	75.69
308.191	91.69
308.421	83.69
308.651	91.69
308.881	79.69
309.111	98.69
309.341	79.69
309.571	98.69
309.8	98.69
310.03	98.69
310.26	105.69
310.49	99.69
310.72	87.69
310.949	104.69
311.179	100.69
311.409	84.69
311.639	88.69
311.868	96.69
312.098	94.69
312.328	101.69
312.557	97.69
312.787	94.69
313.017	89.69
313.246	91.69
313.476	87.69
313.706	95.69
313.935	102.69
314.165	102.69
314.394	96.69
314.624	101.69
314.853	93.69
315.083	96.69
315.312	94.69
315.542	96.69
315.771	95.69
316.001	88.69
316.23	88.69
316.46	101.69
316.689	87.69
316.919	84.69
317.148	85.69
317.377	78.69
317.607	92.69
317.836	84.69
318.065	87.69
318.295	82.69
318.524	96.69
318.753	82.69
318.983	101.69
319.212	103.69
319.441	107.69
319.67	93.69
319.9	84.69
320.129	85.69
320.358	97.69
320.587	88.69
320.816	101.69
321.046	98.69
321.275	99.69
321.504	91.69
321.733	97.69
321.962	88.69
322.191	92.69
322.42	92.69
322.649	100.69
322.878	100.69
323.108	102.69
323.337	91.69
323.566	129.69
323.795	125.69
324.024	172.69
324.253	292.69
324.482	623.69
324.71	1205.69
324.939	1602.69
325.168	601.69
325.397	208.69
325.626	133.69
325.855	116.69
326.084	107.69
326.313	124.69
326.542	131.69
326.77	194.69
326.999	387.69
327.228	734.69
327.457	1230.69
327.686	993.69
327.914	288.69
328.143	180.69
328.372	153.69
328.6	122.69
328.829	107.69
329.058	118.69
329.287	104.69
329.515	97.69
329.744	96.69
329.972	113.69
330.201	156.69
330.43	165.69
330.658	128.69
330.887	138.69
331.115	108.69
331.344	106.69
331.572	96.69
331.801	108.69
332.03	95.69
332.258	86.69
332.486	90.69
332.715	76.69
332.943	73.69
333.172	104.69
333.4	98.69
333.629	112.69
333.857	108.69
334.085	107.69
334.314	143.69
334.542	195.69
334.771	169.69
334.999	116.69
335.227	110.69
335.455	90.69
335.684	99.69
335.912	97.69
336.14	96.69
336.369	95.69
336.597	97.69
336.825	92.69
337.053	78.69
337.281	104.69
337.51	106.69
337.738	90.69
337.966	96.69
338.194	83.69
338.422	81.69
338.65	85.69
338.878	93.69
339.106	80.69
339.334	90.69
339.562	85.69
339.79	99.69
340.018	97.69
340.246	83.69
340.474	98.69
340.702	91.69
340.93	82.69
341.158	78.69
341.386	97.69
341.614	106.69
341.842	92.69
342.07	63.69
342.298	88.69
342.526	87.69
342.754	95.69
342.981	100.69
343.209	100.69
343.437	103.69
343.665	91.69
343.893	79.69
344.12	106.69
344.348	80.69
344.576	92.69
344.804	81.69
345.031	96.69
345.259	97.69
345.487	88.69
345.714	78.69
345.942	88.69
346.17	82.69
346.397	92.69
346.625	85.69
346.853	95.69
347.08	98.69
347.308	93.69
347.535	96.69
347.763	95.69
347.99	97.69
348.218	100.69
348.445	97.69
348.673	112.69
348.9	101.69
349.128	106.69
349.355	90.69
349.583	89.69
349.81	95.69
350.037	100.69
350.265	77.69
350.492	93.69
350.72	100.69
350.947	101.69
351.174	97.69
351.402	94.69
351.629	95.69
351.856	100.69
352.083	103.69
352.311	96.69
352.538	105.69
352.765	108.69
352.992	108.69
353.22	108.69
353.447	98.69
353.674	89.69
353.901	110.69
354.128	92.69
354.355	91.69
354.583	88.69
354.81	85.69
355.037	93.69
355.264	81.69
355.491	95.69
355.718	95.69
355.945	106.69
356.172	105.69
356.399	97.69
356.626	96.69
356.853	106.69
357.08	92.69
357.307	91.69
357.534	84.69
357.761	83.69
357.988	92.69
358.215	89.69
358.441	102.69
358.668	97.69
358.895	86.69
359.122	91.69
359.349	79.69
359.576	90.69
359.802	93.69
360.029	97.69
360.256	96.69
360.483	96.69
360.709	82.69
360.936	79.69
361.163	103.69
361.39	81.69
361.616	99.69
361.843	88.69
362.07	89.69
362.296	93.69
362.523	101.69
362.749	90.69
362.976	78.69
363.203	91.69
363.429	72.69
363.656	80.69
363.882	81.69
364.109	97.69
364.335	97.69
364.562	78.69
364.788	97.69
365.015	89.69
365.241	97.69
365.468	88.69
365.694	91.69
365.92	96.69
366.147	102.69
366.373	83.69
366.599	99.69
366.826	87.69
367.052	95.69
367.278	96.69
367.505	73.69
367.731	84.69
367.957	90.69
368.184	93.69
368.41	79.69
368.636	104.69
368.862	94.69
369.089	94.69
369.315	100.69
369.541	91.69
369.767	89.69
369.993	93.69
370.219	87.69
370.445	105.69
370.672	86.69
370.898	77.69
371.124	91.69
371.35	78.69
371.576	88.69
371.802	89.69
372.028	79.69
372.254	94.69
372.48	93.69
372.706	92.69
372.932	100.69
373.158	91.69
373.384	102.69
373.61	88.69
373.835	84.69
374.061	80.69
374.287	92.69
374.513	80.69
374.739	83.69
374.965	76.69
375.191	99.69
375.416	94.69
375.642	105.69
375.868	82.69
376.094	91.69
376.319	90.69
376.545	87.69
376.771	89.69
376.997	82.69
377.222	100.69
377.448	99.69
377.674	104.69
377.899	73.69
378.125	106.69
378.35	92.69
378.576	94.69
378.802	97.69
379.027	94.69
379.253	108.69
379.478	91.69
379.704	101.69
379.929	86.69
380.155	96.69
380.38	90.69
380.606	91.69
380.831	91.69
381.057	98.69
381.282	99.69
381.507	92.69
381.733	104.69
381.958	99.69
382.184	91.69
382.409	102.69
382.634	97.69
382.86	97.69
383.085	109.69
383.31	101.69
383.535	92.69
383.761	105.69
383.986	94.69
384.211	105.69
384.436	98.69
384.662	112.69
384.887	105.69
385.112	108.69
385.337	100.69
385.562	100.69
385.787	112.69
386.013	123.69
386.238	114.69
386.463	102.69
386.688	108.69
386.913	115.69
387.138	106.69
387.363	109.69
387.588	85.69
387.813	111.69
388.038	123.69
388.263	122.69
388.488	118.69
388.713	116.69
388.938	85.69
389.163	91.69
389.387	87.69
389.612	91.69
389.837	80.69
390.062	96.69
390.287	98.69
390.512	89.69
390.736	70.69
390.961	94.69
391.186	91.69
391.411	98.69
391.636	92.69
391.86	85.69
392.085	85.69
392.31	92.69
392.534	92.69
392.759	107.69
392.984	96.69
393.208	116.69
393.433	141.69
393.658	119.69
393.882	96.69
394.107	86.69
394.331	96.69
394.556	89.69
394.78	78.69
395.005	93.69
395.229	81.69
395.454	80.69
395.678	89.69
395.903	74.69
396.127	83.69
396.352	83.69
396.576	95.69
396.801	96.69
397.025	94.69
397.249	88.69
397.474	72.69
397.698	82.69
397.922	81.69
398.147	85.69
398.371	93.69
398.595	96.69
398.82	93.69
399.044	75.69
399.268	82.69
399.492	93.69
399.717	97.69
399.941	80.69
400.165	93.69
400.389	76.69
400.613	84.69
400.837	94.69
401.062	97.69
401.286	100.69
401.51	99.69
401.734	98.69
401.958	103.69
402.182	109.69
402.406	116.69
402.63	111.69
402.854	86.69
403.078	60.69
403.302	87.69
403.526	83.69
403.75	88.69
403.974	88.69
404.198	95.69
404.422	74.69
404.645	80.69
404.869	84.69
405.093	94.69
405.317	91.69
405.541	95.69
405.765	92.69
405.988	95.69
406.212	155.69
406.436	182.69
406.66	121.69
406.883	94.69
407.107	88.69
407.331	84.69
407.555	86.69
407.778	103.69
408.002	88.69
408.226	79.69
408.449	84.69
408.673	79.69
408.896	89.69
409.12	96.69
409.344	94.69
409.567	90.69
409.791	100.69
410.014	86.69
410.238	107.69
410.461	110.69
410.685	96.69
410.908	108.69
411.132	102.69
411.355	98.69
411.578	94.69
411.802	85.69
412.025	84.69
412.249	98.69
412.472	87.69
412.695	101.69
412.919	99.69
413.142	73.69
413.365	86.69
413.589	96.69
413.812	94.69
414.035	96.69
414.258	92.69
414.482	88.69
414.705	106.69
414.928	86.69
415.151	81.69
415.374	99.69
415.597	91.69
415.821	99.69
416.044	79.69
416.267	90.69
416.49	81.69
416.713	80.69
416.936	111.69
417.159	88.69
417.382	68.69
417.605	67.69
417.828	87.69
418.051	90.69
418.274	97.69
418.497	97.69
418.72	84.69
418.943	79.69
419.166	92.69
419.389	83.69
419.611	82.69
419.834	94.69
420.057	82.69
420.28	101.69
420.503	95.69
420.726	78.69
420.948	78.69
421.171	87.69
421.394	87.69
421.617	83.69
421.839	104.69
422.062	85.69
422.285	93.69
422.507	108.69
422.73	112.69
422.953	94.69
423.175	85.69
423.398	89.69
423.621	88.69
423.843	83.69
424.066	96.69
424.288	75.69
424.511	96.69
424.733	82.69
424.956	95.69
425.178	93.69
425.401	84.69
425.623	88.69
425.846	97.69
426.068	82.69
426.291	96.69
426.513	93.69
426.735	97.69
426.958	83.69
427.18	97.69
427.402	113.69
427.625	133.69
427.847	116.69
428.069	102.69
428.292	83.69
428.514	89.69
428.736	82.69
428.958	70.69
429.181	80.69
429.403	88.69
429.625	93.69
429.847	91.69
430.069	73.69
430.292	78.69
430.514	78.69
430.736	86.69
430.958	85.69
431.18	86.69
431.402	83.69
431.624	88.69
431.846	96.69
432.068	90.69
432.29	78.69
432.512	84.69
432.734	97.69
432.956	85.69
433.178	82.69
433.4	91.69
433.622	96.69
433.844	82.69
434.066	94.69
434.287	82.69
434.509	90.69
434.731	80.69
434.953	96.69
435.175	84.69
435.397	92.69
435.618	93.69
435.84	97.69
436.062	105.69
436.284	100.69
436.505	97.69
436.727	95.69
436.949	77.69
437.17	88.69
437.392	88.69
437.614	89.69
437.835	91.69
438.057	107.69
438.278	109.69
438.5	103.69
438.721	114.69
438.943	92.69
439.165	77.69
439.386	82.69
439.608	85.69
439.829	80.69
440.05	111.69
440.272	107.69
440.493	85.69
440.715	78.69
440.936	78.69
441.158	88.69
441.379	78.69
441.6	95.69
441.822	98.69
442.043	97.69
442.264	92.69
442.486	103.69
442.707	95.69
442.928	102.69
443.149	112.69
443.371	112.69
443.592	108.69
443.813	120.69
444.034	90.69
444.255	84.69
444.476	89.69
444.698	89.69
444.919	84.69
445.14	118.69
445.361	126.69
445.582	112.69
445.803	122.69
446.024	108.69
446.245	109.69
446.466	96.69
446.687	96.69
446.908	80.69
447.129	83.69
447.35	90.69
447.571	93.69
447.792	83.69
448.013	94.69
448.234	105.69
448.455	88.69
448.675	106.69
448.896	97.69
449.117	92.69
449.338	91.69
449.559	108.69
449.779	117.69
450	92.69
450.221	74.69
450.442	89.69
450.662	93.69
450.883	99.69
451.104	83.69
451.324	89.69
451.545	92.69
451.766	86.69
451.986	86.69
452.207	101.69
452.428	93.69
452.648	99.69
452.869	105.69
453.089	83.69
453.31	100.69
453.53	90.69
453.751	97.69
453.971	98.69
454.192	113.69
454.412	101.69
454.633	78.69
454.853	85.69
455.073	84.69
455.294	85.69
455.514	93.69
455.734	75.69
455.955	77.69
456.175	72.69
456.395	76.69
456.616	80.69
456.836	91.69
457.056	87.69
457.276	76.69
457.497	84.69
457.717	92.69
457.937	82.69
458.157	67.69
458.377	84.69
458.598	96.69
458.818	132.69
459.038	122.69
459.258	122.69
459.478	105.69
459.698	89.69
459.918	79.69
460.138	84.69
460.358	81.69
460.578	92.69
460.798	88.69
461.018	81.69
461.238	84.69
461.458	85.69
461.678	97.69
461.898	101.69
462.118	97.69
462.338	93.69
462.558	82.69
462.777	77.69
462.997	73.69
463.217	86.69
463.437	83.69
463.657	86.69
463.876	96.69
464.096	84.69
464.316	90.69
464.536	103.69
464.755	76.69
464.975	82.69
465.195	121.69
465.414	144.69
465.634	97.69
465.854	83.69
466.073	84.69
466.293	80.69
466.512	88.69
466.732	81.69
466.951	88.69
467.171	73.69
467.391	96.69
467.61	94.69
467.829	106.69
468.049	107.69
468.268	129.69
468.488	97.69
468.707	85.69
468.927	87.69
469.146	86.69
469.365	77.69
469.585	96.69
469.804	82.69
470.023	99.69
470.243	90.69
470.462	102.69
470.681	101.69
470.901	91.69
471.12	88.69
471.339	86.69
471.558	81.69
471.777	81.69
471.997	104.69
472.216	160.69
472.435	245.69
472.654	112.69
472.873	91.69
473.092	93.69
473.311	94.69
473.53	82.69
473.749	104.69
473.968	99.69
474.187	112.69
474.406	96.69
474.625	89.69
474.844	99.69
475.063	89.69
475.282	77.69
475.501	92.69
475.72	88.69
475.939	84.69
476.158	83.69
476.377	88.69
476.596	86.69
476.814	88.69
477.033	105.69
477.252	88.69
477.471	97.69
477.69	92.69
477.908	85.69
478.127	105.69
478.346	85.69
478.564	78.69
478.783	76.69
479.002	74.69
479.22	82.69
479.439	89.69
479.658	82.69
479.876	84.69
480.095	94.69
480.313	91.69
480.532	95.69
480.751	101.69
480.969	157.69
481.188	366.69
481.406	236.69
481.624	102.69
481.843	93.69
482.061	78.69
482.28	84.69
482.498	78.69
482.717	85.69
482.935	97.69
483.153	93.69
483.372	90.69
483.59	94.69
483.808	86.69
484.027	89.69
484.245	91.69
484.463	93.69
484.681	104.69
484.9	90.69
485.118	105.69
485.336	99.69
485.554	92.69
485.772	81.69
485.99	113.69
486.209	96.69
486.427	105.69
486.645	106.69
486.863	108.69
487.081	89.69
487.299	104.69
487.517	99.69
487.735	93.69
487.953	88.69
488.171	98.69
488.389	106.69
488.607	100.69
488.825	91.69
489.043	97.69
489.261	92.69
489.479	77.69
489.696	89.69
489.914	97.69
490.132	78.69
490.35	89.69
490.568	84.69
490.786	84.69
491.003	92.69
491.221	93.69
491.439	85.69
491.657	84.69
491.874	85.69
492.092	78.69
492.31	96.69
492.527	84.69
492.745	82.69
492.963	88.69
493.18	88.69
493.398	86.69
493.615	97.69
493.833	99.69
494.05	91.69
494.268	92.69
494.485	83.69
494.703	90.69
494.92	96.69
495.138	88.69
495.355	94.69
495.573	91.69
495.79	80.69
496.008	90.69
496.225	84.69
496.442	88.69
496.66	91.69
496.877	104.69
497.094	96.69
497.312	76.69
497.529	88.69
497.746	102.69
497.963	92.69
498.181	87.69
498.398	106.69
498.615	104.69
498.832	88.69
499.049	97.69
499.267	94.69
499.484	91.69
499.701	79.69
499.918	84.69
500.135	86.69
500.352	89.69
500.569	98.69
500.786	92.69
501.003	83.69
501.22	80.69
501.437	94.69
501.654	93.69
501.871	84.69
502.088	89.69
502.305	79.69
502.522	91.69
502.739	103.69
502.956	91.69
503.172	91.69
503.389	81.69
503.606	105.69
503.823	96.69
504.04	87.69
504.256	100.69
504.473	91.69
504.69	104.69
504.907	90.69
505.123	84.69
505.34	78.69
505.557	97.69
505.773	91.69
505.99	96.69
506.207	85.69
506.423	78.69
506.64	104.69
506.856	90.69
507.073	95.69
507.289	88.69
507.506	82.69
507.722	104.69
507.939	93.69
508.155	96.69
508.372	98.69
508.588	101.69
508.805	106.69
509.021	77.69
509.238	98.69
509.454	93.69
509.67	88.69
509.887	114.69
510.103	105.69
510.319	194.69
510.536	640.69
510.752	1921.69
510.968	526.69
511.184	152.69
511.401	108.69
511.617	88.69
511.833	75.69
512.049	78.69
512.265	86.69
512.481	90.69
512.698	92.69
512.914	99.69
513.13	95.69
513.346	93.69
513.562	94.69
513.778	94.69
513.994	101.69
514.21	99.69
514.426	108.69
514.642	125.69
514.858	121.69
515.074	139.69
515.29	361.69
515.506	1115.69
515.721	415.69
515.937	124.69
516.153	117.69
516.369	82.69
