Data from Circ_1993_H10_HRD10591_00083.txt Node
Date: Wed Jan 03 11:44:18 EST 2024
User: Yrep
Spectrometer: HR+D1059
Trigger mode: 1
Integration Time (sec): 1.000000E-1
Scans to average: 1
Electric dark correction enabled: true
Nonlinearity correction enabled: false
Boxcar width: 0
XAxis mode: Wavelengths
Number of Pixels in Spectrum: 2048
>>>>>Begin Spectral Data<<<<<
223.165	-33.56
223.4	-33.56
223.635	-33.56
223.869	-37.56
224.104	-16.56
224.338	-14.56
224.573	-19.56
224.808	-0.56
225.042	-1.56
225.277	-10.56
225.511	2.44
225.746	28.44
225.98	7.44
226.215	17.44
226.449	7.44
226.683	19.44
226.918	25.44
227.152	26.44
227.387	24.44
227.621	35.44
227.856	42.44
228.09	50.44
228.324	64.44
228.559	65.44
228.793	51.44
229.027	66.44
229.262	74.44
229.496	79.44
229.73	63.44
229.964	85.44
230.199	69.44
230.433	61.44
230.667	65.44
230.901	85.44
231.136	76.44
231.37	66.44
231.604	77.44
231.838	77.44
232.072	82.44
232.306	89.44
232.541	81.44
232.775	88.44
233.009	74.44
233.243	76.44
233.477	75.44
233.711	79.44
233.945	84.44
234.179	69.44
234.413	73.44
234.647	84.44
234.881	75.44
235.115	70.44
235.349	84.44
235.583	74.44
235.817	83.44
236.051	87.44
236.285	98.44
236.519	73.44
236.753	68.44
236.987	69.44
237.221	73.44
237.455	85.44
237.689	80.44
237.922	85.44
238.156	75.44
238.39	74.44
238.624	56.44
238.858	66.44
239.091	86.44
239.325	87.44
239.559	81.44
239.793	66.44
240.027	77.44
240.26	68.44
240.494	89.44
240.728	85.44
240.961	74.44
241.195	60.44
241.429	78.44
241.662	68.44
241.896	77.44
242.13	79.44
242.363	75.44
242.597	92.44
242.83	78.44
243.064	75.44
243.298	76.44
243.531	79.44
243.765	77.44
243.998	82.44
244.232	89.44
244.465	83.44
244.699	93.44
244.932	86.44
245.166	94.44
245.399	81.44
245.633	70.44
245.866	78.44
246.099	75.44
246.333	71.44
246.566	75.44
246.8	87.44
247.033	69.44
247.266	81.44
247.5	80.44
247.733	77.44
247.966	70.44
248.2	94.44
248.433	83.44
248.666	79.44
248.899	74.44
249.133	84.44
249.366	87.44
249.599	91.44
249.832	77.44
250.066	84.44
250.299	84.44
250.532	69.44
250.765	75.44
250.998	84.44
251.231	85.44
251.465	81.44
251.698	71.44
251.931	74.44
252.164	73.44
252.397	78.44
252.63	82.44
252.863	78.44
253.096	82.44
253.329	84.44
253.562	91.44
253.795	80.44
254.028	87.44
254.261	70.44
254.494	86.44
254.727	89.44
254.96	87.44
255.193	67.44
255.426	82.44
255.659	90.44
255.892	79.44
256.124	75.44
256.357	81.44
256.59	76.44
256.823	78.44
257.056	89.44
257.289	86.44
257.521	86.44
257.754	77.44
257.987	74.44
258.22	85.44
258.452	81.44
258.685	82.44
258.918	91.44
259.151	76.44
259.383	79.44
259.616	77.44
259.849	77.44
260.081	83.44
260.314	82.44
260.547	75.44
260.779	90.44
261.012	77.44
261.244	92.44
261.477	85.44
261.71	82.44
261.942	108.44
262.175	114.44
262.407	95.44
262.64	94.44
262.872	79.44
263.105	82.44
263.337	89.44
263.57	84.44
263.802	90.44
264.035	94.44
264.267	84.44
264.499	94.44
264.732	93.44
264.964	85.44
265.197	94.44
265.429	85.44
265.661	96.44
265.894	73.44
266.126	79.44
266.358	99.44
266.591	72.44
266.823	85.44
267.055	83.44
267.287	87.44
267.52	75.44
267.752	81.44
267.984	65.44
268.216	81.44
268.448	92.44
268.681	80.44
268.913	78.44
269.145	94.44
269.377	71.44
269.609	75.44
269.841	82.44
270.073	81.44
270.306	67.44
270.538	86.44
270.77	68.44
271.002	77.44
271.234	89.44
271.466	75.44
271.698	88.44
271.93	82.44
272.162	95.44
272.394	89.44
272.626	86.44
272.858	81.44
273.09	89.44
273.322	89.44
273.553	67.44
273.785	82.44
274.017	82.44
274.249	85.44
274.481	94.44
274.713	82.44
274.945	81.44
275.176	89.44
275.408	87.44
275.64	89.44
275.872	93.44
276.104	92.44
276.335	89.44
276.567	101.44
276.799	107.44
277.031	102.44
277.262	90.44
277.494	102.44
277.726	94.44
277.957	71.44
278.189	88.44
278.421	88.44
278.652	109.44
278.884	89.44
279.115	86.44
279.347	83.44
279.579	87.44
279.81	94.44
280.042	87.44
280.273	109.44
280.505	88.44
280.736	83.44
280.968	101.44
281.199	93.44
281.431	77.44
281.662	90.44
281.894	84.44
282.125	93.44
282.356	112.44
282.588	127.44
282.819	119.44
283.051	88.44
283.282	83.44
283.513	95.44
283.745	82.44
283.976	85.44
284.207	80.44
284.439	83.44
284.67	103.44
284.901	77.44
285.132	101.44
285.364	92.44
285.595	91.44
285.826	84.44
286.057	88.44
286.288	91.44
286.52	91.44
286.751	77.44
286.982	97.44
287.213	77.44
287.444	94.44
287.675	90.44
287.906	87.44
288.138	80.44
288.369	84.44
288.6	107.44
288.831	90.44
289.062	94.44
289.293	90.44
289.524	82.44
289.755	76.44
289.986	99.44
290.217	95.44
290.448	84.44
290.679	80.44
290.91	87.44
291.141	81.44
291.371	98.44
291.602	106.44
291.833	62.44
292.064	92.44
292.295	89.44
292.526	98.44
292.757	83.44
292.987	79.44
293.218	90.44
293.449	84.44
293.68	94.44
293.91	79.44
294.141	89.44
294.372	87.44
294.603	82.44
294.833	93.44
295.064	74.44
295.295	84.44
295.525	93.44
295.756	99.44
295.987	118.44
296.217	116.44
296.448	103.44
296.679	84.44
296.909	91.44
297.14	93.44
297.37	81.44
297.601	100.44
297.831	98.44
298.062	78.44
298.292	97.44
298.523	92.44
298.753	91.44
298.984	91.44
299.214	81.44
299.445	91.44
299.675	83.44
299.905	97.44
300.136	93.44
300.366	90.44
300.597	82.44
300.827	91.44
301.057	89.44
301.288	89.44
301.518	90.44
301.748	89.44
301.979	102.44
302.209	79.44
302.439	89.44
302.669	90.44
302.9	83.44
303.13	92.44
303.36	99.44
303.59	95.44
303.82	94.44
304.051	98.44
304.281	78.44
304.511	74.44
304.741	82.44
304.971	96.44
305.201	103.44
305.431	95.44
305.661	75.44
305.891	99.44
306.121	83.44
306.352	101.44
306.582	114.44
306.812	96.44
307.042	89.44
307.272	99.44
307.502	106.44
307.731	102.44
307.961	104.44
308.191	96.44
308.421	89.44
308.651	101.44
308.881	98.44
309.111	95.44
309.341	85.44
309.571	97.44
309.8	85.44
310.03	78.44
310.26	100.44
310.49	92.44
310.72	108.44
310.949	100.44
311.179	100.44
311.409	94.44
311.639	94.44
311.868	95.44
312.098	105.44
312.328	96.44
312.557	92.44
312.787	91.44
313.017	101.44
313.246	93.44
313.476	83.44
313.706	102.44
313.935	107.44
314.165	107.44
314.394	110.44
314.624	94.44
314.853	94.44
315.083	85.44
315.312	94.44
315.542	103.44
315.771	93.44
316.001	90.44
316.23	102.44
316.46	84.44
316.689	82.44
316.919	101.44
317.148	82.44
317.377	104.44
317.607	96.44
317.836	85.44
318.065	83.44
318.295	98.44
318.524	104.44
318.753	79.44
318.983	91.44
319.212	96.44
319.441	102.44
319.67	112.44
319.9	85.44
320.129	102.44
320.358	96.44
320.587	102.44
320.816	99.44
321.046	98.44
321.275	90.44
321.504	89.44
321.733	113.44
321.962	80.44
322.191	101.44
322.42	91.44
322.649	102.44
322.878	100.44
323.108	102.44
323.337	129.44
323.566	120.44
323.795	140.44
324.024	180.44
324.253	346.44
324.482	707.44
324.71	1419.44
324.939	1880.44
325.168	710.44
325.397	218.44
325.626	135.44
325.855	135.44
326.084	128.44
326.313	146.44
326.542	144.44
326.77	206.44
326.999	395.44
327.228	811.44
327.457	1483.44
327.686	1122.44
327.914	327.44
328.143	193.44
328.372	175.44
328.6	141.44
328.829	121.44
329.058	123.44
329.287	120.44
329.515	115.44
329.744	129.44
329.972	142.44
330.201	213.44
330.43	254.44
330.658	182.44
330.887	140.44
331.115	120.44
331.344	101.44
331.572	121.44
331.801	95.44
332.03	99.44
332.258	96.44
332.486	98.44
332.715	87.44
332.943	101.44
333.172	92.44
333.4	110.44
333.629	109.44
333.857	117.44
334.085	167.44
334.314	228.44
334.542	315.44
334.771	293.44
334.999	134.44
335.227	105.44
335.455	103.44
335.684	101.44
335.912	104.44
336.14	102.44
336.369	96.44
336.597	98.44
336.825	96.44
337.053	87.44
337.281	86.44
337.51	94.44
337.738	106.44
337.966	84.44
338.194	93.44
338.422	95.44
338.65	94.44
338.878	106.44
339.106	90.44
339.334	85.44
339.562	89.44
339.79	90.44
340.018	86.44
340.246	79.44
340.474	77.44
340.702	81.44
340.93	108.44
341.158	102.44
341.386	77.44
341.614	89.44
341.842	103.44
342.07	94.44
342.298	88.44
342.526	82.44
342.754	86.44
342.981	100.44
343.209	99.44
343.437	96.44
343.665	101.44
343.893	93.44
344.12	114.44
344.348	102.44
344.576	79.44
344.804	102.44
345.031	102.44
345.259	95.44
345.487	101.44
345.714	96.44
345.942	89.44
346.17	77.44
346.397	94.44
346.625	101.44
346.853	86.44
347.08	98.44
347.308	89.44
347.535	98.44
347.763	84.44
347.99	107.44
348.218	93.44
348.445	109.44
348.673	84.44
348.9	87.44
349.128	94.44
349.355	104.44
349.583	91.44
349.81	93.44
350.037	108.44
350.265	101.44
350.492	91.44
350.72	115.44
350.947	88.44
351.174	106.44
351.402	100.44
351.629	85.44
351.856	93.44
352.083	97.44
352.311	102.44
352.538	87.44
352.765	106.44
352.992	110.44
353.22	102.44
353.447	96.44
353.674	95.44
353.901	93.44
354.128	83.44
354.355	86.44
354.583	99.44
354.81	97.44
355.037	87.44
355.264	89.44
355.491	91.44
355.718	103.44
355.945	90.44
356.172	101.44
356.399	101.44
356.626	87.44
356.853	95.44
357.08	91.44
357.307	90.44
357.534	92.44
357.761	91.44
357.988	99.44
358.215	86.44
358.441	89.44
358.668	88.44
358.895	104.44
359.122	73.44
359.349	83.44
359.576	115.44
359.802	98.44
360.029	107.44
360.256	99.44
360.483	91.44
360.709	94.44
360.936	89.44
361.163	97.44
361.39	80.44
361.616	95.44
361.843	103.44
362.07	80.44
362.296	81.44
362.523	96.44
362.749	84.44
362.976	94.44
363.203	94.44
363.429	82.44
363.656	94.44
363.882	84.44
364.109	81.44
364.335	88.44
364.562	87.44
364.788	73.44
365.015	95.44
365.241	101.44
365.468	114.44
365.694	96.44
365.92	101.44
366.147	79.44
366.373	83.44
366.599	89.44
366.826	94.44
367.052	83.44
367.278	88.44
367.505	91.44
367.731	92.44
367.957	93.44
368.184	90.44
368.41	75.44
368.636	108.44
368.862	116.44
369.089	117.44
369.315	92.44
369.541	98.44
369.767	91.44
369.993	91.44
370.219	105.44
370.445	94.44
370.672	82.44
370.898	87.44
371.124	77.44
371.35	79.44
371.576	90.44
371.802	84.44
372.028	85.44
372.254	94.44
372.48	87.44
372.706	73.44
372.932	85.44
373.158	88.44
373.384	90.44
373.61	96.44
373.835	80.44
374.061	102.44
374.287	89.44
374.513	109.44
374.739	87.44
374.965	94.44
375.191	97.44
375.416	79.44
375.642	107.44
375.868	88.44
376.094	103.44
376.319	89.44
376.545	82.44
376.771	91.44
376.997	92.44
377.222	85.44
377.448	84.44
377.674	78.44
377.899	85.44
378.125	76.44
378.35	83.44
378.576	91.44
378.802	101.44
379.027	94.44
379.253	87.44
379.478	95.44
379.704	100.44
379.929	92.44
380.155	91.44
380.38	97.44
380.606	95.44
380.831	94.44
381.057	98.44
381.282	92.44
381.507	103.44
381.733	106.44
381.958	107.44
382.184	97.44
382.409	84.44
382.634	95.44
382.86	104.44
383.085	95.44
383.31	97.44
383.535	92.44
383.761	108.44
383.986	104.44
384.211	93.44
384.436	117.44
384.662	105.44
384.887	97.44
385.112	122.44
385.337	99.44
385.562	103.44
385.787	99.44
386.013	99.44
386.238	105.44
386.463	110.44
386.688	108.44
386.913	99.44
387.138	115.44
387.363	93.44
387.588	95.44
387.813	103.44
388.038	102.44
388.263	106.44
388.488	106.44
388.713	113.44
388.938	98.44
389.163	96.44
389.387	100.44
389.612	81.44
389.837	86.44
390.062	104.44
390.287	89.44
390.512	97.44
390.736	93.44
390.961	105.44
391.186	102.44
391.411	89.44
391.636	92.44
391.86	94.44
392.085	95.44
392.31	101.44
392.534	95.44
392.759	90.44
392.984	93.44
393.208	105.44
393.433	115.44
393.658	103.44
393.882	87.44
394.107	81.44
394.331	87.44
394.556	77.44
394.78	85.44
395.005	93.44
395.229	92.44
395.454	89.44
395.678	86.44
395.903	85.44
396.127	97.44
396.352	83.44
396.576	86.44
396.801	93.44
397.025	101.44
397.249	98.44
397.474	85.44
397.698	87.44
397.922	97.44
398.147	78.44
398.371	81.44
398.595	77.44
398.82	100.44
399.044	83.44
399.268	78.44
399.492	77.44
399.717	80.44
399.941	106.44
400.165	93.44
400.389	83.44
400.613	97.44
400.837	77.44
401.062	97.44
401.286	91.44
401.51	87.44
401.734	89.44
401.958	100.44
402.182	103.44
402.406	144.44
402.63	101.44
402.854	102.44
403.078	86.44
403.302	81.44
403.526	97.44
403.75	98.44
403.974	70.44
404.198	84.44
404.422	83.44
404.645	81.44
404.869	83.44
405.093	95.44
405.317	105.44
405.541	99.44
405.765	106.44
405.988	102.44
406.212	153.44
406.436	207.44
406.66	117.44
406.883	109.44
407.107	92.44
407.331	92.44
407.555	85.44
407.778	97.44
408.002	88.44
408.226	77.44
408.449	76.44
408.673	84.44
408.896	92.44
409.12	102.44
409.344	97.44
409.567	88.44
409.791	95.44
410.014	89.44
410.238	96.44
410.461	107.44
410.685	99.44
410.908	87.44
411.132	109.44
411.355	97.44
411.578	89.44
411.802	108.44
412.025	83.44
412.249	93.44
412.472	95.44
412.695	101.44
412.919	105.44
413.142	95.44
413.365	85.44
413.589	75.44
413.812	80.44
414.035	82.44
414.258	93.44
414.482	91.44
414.705	79.44
414.928	84.44
415.151	73.44
415.374	91.44
415.597	84.44
415.821	85.44
416.044	90.44
416.267	91.44
416.49	98.44
416.713	87.44
416.936	85.44
417.159	94.44
417.382	88.44
417.605	95.44
417.828	93.44
418.051	88.44
418.274	86.44
418.497	91.44
418.72	87.44
418.943	92.44
419.166	87.44
419.389	78.44
419.611	101.44
419.834	100.44
420.057	106.44
420.28	82.44
420.503	98.44
420.726	97.44
420.948	90.44
421.171	97.44
421.394	93.44
421.617	76.44
421.839	100.44
422.062	90.44
422.285	98.44
422.507	116.44
422.73	126.44
422.953	92.44
423.175	98.44
423.398	91.44
423.621	99.44
423.843	87.44
424.066	82.44
424.288	77.44
424.511	83.44
424.733	101.44
424.956	103.44
425.178	87.44
425.401	94.44
425.623	93.44
425.846	85.44
426.068	93.44
426.291	76.44
426.513	98.44
426.735	106.44
426.958	98.44
427.18	117.44
427.402	135.44
427.625	158.44
427.847	144.44
428.069	126.44
428.292	106.44
428.514	90.44
428.736	99.44
428.958	92.44
429.181	89.44
429.403	88.44
429.625	103.44
429.847	93.44
430.069	98.44
430.292	101.44
430.514	110.44
430.736	92.44
430.958	98.44
431.18	83.44
431.402	76.44
431.624	89.44
431.846	84.44
432.068	91.44
432.29	103.44
432.512	88.44
432.734	97.44
432.956	92.44
433.178	105.44
433.4	88.44
433.622	95.44
433.844	86.44
434.066	97.44
434.287	83.44
434.509	98.44
434.731	95.44
434.953	92.44
435.175	83.44
435.397	91.44
435.618	79.44
435.84	101.44
436.062	118.44
436.284	109.44
436.505	91.44
436.727	99.44
436.949	80.44
437.17	88.44
437.392	97.44
437.614	101.44
437.835	98.44
438.057	105.44
438.278	108.44
438.5	97.44
438.721	109.44
438.943	110.44
439.165	70.44
439.386	84.44
439.608	98.44
439.829	94.44
440.05	107.44
440.272	147.44
440.493	91.44
440.715	83.44
440.936	101.44
441.158	86.44
441.379	98.44
441.6	85.44
441.822	85.44
442.043	99.44
442.264	117.44
442.486	87.44
442.707	102.44
442.928	115.44
443.149	133.44
443.371	134.44
443.592	89.44
443.813	102.44
444.034	109.44
444.255	91.44
444.476	89.44
444.698	89.44
444.919	85.44
445.14	144.44
445.361	112.44
445.582	101.44
445.803	134.44
446.024	127.44
446.245	122.44
446.466	114.44
446.687	86.44
446.908	86.44
447.129	78.44
447.35	89.44
447.571	97.44
447.792	85.44
448.013	85.44
448.234	107.44
448.455	99.44
448.675	114.44
448.896	111.44
449.117	86.44
449.338	110.44
449.559	116.44
449.779	125.44
450	95.44
450.221	78.44
450.442	85.44
450.662	86.44
450.883	113.44
451.104	97.44
451.324	102.44
451.545	91.44
451.766	90.44
451.986	76.44
452.207	98.44
452.428	84.44
452.648	105.44
452.869	93.44
453.089	103.44
453.31	112.44
453.53	89.44
453.751	98.44
453.971	91.44
454.192	106.44
454.412	100.44
454.633	90.44
454.853	86.44
455.073	89.44
455.294	83.44
455.514	93.44
455.734	102.44
455.955	102.44
456.175	77.44
456.395	91.44
456.616	82.44
456.836	84.44
457.056	75.44
457.276	85.44
457.497	89.44
457.717	80.44
457.937	75.44
458.157	89.44
458.377	97.44
458.598	88.44
458.818	126.44
459.038	147.44
459.258	106.44
459.478	81.44
459.698	70.44
459.918	94.44
460.138	91.44
460.358	94.44
460.578	88.44
460.798	89.44
461.018	90.44
461.238	89.44
461.458	97.44
461.678	81.44
461.898	105.44
462.118	86.44
462.338	82.44
462.558	87.44
462.777	84.44
462.997	94.44
463.217	85.44
463.437	84.44
463.657	78.44
463.876	83.44
464.096	84.44
464.316	91.44
464.536	97.44
464.755	97.44
464.975	108.44
465.195	158.44
465.414	142.44
465.634	88.44
465.854	89.44
466.073	81.44
466.293	94.44
466.512	78.44
466.732	78.44
466.951	83.44
467.171	91.44
467.391	108.44
467.61	99.44
467.829	107.44
468.049	153.44
468.268	162.44
468.488	86.44
468.707	89.44
468.927	74.44
469.146	97.44
469.365	85.44
469.585	88.44
469.804	102.44
470.023	89.44
470.243	84.44
470.462	109.44
470.681	97.44
470.901	101.44
471.12	75.44
471.339	82.44
471.558	87.44
471.777	101.44
471.997	107.44
472.216	246.44
472.435	428.44
472.654	158.44
472.873	91.44
473.092	93.44
473.311	82.44
473.53	86.44
473.749	84.44
473.968	106.44
474.187	91.44
474.406	92.44
474.625	86.44
474.844	89.44
475.063	95.44
475.282	91.44
475.501	100.44
475.72	81.44
475.939	79.44
476.158	75.44
476.377	92.44
476.596	73.44
476.814	86.44
477.033	88.44
477.252	94.44
477.471	104.44
477.69	87.44
477.908	94.44
478.127	93.44
478.346	84.44
478.564	94.44
478.783	92.44
479.002	92.44
479.22	92.44
479.439	104.44
479.658	110.44
479.876	92.44
480.095	101.44
480.313	99.44
480.532	106.44
480.751	117.44
480.969	237.44
481.188	699.44
481.406	428.44
481.624	127.44
481.843	93.44
482.061	94.44
482.28	81.44
482.498	82.44
482.717	89.44
482.935	98.44
483.153	101.44
483.372	89.44
483.59	86.44
483.808	83.44
484.027	90.44
484.245	91.44
484.463	102.44
484.681	101.44
484.9	101.44
485.118	94.44
485.336	103.44
485.554	98.44
485.772	115.44
485.99	111.44
486.209	105.44
486.427	112.44
486.645	115.44
486.863	117.44
487.081	100.44
487.299	90.44
487.517	98.44
487.735	84.44
487.953	95.44
488.171	96.44
488.389	98.44
488.607	94.44
488.825	90.44
489.043	93.44
489.261	82.44
489.479	83.44
489.696	87.44
489.914	80.44
490.132	100.44
490.35	87.44
490.568	91.44
490.786	90.44
491.003	101.44
491.221	79.44
491.439	99.44
491.657	96.44
491.874	89.44
492.092	85.44
492.31	96.44
492.527	90.44
492.745	92.44
492.963	101.44
493.18	94.44
493.398	98.44
493.615	96.44
493.833	93.44
494.05	92.44
494.268	93.44
494.485	97.44
494.703	81.44
494.92	90.44
495.138	91.44
495.355	92.44
495.573	81.44
495.79	104.44
496.008	91.44
496.225	93.44
496.442	94.44
496.66	102.44
496.877	87.44
497.094	85.44
497.312	87.44
497.529	87.44
497.746	92.44
497.963	97.44
498.181	81.44
498.398	94.44
498.615	107.44
498.832	111.44
499.049	85.44
499.267	82.44
499.484	104.44
499.701	88.44
499.918	85.44
500.135	93.44
500.352	100.44
500.569	95.44
500.786	100.44
501.003	86.44
501.22	91.44
501.437	101.44
501.654	92.44
501.871	93.44
502.088	100.44
502.305	96.44
502.522	90.44
502.739	87.44
502.956	89.44
503.172	91.44
503.389	92.44
503.606	112.44
503.823	94.44
504.04	95.44
504.256	85.44
504.473	89.44
504.69	81.44
504.907	91.44
505.123	94.44
505.34	85.44
505.557	89.44
505.773	89.44
505.99	89.44
506.207	93.44
506.423	89.44
506.64	79.44
506.856	87.44
507.073	84.44
507.289	99.44
507.506	95.44
507.722	107.44
507.939	127.44
508.155	90.44
508.372	98.44
508.588	85.44
508.805	107.44
509.021	101.44
509.238	93.44
509.454	102.44
509.67	97.44
509.887	114.44
510.103	109.44
510.319	191.44
510.536	636.44
510.752	2016.44
510.968	572.44
511.184	132.44
511.401	110.44
511.617	95.44
511.833	91.44
512.049	97.44
512.265	90.44
512.481	91.44
512.698	94.44
512.914	78.44
513.13	102.44
513.346	86.44
513.562	90.44
513.778	77.44
513.994	91.44
514.21	87.44
514.426	122.44
514.642	123.44
514.858	108.44
515.074	144.44
515.29	380.44
