Data from Circ_1993_H10_HRD10591_00091.txt Node
Date: Wed Jan 03 11:44:20 EST 2024
User: Yrep
Spectrometer: HR+D1059
Trigger mode: 1
Integration Time (sec): 1.000000E-1
Scans to average: 1
Electric dark correction enabled: true
Nonlinearity correction enabled: false
Boxcar width: 0
XAxis mode: Wavelengths
Number of Pixels in Spectrum: 2048
>>>>>Begin Spectral Data<<<<<
223.165	-8.75
223.4	-8.75
223.635	-8.75
223.869	-28.75
224.104	-12.75
224.338	-14.75
224.573	-25.75
224.808	-2.75
225.042	-15.75
225.277	-5.75
225.511	5.25
225.746	-3.75
225.98	20.25
226.215	29.25
226.449	0.25
226.683	14.25
226.918	18.25
227.152	31.25
227.387	35.25
227.621	41.25
227.856	39.25
228.09	38.25
228.324	44.25
228.559	48.25
228.793	49.25
229.027	55.25
229.262	70.25
229.496	62.25
229.73	90.25
229.964	69.25
230.199	65.25
230.433	47.25
230.667	69.25
230.901	70.25
231.136	77.25
231.37	69.25
231.604	79.25
231.838	77.25
232.072	80.25
232.306	58.25
232.541	71.25
232.775	79.25
233.009	81.25
233.243	81.25
233.477	79.25
233.711	77.25
233.945	70.25
234.179	81.25
234.413	70.25
234.647	81.25
234.881	65.25
235.115	83.25
235.349	69.25
235.583	59.25
235.817	65.25
236.051	72.25
236.285	97.25
236.519	74.25
236.753	67.25
236.987	71.25
237.221	61.25
237.455	87.25
237.689	70.25
237.922	58.25
238.156	64.25
238.39	74.25
238.624	72.25
238.858	69.25
239.091	88.25
239.325	74.25
239.559	78.25
239.793	73.25
240.027	71.25
240.26	69.25
240.494	74.25
240.728	65.25
240.961	76.25
241.195	72.25
241.429	75.25
241.662	76.25
241.896	86.25
242.13	71.25
242.363	71.25
242.597	62.25
242.83	71.25
243.064	88.25
243.298	73.25
243.531	59.25
243.765	69.25
243.998	62.25
244.232	80.25
244.465	69.25
244.699	69.25
244.932	72.25
245.166	70.25
245.399	71.25
245.633	67.25
245.866	73.25
246.099	85.25
246.333	72.25
246.566	70.25
246.8	69.25
247.033	74.25
247.266	78.25
247.5	79.25
247.733	82.25
247.966	79.25
248.2	73.25
248.433	91.25
248.666	76.25
248.899	74.25
249.133	88.25
249.366	92.25
249.599	94.25
249.832	86.25
250.066	80.25
250.299	85.25
250.532	84.25
250.765	79.25
250.998	56.25
251.231	79.25
251.465	65.25
251.698	69.25
251.931	87.25
252.164	78.25
252.397	87.25
252.63	79.25
252.863	68.25
253.096	75.25
253.329	68.25
253.562	78.25
253.795	62.25
254.028	90.25
254.261	82.25
254.494	76.25
254.727	73.25
254.96	69.25
255.193	73.25
255.426	80.25
255.659	78.25
255.892	89.25
256.124	80.25
256.357	66.25
256.59	79.25
256.823	67.25
257.056	85.25
257.289	72.25
257.521	85.25
257.754	74.25
257.987	76.25
258.22	88.25
258.452	82.25
258.685	79.25
258.918	64.25
259.151	82.25
259.383	84.25
259.616	62.25
259.849	71.25
260.081	65.25
260.314	79.25
260.547	77.25
260.779	75.25
261.012	87.25
261.244	73.25
261.477	88.25
261.71	75.25
261.942	88.25
262.175	94.25
262.407	72.25
262.64	69.25
262.872	78.25
263.105	73.25
263.337	76.25
263.57	72.25
263.802	81.25
264.035	87.25
264.267	89.25
264.499	78.25
264.732	68.25
264.964	62.25
265.197	89.25
265.429	76.25
265.661	76.25
265.894	74.25
266.126	86.25
266.358	77.25
266.591	82.25
266.823	66.25
267.055	72.25
267.287	78.25
267.52	81.25
267.752	84.25
267.984	80.25
268.216	78.25
268.448	73.25
268.681	73.25
268.913	79.25
269.145	58.25
269.377	71.25
269.609	73.25
269.841	92.25
270.073	87.25
270.306	86.25
270.538	86.25
270.77	79.25
271.002	76.25
271.234	76.25
271.466	97.25
271.698	69.25
271.93	71.25
272.162	73.25
272.394	96.25
272.626	96.25
272.858	81.25
273.09	94.25
273.322	73.25
273.553	78.25
273.785	93.25
274.017	80.25
274.249	89.25
274.481	84.25
274.713	79.25
274.945	87.25
275.176	65.25
275.408	81.25
275.64	74.25
275.872	85.25
276.104	79.25
276.335	86.25
276.567	88.25
276.799	104.25
277.031	95.25
277.262	105.25
277.494	84.25
277.726	82.25
277.957	79.25
278.189	75.25
278.421	66.25
278.652	75.25
278.884	81.25
279.115	91.25
279.347	74.25
279.579	85.25
279.81	71.25
280.042	80.25
280.273	99.25
280.505	88.25
280.736	81.25
280.968	86.25
281.199	73.25
281.431	80.25
281.662	81.25
281.894	76.25
282.125	90.25
282.356	105.25
282.588	122.25
282.819	103.25
283.051	72.25
283.282	80.25
283.513	80.25
283.745	74.25
283.976	69.25
284.207	63.25
284.439	73.25
284.67	74.25
284.901	73.25
285.132	76.25
285.364	86.25
285.595	84.25
285.826	89.25
286.057	87.25
286.288	82.25
286.52	77.25
286.751	69.25
286.982	76.25
287.213	85.25
287.444	61.25
287.675	91.25
287.906	87.25
288.138	76.25
288.369	94.25
288.6	79.25
288.831	60.25
289.062	89.25
289.293	73.25
289.524	77.25
289.755	86.25
289.986	93.25
290.217	88.25
290.448	79.25
290.679	82.25
290.91	93.25
291.141	78.25
291.371	79.25
291.602	83.25
291.833	78.25
292.064	84.25
292.295	89.25
292.526	76.25
292.757	88.25
292.987	77.25
293.218	87.25
293.449	85.25
293.68	87.25
293.91	92.25
294.141	84.25
294.372	84.25
294.603	77.25
294.833	100.25
295.064	93.25
295.295	77.25
295.525	75.25
295.756	79.25
295.987	104.25
296.217	118.25
296.448	97.25
296.679	86.25
296.909	94.25
297.14	86.25
297.37	100.25
297.601	91.25
297.831	72.25
298.062	73.25
298.292	96.25
298.523	76.25
298.753	86.25
298.984	88.25
299.214	65.25
299.445	80.25
299.675	80.25
299.905	88.25
300.136	80.25
300.366	86.25
300.597	72.25
300.827	89.25
301.057	85.25
301.288	112.25
301.518	107.25
301.748	84.25
301.979	89.25
302.209	80.25
302.439	82.25
302.669	81.25
302.9	72.25
303.13	92.25
303.36	89.25
303.59	85.25
303.82	85.25
304.051	81.25
304.281	81.25
304.511	90.25
304.741	86.25
304.971	84.25
305.201	86.25
305.431	80.25
305.661	72.25
305.891	76.25
306.121	93.25
306.352	103.25
306.582	108.25
306.812	93.25
307.042	88.25
307.272	86.25
307.502	101.25
307.731	93.25
307.961	84.25
308.191	84.25
308.421	78.25
308.651	93.25
308.881	83.25
309.111	90.25
309.341	85.25
309.571	84.25
309.8	80.25
310.03	104.25
310.26	108.25
310.49	95.25
310.72	98.25
310.949	93.25
311.179	81.25
311.409	77.25
311.639	82.25
311.868	94.25
312.098	87.25
312.328	82.25
312.557	86.25
312.787	87.25
313.017	91.25
313.246	86.25
313.476	96.25
313.706	82.25
313.935	76.25
314.165	89.25
314.394	92.25
314.624	77.25
314.853	97.25
315.083	87.25
315.312	88.25
315.542	74.25
315.771	96.25
316.001	79.25
316.23	80.25
316.46	85.25
316.689	75.25
316.919	85.25
317.148	90.25
317.377	102.25
317.607	86.25
317.836	80.25
318.065	84.25
318.295	94.25
318.524	84.25
318.753	84.25
318.983	83.25
319.212	89.25
319.441	99.25
319.67	101.25
319.9	80.25
320.129	83.25
320.358	86.25
320.587	95.25
320.816	98.25
321.046	102.25
321.275	101.25
321.504	84.25
321.733	97.25
321.962	97.25
322.191	89.25
322.42	97.25
322.649	99.25
322.878	105.25
323.108	111.25
323.337	110.25
323.566	118.25
323.795	122.25
324.024	165.25
324.253	331.25
324.482	648.25
324.71	1305.25
324.939	1736.25
325.168	632.25
325.397	194.25
325.626	128.25
325.855	100.25
326.084	103.25
326.313	112.25
326.542	120.25
326.77	201.25
326.999	365.25
327.228	744.25
327.457	1349.25
327.686	1076.25
327.914	308.25
328.143	184.25
328.372	176.25
328.6	143.25
328.829	109.25
329.058	114.25
329.287	112.25
329.515	94.25
329.744	96.25
329.972	138.25
330.201	203.25
330.43	261.25
330.658	180.25
330.887	124.25
331.115	101.25
331.344	100.25
331.572	88.25
331.801	90.25
332.03	89.25
332.258	75.25
332.486	98.25
332.715	98.25
332.943	87.25
333.172	84.25
333.4	88.25
333.629	96.25
333.857	104.25
334.085	144.25
334.314	211.25
334.542	326.25
334.771	306.25
334.999	125.25
335.227	108.25
335.455	97.25
335.684	93.25
335.912	102.25
336.14	81.25
336.369	89.25
336.597	82.25
336.825	90.25
337.053	92.25
337.281	90.25
337.51	101.25
337.738	100.25
337.966	86.25
338.194	95.25
338.422	85.25
338.65	81.25
338.878	86.25
339.106	90.25
339.334	98.25
339.562	95.25
339.79	85.25
340.018	78.25
340.246	82.25
340.474	78.25
340.702	89.25
340.93	91.25
341.158	82.25
341.386	84.25
341.614	80.25
341.842	82.25
342.07	86.25
342.298	76.25
342.526	77.25
342.754	84.25
342.981	91.25
343.209	72.25
343.437	82.25
343.665	76.25
343.893	83.25
344.12	92.25
344.348	81.25
344.576	81.25
344.804	91.25
345.031	92.25
345.259	79.25
345.487	93.25
345.714	101.25
345.942	85.25
346.17	80.25
346.397	78.25
346.625	93.25
346.853	94.25
347.08	79.25
347.308	89.25
347.535	87.25
347.763	85.25
347.99	85.25
348.218	77.25
348.445	93.25
348.673	81.25
348.9	86.25
349.128	95.25
349.355	81.25
349.583	103.25
349.81	86.25
350.037	82.25
350.265	92.25
350.492	88.25
350.72	79.25
350.947	85.25
351.174	107.25
351.402	91.25
351.629	84.25
351.856	86.25
352.083	98.25
352.311	95.25
352.538	106.25
352.765	95.25
352.992	96.25
353.22	110.25
353.447	102.25
353.674	105.25
353.901	86.25
354.128	95.25
354.355	78.25
354.583	93.25
354.81	103.25
355.037	105.25
355.264	108.25
355.491	90.25
355.718	91.25
355.945	106.25
356.172	95.25
356.399	88.25
356.626	85.25
356.853	91.25
357.08	101.25
357.307	95.25
357.534	88.25
357.761	90.25
357.988	99.25
358.215	97.25
358.441	84.25
358.668	89.25
358.895	101.25
359.122	79.25
359.349	90.25
359.576	85.25
359.802	79.25
360.029	111.25
360.256	92.25
360.483	85.25
360.709	92.25
360.936	96.25
361.163	76.25
361.39	84.25
361.616	78.25
361.843	82.25
362.07	81.25
362.296	88.25
362.523	92.25
362.749	81.25
362.976	97.25
363.203	78.25
363.429	98.25
363.656	85.25
363.882	78.25
364.109	80.25
364.335	84.25
364.562	77.25
364.788	82.25
365.015	95.25
365.241	82.25
365.468	94.25
365.694	102.25
365.92	87.25
366.147	83.25
366.373	85.25
366.599	82.25
366.826	80.25
367.052	90.25
367.278	84.25
367.505	82.25
367.731	93.25
367.957	94.25
368.184	81.25
368.41	94.25
368.636	97.25
368.862	93.25
369.089	84.25
369.315	87.25
369.541	84.25
369.767	99.25
369.993	74.25
370.219	82.25
370.445	74.25
370.672	82.25
370.898	95.25
371.124	84.25
371.35	97.25
371.576	84.25
371.802	80.25
372.028	73.25
372.254	79.25
372.48	79.25
372.706	87.25
372.932	88.25
373.158	68.25
373.384	84.25
373.61	88.25
373.835	82.25
374.061	76.25
374.287	90.25
374.513	84.25
374.739	90.25
374.965	89.25
375.191	93.25
375.416	88.25
375.642	92.25
375.868	86.25
376.094	73.25
376.319	84.25
376.545	77.25
376.771	86.25
376.997	94.25
377.222	92.25
377.448	92.25
377.674	65.25
377.899	94.25
378.125	89.25
378.35	87.25
378.576	77.25
378.802	80.25
379.027	91.25
379.253	86.25
379.478	84.25
379.704	92.25
379.929	86.25
380.155	82.25
380.38	85.25
380.606	78.25
380.831	92.25
381.057	92.25
381.282	82.25
381.507	86.25
381.733	88.25
381.958	94.25
382.184	92.25
382.409	86.25
382.634	94.25
382.86	85.25
383.085	73.25
383.31	93.25
383.535	96.25
383.761	90.25
383.986	85.25
384.211	86.25
384.436	102.25
384.662	92.25
384.887	104.25
385.112	115.25
385.337	102.25
385.562	104.25
385.787	91.25
386.013	85.25
386.238	94.25
386.463	107.25
386.688	97.25
386.913	106.25
387.138	96.25
387.363	80.25
387.588	92.25
387.813	83.25
388.038	97.25
388.263	106.25
388.488	116.25
388.713	95.25
388.938	88.25
389.163	113.25
389.387	84.25
389.612	88.25
389.837	87.25
390.062	65.25
390.287	91.25
390.512	89.25
390.736	89.25
390.961	93.25
391.186	79.25
391.411	74.25
391.636	83.25
391.86	90.25
392.085	84.25
392.31	78.25
392.534	85.25
392.759	93.25
392.984	90.25
393.208	84.25
393.433	101.25
393.658	106.25
393.882	78.25
394.107	95.25
394.331	80.25
394.556	80.25
394.78	88.25
395.005	87.25
395.229	73.25
395.454	79.25
395.678	76.25
395.903	81.25
396.127	92.25
396.352	86.25
396.576	92.25
396.801	97.25
397.025	88.25
397.249	86.25
397.474	80.25
397.698	95.25
397.922	78.25
398.147	76.25
398.371	65.25
398.595	82.25
398.82	88.25
399.044	78.25
399.268	79.25
399.492	89.25
399.717	88.25
399.941	97.25
400.165	68.25
400.389	95.25
400.613	85.25
400.837	83.25
401.062	80.25
401.286	82.25
401.51	78.25
401.734	66.25
401.958	86.25
402.182	96.25
402.406	114.25
402.63	93.25
402.854	82.25
403.078	86.25
403.302	90.25
403.526	70.25
403.75	86.25
403.974	95.25
404.198	84.25
404.422	89.25
404.645	90.25
404.869	87.25
405.093	77.25
405.317	97.25
405.541	89.25
405.765	85.25
405.988	112.25
406.212	116.25
406.436	168.25
406.66	124.25
406.883	92.25
407.107	96.25
407.331	84.25
407.555	90.25
407.778	85.25
408.002	90.25
408.226	87.25
408.449	79.25
408.673	92.25
408.896	77.25
409.12	88.25
409.344	90.25
409.567	94.25
409.791	102.25
410.014	91.25
410.238	94.25
410.461	88.25
410.685	81.25
410.908	95.25
411.132	88.25
411.355	84.25
411.578	83.25
411.802	96.25
412.025	84.25
412.249	90.25
412.472	93.25
412.695	96.25
412.919	87.25
413.142	84.25
413.365	79.25
413.589	84.25
413.812	90.25
414.035	79.25
414.258	70.25
414.482	80.25
414.705	88.25
414.928	85.25
415.151	83.25
415.374	77.25
415.597	90.25
415.821	86.25
416.044	67.25
416.267	93.25
416.49	84.25
416.713	83.25
416.936	80.25
417.159	93.25
417.382	96.25
417.605	85.25
417.828	78.25
418.051	84.25
418.274	87.25
418.497	73.25
418.72	76.25
418.943	71.25
419.166	79.25
419.389	84.25
419.611	87.25
419.834	84.25
420.057	84.25
420.28	91.25
420.503	85.25
420.726	69.25
420.948	85.25
421.171	102.25
421.394	79.25
421.617	86.25
421.839	92.25
422.062	89.25
422.285	96.25
422.507	107.25
422.73	97.25
422.953	88.25
423.175	64.25
423.398	79.25
423.621	83.25
423.843	88.25
424.066	79.25
424.288	85.25
424.511	90.25
424.733	94.25
424.956	94.25
425.178	93.25
425.401	93.25
425.623	80.25
425.846	90.25
426.068	90.25
426.291	93.25
426.513	89.25
426.735	73.25
426.958	85.25
427.18	93.25
427.402	135.25
427.625	136.25
427.847	132.25
428.069	140.25
428.292	85.25
428.514	96.25
428.736	87.25
428.958	76.25
429.181	82.25
429.403	77.25
429.625	78.25
429.847	84.25
430.069	95.25
430.292	93.25
430.514	90.25
430.736	61.25
430.958	85.25
431.18	72.25
431.402	80.25
431.624	80.25
431.846	96.25
432.068	82.25
432.29	94.25
432.512	88.25
432.734	75.25
432.956	79.25
433.178	86.25
433.4	82.25
433.622	84.25
433.844	94.25
434.066	71.25
434.287	82.25
434.509	94.25
434.731	83.25
434.953	81.25
435.175	83.25
435.397	90.25
435.618	69.25
435.84	96.25
436.062	107.25
436.284	90.25
436.505	84.25
436.727	88.25
436.949	85.25
437.17	95.25
437.392	82.25
437.614	84.25
437.835	80.25
438.057	89.25
438.278	88.25
438.5	106.25
438.721	112.25
438.943	89.25
439.165	88.25
439.386	90.25
439.608	77.25
439.829	97.25
440.05	113.25
440.272	123.25
440.493	92.25
440.715	77.25
440.936	89.25
441.158	72.25
441.379	80.25
441.6	89.25
441.822	100.25
442.043	74.25
442.264	81.25
442.486	94.25
442.707	95.25
442.928	83.25
443.149	121.25
443.371	127.25
443.592	104.25
443.813	94.25
444.034	100.25
444.255	89.25
444.476	77.25
444.698	100.25
444.919	88.25
445.14	133.25
445.361	111.25
445.582	108.25
445.803	113.25
446.024	108.25
446.245	117.25
446.466	115.25
446.687	80.25
446.908	85.25
447.129	72.25
447.35	83.25
447.571	86.25
447.792	81.25
448.013	86.25
448.234	95.25
448.455	96.25
448.675	100.25
448.896	105.25
449.117	86.25
449.338	99.25
449.559	106.25
449.779	117.25
450	90.25
450.221	73.25
450.442	66.25
450.662	89.25
450.883	97.25
451.104	98.25
451.324	95.25
451.545	81.25
451.766	90.25
451.986	84.25
452.207	80.25
452.428	77.25
452.648	95.25
452.869	109.25
453.089	102.25
453.31	92.25
453.53	86.25
453.751	92.25
453.971	81.25
454.192	93.25
454.412	84.25
454.633	88.25
454.853	78.25
455.073	77.25
455.294	79.25
455.514	103.25
455.734	70.25
455.955	87.25
456.175	85.25
456.395	81.25
456.616	94.25
456.836	89.25
457.056	81.25
457.276	73.25
457.497	70.25
457.717	72.25
457.937	89.25
458.157	75.25
458.377	82.25
458.598	95.25
458.818	112.25
459.038	126.25
459.258	98.25
459.478	90.25
459.698	92.25
459.918	90.25
460.138	87.25
460.358	73.25
460.578	90.25
460.798	80.25
461.018	83.25
461.238	68.25
461.458	79.25
461.678	74.25
461.898	82.25
462.118	93.25
462.338	81.25
462.558	83.25
462.777	98.25
462.997	85.25
463.217	94.25
463.437	86.25
463.657	73.25
463.876	78.25
464.096	70.25
464.316	86.25
464.536	86.25
464.755	101.25
464.975	89.25
465.195	120.25
465.414	150.25
465.634	97.25
465.854	74.25
466.073	89.25
466.293	94.25
466.512	66.25
466.732	93.25
466.951	83.25
467.171	86.25
467.391	84.25
467.61	90.25
467.829	94.25
468.049	156.25
468.268	171.25
468.488	90.25
468.707	79.25
468.927	96.25
469.146	81.25
469.365	93.25
469.585	67.25
469.804	90.25
470.023	81.25
470.243	89.25
470.462	91.25
470.681	95.25
470.901	79.25
471.12	74.25
471.339	81.25
471.558	73.25
471.777	93.25
471.997	108.25
472.216	237.25
472.435	431.25
472.654	156.25
472.873	95.25
473.092	81.25
473.311	73.25
473.53	82.25
473.749	80.25
473.968	93.25
474.187	97.25
474.406	87.25
474.625	80.25
474.844	88.25
475.063	79.25
475.282	78.25
475.501	79.25
475.72	67.25
475.939	88.25
476.158	72.25
476.377	88.25
476.596	85.25
476.814	79.25
477.033	86.25
477.252	88.25
477.471	75.25
477.69	99.25
477.908	86.25
478.127	78.25
478.346	97.25
478.564	84.25
478.783	87.25
479.002	78.25
479.22	78.25
479.439	92.25
479.658	102.25
479.876	104.25
480.095	101.25
480.313	90.25
480.532	89.25
480.751	118.25
480.969	257.25
481.188	732.25
481.406	450.25
481.624	124.25
481.843	81.25
482.061	100.25
482.28	84.25
482.498	78.25
482.717	89.25
482.935	81.25
483.153	86.25
483.372	81.25
483.59	80.25
483.808	93.25
484.027	84.25
484.245	86.25
484.463	86.25
484.681	96.25
484.9	74.25
485.118	90.25
485.336	95.25
485.554	98.25
485.772	104.25
485.99	100.25
486.209	113.25
486.427	104.25
486.645	100.25
486.863	103.25
487.081	82.25
487.299	93.25
487.517	89.25
487.735	96.25
487.953	100.25
488.171	89.25
488.389	73.25
488.607	87.25
488.825	87.25
489.043	79.25
489.261	89.25
489.479	85.25
489.696	72.25
489.914	90.25
490.132	89.25
490.35	91.25
490.568	75.25
490.786	83.25
491.003	70.25
491.221	97.25
491.439	78.25
491.657	94.25
491.874	86.25
492.092	92.25
492.31	83.25
492.527	76.25
492.745	85.25
492.963	78.25
493.18	90.25
493.398	93.25
493.615	89.25
493.833	97.25
494.05	93.25
494.268	80.25
494.485	86.25
494.703	93.25
494.92	80.25
495.138	81.25
495.355	85.25
495.573	95.25
495.79	85.25
496.008	81.25
496.225	72.25
496.442	89.25
496.66	84.25
496.877	75.25
497.094	93.25
497.312	85.25
497.529	89.25
497.746	71.25
497.963	76.25
498.181	98.25
498.398	82.25
498.615	107.25
498.832	90.25
499.049	80.25
499.267	93.25
499.484	80.25
499.701	77.25
499.918	84.25
500.135	86.25
500.352	81.25
500.569	87.25
500.786	91.25
501.003	87.25
501.22	84.25
501.437	95.25
501.654	89.25
501.871	105.25
502.088	90.25
502.305	85.25
502.522	107.25
502.739	87.25
502.956	84.25
503.172	92.25
503.389	94.25
503.606	111.25
503.823	93.25
504.04	93.25
504.256	77.25
504.473	89.25
504.69	61.25
504.907	86.25
505.123	76.25
505.34	76.25
505.557	74.25
505.773	96.25
505.99	96.25
506.207	79.25
506.423	94.25
506.64	95.25
506.856	76.25
507.073	85.25
507.289	100.25
507.506	86.25
507.722	93.25
507.939	120.25
508.155	81.25
508.372	92.25
508.588	111.25
508.805	90.25
509.021	88.25
509.238	80.25
509.454	88.25
509.67	88.25
509.887	98.25
510.103	120.25
510.319	172.25
510.536	595.25
510.752	1798.25
510.968	520.25
511.184	122.25
511.401	83.25
511.617	92.25
511.833	100.25
512.049	88.25
512.265	83.25
512.481	97.25
512.698	87.25
512.914	80.25
513.13	89.25
513.346	85.25
513.562	85.25
513.778	93.25
513.994	88.25
514.21	104.25
514.426	108.25
514.642	123.25
514.858	117.25
515.074	128.25
515.29	344.25
515.506	989.25
515.721	368.25
515.937	133.25
516.153	100.25
516.369	90.25
516.585	90.25
516.801	80.25
517.016	106.25
517.232	89.25
517.448	99.25
