Data from Circ_1993_H10_HRD10591_00080.txt Node
Date: Wed Jan 03 11:44:18 EST 2024
User: Yrep
Spectrometer: HR+D1059
Trigger mode: 1
Integration Time (sec): 1.000000E-1
Scans to average: 1
Electric dark correction enabled: true
Nonlinearity correction enabled: false
Boxcar width: 0
XAxis mode: Wavelengths
Number of Pixels in Spectrum: 2048
>>>>>Begin Spectral Data<<<<<
223.165	-21.69
223.4	-21.69
223.635	-21.69
223.869	-26.69
224.104	-18.69
224.338	-1.69
224.573	-7.69
224.808	-8.69
225.042	-13.69
225.277	-14.69
225.511	-3.69
225.746	-3.69
225.98	11.31
226.215	30.31
226.449	10.31
226.683	16.31
226.918	29.31
227.152	23.31
227.387	39.31
227.621	43.31
227.856	48.31
228.09	54.31
228.324	46.31
228.559	54.31
228.793	177.31
229.027	444.31
229.262	527.31
229.496	629.31
229.73	781.31
229.964	798.31
230.199	546.31
230.433	485.31
230.667	487.31
230.901	489.31
231.136	463.31
231.37	477.31
231.604	448.31
231.838	470.31
232.072	470.31
232.306	494.31
232.541	482.31
232.775	479.31
233.009	466.31
233.243	494.31
233.477	476.31
233.711	510.31
233.945	508.31
234.179	536.31
234.413	516.31
234.647	527.31
234.881	522.31
235.115	546.31
235.349	554.31
235.583	577.31
235.817	607.31
236.051	635.31
236.285	607.31
236.519	632.31
236.753	729.31
236.987	894.31
237.221	1322.31
237.455	1436.31
237.689	871.31
237.922	738.31
238.156	758.31
238.39	687.31
238.624	678.31
238.858	684.31
239.091	688.31
239.325	677.31
239.559	694.31
239.793	727.31
240.027	792.31
240.26	931.31
240.494	985.31
240.728	959.31
240.961	930.31
241.195	844.31
241.429	831.31
241.662	783.31
241.896	792.31
242.13	814.31
242.363	813.31
242.597	852.31
242.83	882.31
243.064	861.31
243.298	857.31
243.531	884.31
243.765	875.31
243.998	890.31
244.232	898.31
244.465	911.31
244.699	943.31
244.932	948.31
245.166	946.31
245.399	964.31
245.633	959.31
245.866	958.31
246.099	966.31
246.333	972.31
246.566	1013.31
246.8	1000.31
247.033	1043.31
247.266	1084.31
247.5	1125.31
247.733	1190.31
247.966	1192.31
248.2	1174.31
248.433	1234.31
248.666	1261.31
248.899	1390.31
249.133	1470.31
249.366	1462.31
249.599	1392.31
249.832	1329.31
250.066	1412.31
250.299	1620.31
250.532	1853.31
250.765	1974.31
250.998	1959.31
251.231	1811.31
251.465	1625.31
251.698	1509.31
251.931	1473.31
252.164	1499.31
252.397	1500.31
252.63	1561.31
252.863	1597.31
253.096	1739.31
253.329	1771.31
253.562	1675.31
253.795	1649.31
254.028	1631.31
254.261	1663.31
254.494	1827.31
254.727	2187.31
254.96	2267.31
255.193	2053.31
255.426	1934.31
255.659	1989.31
255.892	2431.31
256.124	2843.31
256.357	2578.31
256.59	2178.31
256.823	1973.31
257.056	1790.31
257.289	1757.31
257.521	1767.31
257.754	1718.31
257.987	1670.31
258.22	1642.31
258.452	1640.31
258.685	1635.31
258.918	1663.31
259.151	1722.31
259.383	1747.31
259.616	1776.31
259.849	1823.31
260.081	1999.31
260.314	2134.31
260.547	2064.31
260.779	1898.31
261.012	1815.31
261.244	1787.31
261.477	1742.31
261.71	1778.31
261.942	1808.31
262.175	1811.31
262.407	1779.31
262.64	1737.31
262.872	1717.31
263.105	1765.31
263.337	1748.31
263.57	1729.31
263.802	1790.31
264.035	1754.31
264.267	1773.31
264.499	1732.31
264.732	1744.31
264.964	1750.31
265.197	1778.31
265.429	1797.31
265.661	1810.31
265.894	1848.31
266.126	1831.31
266.358	1848.31
266.591	1845.31
266.823	1936.31
267.055	1915.31
267.287	1968.31
267.52	1918.31
267.752	1942.31
267.984	1971.31
268.216	1979.31
268.448	1998.31
268.681	2113.31
268.913	2190.31
269.145	2362.31
269.377	2443.31
269.609	2363.31
269.841	2292.31
270.073	2483.31
270.306	2671.31
270.538	2826.31
270.77	2723.31
271.002	2527.31
271.234	2531.31
271.466	2651.31
271.698	2801.31
271.93	2779.31
272.162	2765.31
272.394	2692.31
272.626	2592.31
272.858	2433.31
273.09	2362.31
273.322	2352.31
273.553	2304.31
273.785	2328.31
274.017	2350.31
274.249	2362.31
274.481	2340.31
274.713	2367.31
274.945	2452.31
275.176	2412.31
275.408	2394.31
275.64	2341.31
275.872	2434.31
276.104	2412.31
276.335	2443.31
276.567	2542.31
276.799	2748.31
277.031	2987.31
277.262	3068.31
277.494	2904.31
277.726	2717.31
277.957	2674.31
278.189	2567.31
278.421	2518.31
278.652	2520.31
278.884	2531.31
279.115	2488.31
279.347	2514.31
279.579	2536.31
279.81	2567.31
280.042	2600.31
280.273	2653.31
280.505	2624.31
280.736	2621.31
280.968	2622.31
281.199	2573.31
281.431	2591.31
281.662	2608.31
281.894	2641.31
282.125	2675.31
282.356	2861.31
282.588	2925.31
282.819	2835.31
283.051	2670.31
283.282	2642.31
283.513	2707.31
283.745	2759.31
283.976	2775.31
284.207	2787.31
284.439	2739.31
284.67	2786.31
284.901	2773.31
285.132	2770.31
285.364	2792.31
285.595	2784.31
285.826	2741.31
286.057	2862.31
286.288	2822.31
286.52	2842.31
286.751	2806.31
286.982	2852.31
287.213	2878.31
287.444	2914.31
287.675	2972.31
287.906	3081.31
288.138	3036.31
288.369	3035.31
288.6	3050.31
288.831	3028.31
289.062	2994.31
289.293	3021.31
289.524	2962.31
289.755	2935.31
289.986	2981.31
290.217	2939.31
290.448	2950.31
290.679	2940.31
290.91	2983.31
291.141	2894.31
291.371	2958.31
291.602	2979.31
291.833	2899.31
292.064	2992.31
292.295	2946.31
292.526	2989.31
292.757	2987.31
292.987	2920.31
293.218	2944.31
293.449	2982.31
293.68	2964.31
293.91	2967.31
294.141	2934.31
294.372	2974.31
294.603	3039.31
294.833	2995.31
295.064	2997.31
295.295	3011.31
295.525	3003.31
295.756	3117.31
295.987	3144.31
296.217	3315.31
296.448	3276.31
296.679	3113.31
296.909	3117.31
297.14	3114.31
297.37	3118.31
297.601	3179.31
297.831	3172.31
298.062	3174.31
298.292	3226.31
298.523	3263.31
298.753	3320.31
298.984	3237.31
299.214	3277.31
299.445	3191.31
299.675	3250.31
299.905	3300.31
300.136	3240.31
300.366	3296.31
300.597	3383.31
300.827	3478.31
301.057	3467.31
301.288	3541.31
301.518	3507.31
301.748	3579.31
301.979	3577.31
302.209	3612.31
302.439	3545.31
302.669	3555.31
302.9	3468.31
303.13	3467.31
303.36	3538.31
303.59	3543.31
303.82	3597.31
304.051	3549.31
304.281	3521.31
304.511	3434.31
304.741	3493.31
304.971	3470.31
305.201	3430.31
305.431	3395.31
305.661	3457.31
305.891	3489.31
306.121	3504.31
306.352	3554.31
306.582	3406.31
306.812	3457.31
307.042	3491.31
307.272	3580.31
307.502	3542.31
307.731	3530.31
307.961	3514.31
308.191	3499.31
308.421	3476.31
308.651	3526.31
308.881	3512.31
309.111	3534.31
309.341	3519.31
309.571	3630.31
309.8	3622.31
310.03	3750.31
310.26	3766.31
310.49	3719.31
310.72	3882.31
310.949	4020.31
311.179	3925.31
311.409	3758.31
311.639	3757.31
311.868	3783.31
312.098	3853.31
312.328	3981.31
312.557	4086.31
312.787	4108.31
313.017	4072.31
313.246	3988.31
313.476	3928.31
313.706	3982.31
313.935	4103.31
314.165	4127.31
314.394	4172.31
314.624	4138.31
314.853	4030.31
315.083	3982.31
315.312	3944.31
315.542	3909.31
315.771	3857.31
316.001	3789.31
316.23	3834.31
316.46	3914.31
316.689	3950.31
316.919	3996.31
317.148	4037.31
317.377	4020.31
317.607	3915.31
317.836	3982.31
318.065	3928.31
318.295	3866.31
318.524	3879.31
318.753	3856.31
318.983	3904.31
319.212	3888.31
319.441	3933.31
319.67	3953.31
319.9	3892.31
320.129	3867.31
320.358	3897.31
320.587	4019.31
320.816	3969.31
321.046	4104.31
321.275	4126.31
321.504	4056.31
321.733	4130.31
321.962	4131.31
322.191	4188.31
322.42	4387.31
322.649	4389.31
322.878	4504.31
323.108	4540.31
323.337	4798.31
323.566	4927.31
323.795	5134.31
324.024	5706.31
324.253	7460.31
324.482	11045.31
324.71	15290.31
324.939	15624.31
325.168	13068.31
325.397	6822.31
325.626	5576.31
325.855	5118.31
326.084	5051.31
326.313	5032.31
326.542	5236.31
326.77	5883.31
326.999	7342.31
327.228	10584.31
327.457	14474.31
327.686	13814.31
327.914	7897.31
328.143	6750.31
328.372	6675.31
328.6	6030.31
328.829	5866.31
329.058	5922.31
329.287	6031.31
329.515	5846.31
329.744	5866.31
329.972	6472.31
330.201	7402.31
330.43	7938.31
330.658	7102.31
330.887	6695.31
331.115	6005.31
331.344	5567.31
331.572	5440.31
331.801	5546.31
332.03	5569.31
332.258	5521.31
332.486	5562.31
332.715	5681.31
332.943	5841.31
333.172	6114.31
333.4	6275.31
333.629	6653.31
333.857	6997.31
334.085	7532.31
334.314	8572.31
334.542	9795.31
334.771	9077.31
334.999	7098.31
335.227	6341.31
335.455	5991.31
335.684	5701.31
335.912	5542.31
336.14	5479.31
336.369	5439.31
336.597	5453.31
336.825	5314.31
337.053	5268.31
337.281	5116.31
337.51	5036.31
337.738	5016.31
337.966	5054.31
338.194	5036.31
338.422	4914.31
338.65	4813.31
338.878	4785.31
339.106	4793.31
339.334	4774.31
339.562	4766.31
339.79	4673.31
340.018	4716.31
340.246	4647.31
340.474	4736.31
340.702	4666.31
340.93	4693.31
341.158	4676.31
341.386	4632.31
341.614	4649.31
341.842	4675.31
342.07	4635.31
342.298	4550.31
342.526	4531.31
342.754	4499.31
342.981	4554.31
343.209	4612.31
343.437	4830.31
343.665	5141.31
343.893	5463.31
344.12	5370.31
344.348	5150.31
344.576	5085.31
344.804	4951.31
345.031	4866.31
345.259	4833.31
345.487	4666.31
345.714	4600.31
345.942	4454.31
346.17	4456.31
346.397	4367.31
346.625	4442.31
346.853	4415.31
347.08	4427.31
347.308	4400.31
347.535	4544.31
347.763	4581.31
347.99	4486.31
348.218	4492.31
348.445	4570.31
348.673	4477.31
348.9	4451.31
349.128	4287.31
349.355	4292.31
349.583	4307.31
349.81	4338.31
350.037	4240.31
350.265	4288.31
350.492	4279.31
350.72	4327.31
350.947	4314.31
351.174	4452.31
351.402	4398.31
351.629	4405.31
351.856	4349.31
352.083	4446.31
352.311	4438.31
352.538	4475.31
352.765	4382.31
352.992	4416.31
353.22	4371.31
353.447	4334.31
353.674	4265.31
353.901	4227.31
354.128	4193.31
354.355	4178.31
354.583	4174.31
354.81	4189.31
355.037	4160.31
355.264	4207.31
355.491	4098.31
355.718	4154.31
355.945	4172.31
356.172	4216.31
356.399	4181.31
356.626	4166.31
356.853	4173.31
357.08	4144.31
357.307	4183.31
357.534	4180.31
357.761	4173.31
357.988	4200.31
358.215	4202.31
358.441	4189.31
358.668	4250.31
358.895	4233.31
359.122	4321.31
359.349	4344.31
359.576	4504.31
359.802	4640.31
360.029	4803.31
360.256	4822.31
360.483	4557.31
360.709	4461.31
360.936	4435.31
361.163	4419.31
361.39	4405.31
361.616	4402.31
361.843	4378.31
362.07	4452.31
362.296	4451.31
362.523	4363.31
362.749	4390.31
362.976	4313.31
363.203	4312.31
363.429	4268.31
363.656	4239.31
363.882	4228.31
364.109	4205.31
364.335	4287.31
364.562	4279.31
364.788	4209.31
365.015	4259.31
365.241	4236.31
365.468	4316.31
365.694	4335.31
365.92	4247.31
366.147	4280.31
366.373	4239.31
366.599	4204.31
366.826	4209.31
367.052	4250.31
367.278	4245.31
367.505	4252.31
367.731	4347.31
367.957	4281.31
368.184	4354.31
368.41	4397.31
368.636	4500.31
368.862	4491.31
369.089	4401.31
369.315	4342.31
369.541	4406.31
369.767	4402.31
369.993	4411.31
370.219	4311.31
370.445	4390.31
370.672	4414.31
370.898	4451.31
371.124	4511.31
371.35	4512.31
371.576	4514.31
371.802	4516.31
372.028	4533.31
372.254	4516.31
372.48	4601.31
372.706	4700.31
372.932	4718.31
373.158	4644.31
373.384	4562.31
373.61	4554.31
373.835	4654.31
374.061	4609.31
374.287	4705.31
374.513	4712.31
374.739	4857.31
374.965	4971.31
375.191	4926.31
375.416	4940.31
375.642	4747.31
375.868	4712.31
376.094	4641.31
376.319	4600.31
376.545	4625.31
376.771	4667.31
376.997	4504.31
377.222	4603.31
377.448	4531.31
377.674	4516.31
377.899	4444.31
378.125	4488.31
378.35	4511.31
378.576	4532.31
378.802	4447.31
379.027	4497.31
379.253	4541.31
379.478	4448.31
379.704	4483.31
379.929	4465.31
380.155	4495.31
380.38	4500.31
380.606	4580.31
380.831	4526.31
381.057	4601.31
381.282	4555.31
381.507	4586.31
381.733	4617.31
381.958	4625.31
382.184	4663.31
382.409	4713.31
382.634	4714.31
382.86	4831.31
383.085	4860.31
383.31	4891.31
383.535	4983.31
383.761	4973.31
383.986	5077.31
384.211	5198.31
384.436	5277.31
384.662	5334.31
384.887	5340.31
385.112	5363.31
385.337	5469.31
385.562	5465.31
385.787	5514.31
386.013	5548.31
386.238	5538.31
386.463	5540.31
386.688	5557.31
386.913	5466.31
387.138	5369.31
387.363	5376.31
387.588	5323.31
387.813	5404.31
388.038	5427.31
388.263	5482.31
388.488	5425.31
388.713	5371.31
388.938	5368.31
389.163	5377.31
389.387	5333.31
389.612	5369.31
389.837	5371.31
390.062	5394.31
390.287	5350.31
390.512	5333.31
390.736	5432.31
390.961	5499.31
391.186	5549.31
391.411	5775.31
391.636	5917.31
391.86	5980.31
392.085	6079.31
392.31	5973.31
392.534	5900.31
392.759	5826.31
392.984	5720.31
393.208	5600.31
393.433	5660.31
393.658	5690.31
393.882	5594.31
394.107	5678.31
394.331	5736.31
394.556	5687.31
394.78	5822.31
395.005	5820.31
395.229	5764.31
395.454	5996.31
395.678	6088.31
395.903	6013.31
396.127	6114.31
396.352	5897.31
396.576	5731.31
396.801	5789.31
397.025	5885.31
397.249	5928.31
397.474	6152.31
397.698	6162.31
397.922	6208.31
398.147	6394.31
398.371	6518.31
398.595	6600.31
398.82	6907.31
399.044	7430.31
399.268	8224.31
399.492	9276.31
399.717	9965.31
399.941	9640.31
400.165	9072.31
400.389	8350.31
400.613	7644.31
400.837	7056.31
401.062	6958.31
401.286	6852.31
401.51	6842.31
401.734	6717.31
401.958	6989.31
402.182	7029.31
402.406	7172.31
402.63	7176.31
402.854	7388.31
403.078	7384.31
403.302	7618.31
403.526	7664.31
403.75	7726.31
403.974	7750.31
404.198	7814.31
404.422	7909.31
404.645	8010.31
404.869	8030.31
405.093	8478.31
405.317	8953.31
405.541	8835.31
405.765	8117.31
405.988	7878.31
406.212	7905.31
406.436	7983.31
406.66	8137.31
406.883	8053.31
407.107	8710.31
407.331	9262.31
407.555	9682.31
407.778	9370.31
408.002	8624.31
408.226	8234.31
408.449	8124.31
408.673	7945.31
408.896	8138.31
409.12	8196.31
409.344	7803.31
409.567	7519.31
409.791	7539.31
410.014	7426.31
410.238	7326.31
410.461	7419.31
410.685	7370.31
410.908	7460.31
411.132	7619.31
411.355	7733.31
411.578	7394.31
411.802	7192.31
412.025	7299.31
412.249	7745.31
412.472	8168.31
412.695	8547.31
412.919	7953.31
413.142	7356.31
413.365	7189.31
413.589	7125.31
413.812	6882.31
414.035	6797.31
414.258	6782.31
414.482	6776.31
414.705	6882.31
414.928	6808.31
415.151	6846.31
415.374	6783.31
415.597	6729.31
415.821	6622.31
416.044	6626.31
416.267	6518.31
416.49	6587.31
416.713	6485.31
416.936	6604.31
417.159	6674.31
417.382	6763.31
417.605	6779.31
417.828	6876.31
418.051	6993.31
418.274	6885.31
418.497	6804.31
418.72	6922.31
418.943	6852.31
419.166	7288.31
419.389	7628.31
419.611	7522.31
419.834	7491.31
420.057	7473.31
420.28	7469.31
420.503	7377.31
420.726	7213.31
420.948	7298.31
421.171	7535.31
421.394	7430.31
421.617	6959.31
421.839	6926.31
422.062	7066.31
422.285	7143.31
422.507	7762.31
422.73	8242.31
422.953	7676.31
423.175	7296.31
423.398	7237.31
423.621	7328.31
423.843	7578.31
424.066	7440.31
424.288	7399.31
424.511	7690.31
424.733	8098.31
424.956	8541.31
425.178	7951.31
425.401	8094.31
425.623	7925.31
425.846	7078.31
426.068	6820.31
426.291	6855.31
426.513	6780.31
426.735	6954.31
426.958	7392.31
427.18	8149.31
427.402	9390.31
427.625	9506.31
427.847	8496.31
428.069	7978.31
428.292	7122.31
428.514	6535.31
428.736	6318.31
428.958	6324.31
429.181	6081.31
429.403	6122.31
429.625	6325.31
429.847	6571.31
430.069	7050.31
430.292	6576.31
430.514	6105.31
430.736	6164.31
430.958	5977.31
431.18	5918.31
431.402	6000.31
431.624	5951.31
431.846	6036.31
432.068	6036.31
432.29	6094.31
432.512	5958.31
432.734	6120.31
432.956	5964.31
433.178	6137.31
433.4	6066.31
433.622	6024.31
433.844	6032.31
434.066	6101.31
434.287	6139.31
434.509	6429.31
434.731	6610.31
434.953	6835.31
435.175	6879.31
435.397	6995.31
435.618	6810.31
435.84	7308.31
436.062	7968.31
436.284	7904.31
436.505	6702.31
436.727	6529.31
436.949	6166.31
437.17	6092.31
437.392	5994.31
437.614	6245.31
437.835	6554.31
438.057	7543.31
438.278	8166.31
438.5	8065.31
438.721	8950.31
438.943	7776.31
439.165	6641.31
439.386	6440.31
439.608	6471.31
439.829	6585.31
440.05	6988.31
440.272	7286.31
440.493	6708.31
440.715	6352.31
440.936	6274.31
441.158	6364.31
441.379	6580.31
441.6	6876.31
441.822	7088.31
442.043	7544.31
442.264	8276.31
442.486	7946.31
442.707	7206.31
442.928	6973.31
443.149	7156.31
443.371	7364.31
443.592	7939.31
443.813	8913.31
444.034	8788.31
444.255	7707.31
444.476	7545.31
444.698	7793.31
444.919	7866.31
445.14	7631.31
445.361	7550.31
445.582	7626.31
445.803	8247.31
446.024	8899.31
446.245	8546.31
446.466	7566.31
446.687	6645.31
446.908	6392.31
447.129	6060.31
447.35	5854.31
447.571	5895.31
447.792	5788.31
448.013	5893.31
448.234	6104.31
448.455	6719.31
448.675	7914.31
448.896	8354.31
449.117	6858.31
449.338	7142.31
449.559	8379.31
449.779	8547.31
450	6658.31
450.221	5986.31
450.442	5735.31
450.662	5694.31
450.883	5742.31
451.104	5805.31
451.324	5703.31
451.545	5479.31
451.766	5420.31
451.986	5287.31
452.207	5312.31
452.428	5229.31
452.648	5262.31
452.869	5357.31
453.089	5380.31
453.31	5588.31
453.53	5329.31
453.751	5181.31
453.971	5272.31
454.192	5360.31
454.412	5194.31
454.633	5182.31
454.853	5130.31
455.073	5173.31
455.294	5590.31
455.514	6030.31
455.734	5512.31
455.955	5032.31
456.175	4975.31
456.395	4925.31
456.616	4869.31
456.836	4865.31
457.056	4896.31
457.276	4812.31
457.497	4999.31
457.717	4975.31
457.937	5041.31
458.157	5118.31
458.377	5181.31
458.598	5575.31
458.818	6248.31
459.038	6944.31
459.258	6872.31
459.478	6167.31
459.698	6147.31
459.918	6067.31
460.138	6319.31
460.358	6571.31
460.578	6586.31
460.798	6660.31
461.018	6610.31
461.238	6525.31
461.458	6428.31
461.678	6502.31
461.898	6619.31
462.118	6683.31
462.338	6998.31
462.558	7180.31
462.777	7509.31
462.997	8086.31
463.217	8485.31
463.437	8213.31
463.657	7571.31
463.876	7552.31
464.096	7538.31
464.316	7522.31
464.536	7495.31
464.755	7260.31
464.975	7218.31
465.195	7386.31
465.414	7314.31
465.634	6467.31
465.854	6176.31
466.073	5930.31
466.293	5789.31
466.512	5662.31
466.732	5588.31
466.951	5586.31
467.171	5546.31
467.391	5615.31
467.61	5675.31
467.829	5669.31
468.049	5836.31
468.268	5984.31
468.488	5592.31
468.707	5388.31
468.927	5337.31
469.146	5293.31
469.365	5335.31
469.585	5424.31
469.804	5598.31
470.023	5706.31
470.243	5753.31
470.462	5763.31
470.681	5927.31
470.901	5883.31
471.12	5672.31
471.339	5669.31
471.558	5664.31
471.777	5624.31
471.997	5615.31
472.216	6286.31
472.435	7743.31
472.654	6583.31
472.873	5908.31
473.092	5666.31
473.311	5573.31
473.53	5460.31
473.749	5614.31
473.968	6061.31
474.187	7025.31
474.406	6574.31
474.625	5631.31
474.844	5424.31
475.063	5314.31
475.282	5344.31
475.501	5389.31
475.72	5356.31
475.939	5459.31
476.158	5530.31
476.377	5525.31
476.596	5488.31
476.814	5714.31
477.033	5752.31
477.252	5806.31
477.471	5947.31
477.69	6090.31
477.908	6089.31
478.127	6318.31
478.346	6328.31
478.564	6415.31
478.783	6524.31
479.002	6660.31
479.22	6637.31
479.439	6726.31
479.658	6887.31
479.876	6997.31
480.095	7251.31
480.313	7654.31
480.532	7647.31
480.751	7689.31
480.969	8381.31
481.188	10887.31
481.406	10601.31
481.624	8337.31
481.843	7619.31
482.061	7096.31
482.28	6797.31
482.498	6717.31
482.717	6516.31
482.935	6497.31
483.153	6446.31
483.372	6358.31
483.59	6422.31
483.808	6343.31
484.027	6416.31
484.245	6452.31
484.463	6458.31
484.681	6565.31
484.9	6638.31
485.118	6537.31
485.336	6651.31
485.554	6647.31
485.772	6835.31
485.99	6722.31
486.209	6789.31
486.427	6871.31
486.645	6910.31
486.863	7040.31
487.081	6919.31
487.299	6843.31
487.517	6785.31
487.735	6723.31
