Data from Circ_1993_H10_HRD10591_00033.txt Node
Date: Wed Jan 03 11:44:08 EST 2024
User: Yrep
Spectrometer: HR+D1059
Trigger mode: 1
Integration Time (sec): 1.000000E-1
Scans to average: 1
Electric dark correction enabled: true
Nonlinearity correction enabled: false
Boxcar width: 0
XAxis mode: Wavelengths
Number of Pixels in Spectrum: 2048
>>>>>Begin Spectral Data<<<<<
223.165	-24.19
223.4	-24.19
223.635	-24.19
223.869	-25.19
224.104	-12.19
224.338	-29.19
224.573	-19.19
224.808	-15.19
225.042	-7.19
225.277	7.81
225.511	8.81
225.746	9.81
225.98	5.81
226.215	19.81
226.449	16.81
226.683	10.81
226.918	27.81
227.152	24.81
227.387	15.81
227.621	48.81
227.856	40.81
228.09	50.81
228.324	47.81
228.559	44.81
228.793	58.81
229.027	49.81
229.262	62.81
229.496	71.81
229.73	75.81
229.964	60.81
230.199	65.81
230.433	70.81
230.667	83.81
230.901	79.81
231.136	78.81
231.37	72.81
231.604	85.81
231.838	73.81
232.072	83.81
232.306	75.81
232.541	80.81
232.775	79.81
233.009	71.81
233.243	79.81
233.477	86.81
233.711	84.81
233.945	72.81
234.179	63.81
234.413	74.81
234.647	74.81
234.881	73.81
235.115	70.81
235.349	72.81
235.583	64.81
235.817	80.81
236.051	72.81
236.285	58.81
236.519	72.81
236.753	67.81
236.987	65.81
237.221	90.81
237.455	72.81
237.689	97.81
237.922	75.81
238.156	74.81
238.39	79.81
238.624	62.81
238.858	67.81
239.091	69.81
239.325	79.81
239.559	73.81
239.793	76.81
240.027	72.81
240.26	76.81
240.494	58.81
240.728	70.81
240.961	86.81
241.195	80.81
241.429	74.81
241.662	74.81
241.896	72.81
242.13	74.81
242.363	65.81
242.597	66.81
242.83	79.81
243.064	64.81
243.298	75.81
243.531	76.81
243.765	67.81
243.998	84.81
244.232	74.81
244.465	60.81
244.699	76.81
244.932	65.81
245.166	71.81
245.399	82.81
245.633	87.81
245.866	81.81
246.099	82.81
246.333	66.81
246.566	72.81
246.8	81.81
247.033	65.81
247.266	73.81
247.5	68.81
247.733	68.81
247.966	81.81
248.2	80.81
248.433	77.81
248.666	73.81
248.899	71.81
249.133	74.81
249.366	88.81
249.599	96.81
249.832	84.81
250.066	83.81
250.299	71.81
250.532	75.81
250.765	77.81
250.998	57.81
251.231	72.81
251.465	74.81
251.698	75.81
251.931	70.81
252.164	73.81
252.397	89.81
252.63	61.81
252.863	72.81
253.096	84.81
253.329	67.81
253.562	92.81
253.795	76.81
254.028	85.81
254.261	67.81
254.494	82.81
254.727	74.81
254.96	83.81
255.193	75.81
255.426	68.81
255.659	89.81
255.892	83.81
256.124	73.81
256.357	72.81
256.59	86.81
256.823	75.81
257.056	89.81
257.289	80.81
257.521	86.81
257.754	89.81
257.987	81.81
258.22	79.81
258.452	77.81
258.685	74.81
258.918	80.81
259.151	80.81
259.383	83.81
259.616	67.81
259.849	67.81
260.081	75.81
260.314	91.81
260.547	81.81
260.779	80.81
261.012	88.81
261.244	82.81
261.477	78.81
261.71	92.81
261.942	98.81
262.175	94.81
262.407	79.81
262.64	59.81
262.872	86.81
263.105	65.81
263.337	84.81
263.57	89.81
263.802	88.81
264.035	76.81
264.267	86.81
264.499	82.81
264.732	59.81
264.964	87.81
265.197	76.81
265.429	72.81
265.661	83.81
265.894	82.81
266.126	95.81
266.358	75.81
266.591	72.81
266.823	80.81
267.055	78.81
267.287	83.81
267.52	81.81
267.752	86.81
267.984	76.81
268.216	84.81
268.448	76.81
268.681	85.81
268.913	89.81
269.145	78.81
269.377	81.81
269.609	65.81
269.841	78.81
270.073	95.81
270.306	75.81
270.538	78.81
270.77	91.81
271.002	76.81
271.234	69.81
271.466	79.81
271.698	88.81
271.93	90.81
272.162	85.81
272.394	80.81
272.626	57.81
272.858	80.81
273.09	78.81
273.322	74.81
273.553	64.81
273.785	70.81
274.017	84.81
274.249	86.81
274.481	84.81
274.713	76.81
274.945	78.81
275.176	86.81
275.408	86.81
275.64	76.81
275.872	74.81
276.104	95.81
276.335	89.81
276.567	86.81
276.799	67.81
277.031	84.81
277.262	81.81
277.494	90.81
277.726	86.81
277.957	73.81
278.189	86.81
278.421	78.81
278.652	77.81
278.884	90.81
279.115	76.81
279.347	82.81
279.579	87.81
279.81	85.81
280.042	76.81
280.273	89.81
280.505	74.81
280.736	63.81
280.968	66.81
281.199	91.81
281.431	82.81
281.662	86.81
281.894	73.81
282.125	83.81
282.356	100.81
282.588	96.81
282.819	100.81
283.051	86.81
283.282	79.81
283.513	84.81
283.745	98.81
283.976	86.81
284.207	86.81
284.439	78.81
284.67	77.81
284.901	77.81
285.132	78.81
285.364	77.81
285.595	74.81
285.826	88.81
286.057	67.81
286.288	68.81
286.52	81.81
286.751	72.81
286.982	90.81
287.213	94.81
287.444	94.81
287.675	84.81
287.906	78.81
288.138	91.81
288.369	104.81
288.6	95.81
288.831	86.81
289.062	89.81
289.293	82.81
289.524	89.81
289.755	81.81
289.986	67.81
290.217	90.81
290.448	86.81
290.679	84.81
290.91	70.81
291.141	78.81
291.371	85.81
291.602	86.81
291.833	70.81
292.064	83.81
292.295	76.81
292.526	94.81
292.757	97.81
292.987	93.81
293.218	84.81
293.449	86.81
293.68	79.81
293.91	86.81
294.141	85.81
294.372	83.81
294.603	74.81
294.833	82.81
295.064	82.81
295.295	75.81
295.525	83.81
295.756	86.81
295.987	98.81
296.217	115.81
296.448	114.81
296.679	106.81
296.909	87.81
297.14	93.81
297.37	80.81
297.601	91.81
297.831	84.81
298.062	71.81
298.292	93.81
298.523	88.81
298.753	103.81
298.984	101.81
299.214	82.81
299.445	84.81
299.675	89.81
299.905	97.81
300.136	80.81
300.366	86.81
300.597	90.81
300.827	87.81
301.057	83.81
301.288	81.81
301.518	88.81
301.748	93.81
301.979	98.81
302.209	63.81
302.439	88.81
302.669	76.81
302.9	83.81
303.13	84.81
303.36	103.81
303.59	95.81
303.82	88.81
304.051	88.81
304.281	87.81
304.511	103.81
304.741	90.81
304.971	77.81
305.201	81.81
305.431	88.81
305.661	85.81
305.891	95.81
306.121	94.81
306.352	103.81
306.582	91.81
306.812	85.81
307.042	87.81
307.272	82.81
307.502	91.81
307.731	95.81
307.961	97.81
308.191	96.81
308.421	88.81
308.651	84.81
308.881	93.81
309.111	61.81
309.341	75.81
309.571	90.81
309.8	93.81
310.03	88.81
310.26	92.81
310.49	81.81
310.72	84.81
310.949	81.81
311.179	78.81
311.409	78.81
311.639	72.81
311.868	82.81
312.098	78.81
312.328	83.81
312.557	104.81
312.787	97.81
313.017	98.81
313.246	96.81
313.476	96.81
313.706	77.81
313.935	83.81
314.165	102.81
314.394	90.81
314.624	89.81
314.853	98.81
315.083	100.81
315.312	77.81
315.542	97.81
315.771	95.81
316.001	95.81
316.23	82.81
316.46	100.81
316.689	102.81
316.919	97.81
317.148	76.81
317.377	87.81
317.607	100.81
317.836	94.81
318.065	101.81
318.295	94.81
318.524	87.81
318.753	87.81
318.983	90.81
319.212	102.81
319.441	78.81
319.67	91.81
319.9	78.81
320.129	84.81
320.358	74.81
320.587	93.81
320.816	96.81
321.046	97.81
321.275	108.81
321.504	87.81
321.733	90.81
321.962	96.81
322.191	91.81
322.42	100.81
322.649	95.81
322.878	95.81
323.108	106.81
323.337	109.81
323.566	110.81
323.795	126.81
324.024	172.81
324.253	296.81
324.482	615.81
324.71	1230.81
324.939	1546.81
325.168	591.81
325.397	170.81
325.626	118.81
325.855	100.81
326.084	117.81
326.313	118.81
326.542	136.81
326.77	177.81
326.999	345.81
327.228	684.81
327.457	1249.81
327.686	1019.81
327.914	288.81
328.143	156.81
328.372	150.81
328.6	100.81
328.829	112.81
329.058	110.81
329.287	112.81
329.515	98.81
329.744	103.81
329.972	120.81
330.201	125.81
330.43	139.81
330.658	130.81
330.887	115.81
331.115	97.81
331.344	98.81
331.572	90.81
331.801	92.81
332.03	98.81
332.258	97.81
332.486	98.81
332.715	90.81
332.943	83.81
333.172	87.81
333.4	90.81
333.629	109.81
333.857	121.81
334.085	102.81
334.314	108.81
334.542	177.81
334.771	164.81
334.999	93.81
335.227	91.81
335.455	101.81
335.684	89.81
335.912	99.81
336.14	80.81
336.369	86.81
336.597	93.81
336.825	89.81
337.053	94.81
337.281	100.81
337.51	90.81
337.738	103.81
337.966	89.81
338.194	83.81
338.422	81.81
338.65	94.81
338.878	97.81
339.106	90.81
339.334	91.81
339.562	89.81
339.79	98.81
340.018	98.81
340.246	77.81
340.474	81.81
340.702	92.81
340.93	75.81
341.158	79.81
341.386	96.81
341.614	104.81
341.842	92.81
342.07	95.81
342.298	104.81
342.526	72.81
342.754	78.81
342.981	82.81
343.209	93.81
343.437	97.81
343.665	77.81
343.893	91.81
344.12	91.81
344.348	92.81
344.576	83.81
344.804	92.81
345.031	106.81
345.259	85.81
345.487	94.81
345.714	86.81
345.942	83.81
346.17	90.81
346.397	93.81
346.625	86.81
346.853	96.81
347.08	93.81
347.308	74.81
347.535	91.81
347.763	91.81
347.99	87.81
348.218	87.81
348.445	94.81
348.673	81.81
348.9	75.81
349.128	97.81
349.355	86.81
349.583	83.81
349.81	98.81
350.037	81.81
350.265	94.81
350.492	94.81
350.72	96.81
350.947	87.81
351.174	82.81
351.402	104.81
351.629	99.81
351.856	88.81
352.083	99.81
352.311	88.81
352.538	107.81
352.765	92.81
352.992	107.81
353.22	104.81
353.447	95.81
353.674	104.81
353.901	100.81
354.128	91.81
354.355	76.81
354.583	103.81
354.81	91.81
355.037	72.81
355.264	85.81
355.491	91.81
355.718	84.81
355.945	96.81
356.172	73.81
356.399	87.81
356.626	87.81
356.853	90.81
357.08	103.81
357.307	98.81
357.534	110.81
357.761	82.81
357.988	97.81
358.215	104.81
358.441	113.81
358.668	97.81
358.895	82.81
359.122	84.81
359.349	82.81
359.576	85.81
359.802	90.81
360.029	99.81
360.256	94.81
360.483	80.81
360.709	80.81
360.936	89.81
361.163	84.81
361.39	86.81
361.616	90.81
361.843	80.81
362.07	90.81
362.296	99.81
362.523	84.81
362.749	91.81
362.976	81.81
363.203	92.81
363.429	90.81
363.656	88.81
363.882	82.81
364.109	98.81
364.335	94.81
364.562	91.81
364.788	81.81
365.015	96.81
365.241	95.81
365.468	89.81
365.694	93.81
365.92	83.81
366.147	91.81
366.373	87.81
366.599	80.81
366.826	103.81
367.052	82.81
367.278	74.81
367.505	91.81
367.731	81.81
367.957	86.81
368.184	89.81
368.41	94.81
368.636	92.81
368.862	114.81
369.089	94.81
369.315	82.81
369.541	94.81
369.767	91.81
369.993	89.81
370.219	72.81
370.445	76.81
370.672	86.81
370.898	87.81
371.124	93.81
371.35	81.81
371.576	92.81
371.802	94.81
372.028	76.81
372.254	78.81
372.48	99.81
372.706	87.81
372.932	68.81
373.158	78.81
373.384	97.81
373.61	94.81
373.835	80.81
374.061	81.81
374.287	83.81
374.513	98.81
374.739	87.81
374.965	87.81
375.191	84.81
375.416	96.81
375.642	98.81
375.868	94.81
376.094	84.81
376.319	96.81
376.545	81.81
376.771	70.81
376.997	76.81
377.222	89.81
377.448	94.81
377.674	89.81
377.899	96.81
378.125	103.81
378.35	77.81
378.576	87.81
378.802	99.81
379.027	87.81
379.253	90.81
379.478	86.81
379.704	95.81
379.929	108.81
380.155	107.81
380.38	95.81
380.606	100.81
380.831	105.81
381.057	97.81
381.282	91.81
381.507	84.81
381.733	109.81
381.958	98.81
382.184	100.81
382.409	99.81
382.634	114.81
382.86	94.81
383.085	95.81
383.31	100.81
383.535	104.81
383.761	112.81
383.986	90.81
384.211	94.81
384.436	97.81
384.662	96.81
384.887	111.81
385.112	114.81
385.337	106.81
385.562	109.81
385.787	114.81
386.013	100.81
386.238	123.81
386.463	110.81
386.688	100.81
386.913	110.81
387.138	111.81
387.363	97.81
387.588	94.81
387.813	99.81
388.038	119.81
388.263	128.81
388.488	118.81
388.713	114.81
388.938	84.81
389.163	91.81
389.387	80.81
389.612	81.81
389.837	94.81
390.062	102.81
390.287	97.81
390.512	100.81
390.736	76.81
390.961	87.81
391.186	82.81
391.411	81.81
391.636	86.81
391.86	94.81
392.085	79.81
392.31	78.81
392.534	82.81
392.759	88.81
392.984	92.81
393.208	101.81
393.433	140.81
393.658	118.81
393.882	92.81
394.107	97.81
394.331	88.81
394.556	77.81
394.78	84.81
395.005	90.81
395.229	87.81
395.454	90.81
395.678	86.81
395.903	92.81
396.127	91.81
396.352	85.81
396.576	102.81
396.801	109.81
397.025	119.81
397.249	88.81
397.474	88.81
397.698	81.81
397.922	95.81
398.147	80.81
398.371	86.81
398.595	66.81
398.82	81.81
399.044	88.81
399.268	83.81
399.492	82.81
399.717	94.81
399.941	90.81
400.165	95.81
400.389	94.81
400.613	81.81
400.837	72.81
401.062	84.81
401.286	80.81
401.51	84.81
401.734	74.81
401.958	97.81
402.182	105.81
402.406	112.81
402.63	95.81
402.854	103.81
403.078	82.81
403.302	81.81
403.526	81.81
403.75	86.81
403.974	79.81
404.198	83.81
404.422	83.81
404.645	91.81
404.869	80.81
405.093	102.81
405.317	103.81
405.541	74.81
405.765	88.81
405.988	108.81
406.212	146.81
406.436	172.81
406.66	125.81
406.883	104.81
407.107	88.81
407.331	83.81
407.555	94.81
407.778	84.81
408.002	83.81
408.226	86.81
408.449	78.81
408.673	100.81
408.896	79.81
409.12	89.81
409.344	91.81
409.567	94.81
409.791	88.81
410.014	90.81
410.238	99.81
410.461	77.81
410.685	92.81
410.908	97.81
411.132	108.81
411.355	89.81
411.578	92.81
411.802	82.81
412.025	84.81
412.249	102.81
412.472	101.81
412.695	104.81
412.919	87.81
413.142	103.81
413.365	93.81
413.589	86.81
413.812	86.81
414.035	85.81
414.258	92.81
414.482	87.81
414.705	88.81
414.928	101.81
415.151	89.81
415.374	81.81
415.597	92.81
415.821	67.81
416.044	73.81
416.267	76.81
416.49	87.81
416.713	98.81
416.936	97.81
417.159	80.81
417.382	90.81
417.605	96.81
417.828	86.81
418.051	87.81
418.274	78.81
418.497	83.81
418.72	81.81
418.943	88.81
419.166	90.81
419.389	82.81
419.611	88.81
419.834	91.81
420.057	93.81
420.28	86.81
420.503	92.81
420.726	87.81
420.948	96.81
421.171	103.81
421.394	97.81
421.617	87.81
421.839	93.81
422.062	76.81
422.285	85.81
422.507	83.81
422.73	117.81
422.953	91.81
423.175	95.81
423.398	92.81
423.621	91.81
423.843	85.81
424.066	79.81
424.288	82.81
424.511	77.81
424.733	94.81
424.956	104.81
425.178	96.81
425.401	101.81
425.623	83.81
425.846	83.81
426.068	83.81
426.291	89.81
426.513	88.81
426.735	98.81
426.958	84.81
427.18	83.81
427.402	123.81
427.625	123.81
427.847	112.81
428.069	108.81
428.292	89.81
428.514	88.81
428.736	83.81
428.958	90.81
429.181	89.81
429.403	86.81
429.625	84.81
429.847	73.81
430.069	86.81
430.292	84.81
430.514	82.81
430.736	96.81
430.958	93.81
431.18	107.81
431.402	74.81
431.624	80.81
431.846	85.81
432.068	82.81
432.29	88.81
432.512	85.81
432.734	90.81
432.956	86.81
433.178	89.81
433.4	92.81
433.622	82.81
433.844	88.81
434.066	83.81
434.287	83.81
434.509	87.81
434.731	91.81
434.953	96.81
435.175	77.81
435.397	79.81
435.618	70.81
435.84	104.81
436.062	94.81
436.284	84.81
436.505	92.81
436.727	100.81
436.949	89.81
437.17	97.81
437.392	97.81
437.614	92.81
437.835	84.81
438.057	96.81
438.278	98.81
438.5	90.81
438.721	99.81
438.943	96.81
439.165	96.81
439.386	84.81
439.608	73.81
439.829	91.81
440.05	97.81
440.272	103.81
440.493	93.81
440.715	101.81
440.936	73.81
441.158	78.81
441.379	87.81
441.6	88.81
441.822	79.81
442.043	79.81
442.264	94.81
442.486	86.81
442.707	98.81
442.928	98.81
443.149	100.81
443.371	100.81
443.592	95.81
443.813	95.81
444.034	96.81
444.255	77.81
444.476	73.81
444.698	85.81
444.919	80.81
445.14	134.81
445.361	129.81
445.582	97.81
445.803	116.81
446.024	109.81
446.245	113.81
446.466	91.81
446.687	81.81
446.908	100.81
447.129	71.81
447.35	75.81
447.571	86.81
447.792	82.81
448.013	86.81
448.234	94.81
448.455	100.81
448.675	100.81
448.896	105.81
449.117	92.81
449.338	86.81
449.559	108.81
449.779	106.81
450	98.81
450.221	87.81
450.442	81.81
450.662	86.81
450.883	94.81
451.104	105.81
451.324	83.81
451.545	94.81
451.766	82.81
451.986	88.81
452.207	82.81
452.428	89.81
452.648	80.81
452.869	100.81
453.089	99.81
453.31	86.81
453.53	90.81
453.751	76.81
453.971	90.81
454.192	87.81
454.412	82.81
454.633	88.81
454.853	85.81
455.073	76.81
455.294	86.81
455.514	81.81
455.734	78.81
455.955	86.81
456.175	60.81
456.395	76.81
456.616	80.81
456.836	88.81
457.056	84.81
457.276	90.81
457.497	90.81
457.717	75.81
457.937	81.81
458.157	80.81
458.377	82.81
458.598	96.81
458.818	123.81
459.038	129.81
459.258	100.81
459.478	98.81
459.698	73.81
459.918	88.81
460.138	88.81
460.358	84.81
460.578	79.81
460.798	90.81
461.018	74.81
461.238	83.81
461.458	76.81
461.678	64.81
461.898	86.81
462.118	79.81
462.338	78.81
462.558	93.81
462.777	90.81
462.997	82.81
463.217	94.81
463.437	80.81
463.657	84.81
463.876	95.81
464.096	83.81
464.316	91.81
464.536	86.81
464.755	90.81
464.975	105.81
465.195	141.81
465.414	108.81
465.634	98.81
465.854	90.81
466.073	84.81
466.293	80.81
466.512	77.81
466.732	90.81
466.951	80.81
467.171	83.81
467.391	97.81
467.61	106.81
467.829	86.81
468.049	109.81
468.268	107.81
468.488	103.81
468.707	95.81
468.927	75.81
469.146	86.81
469.365	83.81
469.585	96.81
469.804	94.81
470.023	93.81
470.243	83.81
470.462	70.81
470.681	97.81
470.901	98.81
471.12	79.81
471.339	94.81
471.558	84.81
471.777	95.81
471.997	104.81
472.216	122.81
472.435	191.81
472.654	107.81
472.873	91.81
473.092	92.81
473.311	72.81
473.53	89.81
473.749	81.81
473.968	78.81
474.187	84.81
474.406	96.81
474.625	77.81
474.844	85.81
475.063	83.81
475.282	91.81
475.501	90.81
475.72	79.81
475.939	88.81
476.158	84.81
476.377	76.81
476.596	79.81
476.814	87.81
477.033	74.81
477.252	81.81
477.471	86.81
477.69	76.81
477.908	92.81
478.127	90.81
478.346	86.81
478.564	96.81
478.783	74.81
479.002	90.81
479.22	90.81
479.439	88.81
479.658	82.81
479.876	90.81
480.095	94.81
480.313	84.81
480.532	101.81
480.751	104.81
480.969	127.81
481.188	274.81
481.406	200.81
481.624	100.81
481.843	100.81
482.061	90.81
482.28	72.81
482.498	99.81
482.717	92.81
482.935	90.81
483.153	71.81
483.372	72.81
483.59	94.81
483.808	85.81
484.027	104.81
484.245	80.81
484.463	67.81
484.681	93.81
484.9	83.81
485.118	94.81
485.336	78.81
485.554	104.81
485.772	104.81
485.99	98.81
486.209	109.81
486.427	94.81
486.645	108.81
486.863	98.81
487.081	104.81
487.299	97.81
487.517	94.81
487.735	93.81
487.953	84.81
488.171	91.81
488.389	96.81
488.607	105.81
488.825	91.81
489.043	96.81
489.261	79.81
489.479	79.81
489.696	80.81
489.914	96.81
490.132	78.81
490.35	79.81
490.568	71.81
490.786	82.81
491.003	87.81
491.221	87.81
491.439	94.81
491.657	90.81
491.874	80.81
492.092	88.81
492.31	105.81
492.527	74.81
492.745	86.81
492.963	88.81
493.18	98.81
493.398	103.81
493.615	90.81
493.833	80.81
494.05	84.81
494.268	80.81
494.485	88.81
494.703	63.81
494.92	90.81
495.138	83.81
495.355	84.81
495.573	85.81
495.79	93.81
496.008	100.81
496.225	78.81
496.442	93.81
496.66	92.81
496.877	90.81
497.094	83.81
497.312	86.81
497.529	94.81
497.746	97.81
497.963	90.81
498.181	86.81
498.398	79.81
498.615	97.81
498.832	100.81
499.049	83.81
499.267	92.81
499.484	101.81
499.701	74.81
499.918	90.81
500.135	76.81
500.352	84.81
500.569	94.81
500.786	86.81
501.003	90.81
501.22	99.81
501.437	100.81
501.654	95.81
501.871	95.81
502.088	88.81
502.305	83.81
502.522	82.81
502.739	85.81
502.956	82.81
503.172	92.81
503.389	90.81
503.606	94.81
503.823	88.81
504.04	97.81
504.256	97.81
504.473	91.81
504.69	73.81
504.907	90.81
505.123	80.81
505.34	86.81
505.557	103.81
505.773	86.81
505.99	98.81
506.207	94.81
506.423	84.81
506.64	94.81
506.856	82.81
507.073	86.81
507.289	100.81
507.506	97.81
507.722	96.81
507.939	100.81
508.155	85.81
508.372	85.81
508.588	93.81
508.805	97.81
509.021	81.81
509.238	79.81
509.454	96.81
509.67	112.81
509.887	88.81
510.103	116.81
510.319	181.81
510.536	571.81
510.752	1742.81
510.968	468.81
511.184	124.81
511.401	91.81
511.617	105.81
511.833	92.81
512.049	71.81
512.265	77.81
512.481	86.81
512.698	83.81
512.914	94.81
513.13	84.81
513.346	86.81
513.562	94.81
513.778	88.81
513.994	93.81
514.21	97.81
514.426	106.81
514.642	106.81
514.858	116.81
515.074	126.81
515.29	326.81
515.506	969.81
515.721	366.81
515.937	125.81
516.153	100.81
516.369	93.81
516.585	98.81
516.801	86.81
517.016	99.81
