Data from Circ_1993_H10_HRD10591_00072.txt Node
Date: Wed Jan 03 11:44:16 EST 2024
User: Yrep
Spectrometer: HR+D1059
Trigger mode: 1
Integration Time (sec): 1.000000E-1
Scans to average: 1
Electric dark correction enabled: true
Nonlinearity correction enabled: false
Boxcar width: 0
XAxis mode: Wavelengths
Number of Pixels in Spectrum: 2048
>>>>>Begin Spectral Data<<<<<
223.165	-14.38
223.4	-14.38
223.635	-14.38
223.869	-17.38
224.104	-12.38
224.338	-11.38
224.573	-21.38
224.808	-24.38
225.042	4.62
225.277	-1.38
225.511	-8.38
225.746	10.62
225.98	1.62
226.215	3.62
226.449	14.62
226.683	21.62
226.918	28.62
227.152	25.62
227.387	33.62
227.621	32.62
227.856	43.62
228.09	44.62
228.324	50.62
228.559	43.62
228.793	47.62
229.027	65.62
229.262	62.62
229.496	61.62
229.73	82.62
229.964	74.62
230.199	77.62
230.433	74.62
230.667	66.62
230.901	64.62
231.136	78.62
231.37	92.62
231.604	89.62
231.838	76.62
232.072	64.62
232.306	72.62
232.541	76.62
232.775	93.62
233.009	70.62
233.243	67.62
233.477	85.62
233.711	75.62
233.945	81.62
234.179	77.62
234.413	69.62
234.647	82.62
234.881	85.62
235.115	79.62
235.349	74.62
235.583	76.62
235.817	72.62
236.051	75.62
236.285	77.62
236.519	75.62
236.753	70.62
236.987	80.62
237.221	78.62
237.455	89.62
237.689	85.62
237.922	84.62
238.156	68.62
238.39	68.62
238.624	76.62
238.858	77.62
239.091	74.62
239.325	74.62
239.559	79.62
239.793	65.62
240.027	72.62
240.26	66.62
240.494	70.62
240.728	73.62
240.961	66.62
241.195	74.62
241.429	73.62
241.662	72.62
241.896	87.62
242.13	84.62
242.363	69.62
242.597	68.62
242.83	61.62
243.064	90.62
243.298	86.62
243.531	88.62
243.765	65.62
243.998	84.62
244.232	84.62
244.465	85.62
244.699	73.62
244.932	80.62
245.166	76.62
245.399	81.62
245.633	64.62
245.866	77.62
246.099	81.62
246.333	64.62
246.566	68.62
246.8	74.62
247.033	72.62
247.266	82.62
247.5	72.62
247.733	77.62
247.966	85.62
248.2	70.62
248.433	76.62
248.666	80.62
248.899	80.62
249.133	87.62
249.366	94.62
249.599	96.62
249.832	73.62
250.066	82.62
250.299	60.62
250.532	79.62
250.765	87.62
250.998	64.62
251.231	78.62
251.465	58.62
251.698	79.62
251.931	69.62
252.164	84.62
252.397	72.62
252.63	89.62
252.863	65.62
253.096	81.62
253.329	70.62
253.562	76.62
253.795	85.62
254.028	80.62
254.261	73.62
254.494	64.62
254.727	85.62
254.96	91.62
255.193	98.62
255.426	87.62
255.659	84.62
255.892	78.62
256.124	82.62
256.357	73.62
256.59	75.62
256.823	76.62
257.056	78.62
257.289	86.62
257.521	80.62
257.754	80.62
257.987	75.62
258.22	84.62
258.452	83.62
258.685	77.62
258.918	74.62
259.151	72.62
259.383	86.62
259.616	65.62
259.849	80.62
260.081	88.62
260.314	72.62
260.547	78.62
260.779	80.62
261.012	88.62
261.244	80.62
261.477	78.62
261.71	79.62
261.942	102.62
262.175	121.62
262.407	94.62
262.64	74.62
262.872	61.62
263.105	80.62
263.337	86.62
263.57	90.62
263.802	77.62
264.035	74.62
264.267	79.62
264.499	84.62
264.732	78.62
264.964	77.62
265.197	85.62
265.429	71.62
265.661	89.62
265.894	80.62
266.126	85.62
266.358	82.62
266.591	82.62
266.823	63.62
267.055	83.62
267.287	69.62
267.52	82.62
267.752	70.62
267.984	77.62
268.216	79.62
268.448	73.62
268.681	77.62
268.913	92.62
269.145	75.62
269.377	73.62
269.609	73.62
269.841	97.62
270.073	76.62
270.306	82.62
270.538	77.62
270.77	81.62
271.002	81.62
271.234	69.62
271.466	76.62
271.698	77.62
271.93	82.62
272.162	91.62
272.394	75.62
272.626	80.62
272.858	89.62
273.09	90.62
273.322	74.62
273.553	84.62
273.785	80.62
274.017	94.62
274.249	85.62
274.481	84.62
274.713	78.62
274.945	86.62
275.176	83.62
275.408	92.62
275.64	80.62
275.872	86.62
276.104	77.62
276.335	96.62
276.567	90.62
276.799	105.62
277.031	103.62
277.262	102.62
277.494	101.62
277.726	80.62
277.957	76.62
278.189	78.62
278.421	87.62
278.652	80.62
278.884	70.62
279.115	88.62
279.347	80.62
279.579	75.62
279.81	84.62
280.042	96.62
280.273	97.62
280.505	69.62
280.736	83.62
280.968	86.62
281.199	90.62
281.431	77.62
281.662	89.62
281.894	92.62
282.125	98.62
282.356	101.62
282.588	134.62
282.819	114.62
283.051	76.62
283.282	89.62
283.513	89.62
283.745	106.62
283.976	75.62
284.207	80.62
284.439	79.62
284.67	87.62
284.901	77.62
285.132	76.62
285.364	80.62
285.595	82.62
285.826	69.62
286.057	84.62
286.288	77.62
286.52	83.62
286.751	81.62
286.982	91.62
287.213	82.62
287.444	69.62
287.675	80.62
287.906	85.62
288.138	76.62
288.369	89.62
288.6	74.62
288.831	86.62
289.062	82.62
289.293	83.62
289.524	76.62
289.755	86.62
289.986	81.62
290.217	75.62
290.448	86.62
290.679	78.62
290.91	89.62
291.141	89.62
291.371	89.62
291.602	86.62
291.833	79.62
292.064	77.62
292.295	91.62
292.526	77.62
292.757	75.62
292.987	89.62
293.218	85.62
293.449	93.62
293.68	80.62
293.91	80.62
294.141	93.62
294.372	107.62
294.603	87.62
294.833	80.62
295.064	93.62
295.295	82.62
295.525	80.62
295.756	95.62
295.987	110.62
296.217	148.62
296.448	112.62
296.679	95.62
296.909	97.62
297.14	78.62
297.37	74.62
297.601	85.62
297.831	81.62
298.062	93.62
298.292	81.62
298.523	77.62
298.753	68.62
298.984	87.62
299.214	88.62
299.445	95.62
299.675	86.62
299.905	92.62
300.136	105.62
300.366	79.62
300.597	80.62
300.827	90.62
301.057	93.62
301.288	98.62
301.518	91.62
301.748	72.62
301.979	95.62
302.209	98.62
302.439	81.62
302.669	89.62
302.9	76.62
303.13	97.62
303.36	97.62
303.59	108.62
303.82	100.62
304.051	79.62
304.281	90.62
304.511	102.62
304.741	90.62
304.971	92.62
305.201	79.62
305.431	74.62
305.661	93.62
305.891	77.62
306.121	86.62
306.352	97.62
306.582	103.62
306.812	89.62
307.042	92.62
307.272	77.62
307.502	96.62
307.731	104.62
307.961	85.62
308.191	95.62
308.421	96.62
308.651	90.62
308.881	84.62
309.111	104.62
309.341	91.62
309.571	93.62
309.8	77.62
310.03	91.62
310.26	103.62
310.49	100.62
310.72	103.62
310.949	109.62
311.179	106.62
311.409	73.62
311.639	89.62
311.868	97.62
312.098	93.62
312.328	96.62
312.557	116.62
312.787	97.62
313.017	94.62
313.246	76.62
313.476	95.62
313.706	83.62
313.935	101.62
314.165	104.62
314.394	105.62
314.624	97.62
314.853	95.62
315.083	76.62
315.312	83.62
315.542	68.62
315.771	74.62
316.001	81.62
316.23	80.62
316.46	83.62
316.689	76.62
316.919	77.62
317.148	86.62
317.377	93.62
317.607	91.62
317.836	89.62
318.065	86.62
318.295	86.62
318.524	79.62
318.753	84.62
318.983	95.62
319.212	102.62
319.441	116.62
319.67	102.62
319.9	90.62
320.129	87.62
320.358	90.62
320.587	86.62
320.816	106.62
321.046	93.62
321.275	81.62
321.504	97.62
321.733	96.62
321.962	92.62
322.191	91.62
322.42	110.62
322.649	117.62
322.878	111.62
323.108	124.62
323.337	124.62
323.566	130.62
323.795	167.62
324.024	197.62
324.253	417.62
324.482	848.62
324.71	1768.62
324.939	2336.62
325.168	874.62
325.397	241.62
325.626	159.62
325.855	127.62
326.084	137.62
326.313	127.62
326.542	156.62
326.77	240.62
326.999	443.62
327.228	961.62
327.457	1756.62
327.686	1404.62
327.914	402.62
328.143	242.62
328.372	209.62
328.6	159.62
328.829	126.62
329.058	150.62
329.287	139.62
329.515	127.62
329.744	98.62
329.972	152.62
330.201	216.62
330.43	287.62
330.658	196.62
330.887	180.62
331.115	148.62
331.344	107.62
331.572	97.62
331.801	96.62
332.03	108.62
332.258	94.62
332.486	83.62
332.715	96.62
332.943	85.62
333.172	89.62
333.4	86.62
333.629	99.62
333.857	120.62
334.085	151.62
334.314	224.62
334.542	342.62
334.771	326.62
334.999	140.62
335.227	100.62
335.455	89.62
335.684	85.62
335.912	105.62
336.14	100.62
336.369	84.62
336.597	97.62
336.825	108.62
337.053	93.62
337.281	89.62
337.51	86.62
337.738	92.62
337.966	83.62
338.194	86.62
338.422	81.62
338.65	83.62
338.878	82.62
339.106	79.62
339.334	77.62
339.562	79.62
339.79	86.62
340.018	89.62
340.246	96.62
340.474	92.62
340.702	82.62
340.93	79.62
341.158	84.62
341.386	95.62
341.614	83.62
341.842	87.62
342.07	85.62
342.298	91.62
342.526	83.62
342.754	76.62
342.981	88.62
343.209	97.62
343.437	75.62
343.665	84.62
343.893	86.62
344.12	77.62
344.348	87.62
344.576	92.62
344.804	88.62
345.031	105.62
345.259	78.62
345.487	90.62
345.714	82.62
345.942	88.62
346.17	106.62
346.397	78.62
346.625	90.62
346.853	84.62
347.08	80.62
347.308	104.62
347.535	92.62
347.763	104.62
347.99	96.62
348.218	98.62
348.445	102.62
348.673	97.62
348.9	95.62
349.128	88.62
349.355	90.62
349.583	78.62
349.81	86.62
350.037	88.62
350.265	95.62
350.492	86.62
350.72	88.62
350.947	103.62
351.174	107.62
351.402	106.62
351.629	107.62
351.856	93.62
352.083	104.62
352.311	105.62
352.538	113.62
352.765	105.62
352.992	114.62
353.22	116.62
353.447	109.62
353.674	88.62
353.901	95.62
354.128	87.62
354.355	91.62
354.583	86.62
354.81	105.62
355.037	81.62
355.264	100.62
355.491	94.62
355.718	94.62
355.945	95.62
356.172	80.62
356.399	91.62
356.626	73.62
356.853	95.62
357.08	92.62
357.307	68.62
357.534	94.62
357.761	87.62
357.988	91.62
358.215	92.62
358.441	98.62
358.668	95.62
358.895	74.62
359.122	86.62
359.349	91.62
359.576	97.62
359.802	102.62
360.029	111.62
360.256	95.62
360.483	98.62
360.709	79.62
360.936	90.62
361.163	98.62
361.39	98.62
361.616	108.62
361.843	84.62
362.07	94.62
362.296	99.62
362.523	97.62
362.749	91.62
362.976	102.62
363.203	87.62
363.429	93.62
363.656	85.62
363.882	90.62
364.109	94.62
364.335	97.62
364.562	93.62
364.788	86.62
365.015	89.62
365.241	96.62
365.468	119.62
365.694	105.62
365.92	98.62
366.147	79.62
366.373	72.62
366.599	106.62
366.826	85.62
367.052	87.62
367.278	83.62
367.505	88.62
367.731	92.62
367.957	90.62
368.184	93.62
368.41	111.62
368.636	114.62
368.862	119.62
369.089	104.62
369.315	78.62
369.541	89.62
369.767	80.62
369.993	102.62
370.219	97.62
370.445	97.62
370.672	80.62
370.898	78.62
371.124	86.62
371.35	83.62
371.576	78.62
371.802	78.62
372.028	80.62
372.254	88.62
372.48	81.62
372.706	88.62
372.932	89.62
373.158	86.62
373.384	88.62
373.61	80.62
373.835	90.62
374.061	81.62
374.287	80.62
374.513	79.62
374.739	78.62
374.965	82.62
375.191	70.62
375.416	85.62
375.642	86.62
375.868	77.62
376.094	94.62
376.319	79.62
376.545	76.62
376.771	82.62
376.997	81.62
377.222	81.62
377.448	80.62
377.674	87.62
377.899	84.62
378.125	80.62
378.35	84.62
378.576	67.62
378.802	87.62
379.027	94.62
379.253	94.62
379.478	88.62
379.704	80.62
379.929	89.62
380.155	89.62
380.38	96.62
380.606	86.62
380.831	103.62
381.057	88.62
381.282	81.62
381.507	84.62
381.733	96.62
381.958	74.62
382.184	79.62
382.409	93.62
382.634	98.62
382.86	102.62
383.085	92.62
383.31	88.62
383.535	114.62
383.761	83.62
383.986	94.62
384.211	96.62
384.436	80.62
384.662	93.62
384.887	97.62
385.112	91.62
385.337	98.62
385.562	91.62
385.787	92.62
386.013	109.62
386.238	111.62
386.463	88.62
386.688	98.62
386.913	81.62
387.138	96.62
387.363	98.62
387.588	96.62
387.813	109.62
388.038	102.62
388.263	111.62
388.488	110.62
388.713	103.62
388.938	92.62
389.163	93.62
389.387	99.62
389.612	79.62
389.837	96.62
390.062	79.62
390.287	84.62
390.512	80.62
390.736	70.62
390.961	90.62
391.186	100.62
391.411	86.62
391.636	86.62
391.86	84.62
392.085	93.62
392.31	90.62
392.534	70.62
392.759	86.62
392.984	85.62
393.208	93.62
393.433	137.62
393.658	101.62
393.882	67.62
394.107	94.62
394.331	70.62
394.556	77.62
394.78	72.62
395.005	85.62
395.229	73.62
395.454	79.62
395.678	77.62
395.903	83.62
396.127	85.62
396.352	75.62
396.576	77.62
396.801	105.62
397.025	104.62
397.249	80.62
397.474	87.62
397.698	90.62
397.922	92.62
398.147	87.62
398.371	74.62
398.595	82.62
398.82	86.62
399.044	87.62
399.268	81.62
399.492	86.62
399.717	76.62
399.941	72.62
400.165	96.62
400.389	90.62
400.613	90.62
400.837	85.62
401.062	94.62
401.286	79.62
401.51	85.62
401.734	91.62
401.958	103.62
402.182	137.62
402.406	166.62
402.63	107.62
402.854	101.62
403.078	96.62
403.302	78.62
403.526	94.62
403.75	78.62
403.974	82.62
404.198	80.62
404.422	73.62
404.645	72.62
404.869	82.62
405.093	96.62
405.317	102.62
405.541	122.62
405.765	97.62
405.988	110.62
406.212	189.62
406.436	266.62
406.66	148.62
406.883	80.62
407.107	97.62
407.331	93.62
407.555	99.62
407.778	92.62
408.002	88.62
408.226	87.62
408.449	83.62
408.673	92.62
408.896	94.62
409.12	90.62
409.344	86.62
409.567	85.62
409.791	91.62
410.014	97.62
410.238	93.62
410.461	94.62
410.685	85.62
410.908	84.62
411.132	90.62
411.355	96.62
411.578	86.62
411.802	85.62
412.025	90.62
412.249	88.62
412.472	94.62
412.695	99.62
412.919	91.62
413.142	83.62
413.365	80.62
413.589	70.62
413.812	82.62
414.035	95.62
414.258	92.62
414.482	79.62
414.705	89.62
414.928	108.62
415.151	99.62
415.374	93.62
415.597	80.62
415.821	88.62
416.044	87.62
416.267	77.62
416.49	76.62
416.713	82.62
416.936	80.62
417.159	89.62
417.382	74.62
417.605	76.62
417.828	79.62
418.051	88.62
418.274	93.62
418.497	76.62
418.72	84.62
418.943	76.62
419.166	93.62
419.389	89.62
419.611	92.62
419.834	91.62
420.057	78.62
420.28	73.62
420.503	86.62
420.726	87.62
420.948	88.62
421.171	94.62
421.394	95.62
421.617	78.62
421.839	100.62
422.062	98.62
422.285	79.62
422.507	97.62
422.73	115.62
422.953	94.62
423.175	75.62
423.398	75.62
423.621	105.62
423.843	79.62
424.066	87.62
424.288	88.62
424.511	81.62
424.733	103.62
424.956	108.62
425.178	116.62
425.401	88.62
425.623	97.62
425.846	95.62
426.068	95.62
426.291	90.62
426.513	86.62
426.735	89.62
426.958	102.62
427.18	109.62
427.402	144.62
427.625	198.62
427.847	146.62
428.069	141.62
428.292	85.62
428.514	86.62
428.736	93.62
428.958	85.62
429.181	97.62
429.403	84.62
429.625	82.62
429.847	84.62
430.069	97.62
430.292	81.62
430.514	86.62
430.736	84.62
430.958	59.62
431.18	88.62
431.402	73.62
431.624	68.62
431.846	90.62
432.068	72.62
432.29	86.62
432.512	87.62
432.734	80.62
432.956	96.62
433.178	102.62
433.4	101.62
433.622	101.62
433.844	97.62
434.066	76.62
434.287	87.62
434.509	81.62
434.731	94.62
434.953	90.62
435.175	77.62
435.397	85.62
435.618	89.62
435.84	96.62
436.062	133.62
436.284	123.62
436.505	95.62
436.727	95.62
436.949	85.62
437.17	76.62
437.392	82.62
437.614	86.62
437.835	115.62
438.057	132.62
438.278	124.62
438.5	113.62
438.721	147.62
438.943	104.62
439.165	78.62
439.386	106.62
439.608	90.62
439.829	97.62
440.05	134.62
440.272	160.62
440.493	104.62
440.715	77.62
440.936	81.62
441.158	72.62
441.379	85.62
441.6	94.62
441.822	97.62
442.043	86.62
442.264	113.62
442.486	103.62
442.707	100.62
442.928	106.62
443.149	140.62
443.371	142.62
443.592	102.62
443.813	108.62
444.034	95.62
444.255	86.62
444.476	86.62
444.698	88.62
444.919	90.62
445.14	139.62
445.361	138.62
445.582	112.62
445.803	141.62
446.024	138.62
446.245	156.62
446.466	124.62
446.687	87.62
446.908	93.62
447.129	87.62
447.35	94.62
447.571	90.62
447.792	97.62
448.013	101.62
448.234	123.62
448.455	108.62
448.675	120.62
448.896	120.62
449.117	108.62
449.338	96.62
449.559	132.62
449.779	145.62
450	92.62
450.221	84.62
450.442	78.62
450.662	97.62
450.883	120.62
451.104	117.62
451.324	99.62
451.545	92.62
451.766	85.62
451.986	102.62
452.207	93.62
452.428	94.62
452.648	96.62
452.869	121.62
453.089	125.62
453.31	113.62
453.53	90.62
453.751	85.62
453.971	116.62
454.192	122.62
454.412	97.62
454.633	80.62
454.853	79.62
455.073	76.62
455.294	88.62
455.514	102.62
455.734	85.62
455.955	86.62
456.175	94.62
456.395	81.62
456.616	80.62
456.836	72.62
457.056	90.62
457.276	84.62
457.497	82.62
457.717	100.62
457.937	71.62
458.157	82.62
458.377	101.62
458.598	97.62
458.818	157.62
459.038	163.62
459.258	124.62
459.478	88.62
459.698	89.62
459.918	84.62
460.138	78.62
460.358	82.62
460.578	85.62
460.798	93.62
461.018	79.62
461.238	80.62
461.458	81.62
461.678	80.62
461.898	87.62
462.118	85.62
462.338	85.62
462.558	87.62
462.777	80.62
462.997	87.62
463.217	78.62
463.437	84.62
463.657	89.62
463.876	80.62
464.096	89.62
464.316	104.62
464.536	86.62
464.755	88.62
464.975	102.62
465.195	176.62
465.414	169.62
465.634	97.62
465.854	86.62
466.073	85.62
466.293	90.62
466.512	92.62
466.732	95.62
466.951	82.62
467.171	86.62
467.391	98.62
467.61	102.62
467.829	119.62
468.049	160.62
468.268	188.62
468.488	98.62
468.707	81.62
468.927	83.62
469.146	72.62
469.365	71.62
469.585	81.62
469.804	96.62
470.023	88.62
470.243	102.62
470.462	103.62
470.681	110.62
470.901	98.62
471.12	85.62
471.339	81.62
471.558	103.62
471.777	93.62
471.997	126.62
472.216	247.62
472.435	449.62
472.654	142.62
472.873	86.62
473.092	86.62
473.311	93.62
473.53	87.62
473.749	84.62
473.968	93.62
474.187	122.62
474.406	77.62
474.625	86.62
474.844	79.62
475.063	91.62
475.282	86.62
475.501	65.62
475.72	94.62
475.939	86.62
476.158	73.62
476.377	90.62
476.596	67.62
476.814	86.62
477.033	85.62
477.252	76.62
477.471	88.62
477.69	104.62
477.908	85.62
478.127	90.62
478.346	73.62
478.564	83.62
478.783	89.62
479.002	85.62
479.22	96.62
479.439	98.62
479.658	115.62
479.876	98.62
480.095	95.62
480.313	94.62
480.532	106.62
480.751	124.62
480.969	235.62
481.188	756.62
481.406	477.62
481.624	126.62
481.843	96.62
482.061	95.62
482.28	90.62
482.498	85.62
482.717	81.62
482.935	89.62
483.153	78.62
483.372	95.62
483.59	71.62
483.808	86.62
484.027	81.62
484.245	95.62
484.463	77.62
484.681	82.62
484.9	93.62
485.118	91.62
485.336	87.62
485.554	93.62
485.772	84.62
485.99	96.62
486.209	109.62
486.427	93.62
486.645	119.62
486.863	113.62
487.081	91.62
487.299	101.62
487.517	104.62
487.735	77.62
487.953	88.62
488.171	95.62
488.389	87.62
488.607	90.62
488.825	90.62
489.043	94.62
489.261	96.62
489.479	84.62
489.696	86.62
489.914	81.62
490.132	89.62
490.35	82.62
490.568	85.62
490.786	86.62
491.003	66.62
491.221	88.62
491.439	87.62
491.657	90.62
491.874	88.62
492.092	87.62
492.31	89.62
492.527	90.62
492.745	88.62
492.963	78.62
493.18	82.62
493.398	93.62
493.615	90.62
493.833	77.62
494.05	96.62
494.268	80.62
494.485	78.62
494.703	80.62
494.92	98.62
495.138	80.62
495.355	92.62
495.573	93.62
495.79	84.62
496.008	97.62
496.225	88.62
496.442	87.62
496.66	98.62
496.877	94.62
497.094	89.62
497.312	86.62
497.529	93.62
497.746	80.62
497.963	94.62
498.181	87.62
498.398	86.62
498.615	112.62
498.832	105.62
499.049	79.62
499.267	82.62
499.484	86.62
499.701	68.62
499.918	95.62
500.135	84.62
500.352	81.62
500.569	86.62
500.786	90.62
501.003	89.62
501.22	75.62
501.437	77.62
501.654	89.62
501.871	96.62
502.088	96.62
502.305	88.62
502.522	81.62
502.739	76.62
502.956	94.62
503.172	85.62
503.389	89.62
503.606	114.62
503.823	93.62
504.04	90.62
504.256	82.62
504.473	83.62
504.69	82.62
504.907	81.62
505.123	83.62
505.34	94.62
505.557	86.62
505.773	88.62
505.99	83.62
506.207	87.62
506.423	89.62
506.64	85.62
506.856	91.62
507.073	85.62
507.289	77.62
507.506	97.62
507.722	115.62
507.939	122.62
508.155	100.62
508.372	94.62
508.588	92.62
508.805	92.62
509.021	95.62
509.238	101.62
509.454	94.62
509.67	108.62
509.887	108.62
510.103	108.62
510.319	232.62
510.536	838.62
510.752	2779.62
510.968	749.62
511.184	159.62
511.401	113.62
511.617	99.62
511.833	98.62
512.049	87.62
512.265	84.62
512.481	80.62
512.698	92.62
512.914	83.62
513.13	97.62
513.346	90.62
513.562	77.62
513.778	88.62
513.994	97.62
514.21	93.62
514.426	118.62
514.642	141.62
514.858	125.62
515.074	187.62
515.29	555.62
515.506	1863.62
515.721	678.62
515.937	176.62
516.153	110.62
516.369	100.62
