Data from Circ_1993_H10_HRD10591_00029.txt Node
Date: Wed Jan 03 11:44:07 EST 2024
User: Yrep
Spectrometer: HR+D1059
Trigger mode: 1
Integration Time (sec): 1.000000E-1
Scans to average: 1
Electric dark correction enabled: true
Nonlinearity correction enabled: false
Boxcar width: 0
XAxis mode: Wavelengths
Number of Pixels in Spectrum: 2048
>>>>>Begin Spectral Data<<<<<
223.165	-27.12
223.4	-27.12
223.635	-27.12
223.869	-25.12
224.104	-16.12
224.338	-21.12
224.573	-11.12
224.808	-12.12
225.042	-8.12
225.277	-4.12
225.511	-6.12
225.746	15.88
225.98	3.88
226.215	6.88
226.449	13.88
226.683	14.88
226.918	29.88
227.152	45.88
227.387	31.88
227.621	32.88
227.856	42.88
228.09	40.88
228.324	49.88
228.559	59.88
228.793	44.88
229.027	63.88
229.262	66.88
229.496	70.88
229.73	71.88
229.964	74.88
230.199	86.88
230.433	89.88
230.667	81.88
230.901	66.88
231.136	69.88
231.37	82.88
231.604	74.88
231.838	86.88
232.072	72.88
232.306	75.88
232.541	87.88
232.775	86.88
233.009	74.88
233.243	80.88
233.477	78.88
233.711	84.88
233.945	65.88
234.179	65.88
234.413	80.88
234.647	94.88
234.881	76.88
235.115	69.88
235.349	82.88
235.583	82.88
235.817	69.88
236.051	88.88
236.285	91.88
236.519	78.88
236.753	96.88
236.987	79.88
237.221	86.88
237.455	92.88
237.689	78.88
237.922	70.88
238.156	65.88
238.39	78.88
238.624	78.88
238.858	74.88
239.091	76.88
239.325	79.88
239.559	76.88
239.793	78.88
240.027	74.88
240.26	86.88
240.494	86.88
240.728	64.88
240.961	72.88
241.195	88.88
241.429	71.88
241.662	78.88
241.896	81.88
242.13	69.88
242.363	72.88
242.597	82.88
242.83	77.88
243.064	72.88
243.298	84.88
243.531	72.88
243.765	69.88
243.998	81.88
244.232	74.88
244.465	71.88
244.699	81.88
244.932	70.88
245.166	71.88
245.399	66.88
245.633	78.88
245.866	68.88
246.099	78.88
246.333	84.88
246.566	73.88
246.8	65.88
247.033	73.88
247.266	74.88
247.5	85.88
247.733	74.88
247.966	70.88
248.2	67.88
248.433	78.88
248.666	77.88
248.899	82.88
249.133	90.88
249.366	100.88
249.599	92.88
249.832	84.88
250.066	78.88
250.299	67.88
250.532	80.88
250.765	72.88
250.998	87.88
251.231	87.88
251.465	88.88
251.698	79.88
251.931	74.88
252.164	71.88
252.397	76.88
252.63	84.88
252.863	78.88
253.096	83.88
253.329	93.88
253.562	85.88
253.795	92.88
254.028	93.88
254.261	74.88
254.494	64.88
254.727	72.88
254.96	82.88
255.193	81.88
255.426	84.88
255.659	79.88
255.892	65.88
256.124	75.88
256.357	69.88
256.59	76.88
256.823	77.88
257.056	84.88
257.289	73.88
257.521	83.88
257.754	78.88
257.987	80.88
258.22	83.88
258.452	82.88
258.685	74.88
258.918	91.88
259.151	79.88
259.383	86.88
259.616	69.88
259.849	100.88
260.081	78.88
260.314	72.88
260.547	86.88
260.779	62.88
261.012	89.88
261.244	89.88
261.477	80.88
261.71	97.88
261.942	101.88
262.175	113.88
262.407	90.88
262.64	71.88
262.872	86.88
263.105	82.88
263.337	88.88
263.57	80.88
263.802	76.88
264.035	82.88
264.267	89.88
264.499	83.88
264.732	88.88
264.964	92.88
265.197	84.88
265.429	91.88
265.661	81.88
265.894	86.88
266.126	91.88
266.358	76.88
266.591	80.88
266.823	103.88
267.055	82.88
267.287	74.88
267.52	86.88
267.752	80.88
267.984	87.88
268.216	88.88
268.448	82.88
268.681	89.88
268.913	75.88
269.145	98.88
269.377	98.88
269.609	80.88
269.841	80.88
270.073	85.88
270.306	84.88
270.538	69.88
270.77	83.88
271.002	78.88
271.234	91.88
271.466	83.88
271.698	78.88
271.93	80.88
272.162	83.88
272.394	74.88
272.626	92.88
272.858	83.88
273.09	91.88
273.322	67.88
273.553	72.88
273.785	81.88
274.017	84.88
274.249	81.88
274.481	80.88
274.713	76.88
274.945	69.88
275.176	88.88
275.408	85.88
275.64	86.88
275.872	92.88
276.104	86.88
276.335	91.88
276.567	92.88
276.799	110.88
277.031	97.88
277.262	98.88
277.494	91.88
277.726	95.88
277.957	87.88
278.189	86.88
278.421	83.88
278.652	75.88
278.884	81.88
279.115	79.88
279.347	73.88
279.579	89.88
279.81	88.88
280.042	98.88
280.273	109.88
280.505	93.88
280.736	80.88
280.968	83.88
281.199	69.88
281.431	86.88
281.662	70.88
281.894	85.88
282.125	112.88
282.356	101.88
282.588	115.88
282.819	101.88
283.051	83.88
283.282	80.88
283.513	75.88
283.745	86.88
283.976	93.88
284.207	89.88
284.439	84.88
284.67	94.88
284.901	93.88
285.132	81.88
285.364	87.88
285.595	85.88
285.826	78.88
286.057	94.88
286.288	76.88
286.52	93.88
286.751	76.88
286.982	92.88
287.213	81.88
287.444	98.88
287.675	95.88
287.906	92.88
288.138	90.88
288.369	95.88
288.6	90.88
288.831	80.88
289.062	77.88
289.293	89.88
289.524	88.88
289.755	86.88
289.986	93.88
290.217	78.88
290.448	89.88
290.679	82.88
290.91	89.88
291.141	93.88
291.371	96.88
291.602	84.88
291.833	76.88
292.064	102.88
292.295	85.88
292.526	88.88
292.757	90.88
292.987	84.88
293.218	75.88
293.449	78.88
293.68	82.88
293.91	91.88
294.141	106.88
294.372	80.88
294.603	94.88
294.833	102.88
295.064	94.88
295.295	88.88
295.525	88.88
295.756	100.88
295.987	109.88
296.217	137.88
296.448	116.88
296.679	81.88
296.909	79.88
297.14	94.88
297.37	85.88
297.601	92.88
297.831	99.88
298.062	102.88
298.292	94.88
298.523	89.88
298.753	92.88
298.984	88.88
299.214	87.88
299.445	85.88
299.675	91.88
299.905	100.88
300.136	104.88
300.366	94.88
300.597	77.88
300.827	91.88
301.057	106.88
301.288	107.88
301.518	82.88
301.748	102.88
301.979	104.88
302.209	76.88
302.439	96.88
302.669	88.88
302.9	89.88
303.13	97.88
303.36	81.88
303.59	85.88
303.82	97.88
304.051	86.88
304.281	89.88
304.511	98.88
304.741	87.88
304.971	88.88
305.201	75.88
305.431	78.88
305.661	80.88
305.891	90.88
306.121	99.88
306.352	95.88
306.582	111.88
306.812	101.88
307.042	85.88
307.272	89.88
307.502	93.88
307.731	104.88
307.961	103.88
308.191	86.88
308.421	75.88
308.651	78.88
308.881	94.88
309.111	96.88
309.341	80.88
309.571	100.88
309.8	105.88
310.03	99.88
310.26	95.88
310.49	104.88
310.72	97.88
310.949	101.88
311.179	96.88
311.409	84.88
311.639	108.88
311.868	94.88
312.098	86.88
312.328	94.88
312.557	97.88
312.787	94.88
313.017	106.88
313.246	94.88
313.476	94.88
313.706	83.88
313.935	92.88
314.165	101.88
314.394	102.88
314.624	84.88
314.853	94.88
315.083	86.88
315.312	93.88
315.542	91.88
315.771	101.88
316.001	101.88
316.23	97.88
316.46	96.88
316.689	92.88
316.919	92.88
317.148	99.88
317.377	90.88
317.607	86.88
317.836	92.88
318.065	101.88
318.295	92.88
318.524	99.88
318.753	89.88
318.983	104.88
319.212	98.88
319.441	110.88
319.67	104.88
319.9	95.88
320.129	80.88
320.358	91.88
320.587	102.88
320.816	106.88
321.046	93.88
321.275	116.88
321.504	103.88
321.733	96.88
321.962	85.88
322.191	87.88
322.42	96.88
322.649	94.88
322.878	84.88
323.108	102.88
323.337	119.88
323.566	128.88
323.795	129.88
324.024	196.88
324.253	366.88
324.482	696.88
324.71	1442.88
324.939	1850.88
325.168	701.88
325.397	223.88
325.626	149.88
325.855	119.88
326.084	112.88
326.313	121.88
326.542	143.88
326.77	200.88
326.999	410.88
327.228	821.88
327.457	1452.88
327.686	1152.88
327.914	332.88
328.143	184.88
328.372	137.88
328.6	117.88
328.829	99.88
329.058	110.88
329.287	138.88
329.515	102.88
329.744	96.88
329.972	100.88
330.201	136.88
330.43	162.88
330.658	133.88
330.887	147.88
331.115	118.88
331.344	103.88
331.572	110.88
331.801	98.88
332.03	105.88
332.258	97.88
332.486	101.88
332.715	91.88
332.943	90.88
333.172	93.88
333.4	107.88
333.629	110.88
333.857	127.88
334.085	113.88
334.314	119.88
334.542	160.88
334.771	146.88
334.999	106.88
335.227	103.88
335.455	91.88
335.684	107.88
335.912	86.88
336.14	99.88
336.369	97.88
336.597	106.88
336.825	91.88
337.053	93.88
337.281	82.88
337.51	96.88
337.738	85.88
337.966	92.88
338.194	98.88
338.422	81.88
338.65	94.88
338.878	90.88
339.106	77.88
339.334	93.88
339.562	85.88
339.79	90.88
340.018	89.88
340.246	97.88
340.474	100.88
340.702	102.88
340.93	92.88
341.158	88.88
341.386	88.88
341.614	101.88
341.842	92.88
342.07	88.88
342.298	104.88
342.526	96.88
342.754	95.88
342.981	81.88
343.209	83.88
343.437	99.88
343.665	96.88
343.893	84.88
344.12	106.88
344.348	105.88
344.576	92.88
344.804	85.88
345.031	102.88
345.259	96.88
345.487	87.88
345.714	82.88
345.942	83.88
346.17	79.88
346.397	100.88
346.625	103.88
346.853	85.88
347.08	90.88
347.308	101.88
347.535	95.88
347.763	97.88
347.99	90.88
348.218	84.88
348.445	99.88
348.673	90.88
348.9	80.88
349.128	95.88
349.355	85.88
349.583	102.88
349.81	113.88
350.037	95.88
350.265	100.88
350.492	90.88
350.72	105.88
350.947	96.88
351.174	96.88
351.402	119.88
351.629	112.88
351.856	100.88
352.083	92.88
352.311	108.88
352.538	112.88
352.765	109.88
352.992	106.88
353.22	106.88
353.447	101.88
353.674	104.88
353.901	84.88
354.128	90.88
354.355	83.88
354.583	87.88
354.81	106.88
355.037	101.88
355.264	97.88
355.491	114.88
355.718	93.88
355.945	92.88
356.172	104.88
356.399	92.88
356.626	85.88
356.853	84.88
357.08	81.88
357.307	78.88
357.534	95.88
357.761	97.88
357.988	97.88
358.215	109.88
358.441	94.88
358.668	107.88
358.895	100.88
359.122	88.88
359.349	98.88
359.576	101.88
359.802	91.88
360.029	102.88
360.256	104.88
360.483	92.88
360.709	97.88
360.936	100.88
361.163	81.88
361.39	87.88
361.616	79.88
361.843	91.88
362.07	88.88
362.296	92.88
362.523	88.88
362.749	96.88
362.976	96.88
363.203	88.88
363.429	93.88
363.656	93.88
363.882	87.88
364.109	89.88
364.335	94.88
364.562	90.88
364.788	84.88
365.015	83.88
365.241	98.88
365.468	105.88
365.694	105.88
365.92	106.88
366.147	74.88
366.373	88.88
366.599	89.88
366.826	96.88
367.052	96.88
367.278	95.88
367.505	113.88
367.731	101.88
367.957	91.88
368.184	91.88
368.41	89.88
368.636	106.88
368.862	102.88
369.089	104.88
369.315	88.88
369.541	90.88
369.767	98.88
369.993	91.88
370.219	88.88
370.445	66.88
370.672	81.88
370.898	66.88
371.124	77.88
371.35	84.88
371.576	82.88
371.802	91.88
372.028	80.88
372.254	91.88
372.48	80.88
372.706	86.88
372.932	94.88
373.158	78.88
373.384	85.88
373.61	99.88
373.835	84.88
374.061	94.88
374.287	89.88
374.513	98.88
374.739	78.88
374.965	93.88
375.191	88.88
375.416	92.88
375.642	92.88
375.868	99.88
376.094	82.88
376.319	80.88
376.545	95.88
376.771	93.88
376.997	79.88
377.222	100.88
377.448	88.88
377.674	90.88
377.899	85.88
378.125	102.88
378.35	89.88
378.576	105.88
378.802	86.88
379.027	84.88
379.253	97.88
379.478	93.88
379.704	91.88
379.929	101.88
380.155	106.88
380.38	104.88
380.606	105.88
380.831	107.88
381.057	114.88
381.282	97.88
381.507	93.88
381.733	95.88
381.958	104.88
382.184	98.88
382.409	107.88
382.634	114.88
382.86	108.88
383.085	102.88
383.31	101.88
383.535	114.88
383.761	88.88
383.986	110.88
384.211	100.88
384.436	120.88
384.662	100.88
384.887	105.88
385.112	106.88
385.337	112.88
385.562	124.88
385.787	117.88
386.013	122.88
386.238	110.88
386.463	115.88
386.688	127.88
386.913	127.88
387.138	118.88
387.363	116.88
387.588	113.88
387.813	121.88
388.038	123.88
388.263	117.88
388.488	113.88
388.713	89.88
388.938	90.88
389.163	102.88
389.387	96.88
389.612	85.88
389.837	78.88
390.062	80.88
390.287	107.88
390.512	108.88
390.736	86.88
390.961	104.88
391.186	93.88
391.411	92.88
391.636	91.88
391.86	98.88
392.085	80.88
392.31	77.88
392.534	80.88
392.759	79.88
392.984	86.88
393.208	141.88
393.433	162.88
393.658	142.88
393.882	108.88
394.107	90.88
394.331	96.88
394.556	86.88
394.78	91.88
395.005	81.88
395.229	95.88
395.454	88.88
395.678	95.88
395.903	92.88
396.127	80.88
396.352	82.88
396.576	92.88
396.801	107.88
397.025	125.88
397.249	106.88
397.474	84.88
397.698	79.88
397.922	100.88
398.147	81.88
398.371	92.88
398.595	88.88
398.82	81.88
399.044	85.88
399.268	91.88
399.492	93.88
399.717	90.88
399.941	93.88
400.165	100.88
400.389	91.88
400.613	79.88
400.837	80.88
401.062	78.88
401.286	89.88
401.51	90.88
401.734	87.88
401.958	86.88
402.182	117.88
402.406	133.88
402.63	117.88
402.854	82.88
403.078	88.88
403.302	89.88
403.526	99.88
403.75	90.88
403.974	92.88
404.198	94.88
404.422	78.88
404.645	84.88
404.869	93.88
405.093	92.88
405.317	104.88
405.541	117.88
405.765	101.88
405.988	108.88
406.212	145.88
406.436	182.88
406.66	133.88
406.883	94.88
407.107	94.88
407.331	96.88
407.555	108.88
407.778	89.88
408.002	100.88
408.226	96.88
408.449	86.88
408.673	97.88
408.896	90.88
409.12	94.88
409.344	89.88
409.567	98.88
409.791	89.88
410.014	89.88
410.238	98.88
410.461	107.88
410.685	84.88
410.908	84.88
411.132	103.88
411.355	97.88
411.578	86.88
411.802	95.88
412.025	92.88
412.249	99.88
412.472	92.88
412.695	95.88
412.919	92.88
413.142	99.88
413.365	80.88
413.589	84.88
413.812	88.88
414.035	91.88
414.258	97.88
414.482	95.88
414.705	91.88
414.928	99.88
415.151	109.88
415.374	97.88
415.597	100.88
415.821	106.88
416.044	85.88
416.267	89.88
416.49	97.88
416.713	96.88
416.936	83.88
417.159	80.88
417.382	80.88
417.605	84.88
417.828	77.88
418.051	77.88
418.274	83.88
418.497	69.88
418.72	96.88
418.943	90.88
419.166	96.88
419.389	81.88
419.611	94.88
419.834	86.88
420.057	94.88
420.28	91.88
420.503	95.88
420.726	96.88
420.948	79.88
421.171	91.88
421.394	88.88
421.617	80.88
421.839	88.88
422.062	85.88
422.285	99.88
422.507	99.88
422.73	128.88
422.953	122.88
423.175	92.88
423.398	80.88
423.621	89.88
423.843	78.88
424.066	81.88
424.288	91.88
424.511	94.88
424.733	88.88
424.956	107.88
425.178	88.88
425.401	100.88
425.623	93.88
425.846	109.88
426.068	102.88
426.291	93.88
426.513	89.88
426.735	90.88
426.958	102.88
427.18	107.88
427.402	128.88
427.625	167.88
427.847	139.88
428.069	104.88
428.292	89.88
428.514	92.88
428.736	93.88
428.958	90.88
429.181	86.88
429.403	86.88
429.625	97.88
429.847	83.88
430.069	88.88
430.292	92.88
430.514	88.88
430.736	91.88
430.958	74.88
431.18	83.88
431.402	84.88
431.624	85.88
431.846	89.88
432.068	93.88
432.29	83.88
432.512	94.88
432.734	80.88
432.956	93.88
433.178	114.88
433.4	101.88
433.622	89.88
433.844	89.88
434.066	90.88
434.287	92.88
434.509	90.88
434.731	86.88
434.953	89.88
435.175	101.88
435.397	92.88
435.618	90.88
435.84	121.88
436.062	107.88
436.284	113.88
436.505	93.88
436.727	90.88
436.949	96.88
437.17	88.88
437.392	90.88
437.614	82.88
437.835	101.88
438.057	108.88
438.278	97.88
438.5	96.88
438.721	123.88
438.943	99.88
439.165	85.88
439.386	88.88
439.608	102.88
439.829	100.88
440.05	110.88
440.272	121.88
440.493	81.88
440.715	98.88
440.936	97.88
441.158	94.88
441.379	88.88
441.6	89.88
441.822	90.88
442.043	102.88
442.264	113.88
442.486	106.88
442.707	99.88
442.928	108.88
443.149	121.88
443.371	124.88
443.592	105.88
443.813	120.88
444.034	98.88
444.255	96.88
444.476	91.88
444.698	92.88
444.919	91.88
445.14	145.88
445.361	122.88
445.582	113.88
445.803	123.88
446.024	128.88
446.245	121.88
446.466	121.88
446.687	88.88
446.908	83.88
447.129	84.88
447.35	88.88
447.571	85.88
447.792	88.88
448.013	103.88
448.234	103.88
448.455	96.88
448.675	111.88
448.896	119.88
449.117	82.88
449.338	98.88
449.559	121.88
449.779	137.88
450	100.88
450.221	104.88
450.442	86.88
450.662	101.88
450.883	100.88
451.104	99.88
451.324	93.88
451.545	74.88
451.766	90.88
451.986	89.88
452.207	93.88
452.428	94.88
452.648	101.88
452.869	92.88
453.089	98.88
453.31	102.88
453.53	74.88
453.751	94.88
453.971	102.88
454.192	107.88
454.412	96.88
454.633	74.88
454.853	94.88
455.073	76.88
455.294	86.88
455.514	89.88
455.734	99.88
455.955	84.88
456.175	87.88
456.395	83.88
456.616	82.88
456.836	76.88
457.056	74.88
457.276	72.88
457.497	76.88
457.717	92.88
457.937	81.88
458.157	89.88
458.377	79.88
458.598	109.88
458.818	130.88
459.038	153.88
459.258	102.88
459.478	93.88
459.698	84.88
459.918	89.88
460.138	74.88
460.358	88.88
460.578	85.88
460.798	89.88
461.018	85.88
461.238	79.88
461.458	99.88
461.678	79.88
461.898	75.88
462.118	88.88
462.338	78.88
462.558	97.88
462.777	77.88
462.997	107.88
463.217	68.88
463.437	102.88
463.657	96.88
463.876	85.88
464.096	84.88
464.316	78.88
464.536	79.88
464.755	97.88
464.975	99.88
465.195	141.88
465.414	142.88
465.634	101.88
465.854	73.88
466.073	72.88
466.293	83.88
466.512	71.88
466.732	82.88
466.951	84.88
467.171	93.88
467.391	83.88
467.61	91.88
467.829	91.88
468.049	100.88
468.268	112.88
468.488	84.88
468.707	91.88
468.927	85.88
469.146	97.88
469.365	100.88
469.585	74.88
469.804	72.88
470.023	88.88
470.243	100.88
470.462	106.88
470.681	98.88
470.901	91.88
471.12	87.88
471.339	95.88
471.558	80.88
471.777	90.88
471.997	98.88
472.216	130.88
472.435	174.88
472.654	96.88
472.873	94.88
473.092	88.88
473.311	90.88
473.53	96.88
473.749	88.88
473.968	105.88
474.187	113.88
474.406	104.88
474.625	84.88
474.844	84.88
475.063	87.88
475.282	88.88
475.501	82.88
475.72	102.88
475.939	93.88
476.158	86.88
476.377	83.88
476.596	77.88
476.814	100.88
477.033	93.88
477.252	81.88
477.471	89.88
477.69	79.88
477.908	86.88
478.127	82.88
478.346	83.88
478.564	91.88
478.783	88.88
479.002	89.88
479.22	99.88
479.439	89.88
479.658	82.88
479.876	86.88
480.095	106.88
480.313	79.88
480.532	91.88
480.751	102.88
480.969	127.88
481.188	268.88
481.406	194.88
481.624	100.88
481.843	89.88
482.061	73.88
482.28	95.88
482.498	77.88
482.717	96.88
482.935	90.88
483.153	105.88
483.372	94.88
483.59	84.88
483.808	84.88
484.027	81.88
484.245	97.88
484.463	85.88
484.681	92.88
484.9	98.88
485.118	91.88
485.336	93.88
485.554	97.88
485.772	100.88
485.99	102.88
486.209	116.88
486.427	116.88
486.645	123.88
486.863	128.88
487.081	107.88
487.299	106.88
487.517	88.88
487.735	74.88
487.953	114.88
488.171	98.88
488.389	88.88
488.607	90.88
488.825	91.88
489.043	91.88
489.261	95.88
489.479	94.88
489.696	80.88
489.914	76.88
490.132	88.88
490.35	87.88
490.568	85.88
490.786	89.88
491.003	94.88
491.221	81.88
491.439	84.88
491.657	96.88
491.874	97.88
492.092	93.88
492.31	76.88
492.527	88.88
492.745	100.88
492.963	84.88
493.18	71.88
493.398	84.88
493.615	97.88
493.833	95.88
494.05	89.88
494.268	89.88
494.485	99.88
494.703	83.88
494.92	80.88
495.138	80.88
495.355	93.88
495.573	93.88
495.79	90.88
496.008	96.88
496.225	88.88
496.442	83.88
496.66	88.88
496.877	92.88
497.094	100.88
497.312	88.88
497.529	101.88
497.746	75.88
497.963	87.88
498.181	95.88
498.398	85.88
498.615	93.88
498.832	86.88
499.049	90.88
499.267	88.88
499.484	90.88
499.701	82.88
499.918	78.88
500.135	84.88
500.352	82.88
500.569	89.88
500.786	72.88
501.003	93.88
501.22	82.88
501.437	99.88
501.654	89.88
501.871	103.88
502.088	97.88
502.305	82.88
502.522	90.88
502.739	99.88
502.956	88.88
503.172	82.88
503.389	91.88
503.606	99.88
503.823	95.88
504.04	84.88
504.256	89.88
504.473	88.88
504.69	81.88
504.907	80.88
505.123	92.88
505.34	93.88
505.557	91.88
505.773	76.88
505.99	101.88
506.207	86.88
506.423	80.88
506.64	90.88
506.856	96.88
507.073	101.88
507.289	87.88
507.506	99.88
507.722	101.88
507.939	109.88
508.155	100.88
508.372	87.88
508.588	99.88
508.805	108.88
509.021	103.88
509.238	97.88
509.454	109.88
509.67	101.88
509.887	112.88
510.103	147.88
510.319	204.88
510.536	695.88
510.752	2056.88
510.968	584.88
511.184	137.88
511.401	95.88
511.617	99.88
511.833	98.88
512.049	107.88
512.265	91.88
512.481	82.88
512.698	87.88
512.914	100.88
513.13	90.88
513.346	81.88
513.562	101.88
513.778	99.88
513.994	100.88
514.21	88.88
514.426	106.88
514.642	131.88
514.858	114.88
515.074	155.88
515.29	393.88
515.506	1281.88
