Data from Circ_1993_H10_HRD10591_00098.txt Node
Date: Wed Jan 03 11:44:21 EST 2024
User: Yrep
Spectrometer: HR+D1059
Trigger mode: 1
Integration Time (sec): 1.000000E-1
Scans to average: 1
Electric dark correction enabled: true
Nonlinearity correction enabled: false
Boxcar width: 0
XAxis mode: Wavelengths
Number of Pixels in Spectrum: 2048
>>>>>Begin Spectral Data<<<<<
223.165	-32.88
223.4	-32.88
223.635	-32.88
223.869	-14.88
224.104	-24.88
224.338	-6.88
224.573	-11.88
224.808	-6.88
225.042	1.12
225.277	-5.88
225.511	-3.88
225.746	18.12
225.98	11.12
226.215	15.12
226.449	-1.88
226.683	14.12
226.918	19.12
227.152	31.12
227.387	38.12
227.621	37.12
227.856	47.12
228.09	46.12
228.324	52.12
228.559	54.12
228.793	48.12
229.027	62.12
229.262	72.12
229.496	67.12
229.73	68.12
229.964	81.12
230.199	69.12
230.433	82.12
230.667	81.12
230.901	81.12
231.136	90.12
231.37	61.12
231.604	86.12
231.838	77.12
232.072	83.12
232.306	89.12
232.541	85.12
232.775	70.12
233.009	85.12
233.243	78.12
233.477	75.12
233.711	81.12
233.945	93.12
234.179	78.12
234.413	84.12
234.647	70.12
234.881	87.12
235.115	77.12
235.349	84.12
235.583	70.12
235.817	76.12
236.051	80.12
236.285	73.12
236.519	75.12
236.753	74.12
236.987	80.12
237.221	86.12
237.455	90.12
237.689	86.12
237.922	83.12
238.156	75.12
238.39	78.12
238.624	82.12
238.858	78.12
239.091	71.12
239.325	86.12
239.559	73.12
239.793	79.12
240.027	87.12
240.26	83.12
240.494	73.12
240.728	84.12
240.961	102.12
241.195	77.12
241.429	77.12
241.662	85.12
241.896	75.12
242.13	76.12
242.363	84.12
242.597	71.12
242.83	77.12
243.064	78.12
243.298	83.12
243.531	105.12
243.765	96.12
243.998	87.12
244.232	86.12
244.465	92.12
244.699	75.12
244.932	80.12
245.166	67.12
245.399	85.12
245.633	85.12
245.866	93.12
246.099	83.12
246.333	81.12
246.566	84.12
246.8	82.12
247.033	82.12
247.266	82.12
247.5	75.12
247.733	85.12
247.966	85.12
248.2	86.12
248.433	76.12
248.666	83.12
248.899	89.12
249.133	89.12
249.366	93.12
249.599	94.12
249.832	74.12
250.066	102.12
250.299	77.12
250.532	79.12
250.765	91.12
250.998	69.12
251.231	83.12
251.465	86.12
251.698	97.12
251.931	87.12
252.164	95.12
252.397	83.12
252.63	83.12
252.863	83.12
253.096	74.12
253.329	70.12
253.562	89.12
253.795	81.12
254.028	82.12
254.261	76.12
254.494	85.12
254.727	93.12
254.96	91.12
255.193	84.12
255.426	89.12
255.659	84.12
255.892	82.12
256.124	76.12
256.357	77.12
256.59	84.12
256.823	75.12
257.056	68.12
257.289	74.12
257.521	85.12
257.754	85.12
257.987	82.12
258.22	72.12
258.452	79.12
258.685	85.12
258.918	91.12
259.151	71.12
259.383	86.12
259.616	77.12
259.849	72.12
260.081	96.12
260.314	84.12
260.547	75.12
260.779	86.12
261.012	86.12
261.244	81.12
261.477	82.12
261.71	97.12
261.942	98.12
262.175	111.12
262.407	85.12
262.64	68.12
262.872	96.12
263.105	97.12
263.337	98.12
263.57	78.12
263.802	90.12
264.035	77.12
264.267	89.12
264.499	96.12
264.732	92.12
264.964	67.12
265.197	86.12
265.429	77.12
265.661	87.12
265.894	78.12
266.126	99.12
266.358	101.12
266.591	102.12
266.823	92.12
267.055	90.12
267.287	64.12
267.52	86.12
267.752	83.12
267.984	83.12
268.216	77.12
268.448	94.12
268.681	76.12
268.913	93.12
269.145	75.12
269.377	80.12
269.609	85.12
269.841	93.12
270.073	89.12
270.306	91.12
270.538	83.12
270.77	81.12
271.002	89.12
271.234	85.12
271.466	95.12
271.698	93.12
271.93	90.12
272.162	67.12
272.394	80.12
272.626	82.12
272.858	93.12
273.09	75.12
273.322	91.12
273.553	82.12
273.785	74.12
274.017	75.12
274.249	81.12
274.481	93.12
274.713	83.12
274.945	89.12
275.176	79.12
275.408	81.12
275.64	95.12
275.872	82.12
276.104	97.12
276.335	78.12
276.567	86.12
276.799	101.12
277.031	114.12
277.262	101.12
277.494	96.12
277.726	77.12
277.957	93.12
278.189	80.12
278.421	71.12
278.652	83.12
278.884	83.12
279.115	92.12
279.347	83.12
279.579	70.12
279.81	89.12
280.042	93.12
280.273	111.12
280.505	93.12
280.736	90.12
280.968	92.12
281.199	85.12
281.431	83.12
281.662	94.12
281.894	102.12
282.125	100.12
282.356	122.12
282.588	126.12
282.819	95.12
283.051	90.12
283.282	93.12
283.513	85.12
283.745	86.12
283.976	79.12
284.207	90.12
284.439	88.12
284.67	84.12
284.901	92.12
285.132	70.12
285.364	90.12
285.595	88.12
285.826	81.12
286.057	92.12
286.288	88.12
286.52	99.12
286.751	79.12
286.982	76.12
287.213	79.12
287.444	95.12
287.675	84.12
287.906	94.12
288.138	93.12
288.369	83.12
288.6	87.12
288.831	80.12
289.062	90.12
289.293	98.12
289.524	86.12
289.755	80.12
289.986	80.12
290.217	71.12
290.448	71.12
290.679	76.12
290.91	83.12
291.141	96.12
291.371	91.12
291.602	84.12
291.833	101.12
292.064	76.12
292.295	77.12
292.526	89.12
292.757	80.12
292.987	82.12
293.218	97.12
293.449	86.12
293.68	80.12
293.91	95.12
294.141	95.12
294.372	97.12
294.603	87.12
294.833	89.12
295.064	89.12
295.295	94.12
295.525	81.12
295.756	93.12
295.987	113.12
296.217	135.12
296.448	105.12
296.679	82.12
296.909	91.12
297.14	82.12
297.37	111.12
297.601	83.12
297.831	75.12
298.062	89.12
298.292	97.12
298.523	82.12
298.753	94.12
298.984	97.12
299.214	95.12
299.445	81.12
299.675	91.12
299.905	102.12
300.136	89.12
300.366	103.12
300.597	94.12
300.827	102.12
301.057	94.12
301.288	92.12
301.518	89.12
301.748	83.12
301.979	102.12
302.209	104.12
302.439	80.12
302.669	89.12
302.9	84.12
303.13	77.12
303.36	89.12
303.59	90.12
303.82	105.12
304.051	88.12
304.281	95.12
304.511	95.12
304.741	102.12
304.971	100.12
305.201	68.12
305.431	100.12
305.661	84.12
305.891	94.12
306.121	98.12
306.352	95.12
306.582	105.12
306.812	95.12
307.042	99.12
307.272	90.12
307.502	98.12
307.731	105.12
307.961	110.12
308.191	91.12
308.421	94.12
308.651	98.12
308.881	93.12
309.111	77.12
309.341	93.12
309.571	91.12
309.8	96.12
310.03	86.12
310.26	94.12
310.49	98.12
310.72	90.12
310.949	99.12
311.179	86.12
311.409	94.12
311.639	92.12
311.868	98.12
312.098	107.12
312.328	85.12
312.557	95.12
312.787	93.12
313.017	93.12
313.246	78.12
313.476	98.12
313.706	96.12
313.935	100.12
314.165	86.12
314.394	95.12
314.624	100.12
314.853	95.12
315.083	105.12
315.312	100.12
315.542	95.12
315.771	85.12
316.001	87.12
316.23	101.12
316.46	80.12
316.689	81.12
316.919	94.12
317.148	85.12
317.377	90.12
317.607	105.12
317.836	91.12
318.065	107.12
318.295	85.12
318.524	83.12
318.753	90.12
318.983	95.12
319.212	95.12
319.441	102.12
319.67	109.12
319.9	92.12
320.129	97.12
320.358	98.12
320.587	104.12
320.816	92.12
321.046	92.12
321.275	109.12
321.504	77.12
321.733	79.12
321.962	93.12
322.191	85.12
322.42	98.12
322.649	107.12
322.878	95.12
323.108	115.12
323.337	117.12
323.566	123.12
323.795	144.12
324.024	199.12
324.253	339.12
324.482	675.12
324.71	1386.12
324.939	1815.12
325.168	678.12
325.397	224.12
325.626	144.12
325.855	126.12
326.084	126.12
326.313	127.12
326.542	124.12
326.77	216.12
326.999	395.12
327.228	781.12
327.457	1414.12
327.686	1126.12
327.914	340.12
328.143	229.12
328.372	195.12
328.6	138.12
328.829	121.12
329.058	121.12
329.287	124.12
329.515	111.12
329.744	140.12
329.972	140.12
330.201	230.12
330.43	292.12
330.658	192.12
330.887	153.12
331.115	128.12
331.344	98.12
331.572	93.12
331.801	94.12
332.03	109.12
332.258	89.12
332.486	108.12
332.715	99.12
332.943	96.12
333.172	109.12
333.4	102.12
333.629	100.12
333.857	132.12
334.085	163.12
334.314	232.12
334.542	359.12
334.771	322.12
334.999	148.12
335.227	102.12
335.455	110.12
335.684	111.12
335.912	104.12
336.14	102.12
336.369	93.12
336.597	93.12
336.825	87.12
337.053	94.12
337.281	94.12
337.51	91.12
337.738	93.12
337.966	94.12
338.194	110.12
338.422	114.12
338.65	107.12
338.878	104.12
339.106	91.12
339.334	89.12
339.562	77.12
339.79	82.12
340.018	91.12
340.246	91.12
340.474	102.12
340.702	93.12
340.93	97.12
341.158	105.12
341.386	107.12
341.614	93.12
341.842	92.12
342.07	91.12
342.298	83.12
342.526	91.12
342.754	98.12
342.981	85.12
343.209	98.12
343.437	98.12
343.665	87.12
343.893	75.12
344.12	89.12
344.348	105.12
344.576	98.12
344.804	95.12
345.031	86.12
345.259	91.12
345.487	91.12
345.714	81.12
345.942	86.12
346.17	100.12
346.397	77.12
346.625	84.12
346.853	94.12
347.08	87.12
347.308	94.12
347.535	77.12
347.763	103.12
347.99	94.12
348.218	112.12
348.445	107.12
348.673	96.12
348.9	95.12
349.128	94.12
349.355	101.12
349.583	96.12
349.81	99.12
350.037	91.12
350.265	101.12
350.492	91.12
350.72	96.12
350.947	97.12
351.174	104.12
351.402	110.12
351.629	96.12
351.856	105.12
352.083	90.12
352.311	95.12
352.538	93.12
352.765	107.12
352.992	91.12
353.22	112.12
353.447	104.12
353.674	113.12
353.901	104.12
354.128	110.12
354.355	92.12
354.583	98.12
354.81	90.12
355.037	105.12
355.264	94.12
355.491	104.12
355.718	96.12
355.945	101.12
356.172	83.12
356.399	92.12
356.626	91.12
356.853	87.12
357.08	107.12
357.307	89.12
357.534	85.12
357.761	81.12
357.988	111.12
358.215	93.12
358.441	87.12
358.668	102.12
358.895	99.12
359.122	89.12
359.349	86.12
359.576	83.12
359.802	107.12
360.029	94.12
360.256	103.12
360.483	103.12
360.709	102.12
360.936	88.12
361.163	97.12
361.39	86.12
361.616	98.12
361.843	79.12
362.07	93.12
362.296	97.12
362.523	91.12
362.749	85.12
362.976	89.12
363.203	100.12
363.429	93.12
363.656	96.12
363.882	84.12
364.109	92.12
364.335	94.12
364.562	99.12
364.788	96.12
365.015	85.12
365.241	82.12
365.468	104.12
365.694	96.12
365.92	94.12
366.147	95.12
366.373	92.12
366.599	99.12
366.826	93.12
367.052	95.12
367.278	96.12
367.505	102.12
367.731	98.12
367.957	93.12
368.184	102.12
368.41	107.12
368.636	105.12
368.862	124.12
369.089	106.12
369.315	97.12
369.541	87.12
369.767	84.12
369.993	77.12
370.219	93.12
370.445	100.12
370.672	98.12
370.898	83.12
371.124	82.12
371.35	74.12
371.576	88.12
371.802	95.12
372.028	78.12
372.254	91.12
372.48	91.12
372.706	81.12
372.932	105.12
373.158	93.12
373.384	98.12
373.61	98.12
373.835	82.12
374.061	84.12
374.287	73.12
374.513	90.12
374.739	86.12
374.965	87.12
375.191	91.12
375.416	90.12
375.642	97.12
375.868	86.12
376.094	86.12
376.319	94.12
376.545	105.12
376.771	87.12
376.997	95.12
377.222	101.12
377.448	85.12
377.674	90.12
377.899	91.12
378.125	98.12
378.35	86.12
378.576	83.12
378.802	76.12
379.027	90.12
379.253	86.12
379.478	91.12
379.704	84.12
379.929	106.12
380.155	97.12
380.38	91.12
380.606	95.12
380.831	106.12
381.057	102.12
381.282	91.12
381.507	85.12
381.733	93.12
381.958	97.12
382.184	89.12
382.409	90.12
382.634	101.12
382.86	83.12
383.085	107.12
383.31	99.12
383.535	92.12
383.761	96.12
383.986	107.12
384.211	102.12
384.436	85.12
384.662	95.12
384.887	97.12
385.112	92.12
385.337	96.12
385.562	107.12
385.787	92.12
386.013	100.12
386.238	105.12
386.463	101.12
386.688	113.12
386.913	81.12
387.138	90.12
387.363	100.12
387.588	94.12
387.813	99.12
388.038	109.12
388.263	100.12
388.488	97.12
388.713	99.12
388.938	81.12
389.163	73.12
389.387	99.12
389.612	93.12
389.837	100.12
390.062	86.12
390.287	92.12
390.512	85.12
390.736	101.12
390.961	89.12
391.186	98.12
391.411	100.12
391.636	99.12
391.86	93.12
392.085	87.12
392.31	103.12
392.534	93.12
392.759	78.12
392.984	85.12
393.208	82.12
393.433	109.12
393.658	100.12
393.882	90.12
394.107	88.12
394.331	93.12
394.556	87.12
394.78	79.12
395.005	88.12
395.229	80.12
395.454	80.12
395.678	90.12
395.903	86.12
396.127	86.12
396.352	102.12
396.576	81.12
396.801	101.12
397.025	97.12
397.249	72.12
397.474	80.12
397.698	85.12
397.922	88.12
398.147	98.12
398.371	79.12
398.595	93.12
398.82	79.12
399.044	79.12
399.268	75.12
399.492	87.12
399.717	78.12
399.941	107.12
400.165	83.12
400.389	112.12
400.613	93.12
400.837	88.12
401.062	109.12
401.286	94.12
401.51	99.12
401.734	96.12
401.958	94.12
402.182	118.12
402.406	149.12
402.63	97.12
402.854	68.12
403.078	92.12
403.302	101.12
403.526	75.12
403.75	91.12
403.974	79.12
404.198	79.12
404.422	83.12
404.645	86.12
404.869	92.12
405.093	96.12
405.317	113.12
405.541	113.12
405.765	92.12
405.988	111.12
406.212	152.12
406.436	186.12
406.66	127.12
406.883	97.12
407.107	97.12
407.331	91.12
407.555	92.12
407.778	87.12
408.002	96.12
408.226	85.12
408.449	81.12
408.673	98.12
408.896	86.12
409.12	92.12
409.344	85.12
409.567	98.12
409.791	89.12
410.014	72.12
410.238	78.12
410.461	93.12
410.685	100.12
410.908	103.12
411.132	110.12
411.355	103.12
411.578	101.12
411.802	85.12
412.025	87.12
412.249	91.12
412.472	108.12
412.695	95.12
412.919	98.12
413.142	92.12
413.365	82.12
413.589	91.12
413.812	86.12
414.035	77.12
414.258	100.12
414.482	101.12
414.705	80.12
414.928	101.12
415.151	82.12
415.374	93.12
415.597	79.12
415.821	103.12
416.044	93.12
416.267	90.12
416.49	83.12
416.713	92.12
416.936	88.12
417.159	79.12
417.382	82.12
417.605	81.12
417.828	94.12
418.051	90.12
418.274	81.12
418.497	85.12
418.72	87.12
418.943	95.12
419.166	85.12
419.389	93.12
419.611	87.12
419.834	88.12
420.057	95.12
420.28	81.12
420.503	78.12
420.726	86.12
420.948	92.12
421.171	92.12
421.394	94.12
421.617	93.12
421.839	88.12
422.062	84.12
422.285	80.12
422.507	98.12
422.73	107.12
422.953	83.12
423.175	81.12
423.398	83.12
423.621	84.12
423.843	95.12
424.066	81.12
424.288	93.12
424.511	84.12
424.733	85.12
424.956	113.12
425.178	102.12
425.401	96.12
425.623	93.12
425.846	85.12
426.068	93.12
426.291	88.12
426.513	89.12
426.735	84.12
426.958	111.12
427.18	105.12
427.402	124.12
427.625	154.12
427.847	145.12
428.069	129.12
428.292	90.12
428.514	80.12
428.736	76.12
428.958	80.12
429.181	90.12
429.403	99.12
429.625	90.12
429.847	89.12
430.069	105.12
430.292	95.12
430.514	85.12
430.736	70.12
430.958	78.12
431.18	97.12
431.402	87.12
431.624	81.12
431.846	93.12
432.068	94.12
432.29	85.12
432.512	74.12
432.734	70.12
432.956	91.12
433.178	106.12
433.4	94.12
433.622	93.12
433.844	86.12
434.066	91.12
434.287	88.12
434.509	92.12
434.731	87.12
434.953	86.12
435.175	86.12
435.397	91.12
435.618	87.12
435.84	98.12
436.062	118.12
436.284	103.12
436.505	106.12
436.727	99.12
436.949	106.12
437.17	105.12
437.392	98.12
437.614	90.12
437.835	95.12
438.057	103.12
438.278	99.12
438.5	92.12
438.721	108.12
438.943	84.12
439.165	82.12
439.386	90.12
439.608	104.12
439.829	93.12
440.05	117.12
440.272	125.12
440.493	97.12
440.715	95.12
440.936	81.12
441.158	79.12
441.379	78.12
441.6	82.12
441.822	82.12
442.043	91.12
442.264	98.12
442.486	97.12
442.707	92.12
442.928	106.12
443.149	121.12
443.371	108.12
443.592	102.12
443.813	126.12
444.034	89.12
444.255	99.12
444.476	94.12
444.698	97.12
444.919	82.12
445.14	144.12
445.361	131.12
445.582	113.12
445.803	126.12
446.024	128.12
446.245	122.12
446.466	117.12
446.687	80.12
446.908	81.12
447.129	91.12
447.35	101.12
447.571	85.12
447.792	91.12
448.013	94.12
448.234	103.12
448.455	86.12
448.675	118.12
448.896	100.12
449.117	110.12
449.338	94.12
449.559	115.12
449.779	117.12
450	98.12
450.221	79.12
450.442	80.12
450.662	99.12
450.883	123.12
451.104	111.12
451.324	107.12
451.545	85.12
451.766	86.12
451.986	77.12
452.207	89.12
452.428	98.12
452.648	109.12
452.869	103.12
453.089	96.12
453.31	109.12
453.53	91.12
453.751	96.12
453.971	95.12
454.192	93.12
454.412	75.12
454.633	79.12
454.853	95.12
455.073	110.12
455.294	86.12
455.514	98.12
455.734	77.12
455.955	96.12
456.175	90.12
456.395	104.12
456.616	90.12
456.836	103.12
457.056	97.12
457.276	91.12
457.497	79.12
457.717	91.12
457.937	90.12
458.157	82.12
458.377	89.12
458.598	101.12
458.818	125.12
459.038	130.12
459.258	102.12
459.478	88.12
459.698	84.12
459.918	84.12
460.138	102.12
460.358	78.12
460.578	92.12
460.798	82.12
461.018	94.12
461.238	91.12
461.458	75.12
461.678	86.12
461.898	78.12
462.118	84.12
462.338	82.12
462.558	86.12
462.777	94.12
462.997	96.12
463.217	90.12
463.437	82.12
463.657	81.12
463.876	71.12
464.096	100.12
464.316	97.12
464.536	90.12
464.755	89.12
464.975	100.12
465.195	145.12
465.414	144.12
465.634	97.12
465.854	100.12
466.073	85.12
466.293	90.12
466.512	82.12
466.732	98.12
466.951	102.12
467.171	102.12
467.391	99.12
467.61	83.12
467.829	122.12
468.049	169.12
468.268	208.12
468.488	115.12
468.707	81.12
468.927	94.12
469.146	88.12
469.365	97.12
469.585	94.12
469.804	98.12
470.023	94.12
470.243	79.12
470.462	81.12
470.681	103.12
470.901	66.12
471.12	94.12
471.339	82.12
471.558	74.12
471.777	95.12
471.997	126.12
472.216	270.12
472.435	465.12
472.654	162.12
472.873	80.12
473.092	85.12
473.311	83.12
473.53	69.12
473.749	86.12
473.968	93.12
474.187	95.12
474.406	98.12
474.625	87.12
474.844	80.12
475.063	79.12
475.282	80.12
475.501	82.12
475.72	93.12
475.939	100.12
476.158	83.12
476.377	93.12
476.596	83.12
476.814	79.12
477.033	107.12
477.252	78.12
477.471	81.12
477.69	81.12
477.908	94.12
478.127	91.12
478.346	86.12
478.564	95.12
478.783	93.12
479.002	103.12
479.22	108.12
479.439	108.12
479.658	93.12
479.876	92.12
480.095	97.12
480.313	99.12
480.532	100.12
480.751	112.12
480.969	243.12
481.188	799.12
481.406	483.12
481.624	134.12
481.843	103.12
482.061	96.12
482.28	101.12
482.498	85.12
482.717	89.12
482.935	86.12
483.153	82.12
483.372	82.12
483.59	80.12
483.808	97.12
484.027	94.12
484.245	94.12
484.463	89.12
484.681	101.12
484.9	77.12
485.118	100.12
485.336	89.12
485.554	90.12
485.772	106.12
485.99	98.12
486.209	103.12
486.427	91.12
486.645	109.12
486.863	108.12
487.081	102.12
487.299	114.12
487.517	110.12
487.735	93.12
487.953	95.12
488.171	87.12
488.389	97.12
488.607	100.12
488.825	90.12
489.043	98.12
489.261	96.12
489.479	89.12
489.696	94.12
489.914	92.12
490.132	81.12
490.35	87.12
490.568	85.12
490.786	100.12
491.003	89.12
491.221	95.12
491.439	86.12
491.657	85.12
491.874	76.12
492.092	96.12
492.31	87.12
492.527	100.12
492.745	98.12
492.963	85.12
493.18	93.12
493.398	98.12
493.615	97.12
493.833	83.12
494.05	83.12
494.268	85.12
494.485	93.12
494.703	89.12
494.92	97.12
495.138	92.12
495.355	105.12
495.573	99.12
495.79	106.12
496.008	97.12
496.225	94.12
496.442	96.12
496.66	85.12
496.877	87.12
497.094	93.12
497.312	85.12
497.529	91.12
497.746	80.12
497.963	92.12
498.181	97.12
498.398	95.12
498.615	103.12
498.832	90.12
499.049	98.12
499.267	89.12
499.484	102.12
499.701	97.12
499.918	85.12
500.135	86.12
500.352	99.12
500.569	84.12
500.786	85.12
501.003	99.12
501.22	93.12
501.437	90.12
501.654	100.12
501.871	104.12
502.088	85.12
502.305	91.12
502.522	81.12
502.739	91.12
502.956	89.12
503.172	83.12
503.389	75.12
503.606	90.12
503.823	81.12
504.04	81.12
504.256	101.12
504.473	95.12
504.69	87.12
504.907	102.12
505.123	93.12
505.34	99.12
505.557	77.12
505.773	87.12
505.99	94.12
506.207	84.12
506.423	86.12
506.64	93.12
506.856	79.12
507.073	91.12
507.289	83.12
507.506	82.12
507.722	109.12
507.939	111.12
508.155	100.12
508.372	97.12
508.588	101.12
508.805	92.12
509.021	85.12
509.238	97.12
509.454	96.12
509.67	110.12
509.887	108.12
510.103	137.12
510.319	205.12
510.536	624.12
510.752	1938.12
510.968	533.12
511.184	139.12
511.401	95.12
511.617	108.12
511.833	81.12
512.049	88.12
512.265	98.12
512.481	92.12
512.698	93.12
512.914	102.12
513.13	99.12
513.346	84.12
513.562	100.12
513.778	96.12
513.994	91.12
514.21	106.12
514.426	102.12
514.642	111.12
514.858	120.12
515.074	140.12
515.29	371.12
515.506	1237.12
515.721	446.12
