Data from Circ_1993_H10_HRD10591_00079.txt Node
Date: Wed Jan 03 11:44:17 EST 2024
User: Yrep
Spectrometer: HR+D1059
Trigger mode: 1
Integration Time (sec): 1.000000E-1
Scans to average: 1
Electric dark correction enabled: true
Nonlinearity correction enabled: false
Boxcar width: 0
XAxis mode: Wavelengths
Number of Pixels in Spectrum: 2048
>>>>>Begin Spectral Data<<<<<
223.165	-14.12
223.4	-14.12
223.635	-14.12
223.869	-17.12
224.104	-23.12
224.338	-13.12
224.573	-14.12
224.808	-14.12
225.042	-11.12
225.277	-10.12
225.511	-14.12
225.746	18.88
225.98	-1.12
226.215	9.88
226.449	13.88
226.683	21.88
226.918	22.88
227.152	44.88
227.387	32.88
227.621	36.88
227.856	36.88
228.09	50.88
228.324	59.88
228.559	53.88
228.793	53.88
229.027	50.88
229.262	83.88
229.496	67.88
229.73	90.88
229.964	64.88
230.199	75.88
230.433	67.88
230.667	75.88
230.901	77.88
231.136	83.88
231.37	68.88
231.604	84.88
231.838	83.88
232.072	83.88
232.306	87.88
232.541	84.88
232.775	69.88
233.009	94.88
233.243	85.88
233.477	86.88
233.711	86.88
233.945	83.88
234.179	68.88
234.413	74.88
234.647	85.88
234.881	86.88
235.115	78.88
235.349	77.88
235.583	84.88
235.817	74.88
236.051	91.88
236.285	67.88
236.519	91.88
236.753	80.88
236.987	71.88
237.221	79.88
237.455	73.88
237.689	70.88
237.922	67.88
238.156	75.88
238.39	65.88
238.624	69.88
238.858	68.88
239.091	75.88
239.325	86.88
239.559	86.88
239.793	78.88
240.027	73.88
240.26	66.88
240.494	64.88
240.728	80.88
240.961	69.88
241.195	79.88
241.429	77.88
241.662	84.88
241.896	81.88
242.13	59.88
242.363	73.88
242.597	76.88
242.83	81.88
243.064	80.88
243.298	80.88
243.531	75.88
243.765	68.88
243.998	89.88
244.232	82.88
244.465	88.88
244.699	72.88
244.932	82.88
245.166	77.88
245.399	84.88
245.633	78.88
245.866	71.88
246.099	63.88
246.333	79.88
246.566	80.88
246.8	87.88
247.033	83.88
247.266	95.88
247.5	81.88
247.733	83.88
247.966	80.88
248.2	71.88
248.433	76.88
248.666	75.88
248.899	77.88
249.133	94.88
249.366	82.88
249.599	94.88
249.832	71.88
250.066	89.88
250.299	81.88
250.532	81.88
250.765	84.88
250.998	86.88
251.231	75.88
251.465	69.88
251.698	78.88
251.931	76.88
252.164	95.88
252.397	83.88
252.63	87.88
252.863	85.88
253.096	82.88
253.329	78.88
253.562	75.88
253.795	79.88
254.028	80.88
254.261	69.88
254.494	77.88
254.727	98.88
254.96	77.88
255.193	89.88
255.426	75.88
255.659	85.88
255.892	81.88
256.124	83.88
256.357	79.88
256.59	67.88
256.823	75.88
257.056	76.88
257.289	64.88
257.521	78.88
257.754	89.88
257.987	82.88
258.22	78.88
258.452	78.88
258.685	85.88
258.918	88.88
259.151	97.88
259.383	79.88
259.616	84.88
259.849	79.88
260.081	95.88
260.314	76.88
260.547	68.88
260.779	95.88
261.012	79.88
261.244	82.88
261.477	80.88
261.71	97.88
261.942	89.88
262.175	103.88
262.407	89.88
262.64	70.88
262.872	92.88
263.105	87.88
263.337	77.88
263.57	93.88
263.802	87.88
264.035	85.88
264.267	87.88
264.499	77.88
264.732	81.88
264.964	90.88
265.197	73.88
265.429	89.88
265.661	100.88
265.894	79.88
266.126	83.88
266.358	87.88
266.591	93.88
266.823	72.88
267.055	93.88
267.287	89.88
267.52	73.88
267.752	84.88
267.984	84.88
268.216	90.88
268.448	88.88
268.681	77.88
268.913	81.88
269.145	96.88
269.377	93.88
269.609	83.88
269.841	91.88
270.073	90.88
270.306	93.88
270.538	81.88
270.77	94.88
271.002	83.88
271.234	91.88
271.466	95.88
271.698	87.88
271.93	71.88
272.162	74.88
272.394	90.88
272.626	86.88
272.858	87.88
273.09	82.88
273.322	67.88
273.553	86.88
273.785	70.88
274.017	77.88
274.249	70.88
274.481	97.88
274.713	86.88
274.945	94.88
275.176	81.88
275.408	79.88
275.64	86.88
275.872	79.88
276.104	91.88
276.335	87.88
276.567	94.88
276.799	103.88
277.031	108.88
277.262	109.88
277.494	81.88
277.726	78.88
277.957	82.88
278.189	83.88
278.421	83.88
278.652	92.88
278.884	84.88
279.115	84.88
279.347	77.88
279.579	95.88
279.81	91.88
280.042	92.88
280.273	96.88
280.505	103.88
280.736	103.88
280.968	87.88
281.199	65.88
281.431	84.88
281.662	82.88
281.894	79.88
282.125	90.88
282.356	110.88
282.588	125.88
282.819	118.88
283.051	81.88
283.282	79.88
283.513	100.88
283.745	81.88
283.976	90.88
284.207	82.88
284.439	83.88
284.67	84.88
284.901	91.88
285.132	84.88
285.364	87.88
285.595	88.88
285.826	97.88
286.057	86.88
286.288	79.88
286.52	82.88
286.751	91.88
286.982	87.88
287.213	94.88
287.444	81.88
287.675	75.88
287.906	75.88
288.138	80.88
288.369	97.88
288.6	89.88
288.831	76.88
289.062	93.88
289.293	93.88
289.524	90.88
289.755	85.88
289.986	84.88
290.217	103.88
290.448	94.88
290.679	100.88
290.91	90.88
291.141	78.88
291.371	84.88
291.602	78.88
291.833	83.88
292.064	93.88
292.295	92.88
292.526	77.88
292.757	92.88
292.987	81.88
293.218	73.88
293.449	89.88
293.68	89.88
293.91	91.88
294.141	90.88
294.372	85.88
294.603	81.88
294.833	94.88
295.064	96.88
295.295	92.88
295.525	82.88
295.756	93.88
295.987	108.88
296.217	135.88
296.448	119.88
296.679	96.88
296.909	114.88
297.14	84.88
297.37	94.88
297.601	84.88
297.831	90.88
298.062	93.88
298.292	88.88
298.523	83.88
298.753	94.88
298.984	87.88
299.214	76.88
299.445	104.88
299.675	102.88
299.905	91.88
300.136	89.88
300.366	95.88
300.597	85.88
300.827	100.88
301.057	90.88
301.288	106.88
301.518	92.88
301.748	92.88
301.979	90.88
302.209	85.88
302.439	101.88
302.669	92.88
302.9	88.88
303.13	75.88
303.36	95.88
303.59	100.88
303.82	110.88
304.051	106.88
304.281	80.88
304.511	83.88
304.741	85.88
304.971	89.88
305.201	85.88
305.431	86.88
305.661	87.88
305.891	92.88
306.121	96.88
306.352	95.88
306.582	94.88
306.812	91.88
307.042	98.88
307.272	94.88
307.502	96.88
307.731	102.88
307.961	86.88
308.191	79.88
308.421	95.88
308.651	101.88
308.881	91.88
309.111	86.88
309.341	102.88
309.571	98.88
309.8	86.88
310.03	96.88
310.26	89.88
310.49	86.88
310.72	95.88
310.949	98.88
311.179	89.88
311.409	88.88
311.639	77.88
311.868	85.88
312.098	102.88
312.328	86.88
312.557	94.88
312.787	99.88
313.017	85.88
313.246	88.88
313.476	83.88
313.706	101.88
313.935	93.88
314.165	89.88
314.394	99.88
314.624	90.88
314.853	107.88
315.083	98.88
315.312	91.88
315.542	87.88
315.771	94.88
316.001	86.88
316.23	94.88
316.46	82.88
316.689	86.88
316.919	81.88
317.148	90.88
317.377	108.88
317.607	102.88
317.836	106.88
318.065	91.88
318.295	86.88
318.524	82.88
318.753	83.88
318.983	101.88
319.212	95.88
319.441	105.88
319.67	95.88
319.9	97.88
320.129	97.88
320.358	88.88
320.587	109.88
320.816	90.88
321.046	103.88
321.275	105.88
321.504	101.88
321.733	97.88
321.962	105.88
322.191	96.88
322.42	102.88
322.649	124.88
322.878	102.88
323.108	100.88
323.337	122.88
323.566	126.88
323.795	144.88
324.024	166.88
324.253	329.88
324.482	711.88
324.71	1353.88
324.939	1863.88
325.168	691.88
325.397	228.88
325.626	138.88
325.855	128.88
326.084	103.88
326.313	111.88
326.542	146.88
326.77	194.88
326.999	417.88
327.228	800.88
327.457	1467.88
327.686	1179.88
327.914	319.88
328.143	202.88
328.372	176.88
328.6	127.88
328.829	114.88
329.058	123.88
329.287	139.88
329.515	124.88
329.744	116.88
329.972	153.88
330.201	198.88
330.43	240.88
330.658	165.88
330.887	122.88
331.115	121.88
331.344	108.88
331.572	94.88
331.801	102.88
332.03	89.88
332.258	108.88
332.486	83.88
332.715	95.88
332.943	96.88
333.172	109.88
333.4	113.88
333.629	109.88
333.857	117.88
334.085	135.88
334.314	204.88
334.542	281.88
334.771	278.88
334.999	125.88
335.227	102.88
335.455	97.88
335.684	94.88
335.912	96.88
336.14	106.88
336.369	98.88
336.597	103.88
336.825	92.88
337.053	90.88
337.281	91.88
337.51	95.88
337.738	93.88
337.966	91.88
338.194	98.88
338.422	84.88
338.65	94.88
338.878	94.88
339.106	83.88
339.334	102.88
339.562	98.88
339.79	84.88
340.018	84.88
340.246	78.88
340.474	88.88
340.702	97.88
340.93	94.88
341.158	104.88
341.386	101.88
341.614	102.88
341.842	89.88
342.07	77.88
342.298	85.88
342.526	101.88
342.754	102.88
342.981	78.88
343.209	87.88
343.437	90.88
343.665	101.88
343.893	98.88
344.12	90.88
344.348	97.88
344.576	92.88
344.804	82.88
345.031	98.88
345.259	100.88
345.487	87.88
345.714	96.88
345.942	82.88
346.17	85.88
346.397	92.88
346.625	97.88
346.853	93.88
347.08	91.88
347.308	98.88
347.535	92.88
347.763	93.88
347.99	88.88
348.218	93.88
348.445	99.88
348.673	98.88
348.9	96.88
349.128	90.88
349.355	91.88
349.583	98.88
349.81	105.88
350.037	92.88
350.265	70.88
350.492	100.88
350.72	100.88
350.947	91.88
351.174	106.88
351.402	96.88
351.629	99.88
351.856	102.88
352.083	109.88
352.311	103.88
352.538	94.88
352.765	105.88
352.992	107.88
353.22	108.88
353.447	95.88
353.674	100.88
353.901	97.88
354.128	89.88
354.355	89.88
354.583	97.88
354.81	99.88
355.037	109.88
355.264	102.88
355.491	102.88
355.718	87.88
355.945	109.88
356.172	96.88
356.399	109.88
356.626	98.88
356.853	85.88
357.08	84.88
357.307	92.88
357.534	97.88
357.761	96.88
357.988	86.88
358.215	92.88
358.441	88.88
358.668	87.88
358.895	88.88
359.122	92.88
359.349	93.88
359.576	91.88
359.802	102.88
360.029	113.88
360.256	108.88
360.483	86.88
360.709	86.88
360.936	96.88
361.163	90.88
361.39	101.88
361.616	92.88
361.843	90.88
362.07	99.88
362.296	97.88
362.523	98.88
362.749	83.88
362.976	96.88
363.203	93.88
363.429	93.88
363.656	84.88
363.882	73.88
364.109	91.88
364.335	98.88
364.562	85.88
364.788	86.88
365.015	86.88
365.241	95.88
365.468	105.88
365.694	91.88
365.92	103.88
366.147	102.88
366.373	91.88
366.599	94.88
366.826	84.88
367.052	96.88
367.278	85.88
367.505	91.88
367.731	90.88
367.957	110.88
368.184	99.88
368.41	97.88
368.636	101.88
368.862	109.88
369.089	105.88
369.315	97.88
369.541	84.88
369.767	81.88
369.993	80.88
370.219	88.88
370.445	93.88
370.672	94.88
370.898	100.88
371.124	91.88
371.35	86.88
371.576	83.88
371.802	85.88
372.028	102.88
372.254	89.88
372.48	90.88
372.706	84.88
372.932	76.88
373.158	93.88
373.384	97.88
373.61	86.88
373.835	92.88
374.061	96.88
374.287	85.88
374.513	84.88
374.739	91.88
374.965	75.88
375.191	98.88
375.416	75.88
375.642	84.88
375.868	98.88
376.094	94.88
376.319	90.88
376.545	104.88
376.771	97.88
376.997	94.88
377.222	92.88
377.448	87.88
377.674	95.88
377.899	97.88
378.125	87.88
378.35	103.88
378.576	82.88
378.802	86.88
379.027	87.88
379.253	94.88
379.478	102.88
379.704	81.88
379.929	95.88
380.155	96.88
380.38	97.88
380.606	97.88
380.831	84.88
381.057	95.88
381.282	93.88
381.507	103.88
381.733	79.88
381.958	81.88
382.184	101.88
382.409	112.88
382.634	104.88
382.86	97.88
383.085	81.88
383.31	92.88
383.535	112.88
383.761	100.88
383.986	99.88
384.211	83.88
384.436	107.88
384.662	97.88
384.887	92.88
385.112	99.88
385.337	116.88
385.562	97.88
385.787	107.88
386.013	104.88
386.238	105.88
386.463	98.88
386.688	117.88
386.913	99.88
387.138	109.88
387.363	118.88
387.588	110.88
387.813	93.88
388.038	101.88
388.263	113.88
388.488	109.88
388.713	100.88
388.938	91.88
389.163	107.88
389.387	95.88
389.612	93.88
389.837	106.88
390.062	108.88
390.287	90.88
390.512	103.88
390.736	100.88
390.961	108.88
391.186	100.88
391.411	100.88
391.636	109.88
391.86	81.88
392.085	87.88
392.31	91.88
392.534	77.88
392.759	83.88
392.984	100.88
393.208	111.88
393.433	108.88
393.658	105.88
393.882	88.88
394.107	106.88
394.331	89.88
394.556	80.88
394.78	98.88
395.005	90.88
395.229	86.88
395.454	91.88
395.678	92.88
395.903	85.88
396.127	78.88
396.352	79.88
396.576	97.88
396.801	83.88
397.025	93.88
397.249	88.88
397.474	87.88
397.698	95.88
397.922	83.88
398.147	97.88
398.371	87.88
398.595	84.88
398.82	78.88
399.044	90.88
399.268	78.88
399.492	81.88
399.717	90.88
399.941	98.88
400.165	86.88
400.389	85.88
400.613	82.88
400.837	83.88
401.062	87.88
401.286	80.88
401.51	101.88
401.734	92.88
401.958	102.88
402.182	110.88
402.406	143.88
402.63	110.88
402.854	102.88
403.078	75.88
403.302	83.88
403.526	89.88
403.75	83.88
403.974	75.88
404.198	90.88
404.422	83.88
404.645	99.88
404.869	78.88
405.093	97.88
405.317	109.88
405.541	121.88
405.765	100.88
405.988	105.88
406.212	155.88
406.436	187.88
406.66	142.88
406.883	99.88
407.107	96.88
407.331	102.88
407.555	92.88
407.778	102.88
408.002	94.88
408.226	90.88
408.449	105.88
408.673	101.88
408.896	91.88
409.12	88.88
409.344	108.88
409.567	96.88
409.791	106.88
410.014	108.88
410.238	87.88
410.461	91.88
410.685	95.88
410.908	97.88
411.132	110.88
411.355	92.88
411.578	100.88
411.802	104.88
412.025	97.88
412.249	101.88
412.472	92.88
412.695	98.88
412.919	96.88
413.142	79.88
413.365	91.88
413.589	86.88
413.812	83.88
414.035	94.88
414.258	81.88
414.482	86.88
414.705	97.88
414.928	92.88
415.151	93.88
415.374	93.88
415.597	92.88
415.821	97.88
416.044	91.88
416.267	89.88
416.49	89.88
416.713	86.88
416.936	91.88
417.159	87.88
417.382	82.88
417.605	89.88
417.828	93.88
418.051	94.88
418.274	96.88
418.497	83.88
418.72	94.88
418.943	98.88
419.166	93.88
419.389	83.88
419.611	90.88
419.834	101.88
420.057	92.88
420.28	104.88
420.503	81.88
420.726	88.88
420.948	79.88
421.171	89.88
421.394	102.88
421.617	94.88
421.839	92.88
422.062	73.88
422.285	92.88
422.507	89.88
422.73	109.88
422.953	95.88
423.175	92.88
423.398	77.88
423.621	89.88
423.843	75.88
424.066	90.88
424.288	84.88
424.511	92.88
424.733	97.88
424.956	101.88
425.178	102.88
425.401	93.88
425.623	101.88
425.846	97.88
426.068	87.88
426.291	90.88
426.513	98.88
426.735	77.88
426.958	97.88
427.18	93.88
427.402	114.88
427.625	141.88
427.847	134.88
428.069	115.88
428.292	102.88
428.514	89.88
428.736	86.88
428.958	76.88
429.181	86.88
429.403	74.88
429.625	79.88
429.847	78.88
430.069	103.88
430.292	101.88
430.514	77.88
430.736	73.88
430.958	80.88
431.18	104.88
431.402	97.88
431.624	90.88
431.846	83.88
432.068	81.88
432.29	89.88
432.512	78.88
432.734	98.88
432.956	93.88
433.178	102.88
433.4	93.88
433.622	87.88
433.844	94.88
434.066	93.88
434.287	91.88
434.509	100.88
434.731	77.88
434.953	92.88
435.175	96.88
435.397	91.88
435.618	92.88
435.84	95.88
436.062	117.88
436.284	98.88
436.505	90.88
436.727	111.88
436.949	97.88
437.17	75.88
437.392	102.88
437.614	97.88
437.835	113.88
438.057	105.88
438.278	115.88
438.5	102.88
438.721	110.88
438.943	85.88
439.165	91.88
439.386	86.88
439.608	93.88
439.829	95.88
440.05	93.88
440.272	117.88
440.493	93.88
440.715	85.88
440.936	92.88
441.158	84.88
441.379	87.88
441.6	95.88
441.822	86.88
442.043	96.88
442.264	94.88
442.486	95.88
442.707	91.88
442.928	107.88
443.149	142.88
443.371	130.88
443.592	108.88
443.813	104.88
444.034	97.88
444.255	77.88
444.476	87.88
444.698	96.88
444.919	82.88
445.14	137.88
445.361	125.88
445.582	122.88
445.803	116.88
446.024	110.88
446.245	126.88
446.466	106.88
446.687	86.88
446.908	80.88
447.129	100.88
447.35	101.88
447.571	87.88
447.792	89.88
448.013	88.88
448.234	94.88
448.455	115.88
448.675	111.88
448.896	102.88
449.117	96.88
449.338	107.88
449.559	125.88
449.779	123.88
450	101.88
450.221	89.88
450.442	80.88
450.662	97.88
450.883	95.88
451.104	93.88
451.324	108.88
451.545	86.88
451.766	86.88
451.986	77.88
452.207	84.88
452.428	87.88
452.648	95.88
452.869	97.88
453.089	126.88
453.31	89.88
453.53	97.88
453.751	85.88
453.971	92.88
454.192	106.88
454.412	103.88
454.633	89.88
454.853	95.88
455.073	103.88
455.294	96.88
455.514	95.88
455.734	97.88
455.955	98.88
456.175	81.88
456.395	93.88
456.616	84.88
456.836	100.88
457.056	83.88
457.276	85.88
457.497	88.88
457.717	74.88
457.937	91.88
458.157	87.88
458.377	84.88
458.598	89.88
458.818	131.88
459.038	133.88
459.258	109.88
459.478	102.88
459.698	88.88
459.918	75.88
460.138	95.88
460.358	82.88
460.578	103.88
460.798	98.88
461.018	99.88
461.238	79.88
461.458	83.88
461.678	93.88
461.898	69.88
462.118	83.88
462.338	96.88
462.558	84.88
462.777	93.88
462.997	77.88
463.217	86.88
463.437	75.88
463.657	90.88
463.876	74.88
464.096	93.88
464.316	84.88
464.536	94.88
464.755	87.88
464.975	112.88
465.195	158.88
465.414	137.88
465.634	94.88
465.854	88.88
466.073	81.88
466.293	79.88
466.512	90.88
466.732	97.88
466.951	99.88
467.171	91.88
467.391	93.88
467.61	110.88
467.829	114.88
468.049	141.88
468.268	169.88
468.488	98.88
468.707	95.88
468.927	87.88
469.146	89.88
469.365	90.88
469.585	91.88
469.804	102.88
470.023	97.88
470.243	93.88
470.462	103.88
470.681	96.88
470.901	97.88
471.12	90.88
471.339	99.88
471.558	85.88
471.777	89.88
471.997	122.88
472.216	224.88
472.435	376.88
472.654	152.88
472.873	102.88
473.092	85.88
473.311	83.88
473.53	101.88
473.749	97.88
473.968	93.88
474.187	92.88
474.406	90.88
474.625	93.88
474.844	78.88
475.063	96.88
475.282	94.88
475.501	77.88
475.72	83.88
475.939	96.88
476.158	89.88
476.377	90.88
476.596	98.88
476.814	96.88
477.033	89.88
477.252	79.88
477.471	84.88
477.69	96.88
477.908	98.88
478.127	102.88
478.346	76.88
478.564	89.88
478.783	99.88
479.002	86.88
479.22	86.88
479.439	86.88
479.658	115.88
479.876	92.88
480.095	109.88
480.313	101.88
480.532	101.88
480.751	115.88
480.969	222.88
481.188	648.88
481.406	389.88
481.624	125.88
481.843	91.88
482.061	94.88
482.28	63.88
482.498	87.88
482.717	86.88
482.935	66.88
483.153	97.88
483.372	94.88
483.59	86.88
483.808	84.88
484.027	92.88
484.245	94.88
484.463	73.88
484.681	103.88
484.9	86.88
485.118	101.88
485.336	97.88
485.554	93.88
485.772	95.88
485.99	95.88
486.209	104.88
486.427	110.88
486.645	113.88
486.863	107.88
487.081	103.88
487.299	93.88
487.517	91.88
487.735	89.88
487.953	91.88
488.171	85.88
488.389	107.88
488.607	98.88
488.825	93.88
489.043	91.88
489.261	89.88
489.479	85.88
489.696	85.88
489.914	82.88
490.132	81.88
490.35	111.88
490.568	99.88
490.786	106.88
491.003	91.88
491.221	102.88
491.439	93.88
491.657	92.88
491.874	95.88
492.092	94.88
492.31	83.88
492.527	90.88
492.745	94.88
492.963	90.88
493.18	86.88
493.398	94.88
493.615	98.88
493.833	99.88
494.05	92.88
494.268	101.88
494.485	89.88
494.703	97.88
494.92	90.88
495.138	94.88
495.355	91.88
495.573	108.88
495.79	95.88
496.008	87.88
496.225	83.88
496.442	94.88
496.66	85.88
496.877	100.88
497.094	97.88
497.312	82.88
497.529	91.88
497.746	111.88
497.963	80.88
498.181	99.88
498.398	90.88
498.615	116.88
498.832	91.88
499.049	84.88
499.267	90.88
499.484	87.88
499.701	73.88
499.918	94.88
500.135	97.88
500.352	97.88
500.569	86.88
500.786	86.88
501.003	88.88
501.22	72.88
501.437	101.88
501.654	87.88
501.871	107.88
502.088	100.88
502.305	109.88
502.522	92.88
502.739	90.88
502.956	98.88
503.172	98.88
503.389	95.88
503.606	110.88
503.823	103.88
504.04	94.88
504.256	87.88
504.473	94.88
504.69	87.88
504.907	95.88
505.123	98.88
505.34	74.88
505.557	78.88
505.773	95.88
505.99	81.88
506.207	94.88
506.423	79.88
506.64	91.88
506.856	78.88
507.073	94.88
507.289	84.88
507.506	104.88
507.722	126.88
507.939	102.88
508.155	91.88
508.372	84.88
508.588	105.88
508.805	92.88
509.021	82.88
509.238	93.88
509.454	110.88
509.67	84.88
509.887	93.88
510.103	121.88
510.319	193.88
510.536	644.88
510.752	1869.88
510.968	545.88
511.184	145.88
511.401	90.88
511.617	90.88
511.833	94.88
512.049	90.88
512.265	82.88
512.481	88.88
512.698	88.88
512.914	97.88
513.13	98.88
513.346	94.88
513.562	98.88
513.778	83.88
513.994	98.88
514.21	95.88
514.426	118.88
514.642	121.88
514.858	109.88
515.074	147.88
515.29	370.88
515.506	1124.88
