Data from Circ_1993_H10_HRD10591_00060.txt Node
Date: Wed Jan 03 11:44:14 EST 2024
User: Yrep
Spectrometer: HR+D1059
Trigger mode: 1
Integration Time (sec): 1.000000E-1
Scans to average: 1
Electric dark correction enabled: true
Nonlinearity correction enabled: false
Boxcar width: 0
XAxis mode: Wavelengths
Number of Pixels in Spectrum: 2048
>>>>>Begin Spectral Data<<<<<
223.165	-24.38
223.4	-24.38
223.635	-24.38
223.869	-17.38
224.104	-20.38
224.338	-1.38
224.573	-7.38
224.808	-8.38
225.042	-5.38
225.277	-12.38
225.511	-4.38
225.746	1.62
225.98	-6.38
226.215	13.62
226.449	25.62
226.683	16.62
226.918	13.62
227.152	36.62
227.387	41.62
227.621	37.62
227.856	41.62
228.09	54.62
228.324	54.62
228.559	56.62
228.793	84.62
229.027	62.62
229.262	67.62
229.496	62.62
229.73	84.62
229.964	80.62
230.199	68.62
230.433	67.62
230.667	69.62
230.901	75.62
231.136	89.62
231.37	72.62
231.604	89.62
231.838	69.62
232.072	87.62
232.306	85.62
232.541	67.62
232.775	71.62
233.009	79.62
233.243	67.62
233.477	88.62
233.711	84.62
233.945	66.62
234.179	80.62
234.413	70.62
234.647	67.62
234.881	75.62
235.115	75.62
235.349	72.62
235.583	92.62
235.817	84.62
236.051	85.62
236.285	76.62
236.519	75.62
236.753	83.62
236.987	88.62
237.221	76.62
237.455	67.62
237.689	75.62
237.922	91.62
238.156	72.62
238.39	71.62
238.624	76.62
238.858	73.62
239.091	56.62
239.325	75.62
239.559	81.62
239.793	83.62
240.027	79.62
240.26	76.62
240.494	81.62
240.728	75.62
240.961	71.62
241.195	74.62
241.429	75.62
241.662	67.62
241.896	57.62
242.13	65.62
242.363	62.62
242.597	69.62
242.83	99.62
243.064	72.62
243.298	71.62
243.531	71.62
243.765	75.62
243.998	79.62
244.232	79.62
244.465	75.62
244.699	71.62
244.932	78.62
245.166	79.62
245.399	82.62
245.633	76.62
245.866	67.62
246.099	64.62
246.333	77.62
246.566	82.62
246.8	79.62
247.033	74.62
247.266	61.62
247.5	71.62
247.733	72.62
247.966	81.62
248.2	75.62
248.433	73.62
248.666	85.62
248.899	87.62
249.133	79.62
249.366	89.62
249.599	82.62
249.832	72.62
250.066	77.62
250.299	84.62
250.532	76.62
250.765	79.62
250.998	90.62
251.231	78.62
251.465	83.62
251.698	80.62
251.931	73.62
252.164	90.62
252.397	72.62
252.63	69.62
252.863	67.62
253.096	69.62
253.329	73.62
253.562	77.62
253.795	83.62
254.028	74.62
254.261	70.62
254.494	80.62
254.727	90.62
254.96	95.62
255.193	83.62
255.426	77.62
255.659	89.62
255.892	84.62
256.124	85.62
256.357	77.62
256.59	83.62
256.823	74.62
257.056	80.62
257.289	83.62
257.521	91.62
257.754	81.62
257.987	83.62
258.22	101.62
258.452	91.62
258.685	88.62
258.918	86.62
259.151	75.62
259.383	81.62
259.616	75.62
259.849	87.62
260.081	67.62
260.314	74.62
260.547	75.62
260.779	79.62
261.012	84.62
261.244	96.62
261.477	79.62
261.71	89.62
261.942	107.62
262.175	105.62
262.407	95.62
262.64	80.62
262.872	80.62
263.105	77.62
263.337	81.62
263.57	75.62
263.802	78.62
264.035	85.62
264.267	80.62
264.499	78.62
264.732	83.62
264.964	77.62
265.197	68.62
265.429	96.62
265.661	79.62
265.894	83.62
266.126	82.62
266.358	83.62
266.591	76.62
266.823	83.62
267.055	75.62
267.287	78.62
267.52	78.62
267.752	79.62
267.984	79.62
268.216	81.62
268.448	82.62
268.681	79.62
268.913	79.62
269.145	92.62
269.377	86.62
269.609	86.62
269.841	79.62
270.073	76.62
270.306	77.62
270.538	85.62
270.77	76.62
271.002	81.62
271.234	77.62
271.466	86.62
271.698	84.62
271.93	79.62
272.162	80.62
272.394	89.62
272.626	79.62
272.858	79.62
273.09	91.62
273.322	77.62
273.553	69.62
273.785	78.62
274.017	85.62
274.249	82.62
274.481	82.62
274.713	93.62
274.945	83.62
275.176	84.62
275.408	89.62
275.64	77.62
275.872	87.62
276.104	101.62
276.335	93.62
276.567	100.62
276.799	96.62
277.031	106.62
277.262	96.62
277.494	86.62
277.726	83.62
277.957	88.62
278.189	82.62
278.421	82.62
278.652	84.62
278.884	83.62
279.115	82.62
279.347	80.62
279.579	88.62
279.81	82.62
280.042	93.62
280.273	88.62
280.505	92.62
280.736	83.62
280.968	88.62
281.199	80.62
281.431	71.62
281.662	81.62
281.894	78.62
282.125	91.62
282.356	105.62
282.588	130.62
282.819	107.62
283.051	91.62
283.282	74.62
283.513	80.62
283.745	85.62
283.976	71.62
284.207	97.62
284.439	96.62
284.67	77.62
284.901	87.62
285.132	80.62
285.364	83.62
285.595	88.62
285.826	79.62
286.057	93.62
286.288	83.62
286.52	91.62
286.751	89.62
286.982	88.62
287.213	87.62
287.444	84.62
287.675	94.62
287.906	84.62
288.138	82.62
288.369	90.62
288.6	79.62
288.831	91.62
289.062	86.62
289.293	90.62
289.524	92.62
289.755	85.62
289.986	88.62
290.217	110.62
290.448	84.62
290.679	88.62
290.91	88.62
291.141	75.62
291.371	77.62
291.602	104.62
291.833	82.62
292.064	84.62
292.295	108.62
292.526	93.62
292.757	88.62
292.987	101.62
293.218	74.62
293.449	93.62
293.68	88.62
293.91	79.62
294.141	104.62
294.372	91.62
294.603	95.62
294.833	103.62
295.064	83.62
295.295	97.62
295.525	84.62
295.756	92.62
295.987	95.62
296.217	120.62
296.448	108.62
296.679	87.62
296.909	96.62
297.14	90.62
297.37	102.62
297.601	103.62
297.831	93.62
298.062	82.62
298.292	80.62
298.523	94.62
298.753	101.62
298.984	81.62
299.214	97.62
299.445	97.62
299.675	92.62
299.905	92.62
300.136	87.62
300.366	78.62
300.597	92.62
300.827	90.62
301.057	110.62
301.288	99.62
301.518	94.62
301.748	81.62
301.979	100.62
302.209	100.62
302.439	95.62
302.669	91.62
302.9	91.62
303.13	63.62
303.36	85.62
303.59	88.62
303.82	107.62
304.051	92.62
304.281	92.62
304.511	82.62
304.741	96.62
304.971	105.62
305.201	92.62
305.431	76.62
305.661	87.62
305.891	68.62
306.121	87.62
306.352	103.62
306.582	101.62
306.812	100.62
307.042	83.62
307.272	94.62
307.502	109.62
307.731	100.62
307.961	94.62
308.191	100.62
308.421	105.62
308.651	91.62
308.881	94.62
309.111	87.62
309.341	83.62
309.571	92.62
309.8	99.62
310.03	99.62
310.26	103.62
310.49	87.62
310.72	85.62
310.949	107.62
311.179	103.62
311.409	89.62
311.639	93.62
311.868	78.62
312.098	112.62
312.328	91.62
312.557	101.62
312.787	103.62
313.017	104.62
313.246	93.62
313.476	92.62
313.706	85.62
313.935	88.62
314.165	99.62
314.394	91.62
314.624	93.62
314.853	94.62
315.083	83.62
315.312	101.62
315.542	94.62
315.771	89.62
316.001	107.62
316.23	96.62
316.46	83.62
316.689	87.62
316.919	89.62
317.148	79.62
317.377	89.62
317.607	90.62
317.836	87.62
318.065	92.62
318.295	96.62
318.524	91.62
318.753	93.62
318.983	94.62
319.212	83.62
319.441	91.62
319.67	95.62
319.9	98.62
320.129	95.62
320.358	92.62
320.587	107.62
320.816	88.62
321.046	84.62
321.275	98.62
321.504	96.62
321.733	91.62
321.962	84.62
322.191	96.62
322.42	99.62
322.649	111.62
322.878	98.62
323.108	111.62
323.337	119.62
323.566	119.62
323.795	150.62
324.024	198.62
324.253	378.62
324.482	801.62
324.71	1563.62
324.939	2059.62
325.168	763.62
325.397	234.62
325.626	148.62
325.855	137.62
326.084	128.62
326.313	135.62
326.542	139.62
326.77	218.62
326.999	429.62
327.228	917.62
327.457	1644.62
327.686	1275.62
327.914	354.62
328.143	183.62
328.372	172.62
328.6	130.62
328.829	111.62
329.058	120.62
329.287	119.62
329.515	115.62
329.744	115.62
329.972	132.62
330.201	185.62
330.43	200.62
330.658	165.62
330.887	137.62
331.115	121.62
331.344	91.62
331.572	96.62
331.801	106.62
332.03	90.62
332.258	105.62
332.486	95.62
332.715	99.62
332.943	75.62
333.172	88.62
333.4	101.62
333.629	124.62
333.857	117.62
334.085	135.62
334.314	179.62
334.542	263.62
334.771	245.62
334.999	120.62
335.227	91.62
335.455	103.62
335.684	105.62
335.912	101.62
336.14	106.62
336.369	110.62
336.597	95.62
336.825	92.62
337.053	80.62
337.281	91.62
337.51	89.62
337.738	80.62
337.966	93.62
338.194	85.62
338.422	83.62
338.65	83.62
338.878	92.62
339.106	93.62
339.334	85.62
339.562	65.62
339.79	104.62
340.018	94.62
340.246	92.62
340.474	90.62
340.702	91.62
340.93	85.62
341.158	100.62
341.386	99.62
341.614	100.62
341.842	95.62
342.07	82.62
342.298	94.62
342.526	90.62
342.754	100.62
342.981	89.62
343.209	84.62
343.437	106.62
343.665	85.62
343.893	85.62
344.12	85.62
344.348	92.62
344.576	91.62
344.804	85.62
345.031	82.62
345.259	100.62
345.487	108.62
345.714	97.62
345.942	73.62
346.17	86.62
346.397	71.62
346.625	95.62
346.853	82.62
347.08	82.62
347.308	99.62
347.535	86.62
347.763	95.62
347.99	108.62
348.218	111.62
348.445	100.62
348.673	112.62
348.9	96.62
349.128	88.62
349.355	82.62
349.583	88.62
349.81	104.62
350.037	96.62
350.265	100.62
350.492	100.62
350.72	95.62
350.947	101.62
351.174	91.62
351.402	102.62
351.629	103.62
351.856	94.62
352.083	99.62
352.311	103.62
352.538	100.62
352.765	101.62
352.992	104.62
353.22	94.62
353.447	93.62
353.674	100.62
353.901	99.62
354.128	101.62
354.355	95.62
354.583	93.62
354.81	93.62
355.037	85.62
355.264	107.62
355.491	86.62
355.718	96.62
355.945	88.62
356.172	94.62
356.399	88.62
356.626	95.62
356.853	89.62
357.08	89.62
357.307	90.62
357.534	82.62
357.761	93.62
357.988	87.62
358.215	98.62
358.441	98.62
358.668	109.62
358.895	91.62
359.122	85.62
359.349	84.62
359.576	88.62
359.802	97.62
360.029	105.62
360.256	103.62
360.483	92.62
360.709	93.62
360.936	95.62
361.163	93.62
361.39	90.62
361.616	99.62
361.843	92.62
362.07	95.62
362.296	99.62
362.523	74.62
362.749	100.62
362.976	85.62
363.203	99.62
363.429	99.62
363.656	101.62
363.882	82.62
364.109	101.62
364.335	103.62
364.562	87.62
364.788	85.62
365.015	77.62
365.241	88.62
365.468	105.62
365.694	87.62
365.92	98.62
366.147	97.62
366.373	96.62
366.599	82.62
366.826	84.62
367.052	79.62
367.278	90.62
367.505	83.62
367.731	92.62
367.957	82.62
368.184	88.62
368.41	98.62
368.636	109.62
368.862	120.62
369.089	97.62
369.315	105.62
369.541	85.62
369.767	81.62
369.993	83.62
370.219	89.62
370.445	79.62
370.672	88.62
370.898	104.62
371.124	87.62
371.35	99.62
371.576	89.62
371.802	97.62
372.028	92.62
372.254	90.62
372.48	91.62
372.706	66.62
372.932	81.62
373.158	89.62
373.384	83.62
373.61	95.62
373.835	98.62
374.061	89.62
374.287	79.62
374.513	79.62
374.739	73.62
374.965	99.62
375.191	97.62
375.416	74.62
375.642	99.62
375.868	81.62
376.094	92.62
376.319	89.62
376.545	75.62
376.771	82.62
376.997	90.62
377.222	90.62
377.448	85.62
377.674	97.62
377.899	97.62
378.125	89.62
378.35	99.62
378.576	85.62
378.802	98.62
379.027	91.62
379.253	92.62
379.478	94.62
379.704	100.62
379.929	103.62
380.155	102.62
380.38	96.62
380.606	106.62
380.831	81.62
381.057	100.62
381.282	100.62
381.507	92.62
381.733	99.62
381.958	105.62
382.184	82.62
382.409	93.62
382.634	108.62
382.86	115.62
383.085	101.62
383.31	100.62
383.535	84.62
383.761	99.62
383.986	109.62
384.211	112.62
384.436	96.62
384.662	100.62
384.887	83.62
385.112	94.62
385.337	99.62
385.562	112.62
385.787	104.62
386.013	100.62
386.238	115.62
386.463	95.62
386.688	122.62
386.913	109.62
387.138	108.62
387.363	104.62
387.588	109.62
387.813	92.62
388.038	102.62
388.263	114.62
388.488	105.62
388.713	92.62
388.938	75.62
389.163	89.62
389.387	112.62
389.612	93.62
389.837	91.62
390.062	96.62
390.287	94.62
390.512	103.62
390.736	76.62
390.961	97.62
391.186	94.62
391.411	97.62
391.636	88.62
391.86	76.62
392.085	83.62
392.31	91.62
392.534	81.62
392.759	84.62
392.984	87.62
393.208	93.62
393.433	107.62
393.658	104.62
393.882	82.62
394.107	97.62
394.331	71.62
394.556	86.62
394.78	83.62
395.005	75.62
395.229	89.62
395.454	84.62
395.678	76.62
395.903	68.62
396.127	99.62
396.352	91.62
396.576	78.62
396.801	104.62
397.025	104.62
397.249	95.62
397.474	97.62
397.698	82.62
397.922	79.62
398.147	87.62
398.371	83.62
398.595	79.62
398.82	75.62
399.044	96.62
399.268	87.62
399.492	96.62
399.717	82.62
399.941	85.62
400.165	96.62
400.389	86.62
400.613	98.62
400.837	83.62
401.062	92.62
401.286	69.62
401.51	89.62
401.734	78.62
401.958	97.62
402.182	120.62
402.406	124.62
402.63	114.62
402.854	111.62
403.078	98.62
403.302	89.62
403.526	94.62
403.75	87.62
403.974	69.62
404.198	77.62
404.422	96.62
404.645	75.62
404.869	82.62
405.093	85.62
405.317	92.62
405.541	109.62
405.765	114.62
405.988	112.62
406.212	146.62
406.436	205.62
406.66	115.62
406.883	87.62
407.107	87.62
407.331	88.62
407.555	103.62
407.778	100.62
408.002	95.62
408.226	87.62
408.449	70.62
408.673	92.62
408.896	82.62
409.12	87.62
409.344	85.62
409.567	96.62
409.791	91.62
410.014	99.62
410.238	87.62
410.461	99.62
410.685	101.62
410.908	99.62
411.132	106.62
411.355	93.62
411.578	100.62
411.802	94.62
412.025	96.62
412.249	88.62
412.472	96.62
412.695	102.62
412.919	82.62
413.142	79.62
413.365	92.62
413.589	87.62
413.812	91.62
414.035	88.62
414.258	96.62
414.482	96.62
414.705	99.62
414.928	85.62
415.151	94.62
415.374	93.62
415.597	93.62
415.821	92.62
416.044	86.62
416.267	96.62
416.49	98.62
416.713	84.62
416.936	91.62
417.159	101.62
417.382	85.62
417.605	90.62
417.828	91.62
418.051	96.62
418.274	82.62
418.497	83.62
418.72	84.62
418.943	95.62
419.166	88.62
419.389	90.62
419.611	96.62
419.834	81.62
420.057	91.62
420.28	81.62
420.503	83.62
420.726	74.62
420.948	85.62
421.171	89.62
421.394	104.62
421.617	93.62
421.839	91.62
422.062	87.62
422.285	97.62
422.507	101.62
422.73	113.62
422.953	99.62
423.175	89.62
423.398	87.62
423.621	89.62
423.843	93.62
424.066	78.62
424.288	83.62
424.511	88.62
424.733	97.62
424.956	102.62
425.178	92.62
425.401	95.62
425.623	83.62
425.846	74.62
426.068	92.62
426.291	99.62
426.513	111.62
426.735	101.62
426.958	95.62
427.18	94.62
427.402	124.62
427.625	167.62
427.847	149.62
428.069	130.62
428.292	91.62
428.514	83.62
428.736	84.62
428.958	83.62
429.181	82.62
429.403	80.62
429.625	77.62
429.847	78.62
430.069	99.62
430.292	72.62
430.514	81.62
430.736	83.62
430.958	68.62
431.18	81.62
431.402	93.62
431.624	85.62
431.846	86.62
432.068	84.62
432.29	89.62
432.512	91.62
432.734	92.62
432.956	98.62
433.178	90.62
433.4	95.62
433.622	84.62
433.844	87.62
434.066	87.62
434.287	89.62
434.509	82.62
434.731	83.62
434.953	85.62
435.175	81.62
435.397	83.62
435.618	95.62
435.84	100.62
436.062	104.62
436.284	101.62
436.505	95.62
436.727	94.62
436.949	90.62
437.17	91.62
437.392	84.62
437.614	91.62
437.835	112.62
438.057	115.62
438.278	110.62
438.5	99.62
438.721	120.62
438.943	107.62
439.165	81.62
439.386	91.62
439.608	74.62
439.829	92.62
440.05	115.62
440.272	129.62
440.493	97.62
440.715	75.62
440.936	80.62
441.158	91.62
441.379	89.62
441.6	93.62
441.822	105.62
442.043	90.62
442.264	95.62
442.486	100.62
442.707	99.62
442.928	113.62
443.149	120.62
443.371	120.62
443.592	103.62
443.813	115.62
444.034	106.62
444.255	107.62
444.476	79.62
444.698	90.62
444.919	83.62
445.14	128.62
445.361	117.62
445.582	120.62
445.803	134.62
446.024	144.62
446.245	121.62
446.466	113.62
446.687	92.62
446.908	87.62
447.129	93.62
447.35	77.62
447.571	89.62
447.792	92.62
448.013	100.62
448.234	99.62
448.455	91.62
448.675	105.62
448.896	105.62
449.117	107.62
449.338	104.62
449.559	126.62
449.779	132.62
450	88.62
450.221	84.62
450.442	97.62
450.662	86.62
450.883	104.62
451.104	101.62
451.324	83.62
451.545	100.62
451.766	85.62
451.986	87.62
452.207	87.62
452.428	84.62
452.648	96.62
452.869	98.62
453.089	122.62
453.31	100.62
453.53	83.62
453.751	75.62
453.971	92.62
454.192	112.62
454.412	87.62
454.633	90.62
454.853	85.62
455.073	77.62
455.294	98.62
455.514	99.62
455.734	88.62
455.955	79.62
456.175	83.62
456.395	88.62
456.616	83.62
456.836	94.62
457.056	71.62
457.276	88.62
457.497	88.62
457.717	79.62
457.937	77.62
458.157	96.62
458.377	83.62
458.598	96.62
458.818	139.62
459.038	135.62
459.258	113.62
459.478	87.62
459.698	87.62
459.918	90.62
460.138	96.62
460.358	83.62
460.578	81.62
460.798	102.62
461.018	85.62
461.238	78.62
461.458	92.62
461.678	87.62
461.898	88.62
462.118	76.62
462.338	90.62
462.558	96.62
462.777	85.62
462.997	83.62
463.217	85.62
463.437	82.62
463.657	105.62
463.876	91.62
464.096	97.62
464.316	83.62
464.536	97.62
464.755	84.62
464.975	104.62
465.195	144.62
465.414	158.62
465.634	88.62
465.854	79.62
466.073	93.62
466.293	79.62
466.512	94.62
466.732	86.62
466.951	96.62
467.171	85.62
467.391	84.62
467.61	103.62
467.829	98.62
468.049	112.62
468.268	145.62
468.488	84.62
468.707	89.62
468.927	103.62
469.146	95.62
469.365	73.62
469.585	90.62
469.804	99.62
470.023	92.62
470.243	89.62
470.462	96.62
470.681	110.62
470.901	87.62
471.12	92.62
471.339	100.62
471.558	99.62
471.777	108.62
471.997	113.62
472.216	185.62
472.435	315.62
472.654	128.62
472.873	91.62
473.092	89.62
473.311	97.62
473.53	91.62
473.749	89.62
473.968	85.62
474.187	111.62
474.406	89.62
474.625	100.62
474.844	95.62
475.063	101.62
475.282	79.62
475.501	83.62
475.72	82.62
475.939	84.62
476.158	84.62
476.377	91.62
476.596	85.62
476.814	80.62
477.033	97.62
477.252	92.62
477.471	93.62
477.69	79.62
477.908	79.62
478.127	73.62
478.346	84.62
478.564	96.62
478.783	89.62
479.002	76.62
479.22	95.62
479.439	103.62
479.658	101.62
479.876	86.62
480.095	85.62
480.313	98.62
480.532	89.62
480.751	94.62
480.969	193.62
481.188	504.62
481.406	331.62
481.624	126.62
481.843	95.62
482.061	81.62
482.28	72.62
482.498	80.62
482.717	93.62
482.935	76.62
483.153	100.62
483.372	101.62
483.59	85.62
483.808	78.62
484.027	107.62
484.245	100.62
484.463	92.62
484.681	93.62
484.9	81.62
485.118	92.62
485.336	91.62
485.554	92.62
485.772	93.62
485.99	104.62
486.209	103.62
486.427	101.62
486.645	109.62
486.863	91.62
487.081	107.62
487.299	87.62
487.517	100.62
487.735	81.62
487.953	91.62
488.171	80.62
488.389	96.62
488.607	101.62
488.825	94.62
489.043	75.62
489.261	94.62
489.479	107.62
489.696	95.62
489.914	82.62
490.132	82.62
490.35	78.62
490.568	87.62
490.786	96.62
491.003	81.62
491.221	93.62
491.439	81.62
491.657	88.62
491.874	93.62
492.092	83.62
492.31	82.62
492.527	87.62
492.745	86.62
492.963	95.62
493.18	95.62
493.398	88.62
493.615	99.62
493.833	85.62
494.05	81.62
494.268	94.62
494.485	94.62
494.703	93.62
494.92	78.62
495.138	87.62
495.355	99.62
495.573	89.62
495.79	82.62
496.008	88.62
496.225	99.62
496.442	75.62
496.66	91.62
496.877	94.62
497.094	92.62
497.312	77.62
497.529	83.62
497.746	95.62
497.963	94.62
498.181	95.62
498.398	97.62
498.615	103.62
498.832	98.62
499.049	106.62
499.267	72.62
499.484	90.62
499.701	90.62
499.918	100.62
500.135	95.62
500.352	88.62
500.569	93.62
500.786	83.62
501.003	81.62
501.22	84.62
501.437	88.62
501.654	92.62
501.871	104.62
502.088	97.62
502.305	87.62
502.522	86.62
502.739	87.62
502.956	88.62
503.172	93.62
503.389	95.62
503.606	104.62
503.823	95.62
504.04	96.62
504.256	83.62
504.473	85.62
504.69	94.62
504.907	93.62
505.123	91.62
505.34	84.62
505.557	99.62
505.773	100.62
505.99	92.62
506.207	97.62
506.423	84.62
506.64	81.62
506.856	77.62
507.073	78.62
507.289	85.62
507.506	91.62
507.722	101.62
507.939	98.62
508.155	97.62
508.372	93.62
508.588	94.62
508.805	98.62
509.021	89.62
509.238	114.62
509.454	90.62
509.67	101.62
509.887	115.62
510.103	119.62
510.319	204.62
510.536	661.62
510.752	2075.62
510.968	577.62
511.184	155.62
511.401	115.62
511.617	96.62
511.833	87.62
512.049	92.62
512.265	86.62
512.481	100.62
512.698	81.62
512.914	87.62
513.13	83.62
513.346	103.62
513.562	93.62
513.778	87.62
513.994	87.62
514.21	89.62
514.426	102.62
514.642	126.62
514.858	122.62
515.074	147.62
515.29	396.62
515.506	1277.62
515.721	480.62
515.937	144.62
