Data from 18505_1_HRD10591_00003.txt Node
Date: Mon Jan 19 13:58:32 EST 2026
User: Yrep
Spectrometer: HR+D1059
Trigger mode: 1
Integration Time (sec): 1.000000E-1
Scans to average: 1
Electric dark correction enabled: true
Nonlinearity correction enabled: false
Boxcar width: 0
XAxis mode: Wavelengths
Number of Pixels in Spectrum: 2048
>>>>>Begin Spectral Data<<<<<
223.165	-12.81
223.4	-12.81
223.635	-12.81
223.869	-17.81
224.104	-14.81
224.338	-13.81
224.573	-2.81
224.808	-7.81
225.042	-22.81
225.277	-8.81
225.511	-1.81
225.746	2.19
225.98	15.19
226.215	2.19
226.449	10.19
226.683	18.19
226.918	25.19
227.152	30.19
227.387	46.19
227.621	33.19
227.856	54.19
228.09	55.19
228.324	45.19
228.559	54.19
228.793	65.19
229.027	55.19
229.262	61.19
229.496	66.19
229.73	79.19
229.964	81.19
230.199	64.19
230.433	74.19
230.667	85.19
230.901	77.19
231.136	72.19
231.37	89.19
231.604	87.19
231.838	83.19
232.072	85.19
232.306	79.19
232.541	79.19
232.775	87.19
233.009	90.19
233.243	78.19
233.477	89.19
233.711	74.19
233.945	87.19
234.179	80.19
234.413	79.19
234.647	90.19
234.881	86.19
235.115	74.19
235.349	81.19
235.583	70.19
235.817	79.19
236.051	72.19
236.285	82.19
236.519	70.19
236.753	72.19
236.987	80.19
237.221	89.19
237.455	64.19
237.689	76.19
237.922	68.19
238.156	73.19
238.39	72.19
238.624	76.19
238.858	67.19
239.091	73.19
239.325	78.19
239.559	88.19
239.793	84.19
240.027	84.19
240.26	68.19
240.494	69.19
240.728	66.19
240.961	70.19
241.195	69.19
241.429	71.19
241.662	75.19
241.896	67.19
242.13	61.19
242.363	61.19
242.597	85.19
242.83	74.19
243.064	72.19
243.298	83.19
243.531	83.19
243.765	73.19
243.998	90.19
244.232	82.19
244.465	70.19
244.699	81.19
244.932	67.19
245.166	85.19
245.399	73.19
245.633	71.19
245.866	79.19
246.099	79.19
246.333	70.19
246.566	79.19
246.8	72.19
247.033	74.19
247.266	70.19
247.5	81.19
247.733	76.19
247.966	80.19
248.2	81.19
248.433	89.19
248.666	85.19
248.899	91.19
249.133	94.19
249.366	80.19
249.599	79.19
249.832	69.19
250.066	75.19
250.299	82.19
250.532	79.19
250.765	82.19
250.998	80.19
251.231	86.19
251.465	84.19
251.698	84.19
251.931	62.19
252.164	70.19
252.397	72.19
252.63	76.19
252.863	90.19
253.096	67.19
253.329	71.19
253.562	78.19
253.795	80.19
254.028	83.19
254.261	76.19
254.494	71.19
254.727	81.19
254.96	75.19
255.193	78.19
255.426	86.19
255.659	83.19
255.892	90.19
256.124	81.19
256.357	75.19
256.59	89.19
256.823	87.19
257.056	78.19
257.289	87.19
257.521	72.19
257.754	71.19
257.987	83.19
258.22	84.19
258.452	69.19
258.685	91.19
258.918	81.19
259.151	92.19
259.383	91.19
259.616	79.19
259.849	65.19
260.081	75.19
260.314	88.19
260.547	91.19
260.779	61.19
261.012	90.19
261.244	101.19
261.477	95.19
261.71	89.19
261.942	74.19
262.175	85.19
262.407	73.19
262.64	72.19
262.872	83.19
263.105	84.19
263.337	77.19
263.57	81.19
263.802	79.19
264.035	81.19
264.267	78.19
264.499	90.19
264.732	75.19
264.964	94.19
265.197	75.19
265.429	77.19
265.661	74.19
265.894	86.19
266.126	81.19
266.358	77.19
266.591	72.19
266.823	75.19
267.055	92.19
267.287	84.19
267.52	86.19
267.752	86.19
267.984	81.19
268.216	92.19
268.448	88.19
268.681	86.19
268.913	87.19
269.145	83.19
269.377	72.19
269.609	83.19
269.841	81.19
270.073	78.19
270.306	81.19
270.538	76.19
270.77	83.19
271.002	72.19
271.234	72.19
271.466	85.19
271.698	90.19
271.93	90.19
272.162	82.19
272.394	80.19
272.626	83.19
272.858	98.19
273.09	90.19
273.322	86.19
273.553	62.19
273.785	81.19
274.017	93.19
274.249	94.19
274.481	85.19
274.713	71.19
274.945	79.19
275.176	81.19
275.408	75.19
275.64	93.19
275.872	75.19
276.104	88.19
276.335	79.19
276.567	90.19
276.799	95.19
277.031	89.19
277.262	93.19
277.494	84.19
277.726	75.19
277.957	81.19
278.189	80.19
278.421	69.19
278.652	81.19
278.884	99.19
279.115	81.19
279.347	80.19
279.579	90.19
279.81	80.19
280.042	83.19
280.273	72.19
280.505	76.19
280.736	85.19
280.968	83.19
281.199	83.19
281.431	89.19
281.662	91.19
281.894	88.19
282.125	75.19
282.356	95.19
282.588	90.19
282.819	85.19
283.051	98.19
283.282	71.19
283.513	84.19
283.745	77.19
283.976	93.19
284.207	93.19
284.439	83.19
284.67	87.19
284.901	99.19
285.132	103.19
285.364	94.19
285.595	96.19
285.826	79.19
286.057	89.19
286.288	84.19
286.52	94.19
286.751	78.19
286.982	85.19
287.213	92.19
287.444	74.19
287.675	85.19
287.906	100.19
288.138	88.19
288.369	89.19
288.6	94.19
288.831	87.19
289.062	96.19
289.293	91.19
289.524	85.19
289.755	86.19
289.986	63.19
290.217	76.19
290.448	79.19
290.679	92.19
290.91	87.19
291.141	85.19
291.371	91.19
291.602	87.19
291.833	81.19
292.064	80.19
292.295	72.19
292.526	97.19
292.757	83.19
292.987	93.19
293.218	72.19
293.449	99.19
293.68	90.19
293.91	87.19
294.141	86.19
294.372	78.19
294.603	85.19
294.833	82.19
295.064	80.19
295.295	92.19
295.525	90.19
295.756	98.19
295.987	83.19
296.217	85.19
296.448	95.19
296.679	99.19
296.909	94.19
297.14	86.19
297.37	86.19
297.601	74.19
297.831	90.19
298.062	91.19
298.292	78.19
298.523	94.19
298.753	68.19
298.984	79.19
299.214	86.19
299.445	88.19
299.675	99.19
299.905	105.19
300.136	72.19
300.366	101.19
300.597	84.19
300.827	91.19
301.057	88.19
301.288	86.19
301.518	90.19
301.748	95.19
301.979	107.19
302.209	97.19
302.439	91.19
302.669	85.19
302.9	83.19
303.13	87.19
303.36	81.19
303.59	89.19
303.82	78.19
304.051	98.19
304.281	91.19
304.511	97.19
304.741	79.19
304.971	81.19
305.201	79.19
305.431	85.19
305.661	86.19
305.891	84.19
306.121	81.19
306.352	86.19
306.582	87.19
306.812	99.19
307.042	83.19
307.272	85.19
307.502	87.19
307.731	95.19
307.961	84.19
308.191	90.19
308.421	85.19
308.651	85.19
308.881	91.19
309.111	80.19
309.341	88.19
309.571	101.19
309.8	99.19
310.03	83.19
310.26	92.19
310.49	73.19
310.72	75.19
310.949	91.19
311.179	94.19
311.409	86.19
311.639	94.19
311.868	104.19
312.098	84.19
312.328	94.19
312.557	87.19
312.787	83.19
313.017	98.19
313.246	99.19
313.476	87.19
313.706	103.19
313.935	94.19
314.165	102.19
314.394	92.19
314.624	75.19
314.853	94.19
315.083	79.19
315.312	88.19
315.542	89.19
315.771	93.19
316.001	97.19
316.23	97.19
316.46	93.19
316.689	93.19
316.919	95.19
317.148	91.19
317.377	88.19
317.607	93.19
317.836	85.19
318.065	102.19
318.295	97.19
318.524	97.19
318.753	75.19
318.983	86.19
319.212	81.19
319.441	90.19
319.67	86.19
319.9	80.19
320.129	96.19
320.358	91.19
320.587	81.19
320.816	89.19
321.046	91.19
321.275	93.19
321.504	76.19
321.733	98.19
321.962	82.19
322.191	81.19
322.42	81.19
322.649	93.19
322.878	104.19
323.108	89.19
323.337	94.19
323.566	99.19
323.795	66.19
324.024	96.19
324.253	87.19
324.482	88.19
324.71	83.19
324.939	100.19
325.168	94.19
325.397	89.19
325.626	60.19
325.855	71.19
326.084	82.19
326.313	77.19
326.542	97.19
326.77	89.19
326.999	89.19
327.228	80.19
327.457	89.19
327.686	88.19
327.914	104.19
328.143	95.19
328.372	86.19
328.6	85.19
328.829	88.19
329.058	86.19
329.287	86.19
329.515	75.19
329.744	90.19
329.972	90.19
330.201	85.19
330.43	91.19
330.658	85.19
330.887	97.19
331.115	90.19
331.344	87.19
331.572	91.19
331.801	81.19
332.03	86.19
332.258	103.19
332.486	97.19
332.715	110.19
332.943	90.19
333.172	87.19
333.4	79.19
333.629	86.19
333.857	85.19
334.085	95.19
334.314	82.19
334.542	74.19
334.771	82.19
334.999	87.19
335.227	87.19
335.455	68.19
335.684	83.19
335.912	106.19
336.14	105.19
336.369	87.19
336.597	97.19
336.825	89.19
337.053	91.19
337.281	87.19
337.51	96.19
337.738	87.19
337.966	74.19
338.194	96.19
338.422	78.19
338.65	91.19
338.878	92.19
339.106	83.19
339.334	91.19
339.562	81.19
339.79	98.19
340.018	90.19
340.246	86.19
340.474	88.19
340.702	84.19
340.93	87.19
341.158	94.19
341.386	91.19
341.614	89.19
341.842	71.19
342.07	83.19
342.298	73.19
342.526	81.19
342.754	79.19
342.981	103.19
343.209	93.19
343.437	106.19
343.665	85.19
343.893	88.19
344.12	95.19
344.348	85.19
344.576	89.19
344.804	81.19
345.031	82.19
345.259	96.19
345.487	74.19
345.714	83.19
345.942	89.19
346.17	86.19
346.397	89.19
346.625	86.19
346.853	84.19
347.08	95.19
347.308	85.19
347.535	93.19
347.763	90.19
347.99	79.19
348.218	82.19
348.445	77.19
348.673	70.19
348.9	78.19
349.128	91.19
349.355	85.19
349.583	81.19
349.81	93.19
350.037	73.19
350.265	81.19
350.492	88.19
350.72	76.19
350.947	89.19
351.174	81.19
351.402	93.19
351.629	79.19
351.856	95.19
352.083	98.19
352.311	97.19
352.538	90.19
352.765	84.19
352.992	87.19
353.22	99.19
353.447	86.19
353.674	84.19
353.901	96.19
354.128	94.19
354.355	89.19
354.583	77.19
354.81	93.19
355.037	79.19
355.264	97.19
355.491	90.19
355.718	76.19
355.945	89.19
356.172	99.19
356.399	90.19
356.626	91.19
356.853	75.19
357.08	82.19
357.307	88.19
357.534	77.19
357.761	94.19
357.988	92.19
358.215	93.19
358.441	90.19
358.668	98.19
358.895	88.19
359.122	86.19
359.349	78.19
359.576	90.19
359.802	93.19
360.029	69.19
360.256	83.19
360.483	88.19
360.709	93.19
360.936	81.19
361.163	86.19
361.39	74.19
361.616	95.19
361.843	78.19
362.07	97.19
362.296	89.19
362.523	105.19
362.749	101.19
362.976	99.19
363.203	106.19
363.429	102.19
363.656	97.19
363.882	93.19
364.109	107.19
364.335	98.19
364.562	114.19
364.788	99.19
365.015	90.19
365.241	83.19
365.468	91.19
365.694	88.19
365.92	102.19
366.147	100.19
366.373	86.19
366.599	94.19
366.826	86.19
367.052	89.19
367.278	88.19
367.505	77.19
367.731	101.19
367.957	88.19
368.184	83.19
368.41	86.19
368.636	85.19
368.862	97.19
369.089	81.19
369.315	87.19
369.541	73.19
369.767	81.19
369.993	86.19
370.219	93.19
370.445	91.19
370.672	93.19
370.898	73.19
371.124	87.19
371.35	82.19
371.576	87.19
371.802	72.19
372.028	94.19
372.254	87.19
372.48	76.19
372.706	88.19
372.932	82.19
373.158	96.19
373.384	90.19
373.61	107.19
373.835	98.19
374.061	89.19
374.287	92.19
374.513	98.19
374.739	100.19
374.965	84.19
375.191	84.19
375.416	83.19
375.642	90.19
375.868	100.19
376.094	101.19
376.319	90.19
376.545	89.19
376.771	97.19
376.997	89.19
377.222	79.19
377.448	84.19
377.674	84.19
377.899	95.19
378.125	79.19
378.35	88.19
378.576	91.19
378.802	83.19
379.027	86.19
379.253	72.19
379.478	89.19
379.704	93.19
379.929	83.19
380.155	87.19
380.38	85.19
380.606	89.19
380.831	81.19
381.057	75.19
381.282	82.19
381.507	95.19
381.733	87.19
381.958	90.19
382.184	84.19
382.409	80.19
382.634	85.19
382.86	89.19
383.085	99.19
383.31	80.19
383.535	85.19
383.761	99.19
383.986	88.19
384.211	80.19
384.436	82.19
384.662	91.19
384.887	82.19
385.112	83.19
385.337	79.19
385.562	83.19
385.787	82.19
386.013	90.19
386.238	103.19
386.463	88.19
386.688	97.19
386.913	78.19
387.138	92.19
387.363	88.19
387.588	86.19
387.813	74.19
388.038	83.19
388.263	81.19
388.488	98.19
388.713	79.19
388.938	72.19
389.163	77.19
389.387	79.19
389.612	95.19
389.837	59.19
390.062	84.19
390.287	97.19
390.512	86.19
390.736	90.19
390.961	98.19
391.186	86.19
391.411	81.19
391.636	80.19
391.86	95.19
392.085	80.19
392.31	86.19
392.534	101.19
392.759	101.19
392.984	142.19
393.208	194.19
393.433	251.19
393.658	198.19
393.882	109.19
394.107	114.19
394.331	105.19
394.556	95.19
394.78	113.19
395.005	94.19
395.229	94.19
395.454	90.19
395.678	94.19
395.903	89.19
396.127	102.19
396.352	119.19
396.576	135.19
396.801	179.19
397.025	227.19
397.249	131.19
397.474	102.19
397.698	93.19
397.922	88.19
398.147	84.19
398.371	83.19
398.595	78.19
398.82	86.19
399.044	97.19
399.268	96.19
399.492	81.19
399.717	79.19
399.941	77.19
400.165	88.19
400.389	86.19
400.613	89.19
400.837	79.19
401.062	81.19
401.286	78.19
401.51	86.19
401.734	74.19
401.958	91.19
402.182	101.19
402.406	90.19
402.63	94.19
402.854	86.19
403.078	87.19
403.302	89.19
403.526	90.19
403.75	89.19
403.974	82.19
404.198	89.19
404.422	73.19
404.645	80.19
404.869	83.19
405.093	83.19
405.317	76.19
405.541	94.19
405.765	86.19
405.988	89.19
406.212	89.19
406.436	98.19
406.66	80.19
406.883	86.19
407.107	104.19
407.331	93.19
407.555	105.19
407.778	104.19
408.002	86.19
408.226	87.19
408.449	80.19
408.673	94.19
408.896	91.19
409.12	97.19
409.344	92.19
409.567	89.19
409.791	90.19
410.014	81.19
410.238	84.19
410.461	85.19
410.685	92.19
410.908	87.19
411.132	89.19
411.355	82.19
411.578	85.19
411.802	76.19
412.025	85.19
412.249	79.19
412.472	70.19
412.695	87.19
412.919	95.19
413.142	82.19
413.365	77.19
413.589	78.19
413.812	97.19
414.035	79.19
414.258	87.19
414.482	79.19
414.705	97.19
414.928	75.19
415.151	89.19
415.374	76.19
415.597	88.19
415.821	92.19
416.044	90.19
416.267	73.19
416.49	89.19
416.713	88.19
416.936	81.19
417.159	78.19
417.382	81.19
417.605	81.19
417.828	85.19
418.051	82.19
418.274	76.19
418.497	90.19
418.72	83.19
418.943	90.19
419.166	75.19
419.389	76.19
419.611	91.19
419.834	85.19
420.057	91.19
420.28	91.19
420.503	81.19
420.726	82.19
420.948	88.19
421.171	87.19
421.394	93.19
421.617	110.19
421.839	127.19
422.062	113.19
422.285	139.19
422.507	190.19
422.73	247.19
422.953	241.19
423.175	145.19
423.398	114.19
423.621	101.19
423.843	91.19
424.066	82.19
424.288	93.19
424.511	86.19
424.733	90.19
424.956	77.19
425.178	90.19
425.401	86.19
425.623	84.19
425.846	86.19
426.068	83.19
426.291	78.19
426.513	99.19
426.735	98.19
426.958	83.19
427.18	86.19
427.402	82.19
427.625	83.19
427.847	68.19
428.069	89.19
428.292	114.19
428.514	117.19
428.736	96.19
428.958	105.19
429.181	103.19
429.403	103.19
429.625	94.19
429.847	112.19
430.069	119.19
430.292	140.19
430.514	134.19
430.736	107.19
430.958	98.19
431.18	113.19
431.402	95.19
431.624	95.19
431.846	100.19
432.068	102.19
432.29	94.19
432.512	91.19
432.734	89.19
432.956	89.19
433.178	77.19
433.4	79.19
433.622	90.19
433.844	93.19
434.066	88.19
434.287	93.19
434.509	86.19
434.731	101.19
434.953	68.19
435.175	91.19
435.397	91.19
435.618	79.19
435.84	78.19
436.062	84.19
436.284	86.19
436.505	79.19
436.727	80.19
436.949	85.19
437.17	96.19
437.392	91.19
437.614	78.19
437.835	83.19
438.057	87.19
438.278	71.19
438.5	75.19
438.721	82.19
438.943	92.19
439.165	89.19
439.386	78.19
439.608	95.19
439.829	72.19
440.05	90.19
440.272	78.19
440.493	82.19
440.715	62.19
440.936	86.19
441.158	89.19
441.379	76.19
441.6	93.19
441.822	96.19
442.043	96.19
442.264	75.19
442.486	98.19
442.707	127.19
442.928	108.19
443.149	83.19
443.371	121.19
443.592	170.19
443.813	157.19
444.034	98.19
444.255	82.19
444.476	98.19
444.698	86.19
444.919	96.19
445.14	157.19
445.361	165.19
445.582	193.19
445.803	167.19
446.024	119.19
446.245	81.19
446.466	84.19
446.687	75.19
446.908	83.19
447.129	81.19
447.35	94.19
447.571	74.19
447.792	76.19
448.013	87.19
448.234	84.19
448.455	82.19
448.675	85.19
448.896	85.19
449.117	80.19
449.338	95.19
449.559	81.19
449.779	87.19
450	72.19
450.221	74.19
450.442	80.19
450.662	85.19
450.883	71.19
451.104	80.19
451.324	69.19
451.545	81.19
451.766	85.19
451.986	82.19
452.207	74.19
452.428	83.19
452.648	95.19
452.869	101.19
453.089	86.19
453.31	81.19
453.53	83.19
453.751	86.19
453.971	95.19
454.192	75.19
454.412	72.19
454.633	76.19
454.853	79.19
455.073	79.19
455.294	72.19
455.514	78.19
455.734	93.19
455.955	66.19
456.175	79.19
456.395	94.19
456.616	86.19
456.836	83.19
457.056	73.19
457.276	87.19
457.497	89.19
457.717	91.19
457.937	112.19
458.157	110.19
458.377	113.19
458.598	93.19
458.818	108.19
459.038	81.19
459.258	92.19
459.478	88.19
459.698	89.19
459.918	76.19
460.138	87.19
460.358	94.19
460.578	82.19
460.798	97.19
461.018	98.19
461.238	79.19
461.458	89.19
461.678	82.19
461.898	83.19
462.118	95.19
462.338	74.19
462.558	86.19
462.777	82.19
462.997	98.19
463.217	97.19
463.437	85.19
463.657	75.19
463.876	71.19
464.096	74.19
464.316	84.19
464.536	92.19
464.755	91.19
464.975	74.19
465.195	81.19
465.414	90.19
465.634	78.19
465.854	86.19
466.073	100.19
466.293	80.19
466.512	92.19
466.732	83.19
466.951	82.19
467.171	80.19
467.391	88.19
467.61	94.19
467.829	95.19
468.049	93.19
468.268	90.19
468.488	83.19
468.707	87.19
468.927	70.19
469.146	86.19
469.365	90.19
469.585	81.19
469.804	84.19
470.023	85.19
470.243	65.19
470.462	93.19
470.681	83.19
470.901	81.19
471.12	86.19
471.339	83.19
471.558	87.19
471.777	75.19
471.997	92.19
472.216	84.19
472.435	72.19
472.654	70.19
472.873	95.19
473.092	71.19
473.311	93.19
473.53	82.19
473.749	85.19
473.968	76.19
474.187	95.19
474.406	79.19
474.625	86.19
474.844	86.19
475.063	93.19
475.282	75.19
475.501	85.19
475.72	93.19
475.939	79.19
476.158	82.19
476.377	89.19
476.596	75.19
476.814	84.19
477.033	77.19
477.252	71.19
477.471	99.19
477.69	79.19
477.908	85.19
478.127	79.19
478.346	75.19
478.564	95.19
478.783	80.19
479.002	85.19
479.22	85.19
479.439	89.19
479.658	90.19
479.876	78.19
480.095	72.19
480.313	81.19
480.532	72.19
480.751	81.19
480.969	78.19
481.188	79.19
481.406	87.19
481.624	76.19
481.843	93.19
482.061	88.19
482.28	83.19
482.498	90.19
482.717	88.19
482.935	72.19
483.153	79.19
483.372	93.19
483.59	72.19
483.808	94.19
484.027	89.19
484.245	85.19
484.463	66.19
484.681	84.19
484.9	89.19
485.118	84.19
485.336	106.19
485.554	93.19
485.772	72.19
485.99	83.19
486.209	67.19
486.427	76.19
486.645	91.19
486.863	91.19
487.081	86.19
487.299	86.19
487.517	85.19
487.735	104.19
487.953	140.19
488.171	126.19
488.389	86.19
488.607	77.19
488.825	90.19
489.043	83.19
489.261	85.19
489.479	81.19
489.696	79.19
489.914	90.19
490.132	83.19
490.35	72.19
490.568	81.19
490.786	87.19
491.003	80.19
491.221	96.19
491.439	100.19
491.657	85.19
491.874	92.19
492.092	84.19
492.31	99.19
492.527	74.19
492.745	90.19
492.963	94.19
493.18	74.19
493.398	98.19
493.615	109.19
493.833	82.19
494.05	91.19
494.268	97.19
494.485	95.19
494.703	91.19
494.92	79.19
495.138	82.19
495.355	87.19
495.573	102.19
495.79	89.19
496.008	91.19
496.225	78.19
496.442	80.19
496.66	82.19
496.877	89.19
497.094	95.19
497.312	93.19
497.529	79.19
497.746	82.19
497.963	97.19
498.181	94.19
498.398	77.19
498.615	90.19
498.832	77.19
499.049	69.19
499.267	88.19
499.484	97.19
499.701	89.19
499.918	90.19
500.135	91.19
500.352	94.19
500.569	88.19
500.786	88.19
501.003	86.19
501.22	86.19
501.437	82.19
501.654	82.19
501.871	90.19
502.088	88.19
502.305	96.19
502.522	72.19
502.739	97.19
502.956	93.19
503.172	98.19
503.389	86.19
503.606	97.19
503.823	82.19
504.04	91.19
504.256	115.19
504.473	122.19
504.69	91.19
504.907	80.19
505.123	83.19
505.34	91.19
505.557	77.19
505.773	97.19
505.99	91.19
506.207	70.19
506.423	68.19
506.64	76.19
506.856	78.19
507.073	74.19
507.289	94.19
507.506	85.19
507.722	79.19
507.939	77.19
508.155	108.19
508.372	83.19
508.588	95.19
508.805	87.19
509.021	85.19
509.238	83.19
509.454	87.19
509.67	86.19
509.887	80.19
510.103	61.19
510.319	89.19
510.536	80.19
510.752	85.19
510.968	98.19
511.184	82.19
511.401	94.19
511.617	81.19
511.833	82.19
512.049	80.19
512.265	81.19
512.481	84.19
512.698	101.19
512.914	89.19
513.13	96.19
513.346	81.19
513.562	79.19
513.778	81.19
513.994	80.19
514.21	75.19
514.426	93.19
514.642	90.19
514.858	83.19
515.074	75.19
515.29	86.19
515.506	90.19
515.721	97.19
515.937	93.19
516.153	83.19
516.369	99.19
516.585	80.19
516.801	83.19
517.016	101.19
517.232	83.19
517.448	87.19
517.664	96.19
517.879	90.19
518.095	95.19
518.311	99.19
518.527	87.19
518.742	102.19
