Data from 18505_1_HRD10591_00019.txt Node
Date: Mon Jan 19 13:58:40 EST 2026
User: Yrep
Spectrometer: HR+D1059
Trigger mode: 1
Integration Time (sec): 1.000000E-1
Scans to average: 1
Electric dark correction enabled: true
Nonlinearity correction enabled: false
Boxcar width: 0
XAxis mode: Wavelengths
Number of Pixels in Spectrum: 2048
>>>>>Begin Spectral Data<<<<<
223.165	-13.88
223.4	-13.88
223.635	-13.88
223.869	-28.88
224.104	-14.88
224.338	-18.88
224.573	-22.88
224.808	-9.88
225.042	-2.88
225.277	-0.88
225.511	1.12
225.746	6.12
225.98	20.12
226.215	9.12
226.449	10.12
226.683	14.12
226.918	24.12
227.152	28.12
227.387	29.12
227.621	35.12
227.856	50.12
228.09	55.12
228.324	50.12
228.559	56.12
228.793	68.12
229.027	58.12
229.262	61.12
229.496	65.12
229.73	78.12
229.964	69.12
230.199	73.12
230.433	58.12
230.667	72.12
230.901	70.12
231.136	83.12
231.37	88.12
231.604	84.12
231.838	80.12
232.072	75.12
232.306	79.12
232.541	81.12
232.775	88.12
233.009	83.12
233.243	86.12
233.477	89.12
233.711	81.12
233.945	80.12
234.179	74.12
234.413	87.12
234.647	92.12
234.881	84.12
235.115	68.12
235.349	76.12
235.583	78.12
235.817	78.12
236.051	72.12
236.285	75.12
236.519	62.12
236.753	79.12
236.987	66.12
237.221	80.12
237.455	82.12
237.689	64.12
237.922	77.12
238.156	83.12
238.39	71.12
238.624	77.12
238.858	73.12
239.091	78.12
239.325	79.12
239.559	75.12
239.793	57.12
240.027	78.12
240.26	61.12
240.494	78.12
240.728	65.12
240.961	62.12
241.195	67.12
241.429	60.12
241.662	71.12
241.896	73.12
242.13	69.12
242.363	86.12
242.597	69.12
242.83	72.12
243.064	70.12
243.298	74.12
243.531	89.12
243.765	81.12
243.998	64.12
244.232	74.12
244.465	79.12
244.699	75.12
244.932	71.12
245.166	67.12
245.399	74.12
245.633	80.12
245.866	72.12
246.099	81.12
246.333	77.12
246.566	81.12
246.8	79.12
247.033	73.12
247.266	77.12
247.5	65.12
247.733	80.12
247.966	78.12
248.2	79.12
248.433	85.12
248.666	80.12
248.899	99.12
249.133	87.12
249.366	77.12
249.599	65.12
249.832	74.12
250.066	63.12
250.299	89.12
250.532	79.12
250.765	82.12
250.998	75.12
251.231	70.12
251.465	87.12
251.698	80.12
251.931	73.12
252.164	68.12
252.397	58.12
252.63	83.12
252.863	87.12
253.096	78.12
253.329	87.12
253.562	74.12
253.795	76.12
254.028	81.12
254.261	73.12
254.494	72.12
254.727	84.12
254.96	69.12
255.193	79.12
255.426	64.12
255.659	85.12
255.892	74.12
256.124	85.12
256.357	91.12
256.59	59.12
256.823	86.12
257.056	79.12
257.289	89.12
257.521	94.12
257.754	82.12
257.987	81.12
258.22	92.12
258.452	90.12
258.685	63.12
258.918	79.12
259.151	66.12
259.383	70.12
259.616	82.12
259.849	92.12
260.081	79.12
260.314	89.12
260.547	94.12
260.779	62.12
261.012	96.12
261.244	83.12
261.477	74.12
261.71	97.12
261.942	86.12
262.175	77.12
262.407	85.12
262.64	86.12
262.872	83.12
263.105	76.12
263.337	80.12
263.57	82.12
263.802	79.12
264.035	85.12
264.267	73.12
264.499	79.12
264.732	86.12
264.964	89.12
265.197	87.12
265.429	90.12
265.661	82.12
265.894	83.12
266.126	70.12
266.358	73.12
266.591	98.12
266.823	85.12
267.055	79.12
267.287	85.12
267.52	83.12
267.752	85.12
267.984	92.12
268.216	74.12
268.448	81.12
268.681	84.12
268.913	65.12
269.145	69.12
269.377	86.12
269.609	89.12
269.841	86.12
270.073	76.12
270.306	77.12
270.538	78.12
270.77	71.12
271.002	78.12
271.234	87.12
271.466	88.12
271.698	91.12
271.93	78.12
272.162	63.12
272.394	87.12
272.626	74.12
272.858	85.12
273.09	93.12
273.322	75.12
273.553	76.12
273.785	65.12
274.017	83.12
274.249	73.12
274.481	89.12
274.713	79.12
274.945	85.12
275.176	77.12
275.408	70.12
275.64	80.12
275.872	79.12
276.104	78.12
276.335	77.12
276.567	74.12
276.799	79.12
277.031	85.12
277.262	77.12
277.494	97.12
277.726	82.12
277.957	90.12
278.189	89.12
278.421	85.12
278.652	78.12
278.884	92.12
279.115	77.12
279.347	70.12
279.579	83.12
279.81	89.12
280.042	81.12
280.273	88.12
280.505	81.12
280.736	75.12
280.968	79.12
281.199	80.12
281.431	92.12
281.662	89.12
281.894	83.12
282.125	85.12
282.356	75.12
282.588	76.12
282.819	72.12
283.051	79.12
283.282	81.12
283.513	73.12
283.745	73.12
283.976	89.12
284.207	84.12
284.439	77.12
284.67	79.12
284.901	70.12
285.132	75.12
285.364	79.12
285.595	98.12
285.826	81.12
286.057	85.12
286.288	86.12
286.52	93.12
286.751	98.12
286.982	97.12
287.213	72.12
287.444	90.12
287.675	82.12
287.906	79.12
288.138	73.12
288.369	90.12
288.6	77.12
288.831	81.12
289.062	90.12
289.293	94.12
289.524	87.12
289.755	91.12
289.986	80.12
290.217	77.12
290.448	83.12
290.679	81.12
290.91	85.12
291.141	78.12
291.371	82.12
291.602	73.12
291.833	87.12
292.064	82.12
292.295	77.12
292.526	88.12
292.757	74.12
292.987	78.12
293.218	95.12
293.449	87.12
293.68	86.12
293.91	69.12
294.141	92.12
294.372	89.12
294.603	89.12
294.833	82.12
295.064	83.12
295.295	83.12
295.525	75.12
295.756	88.12
295.987	78.12
296.217	91.12
296.448	80.12
296.679	73.12
296.909	85.12
297.14	81.12
297.37	84.12
297.601	90.12
297.831	65.12
298.062	70.12
298.292	89.12
298.523	81.12
298.753	83.12
298.984	83.12
299.214	87.12
299.445	79.12
299.675	102.12
299.905	82.12
300.136	70.12
300.366	78.12
300.597	92.12
300.827	85.12
301.057	102.12
301.288	83.12
301.518	93.12
301.748	77.12
301.979	103.12
302.209	109.12
302.439	77.12
302.669	86.12
302.9	85.12
303.13	88.12
303.36	87.12
303.59	76.12
303.82	83.12
304.051	83.12
304.281	85.12
304.511	88.12
304.741	81.12
304.971	87.12
305.201	87.12
305.431	86.12
305.661	83.12
305.891	88.12
306.121	77.12
306.352	85.12
306.582	83.12
306.812	78.12
307.042	87.12
307.272	90.12
307.502	86.12
307.731	84.12
307.961	88.12
308.191	90.12
308.421	76.12
308.651	79.12
308.881	87.12
309.111	81.12
309.341	95.12
309.571	98.12
309.8	77.12
310.03	73.12
310.26	90.12
310.49	72.12
310.72	82.12
310.949	76.12
311.179	97.12
311.409	87.12
311.639	83.12
311.868	86.12
312.098	82.12
312.328	91.12
312.557	84.12
312.787	76.12
313.017	75.12
313.246	88.12
313.476	83.12
313.706	97.12
313.935	83.12
314.165	86.12
314.394	88.12
314.624	94.12
314.853	93.12
315.083	84.12
315.312	73.12
315.542	94.12
315.771	89.12
316.001	84.12
316.23	84.12
316.46	79.12
316.689	92.12
316.919	87.12
317.148	79.12
317.377	83.12
317.607	86.12
317.836	96.12
318.065	87.12
318.295	94.12
318.524	99.12
318.753	85.12
318.983	83.12
319.212	76.12
319.441	87.12
319.67	76.12
319.9	73.12
320.129	73.12
320.358	95.12
320.587	96.12
320.816	77.12
321.046	76.12
321.275	80.12
321.504	76.12
321.733	78.12
321.962	81.12
322.191	76.12
322.42	90.12
322.649	87.12
322.878	85.12
323.108	79.12
323.337	80.12
323.566	100.12
323.795	86.12
324.024	88.12
324.253	94.12
324.482	89.12
324.71	87.12
324.939	103.12
325.168	82.12
325.397	91.12
325.626	87.12
325.855	81.12
326.084	88.12
326.313	84.12
326.542	85.12
326.77	76.12
326.999	83.12
327.228	87.12
327.457	97.12
327.686	85.12
327.914	86.12
328.143	83.12
328.372	85.12
328.6	91.12
328.829	89.12
329.058	80.12
329.287	71.12
329.515	75.12
329.744	83.12
329.972	90.12
330.201	80.12
330.43	81.12
330.658	80.12
330.887	84.12
331.115	78.12
331.344	90.12
331.572	85.12
331.801	80.12
332.03	81.12
332.258	91.12
332.486	76.12
332.715	81.12
332.943	86.12
333.172	77.12
333.4	82.12
333.629	73.12
333.857	74.12
334.085	72.12
334.314	83.12
334.542	74.12
334.771	86.12
334.999	92.12
335.227	77.12
335.455	86.12
335.684	93.12
335.912	85.12
336.14	95.12
336.369	96.12
336.597	83.12
336.825	88.12
337.053	75.12
337.281	85.12
337.51	85.12
337.738	83.12
337.966	87.12
338.194	77.12
338.422	93.12
338.65	90.12
338.878	81.12
339.106	81.12
339.334	82.12
339.562	93.12
339.79	83.12
340.018	102.12
340.246	82.12
340.474	82.12
340.702	97.12
340.93	95.12
341.158	82.12
341.386	85.12
341.614	82.12
341.842	86.12
342.07	90.12
342.298	86.12
342.526	74.12
342.754	83.12
342.981	87.12
343.209	79.12
343.437	96.12
343.665	79.12
343.893	103.12
344.12	82.12
344.348	84.12
344.576	74.12
344.804	83.12
345.031	82.12
345.259	85.12
345.487	87.12
345.714	83.12
345.942	70.12
346.17	77.12
346.397	73.12
346.625	82.12
346.853	75.12
347.08	90.12
347.308	78.12
347.535	83.12
347.763	83.12
347.99	80.12
348.218	81.12
348.445	84.12
348.673	73.12
348.9	86.12
349.128	87.12
349.355	80.12
349.583	85.12
349.81	81.12
350.037	89.12
350.265	93.12
350.492	85.12
350.72	78.12
350.947	85.12
351.174	89.12
351.402	80.12
351.629	90.12
351.856	82.12
352.083	82.12
352.311	88.12
352.538	84.12
352.765	91.12
352.992	93.12
353.22	87.12
353.447	90.12
353.674	81.12
353.901	95.12
354.128	101.12
354.355	94.12
354.583	80.12
354.81	79.12
355.037	74.12
355.264	62.12
355.491	95.12
355.718	92.12
355.945	82.12
356.172	90.12
356.399	75.12
356.626	76.12
356.853	75.12
357.08	81.12
357.307	81.12
357.534	75.12
357.761	105.12
357.988	90.12
358.215	88.12
358.441	80.12
358.668	77.12
358.895	88.12
359.122	83.12
359.349	69.12
359.576	89.12
359.802	80.12
360.029	101.12
360.256	85.12
360.483	96.12
360.709	92.12
360.936	103.12
361.163	84.12
361.39	76.12
361.616	81.12
361.843	91.12
362.07	77.12
362.296	97.12
362.523	98.12
362.749	78.12
362.976	86.12
363.203	100.12
363.429	78.12
363.656	89.12
363.882	90.12
364.109	95.12
364.335	107.12
364.562	103.12
364.788	83.12
365.015	66.12
365.241	78.12
365.468	82.12
365.694	88.12
365.92	95.12
366.147	95.12
366.373	81.12
366.599	85.12
366.826	90.12
367.052	81.12
367.278	96.12
367.505	73.12
367.731	80.12
367.957	97.12
368.184	85.12
368.41	93.12
368.636	99.12
368.862	72.12
369.089	78.12
369.315	81.12
369.541	68.12
369.767	95.12
369.993	73.12
370.219	85.12
370.445	101.12
370.672	87.12
370.898	86.12
371.124	87.12
371.35	73.12
371.576	98.12
371.802	95.12
372.028	80.12
372.254	69.12
372.48	67.12
372.706	76.12
372.932	82.12
373.158	85.12
373.384	81.12
373.61	85.12
373.835	85.12
374.061	91.12
374.287	77.12
374.513	78.12
374.739	94.12
374.965	86.12
375.191	92.12
375.416	78.12
375.642	84.12
375.868	88.12
376.094	89.12
376.319	78.12
376.545	89.12
376.771	79.12
376.997	75.12
377.222	91.12
377.448	87.12
377.674	83.12
377.899	103.12
378.125	81.12
378.35	82.12
378.576	91.12
378.802	83.12
379.027	74.12
379.253	84.12
379.478	95.12
379.704	76.12
379.929	82.12
380.155	86.12
380.38	90.12
380.606	73.12
380.831	81.12
381.057	92.12
381.282	89.12
381.507	83.12
381.733	71.12
381.958	84.12
382.184	89.12
382.409	85.12
382.634	86.12
382.86	94.12
383.085	88.12
383.31	88.12
383.535	86.12
383.761	97.12
383.986	88.12
384.211	88.12
384.436	89.12
384.662	83.12
384.887	70.12
385.112	74.12
385.337	83.12
385.562	87.12
385.787	79.12
386.013	84.12
386.238	79.12
386.463	67.12
386.688	94.12
386.913	76.12
387.138	84.12
387.363	90.12
387.588	87.12
387.813	93.12
388.038	102.12
388.263	93.12
388.488	86.12
388.713	99.12
388.938	86.12
389.163	86.12
389.387	84.12
389.612	71.12
389.837	95.12
390.062	86.12
390.287	98.12
390.512	73.12
390.736	81.12
390.961	85.12
391.186	92.12
391.411	85.12
391.636	92.12
391.86	82.12
392.085	85.12
392.31	89.12
392.534	86.12
392.759	109.12
392.984	115.12
393.208	157.12
393.433	203.12
393.658	151.12
393.882	90.12
394.107	97.12
394.331	95.12
394.556	93.12
394.78	85.12
395.005	85.12
395.229	81.12
395.454	90.12
395.678	95.12
395.903	92.12
396.127	96.12
396.352	90.12
396.576	123.12
396.801	150.12
397.025	166.12
397.249	101.12
397.474	103.12
397.698	80.12
397.922	84.12
398.147	76.12
398.371	88.12
398.595	83.12
398.82	87.12
399.044	76.12
399.268	90.12
399.492	91.12
399.717	65.12
399.941	84.12
400.165	76.12
400.389	87.12
400.613	94.12
400.837	101.12
401.062	83.12
401.286	63.12
401.51	80.12
401.734	79.12
401.958	82.12
402.182	87.12
402.406	95.12
402.63	96.12
402.854	81.12
403.078	78.12
403.302	93.12
403.526	84.12
403.75	84.12
403.974	88.12
404.198	98.12
404.422	117.12
404.645	127.12
404.869	103.12
405.093	94.12
405.317	85.12
405.541	79.12
405.765	93.12
405.988	82.12
406.212	77.12
406.436	67.12
406.66	83.12
406.883	81.12
407.107	91.12
407.331	73.12
407.555	94.12
407.778	85.12
408.002	85.12
408.226	96.12
408.449	90.12
408.673	86.12
408.896	97.12
409.12	71.12
409.344	67.12
409.567	83.12
409.791	99.12
410.014	82.12
410.238	88.12
410.461	87.12
410.685	103.12
410.908	85.12
411.132	88.12
411.355	91.12
411.578	82.12
411.802	86.12
412.025	71.12
412.249	81.12
412.472	79.12
412.695	71.12
412.919	77.12
413.142	79.12
413.365	73.12
413.589	79.12
413.812	79.12
414.035	91.12
414.258	86.12
414.482	69.12
414.705	79.12
414.928	84.12
415.151	82.12
415.374	89.12
415.597	65.12
415.821	74.12
416.044	78.12
416.267	81.12
416.49	85.12
416.713	91.12
416.936	76.12
417.159	81.12
417.382	83.12
417.605	79.12
417.828	79.12
418.051	83.12
418.274	88.12
418.497	80.12
418.72	86.12
418.943	91.12
419.166	86.12
419.389	87.12
419.611	85.12
419.834	81.12
420.057	79.12
420.28	82.12
420.503	75.12
420.726	87.12
420.948	91.12
421.171	81.12
421.394	86.12
421.617	101.12
421.839	108.12
422.062	91.12
422.285	94.12
422.507	153.12
422.73	210.12
422.953	219.12
423.175	126.12
423.398	92.12
423.621	89.12
423.843	69.12
424.066	84.12
424.288	81.12
424.511	81.12
424.733	86.12
424.956	89.12
425.178	78.12
425.401	85.12
425.623	90.12
425.846	81.12
426.068	92.12
426.291	84.12
426.513	81.12
426.735	91.12
426.958	85.12
427.18	88.12
427.402	100.12
427.625	89.12
427.847	90.12
428.069	87.12
428.292	110.12
428.514	103.12
428.736	85.12
428.958	86.12
429.181	96.12
429.403	98.12
429.625	102.12
429.847	97.12
430.069	117.12
430.292	121.12
430.514	133.12
430.736	107.12
430.958	107.12
431.18	72.12
431.402	103.12
431.624	82.12
431.846	101.12
432.068	101.12
432.29	93.12
432.512	93.12
432.734	88.12
432.956	88.12
433.178	85.12
433.4	87.12
433.622	87.12
433.844	65.12
434.066	77.12
434.287	87.12
434.509	82.12
434.731	80.12
434.953	76.12
435.175	71.12
435.397	83.12
435.618	78.12
435.84	83.12
436.062	75.12
436.284	82.12
436.505	73.12
436.727	87.12
436.949	86.12
437.17	67.12
437.392	82.12
437.614	90.12
437.835	90.12
438.057	86.12
438.278	85.12
438.5	57.12
438.721	84.12
438.943	86.12
439.165	69.12
439.386	87.12
439.608	88.12
439.829	81.12
440.05	81.12
440.272	89.12
440.493	80.12
440.715	88.12
440.936	86.12
441.158	85.12
441.379	83.12
441.6	73.12
441.822	83.12
442.043	101.12
442.264	81.12
442.486	98.12
442.707	93.12
442.928	94.12
443.149	89.12
443.371	105.12
443.592	148.12
443.813	133.12
444.034	75.12
444.255	82.12
444.476	73.12
444.698	85.12
444.919	88.12
445.14	159.12
445.361	124.12
445.582	152.12
445.803	156.12
446.024	81.12
446.245	97.12
446.466	94.12
446.687	89.12
446.908	74.12
447.129	78.12
447.35	74.12
447.571	95.12
447.792	84.12
448.013	81.12
448.234	90.12
448.455	85.12
448.675	88.12
448.896	71.12
449.117	83.12
449.338	80.12
449.559	93.12
449.779	87.12
450	91.12
450.221	71.12
450.442	82.12
450.662	91.12
450.883	85.12
451.104	78.12
451.324	74.12
451.545	75.12
451.766	89.12
451.986	88.12
452.207	78.12
452.428	84.12
452.648	79.12
452.869	85.12
453.089	85.12
453.31	89.12
453.53	77.12
453.751	81.12
453.971	78.12
454.192	79.12
454.412	85.12
454.633	83.12
454.853	82.12
455.073	72.12
455.294	78.12
455.514	80.12
455.734	80.12
455.955	73.12
456.175	100.12
456.395	67.12
456.616	98.12
456.836	88.12
457.056	95.12
457.276	76.12
457.497	86.12
457.717	84.12
457.937	85.12
458.157	93.12
458.377	85.12
458.598	76.12
458.818	97.12
459.038	81.12
459.258	92.12
459.478	87.12
459.698	74.12
459.918	76.12
460.138	77.12
460.358	79.12
460.578	89.12
460.798	95.12
461.018	94.12
461.238	84.12
461.458	92.12
461.678	89.12
461.898	85.12
462.118	75.12
462.338	74.12
462.558	82.12
462.777	72.12
462.997	89.12
463.217	82.12
463.437	74.12
463.657	82.12
463.876	86.12
464.096	82.12
464.316	76.12
464.536	88.12
464.755	87.12
464.975	78.12
465.195	97.12
465.414	93.12
465.634	84.12
465.854	59.12
466.073	78.12
466.293	81.12
466.512	92.12
466.732	78.12
466.951	74.12
467.171	90.12
467.391	78.12
467.61	83.12
467.829	91.12
468.049	80.12
468.268	71.12
468.488	74.12
468.707	82.12
468.927	86.12
469.146	74.12
469.365	68.12
469.585	79.12
469.804	81.12
470.023	87.12
470.243	81.12
470.462	75.12
470.681	84.12
470.901	73.12
471.12	68.12
471.339	73.12
471.558	82.12
471.777	83.12
471.997	93.12
472.216	94.12
472.435	67.12
472.654	89.12
472.873	74.12
473.092	81.12
473.311	87.12
473.53	87.12
473.749	75.12
473.968	87.12
474.187	81.12
474.406	81.12
474.625	101.12
474.844	89.12
475.063	87.12
475.282	80.12
475.501	89.12
475.72	100.12
475.939	80.12
476.158	84.12
476.377	81.12
476.596	87.12
476.814	92.12
477.033	78.12
477.252	94.12
477.471	84.12
477.69	89.12
477.908	92.12
478.127	78.12
478.346	88.12
478.564	71.12
478.783	84.12
479.002	93.12
479.22	93.12
479.439	72.12
479.658	94.12
479.876	89.12
480.095	89.12
480.313	72.12
480.532	72.12
480.751	77.12
480.969	73.12
481.188	81.12
481.406	93.12
481.624	78.12
481.843	83.12
482.061	76.12
482.28	79.12
482.498	86.12
482.717	78.12
482.935	81.12
483.153	78.12
483.372	86.12
483.59	89.12
483.808	104.12
484.027	86.12
484.245	68.12
484.463	70.12
484.681	81.12
484.9	84.12
485.118	89.12
485.336	73.12
485.554	83.12
485.772	89.12
485.99	77.12
486.209	88.12
486.427	91.12
486.645	81.12
486.863	91.12
487.081	82.12
487.299	85.12
487.517	79.12
487.735	79.12
487.953	115.12
488.171	107.12
488.389	96.12
488.607	79.12
488.825	73.12
489.043	95.12
489.261	81.12
489.479	85.12
489.696	87.12
489.914	76.12
490.132	94.12
490.35	78.12
490.568	74.12
490.786	77.12
491.003	87.12
491.221	82.12
491.439	86.12
491.657	81.12
491.874	94.12
492.092	75.12
492.31	91.12
492.527	72.12
492.745	75.12
492.963	85.12
493.18	75.12
493.398	65.12
493.615	83.12
493.833	81.12
494.05	89.12
494.268	84.12
494.485	70.12
494.703	76.12
494.92	88.12
495.138	86.12
495.355	90.12
495.573	88.12
495.79	93.12
496.008	95.12
496.225	92.12
496.442	86.12
496.66	94.12
496.877	87.12
497.094	84.12
497.312	81.12
497.529	88.12
497.746	91.12
497.963	85.12
498.181	95.12
498.398	87.12
498.615	96.12
498.832	67.12
499.049	87.12
499.267	97.12
499.484	87.12
499.701	85.12
499.918	84.12
500.135	78.12
500.352	80.12
500.569	94.12
500.786	85.12
501.003	73.12
501.22	82.12
501.437	93.12
501.654	93.12
501.871	90.12
502.088	80.12
502.305	97.12
502.522	86.12
502.739	74.12
502.956	71.12
503.172	79.12
503.389	94.12
503.606	88.12
503.823	85.12
504.04	89.12
504.256	94.12
504.473	103.12
504.69	94.12
504.907	84.12
505.123	89.12
505.34	82.12
505.557	84.12
505.773	81.12
505.99	91.12
506.207	78.12
506.423	84.12
506.64	71.12
506.856	69.12
507.073	69.12
507.289	80.12
507.506	76.12
507.722	83.12
507.939	79.12
508.155	84.12
508.372	96.12
508.588	79.12
508.805	86.12
509.021	73.12
509.238	91.12
509.454	86.12
509.67	85.12
509.887	83.12
510.103	78.12
510.319	73.12
510.536	89.12
510.752	78.12
510.968	91.12
511.184	94.12
511.401	81.12
511.617	94.12
511.833	77.12
512.049	90.12
512.265	85.12
512.481	74.12
512.698	87.12
512.914	73.12
513.13	80.12
513.346	88.12
513.562	88.12
513.778	85.12
513.994	89.12
514.21	95.12
514.426	91.12
514.642	75.12
514.858	83.12
515.074	84.12
515.29	87.12
515.506	91.12
515.721	89.12
515.937	81.12
516.153	83.12
516.369	81.12
516.585	82.12
516.801	83.12
517.016	83.12
517.232	95.12
517.448	81.12
517.664	89.12
517.879	69.12
518.095	80.12
518.311	82.12
518.527	82.12
518.742	102.12
518.958	115.12
519.173	109.12
519.389	93.12
