Data from 18505_1_HRD10591_00034.txt Node
Date: Mon Jan 19 13:58:48 EST 2026
User: Yrep
Spectrometer: HR+D1059
Trigger mode: 1
Integration Time (sec): 1.000000E-1
Scans to average: 1
Electric dark correction enabled: true
Nonlinearity correction enabled: false
Boxcar width: 0
XAxis mode: Wavelengths
Number of Pixels in Spectrum: 2048
>>>>>Begin Spectral Data<<<<<
223.165	-19.12
223.4	-19.12
223.635	-19.12
223.869	-20.12
224.104	-19.12
224.338	-17.12
224.573	-14.12
224.808	-6.12
225.042	-3.12
225.277	-12.12
225.511	4.88
225.746	5.88
225.98	-2.12
226.215	4.88
226.449	12.88
226.683	24.88
226.918	23.88
227.152	35.88
227.387	35.88
227.621	37.88
227.856	53.88
228.09	43.88
228.324	56.88
228.559	60.88
228.793	51.88
229.027	58.88
229.262	56.88
229.496	58.88
229.73	59.88
229.964	66.88
230.199	84.88
230.433	77.88
230.667	84.88
230.901	76.88
231.136	72.88
231.37	71.88
231.604	87.88
231.838	80.88
232.072	83.88
232.306	74.88
232.541	94.88
232.775	63.88
233.009	88.88
233.243	85.88
233.477	82.88
233.711	79.88
233.945	78.88
234.179	70.88
234.413	88.88
234.647	75.88
234.881	90.88
235.115	80.88
235.349	82.88
235.583	83.88
235.817	88.88
236.051	87.88
236.285	89.88
236.519	70.88
236.753	76.88
236.987	87.88
237.221	80.88
237.455	82.88
237.689	80.88
237.922	83.88
238.156	68.88
238.39	74.88
238.624	76.88
238.858	71.88
239.091	69.88
239.325	72.88
239.559	73.88
239.793	74.88
240.027	76.88
240.26	81.88
240.494	66.88
240.728	68.88
240.961	86.88
241.195	71.88
241.429	86.88
241.662	82.88
241.896	68.88
242.13	65.88
242.363	73.88
242.597	83.88
242.83	75.88
243.064	84.88
243.298	64.88
243.531	66.88
243.765	75.88
243.998	85.88
244.232	77.88
244.465	86.88
244.699	75.88
244.932	74.88
245.166	75.88
245.399	76.88
245.633	74.88
245.866	69.88
246.099	76.88
246.333	70.88
246.566	72.88
246.8	70.88
247.033	92.88
247.266	94.88
247.5	72.88
247.733	76.88
247.966	87.88
248.2	71.88
248.433	73.88
248.666	89.88
248.899	82.88
249.133	81.88
249.366	67.88
249.599	71.88
249.832	71.88
250.066	77.88
250.299	85.88
250.532	96.88
250.765	79.88
250.998	81.88
251.231	77.88
251.465	87.88
251.698	87.88
251.931	83.88
252.164	84.88
252.397	85.88
252.63	80.88
252.863	73.88
253.096	72.88
253.329	92.88
253.562	91.88
253.795	74.88
254.028	93.88
254.261	76.88
254.494	66.88
254.727	67.88
254.96	75.88
255.193	82.88
255.426	69.88
255.659	84.88
255.892	94.88
256.124	68.88
256.357	82.88
256.59	84.88
256.823	80.88
257.056	82.88
257.289	67.88
257.521	87.88
257.754	79.88
257.987	82.88
258.22	80.88
258.452	75.88
258.685	74.88
258.918	97.88
259.151	63.88
259.383	81.88
259.616	86.88
259.849	80.88
260.081	74.88
260.314	64.88
260.547	80.88
260.779	91.88
261.012	93.88
261.244	85.88
261.477	100.88
261.71	74.88
261.942	81.88
262.175	90.88
262.407	93.88
262.64	88.88
262.872	81.88
263.105	80.88
263.337	96.88
263.57	72.88
263.802	88.88
264.035	75.88
264.267	81.88
264.499	82.88
264.732	84.88
264.964	99.88
265.197	75.88
265.429	90.88
265.661	72.88
265.894	80.88
266.126	94.88
266.358	90.88
266.591	88.88
266.823	91.88
267.055	79.88
267.287	76.88
267.52	86.88
267.752	91.88
267.984	93.88
268.216	82.88
268.448	70.88
268.681	80.88
268.913	77.88
269.145	75.88
269.377	75.88
269.609	70.88
269.841	81.88
270.073	78.88
270.306	86.88
270.538	95.88
270.77	80.88
271.002	83.88
271.234	77.88
271.466	89.88
271.698	87.88
271.93	80.88
272.162	82.88
272.394	83.88
272.626	72.88
272.858	87.88
273.09	80.88
273.322	86.88
273.553	78.88
273.785	82.88
274.017	78.88
274.249	71.88
274.481	86.88
274.713	79.88
274.945	91.88
275.176	90.88
275.408	73.88
275.64	78.88
275.872	84.88
276.104	88.88
276.335	108.88
276.567	65.88
276.799	88.88
277.031	78.88
277.262	84.88
277.494	83.88
277.726	85.88
277.957	92.88
278.189	89.88
278.421	73.88
278.652	88.88
278.884	82.88
279.115	82.88
279.347	90.88
279.579	80.88
279.81	77.88
280.042	86.88
280.273	81.88
280.505	74.88
280.736	82.88
280.968	99.88
281.199	85.88
281.431	85.88
281.662	84.88
281.894	95.88
282.125	88.88
282.356	87.88
282.588	90.88
282.819	92.88
283.051	80.88
283.282	89.88
283.513	102.88
283.745	82.88
283.976	96.88
284.207	89.88
284.439	80.88
284.67	91.88
284.901	91.88
285.132	85.88
285.364	82.88
285.595	76.88
285.826	90.88
286.057	92.88
286.288	91.88
286.52	89.88
286.751	89.88
286.982	79.88
287.213	75.88
287.444	84.88
287.675	92.88
287.906	89.88
288.138	95.88
288.369	71.88
288.6	78.88
288.831	84.88
289.062	87.88
289.293	87.88
289.524	88.88
289.755	94.88
289.986	92.88
290.217	94.88
290.448	82.88
290.679	80.88
290.91	99.88
291.141	91.88
291.371	83.88
291.602	86.88
291.833	73.88
292.064	80.88
292.295	81.88
292.526	86.88
292.757	74.88
292.987	79.88
293.218	82.88
293.449	85.88
293.68	88.88
293.91	90.88
294.141	86.88
294.372	83.88
294.603	75.88
294.833	79.88
295.064	78.88
295.295	88.88
295.525	94.88
295.756	88.88
295.987	91.88
296.217	86.88
296.448	76.88
296.679	74.88
296.909	88.88
297.14	82.88
297.37	71.88
297.601	105.88
297.831	86.88
298.062	89.88
298.292	90.88
298.523	84.88
298.753	72.88
298.984	84.88
299.214	79.88
299.445	87.88
299.675	88.88
299.905	84.88
300.136	79.88
300.366	74.88
300.597	82.88
300.827	87.88
301.057	94.88
301.288	96.88
301.518	86.88
301.748	83.88
301.979	96.88
302.209	80.88
302.439	86.88
302.669	84.88
302.9	75.88
303.13	73.88
303.36	90.88
303.59	95.88
303.82	88.88
304.051	87.88
304.281	69.88
304.511	85.88
304.741	96.88
304.971	73.88
305.201	87.88
305.431	83.88
305.661	93.88
305.891	83.88
306.121	82.88
306.352	79.88
306.582	75.88
306.812	91.88
307.042	83.88
307.272	80.88
307.502	85.88
307.731	67.88
307.961	72.88
308.191	89.88
308.421	91.88
308.651	95.88
308.881	103.88
309.111	73.88
309.341	82.88
309.571	78.88
309.8	83.88
310.03	92.88
310.26	90.88
310.49	106.88
310.72	99.88
310.949	94.88
311.179	87.88
311.409	82.88
311.639	74.88
311.868	80.88
312.098	90.88
312.328	92.88
312.557	89.88
312.787	83.88
313.017	76.88
313.246	87.88
313.476	80.88
313.706	94.88
313.935	71.88
314.165	88.88
314.394	76.88
314.624	80.88
314.853	103.88
315.083	91.88
315.312	83.88
315.542	88.88
315.771	83.88
316.001	92.88
316.23	95.88
316.46	92.88
316.689	77.88
316.919	70.88
317.148	90.88
317.377	96.88
317.607	100.88
317.836	97.88
318.065	111.88
318.295	102.88
318.524	84.88
318.753	81.88
318.983	73.88
319.212	91.88
319.441	80.88
319.67	94.88
319.9	84.88
320.129	86.88
320.358	88.88
320.587	90.88
320.816	84.88
321.046	88.88
321.275	79.88
321.504	95.88
321.733	94.88
321.962	81.88
322.191	95.88
322.42	81.88
322.649	90.88
322.878	85.88
323.108	96.88
323.337	85.88
323.566	79.88
323.795	81.88
324.024	99.88
324.253	76.88
324.482	68.88
324.71	77.88
324.939	86.88
325.168	75.88
325.397	88.88
325.626	87.88
325.855	88.88
326.084	79.88
326.313	93.88
326.542	83.88
326.77	103.88
326.999	80.88
327.228	78.88
327.457	86.88
327.686	81.88
327.914	79.88
328.143	86.88
328.372	86.88
328.6	92.88
328.829	94.88
329.058	75.88
329.287	90.88
329.515	88.88
329.744	85.88
329.972	83.88
330.201	75.88
330.43	88.88
330.658	85.88
330.887	89.88
331.115	90.88
331.344	92.88
331.572	79.88
331.801	79.88
332.03	89.88
332.258	72.88
332.486	98.88
332.715	90.88
332.943	86.88
333.172	91.88
333.4	87.88
333.629	90.88
333.857	76.88
334.085	97.88
334.314	76.88
334.542	94.88
334.771	98.88
334.999	85.88
335.227	100.88
335.455	82.88
335.684	89.88
335.912	94.88
336.14	97.88
336.369	91.88
336.597	99.88
336.825	95.88
337.053	83.88
337.281	84.88
337.51	81.88
337.738	76.88
337.966	91.88
338.194	87.88
338.422	92.88
338.65	80.88
338.878	90.88
339.106	88.88
339.334	96.88
339.562	82.88
339.79	74.88
340.018	96.88
340.246	104.88
340.474	85.88
340.702	90.88
340.93	85.88
341.158	91.88
341.386	88.88
341.614	92.88
341.842	82.88
342.07	86.88
342.298	95.88
342.526	86.88
342.754	77.88
342.981	88.88
343.209	76.88
343.437	94.88
343.665	81.88
343.893	91.88
344.12	89.88
344.348	84.88
344.576	86.88
344.804	87.88
345.031	92.88
345.259	94.88
345.487	71.88
345.714	83.88
345.942	97.88
346.17	85.88
346.397	87.88
346.625	83.88
346.853	87.88
347.08	98.88
347.308	83.88
347.535	82.88
347.763	82.88
347.99	86.88
348.218	92.88
348.445	86.88
348.673	88.88
348.9	76.88
349.128	94.88
349.355	82.88
349.583	88.88
349.81	75.88
350.037	84.88
350.265	96.88
350.492	81.88
350.72	86.88
350.947	91.88
351.174	92.88
351.402	76.88
351.629	102.88
351.856	79.88
352.083	80.88
352.311	83.88
352.538	92.88
352.765	92.88
352.992	92.88
353.22	85.88
353.447	76.88
353.674	78.88
353.901	80.88
354.128	93.88
354.355	88.88
354.583	96.88
354.81	87.88
355.037	92.88
355.264	83.88
355.491	73.88
355.718	86.88
355.945	94.88
356.172	79.88
356.399	90.88
356.626	85.88
356.853	97.88
357.08	87.88
357.307	82.88
357.534	80.88
357.761	81.88
357.988	80.88
358.215	89.88
358.441	82.88
358.668	82.88
358.895	87.88
359.122	77.88
359.349	83.88
359.576	79.88
359.802	83.88
360.029	81.88
360.256	93.88
360.483	76.88
360.709	81.88
360.936	90.88
361.163	86.88
361.39	75.88
361.616	87.88
361.843	85.88
362.07	95.88
362.296	103.88
362.523	84.88
362.749	76.88
362.976	90.88
363.203	100.88
363.429	81.88
363.656	90.88
363.882	81.88
364.109	87.88
364.335	100.88
364.562	94.88
364.788	75.88
365.015	96.88
365.241	94.88
365.468	95.88
365.694	91.88
365.92	84.88
366.147	98.88
366.373	91.88
366.599	93.88
366.826	59.88
367.052	83.88
367.278	88.88
367.505	85.88
367.731	84.88
367.957	85.88
368.184	82.88
368.41	75.88
368.636	76.88
368.862	87.88
369.089	80.88
369.315	84.88
369.541	95.88
369.767	71.88
369.993	80.88
370.219	80.88
370.445	96.88
370.672	100.88
370.898	90.88
371.124	82.88
371.35	79.88
371.576	94.88
371.802	92.88
372.028	78.88
372.254	80.88
372.48	76.88
372.706	82.88
372.932	94.88
373.158	81.88
373.384	80.88
373.61	88.88
373.835	107.88
374.061	98.88
374.287	88.88
374.513	90.88
374.739	96.88
374.965	76.88
375.191	79.88
375.416	83.88
375.642	111.88
375.868	91.88
376.094	94.88
376.319	82.88
376.545	91.88
376.771	75.88
376.997	84.88
377.222	84.88
377.448	81.88
377.674	60.88
377.899	74.88
378.125	75.88
378.35	85.88
378.576	78.88
378.802	70.88
379.027	76.88
379.253	86.88
379.478	70.88
379.704	84.88
379.929	92.88
380.155	75.88
380.38	68.88
380.606	84.88
380.831	86.88
381.057	96.88
381.282	89.88
381.507	87.88
381.733	90.88
381.958	87.88
382.184	94.88
382.409	91.88
382.634	97.88
382.86	96.88
383.085	83.88
383.31	86.88
383.535	87.88
383.761	107.88
383.986	83.88
384.211	88.88
384.436	97.88
384.662	96.88
384.887	83.88
385.112	86.88
385.337	73.88
385.562	82.88
385.787	90.88
386.013	94.88
386.238	95.88
386.463	92.88
386.688	95.88
386.913	87.88
387.138	84.88
387.363	79.88
387.588	81.88
387.813	82.88
388.038	87.88
388.263	83.88
388.488	91.88
388.713	81.88
388.938	81.88
389.163	88.88
389.387	84.88
389.612	80.88
389.837	74.88
390.062	81.88
390.287	83.88
390.512	91.88
390.736	83.88
390.961	98.88
391.186	83.88
391.411	81.88
391.636	84.88
391.86	101.88
392.085	94.88
392.31	88.88
392.534	81.88
392.759	116.88
392.984	134.88
393.208	254.88
393.433	419.88
393.658	308.88
393.882	138.88
394.107	94.88
394.331	110.88
394.556	98.88
394.78	82.88
395.005	90.88
395.229	79.88
395.454	88.88
395.678	94.88
395.903	86.88
396.127	106.88
396.352	115.88
396.576	148.88
396.801	257.88
397.025	336.88
397.249	160.88
397.474	91.88
397.698	90.88
397.922	83.88
398.147	87.88
398.371	82.88
398.595	74.88
398.82	82.88
399.044	84.88
399.268	73.88
399.492	90.88
399.717	84.88
399.941	84.88
400.165	86.88
400.389	77.88
400.613	71.88
400.837	86.88
401.062	70.88
401.286	88.88
401.51	78.88
401.734	97.88
401.958	84.88
402.182	94.88
402.406	83.88
402.63	77.88
402.854	80.88
403.078	87.88
403.302	102.88
403.526	82.88
403.75	85.88
403.974	67.88
404.198	94.88
404.422	82.88
404.645	89.88
404.869	80.88
405.093	68.88
405.317	76.88
405.541	77.88
405.765	75.88
405.988	85.88
406.212	84.88
406.436	82.88
406.66	83.88
406.883	90.88
407.107	67.88
407.331	80.88
407.555	95.88
407.778	92.88
408.002	103.88
408.226	92.88
408.449	88.88
408.673	73.88
408.896	84.88
409.12	78.88
409.344	91.88
409.567	96.88
409.791	97.88
410.014	97.88
410.238	96.88
410.461	84.88
410.685	75.88
410.908	78.88
411.132	78.88
411.355	80.88
411.578	85.88
411.802	79.88
412.025	80.88
412.249	82.88
412.472	89.88
412.695	83.88
412.919	78.88
413.142	72.88
413.365	83.88
413.589	84.88
413.812	89.88
414.035	88.88
414.258	84.88
414.482	87.88
414.705	88.88
414.928	79.88
415.151	70.88
415.374	86.88
415.597	86.88
415.821	83.88
416.044	90.88
416.267	88.88
416.49	75.88
416.713	68.88
416.936	86.88
417.159	80.88
417.382	66.88
417.605	84.88
417.828	74.88
418.051	90.88
418.274	80.88
418.497	87.88
418.72	94.88
418.943	80.88
419.166	72.88
419.389	78.88
419.611	82.88
419.834	78.88
420.057	84.88
420.28	94.88
420.503	90.88
420.726	87.88
420.948	93.88
421.171	88.88
421.394	98.88
421.617	112.88
421.839	94.88
422.062	100.88
422.285	119.88
422.507	154.88
422.73	232.88
422.953	186.88
423.175	120.88
423.398	91.88
423.621	85.88
423.843	88.88
424.066	86.88
424.288	75.88
424.511	88.88
424.733	88.88
424.956	91.88
425.178	70.88
425.401	78.88
425.623	81.88
425.846	98.88
426.068	82.88
426.291	81.88
426.513	83.88
426.735	79.88
426.958	69.88
427.18	80.88
427.402	93.88
427.625	82.88
427.847	84.88
428.069	73.88
428.292	108.88
428.514	103.88
428.736	84.88
428.958	86.88
429.181	84.88
429.403	98.88
429.625	72.88
429.847	91.88
430.069	92.88
430.292	116.88
430.514	102.88
430.736	117.88
430.958	103.88
431.18	77.88
431.402	70.88
431.624	86.88
431.846	96.88
432.068	98.88
432.29	85.88
432.512	84.88
432.734	81.88
432.956	83.88
433.178	88.88
433.4	97.88
433.622	78.88
433.844	72.88
434.066	67.88
434.287	82.88
434.509	84.88
434.731	72.88
434.953	94.88
435.175	93.88
435.397	84.88
435.618	74.88
435.84	96.88
436.062	77.88
436.284	98.88
436.505	85.88
436.727	91.88
436.949	83.88
437.17	74.88
437.392	77.88
437.614	83.88
437.835	77.88
438.057	100.88
438.278	84.88
438.5	86.88
438.721	70.88
438.943	90.88
439.165	89.88
439.386	71.88
439.608	88.88
439.829	78.88
440.05	83.88
440.272	85.88
440.493	88.88
440.715	66.88
440.936	80.88
441.158	84.88
441.379	86.88
441.6	73.88
441.822	78.88
442.043	84.88
442.264	95.88
442.486	93.88
442.707	105.88
442.928	102.88
443.149	83.88
443.371	103.88
443.592	135.88
443.813	121.88
444.034	96.88
444.255	84.88
444.476	87.88
444.698	81.88
444.919	86.88
445.14	172.88
445.361	151.88
445.582	131.88
445.803	132.88
446.024	101.88
446.245	88.88
446.466	70.88
446.687	83.88
446.908	83.88
447.129	72.88
447.35	90.88
447.571	78.88
447.792	86.88
448.013	82.88
448.234	79.88
448.455	90.88
448.675	86.88
448.896	75.88
449.117	77.88
449.338	102.88
449.559	80.88
449.779	72.88
450	94.88
450.221	74.88
450.442	79.88
450.662	74.88
450.883	66.88
451.104	90.88
451.324	79.88
451.545	74.88
451.766	90.88
451.986	71.88
452.207	87.88
452.428	89.88
452.648	86.88
452.869	91.88
453.089	78.88
453.31	91.88
453.53	75.88
453.751	80.88
453.971	81.88
454.192	75.88
454.412	90.88
454.633	77.88
454.853	67.88
455.073	86.88
455.294	82.88
455.514	74.88
455.734	71.88
455.955	82.88
456.175	76.88
456.395	89.88
456.616	79.88
456.836	72.88
457.056	92.88
457.276	87.88
457.497	69.88
457.717	81.88
457.937	82.88
458.157	85.88
458.377	74.88
458.598	90.88
458.818	83.88
459.038	89.88
459.258	84.88
459.478	86.88
459.698	87.88
459.918	86.88
460.138	83.88
460.358	92.88
460.578	86.88
460.798	105.88
461.018	85.88
461.238	87.88
461.458	98.88
461.678	81.88
461.898	77.88
462.118	82.88
462.338	95.88
462.558	84.88
462.777	77.88
462.997	86.88
463.217	82.88
463.437	88.88
463.657	84.88
463.876	75.88
464.096	99.88
464.316	91.88
464.536	88.88
464.755	82.88
464.975	90.88
465.195	87.88
465.414	77.88
465.634	76.88
465.854	80.88
466.073	89.88
466.293	80.88
466.512	88.88
466.732	89.88
466.951	80.88
467.171	79.88
467.391	89.88
467.61	88.88
467.829	86.88
468.049	84.88
468.268	84.88
468.488	98.88
468.707	84.88
468.927	90.88
469.146	83.88
469.365	76.88
469.585	87.88
469.804	76.88
470.023	87.88
470.243	98.88
470.462	86.88
470.681	81.88
470.901	89.88
471.12	83.88
471.339	96.88
471.558	97.88
471.777	79.88
471.997	79.88
472.216	89.88
472.435	76.88
472.654	88.88
472.873	98.88
473.092	84.88
473.311	93.88
473.53	79.88
473.749	89.88
473.968	86.88
474.187	77.88
474.406	87.88
474.625	81.88
474.844	102.88
475.063	77.88
475.282	84.88
475.501	80.88
475.72	82.88
475.939	76.88
476.158	87.88
476.377	82.88
476.596	75.88
476.814	106.88
477.033	78.88
477.252	88.88
477.471	86.88
477.69	76.88
477.908	79.88
478.127	88.88
478.346	92.88
478.564	97.88
478.783	74.88
479.002	83.88
479.22	84.88
479.439	80.88
479.658	74.88
479.876	77.88
480.095	66.88
480.313	84.88
480.532	71.88
480.751	94.88
480.969	74.88
481.188	81.88
481.406	82.88
481.624	82.88
481.843	91.88
482.061	80.88
482.28	82.88
482.498	83.88
482.717	77.88
482.935	79.88
483.153	89.88
483.372	81.88
483.59	89.88
483.808	99.88
484.027	81.88
484.245	67.88
484.463	81.88
484.681	67.88
484.9	76.88
485.118	99.88
485.336	90.88
485.554	88.88
485.772	90.88
485.99	100.88
486.209	82.88
486.427	75.88
486.645	81.88
486.863	88.88
487.081	77.88
487.299	77.88
487.517	76.88
487.735	96.88
487.953	89.88
488.171	104.88
488.389	87.88
488.607	74.88
488.825	68.88
489.043	85.88
489.261	79.88
489.479	82.88
489.696	98.88
489.914	83.88
490.132	86.88
490.35	83.88
490.568	72.88
490.786	81.88
491.003	80.88
491.221	91.88
491.439	69.88
491.657	84.88
491.874	76.88
492.092	79.88
492.31	89.88
492.527	92.88
492.745	89.88
492.963	69.88
493.18	87.88
493.398	88.88
493.615	95.88
493.833	89.88
494.05	88.88
494.268	82.88
494.485	87.88
494.703	94.88
494.92	96.88
495.138	90.88
495.355	88.88
495.573	88.88
495.79	73.88
496.008	104.88
496.225	77.88
496.442	84.88
496.66	85.88
496.877	87.88
497.094	104.88
497.312	82.88
497.529	89.88
497.746	83.88
497.963	90.88
498.181	95.88
498.398	85.88
498.615	84.88
498.832	104.88
499.049	71.88
499.267	85.88
499.484	80.88
499.701	96.88
499.918	98.88
500.135	97.88
500.352	98.88
500.569	85.88
500.786	79.88
501.003	82.88
501.22	88.88
501.437	66.88
501.654	86.88
501.871	89.88
502.088	94.88
502.305	82.88
502.522	84.88
502.739	88.88
502.956	75.88
503.172	91.88
503.389	91.88
503.606	85.88
503.823	86.88
504.04	73.88
504.256	96.88
504.473	98.88
504.69	88.88
504.907	90.88
505.123	88.88
505.34	91.88
505.557	85.88
505.773	95.88
505.99	87.88
506.207	80.88
506.423	73.88
506.64	81.88
506.856	87.88
507.073	67.88
507.289	88.88
507.506	85.88
507.722	75.88
507.939	86.88
508.155	82.88
508.372	80.88
508.588	88.88
508.805	85.88
509.021	91.88
509.238	95.88
509.454	82.88
509.67	91.88
509.887	86.88
510.103	78.88
510.319	94.88
510.536	90.88
510.752	91.88
510.968	104.88
511.184	87.88
511.401	85.88
511.617	86.88
511.833	70.88
512.049	71.88
512.265	83.88
512.481	88.88
512.698	74.88
512.914	78.88
513.13	88.88
513.346	77.88
513.562	81.88
513.778	82.88
513.994	88.88
514.21	94.88
514.426	84.88
514.642	83.88
514.858	77.88
515.074	84.88
515.29	82.88
515.506	105.88
515.721	74.88
515.937	82.88
516.153	88.88
516.369	88.88
516.585	89.88
516.801	92.88
517.016	85.88
517.232	91.88
517.448	90.88
517.664	78.88
517.879	81.88
518.095	79.88
518.311	75.88
518.527	81.88
518.742	73.88
518.958	102.88
519.173	80.88
