Data from 18505_1_HRD10591_00006.txt Node
Date: Mon Jan 19 13:58:34 EST 2026
User: Yrep
Spectrometer: HR+D1059
Trigger mode: 1
Integration Time (sec): 1.000000E-1
Scans to average: 1
Electric dark correction enabled: true
Nonlinearity correction enabled: false
Boxcar width: 0
XAxis mode: Wavelengths
Number of Pixels in Spectrum: 2048
>>>>>Begin Spectral Data<<<<<
223.165	-20.56
223.4	-20.56
223.635	-20.56
223.869	-21.56
224.104	-13.56
224.338	-12.56
224.573	-21.56
224.808	-1.56
225.042	-15.56
225.277	-7.56
225.511	-4.56
225.746	7.44
225.98	15.44
226.215	18.44
226.449	11.44
226.683	18.44
226.918	25.44
227.152	22.44
227.387	35.44
227.621	33.44
227.856	46.44
228.09	49.44
228.324	38.44
228.559	61.44
228.793	61.44
229.027	53.44
229.262	55.44
229.496	70.44
229.73	74.44
229.964	66.44
230.199	51.44
230.433	74.44
230.667	73.44
230.901	91.44
231.136	86.44
231.37	75.44
231.604	74.44
231.838	90.44
232.072	67.44
232.306	78.44
232.541	88.44
232.775	82.44
233.009	72.44
233.243	103.44
233.477	90.44
233.711	81.44
233.945	69.44
234.179	69.44
234.413	84.44
234.647	79.44
234.881	68.44
235.115	81.44
235.349	93.44
235.583	75.44
235.817	75.44
236.051	85.44
236.285	68.44
236.519	65.44
236.753	87.44
236.987	86.44
237.221	75.44
237.455	90.44
237.689	67.44
237.922	73.44
238.156	73.44
238.39	59.44
238.624	74.44
238.858	70.44
239.091	86.44
239.325	86.44
239.559	81.44
239.793	95.44
240.027	95.44
240.26	74.44
240.494	74.44
240.728	86.44
240.961	73.44
241.195	81.44
241.429	81.44
241.662	82.44
241.896	76.44
242.13	75.44
242.363	83.44
242.597	78.44
242.83	75.44
243.064	87.44
243.298	65.44
243.531	74.44
243.765	81.44
243.998	81.44
244.232	82.44
244.465	77.44
244.699	67.44
244.932	78.44
245.166	86.44
245.399	71.44
245.633	85.44
245.866	71.44
246.099	74.44
246.333	80.44
246.566	77.44
246.8	77.44
247.033	69.44
247.266	72.44
247.5	99.44
247.733	84.44
247.966	87.44
248.2	87.44
248.433	88.44
248.666	85.44
248.899	77.44
249.133	78.44
249.366	75.44
249.599	71.44
249.832	80.44
250.066	84.44
250.299	74.44
250.532	89.44
250.765	83.44
250.998	70.44
251.231	91.44
251.465	76.44
251.698	85.44
251.931	95.44
252.164	89.44
252.397	81.44
252.63	79.44
252.863	85.44
253.096	86.44
253.329	86.44
253.562	79.44
253.795	70.44
254.028	91.44
254.261	80.44
254.494	81.44
254.727	74.44
254.96	83.44
255.193	70.44
255.426	73.44
255.659	76.44
255.892	74.44
256.124	91.44
256.357	88.44
256.59	71.44
256.823	99.44
257.056	79.44
257.289	95.44
257.521	79.44
257.754	65.44
257.987	85.44
258.22	83.44
258.452	76.44
258.685	68.44
258.918	77.44
259.151	72.44
259.383	81.44
259.616	74.44
259.849	70.44
260.081	88.44
260.314	80.44
260.547	80.44
260.779	82.44
261.012	73.44
261.244	73.44
261.477	87.44
261.71	88.44
261.942	65.44
262.175	82.44
262.407	84.44
262.64	70.44
262.872	91.44
263.105	93.44
263.337	94.44
263.57	84.44
263.802	85.44
264.035	67.44
264.267	83.44
264.499	74.44
264.732	83.44
264.964	89.44
265.197	83.44
265.429	88.44
265.661	74.44
265.894	86.44
266.126	83.44
266.358	89.44
266.591	69.44
266.823	86.44
267.055	94.44
267.287	88.44
267.52	79.44
267.752	97.44
267.984	86.44
268.216	73.44
268.448	79.44
268.681	83.44
268.913	91.44
269.145	96.44
269.377	77.44
269.609	82.44
269.841	80.44
270.073	79.44
270.306	85.44
270.538	82.44
270.77	73.44
271.002	85.44
271.234	83.44
271.466	89.44
271.698	96.44
271.93	87.44
272.162	82.44
272.394	91.44
272.626	89.44
272.858	78.44
273.09	100.44
273.322	91.44
273.553	75.44
273.785	80.44
274.017	93.44
274.249	74.44
274.481	79.44
274.713	85.44
274.945	95.44
275.176	83.44
275.408	76.44
275.64	91.44
275.872	81.44
276.104	93.44
276.335	75.44
276.567	66.44
276.799	79.44
277.031	89.44
277.262	95.44
277.494	91.44
277.726	81.44
277.957	86.44
278.189	95.44
278.421	99.44
278.652	95.44
278.884	83.44
279.115	89.44
279.347	87.44
279.579	97.44
279.81	96.44
280.042	89.44
280.273	111.44
280.505	87.44
280.736	83.44
280.968	85.44
281.199	71.44
281.431	86.44
281.662	74.44
281.894	81.44
282.125	81.44
282.356	102.44
282.588	89.44
282.819	101.44
283.051	89.44
283.282	85.44
283.513	87.44
283.745	98.44
283.976	83.44
284.207	89.44
284.439	103.44
284.67	83.44
284.901	82.44
285.132	82.44
285.364	106.44
285.595	98.44
285.826	86.44
286.057	75.44
286.288	83.44
286.52	84.44
286.751	83.44
286.982	81.44
287.213	94.44
287.444	75.44
287.675	91.44
287.906	96.44
288.138	83.44
288.369	102.44
288.6	105.44
288.831	85.44
289.062	76.44
289.293	93.44
289.524	82.44
289.755	99.44
289.986	85.44
290.217	93.44
290.448	83.44
290.679	81.44
290.91	88.44
291.141	97.44
291.371	98.44
291.602	81.44
291.833	90.44
292.064	93.44
292.295	87.44
292.526	76.44
292.757	79.44
292.987	73.44
293.218	83.44
293.449	83.44
293.68	89.44
293.91	90.44
294.141	96.44
294.372	86.44
294.603	75.44
294.833	89.44
295.064	75.44
295.295	94.44
295.525	93.44
295.756	98.44
295.987	75.44
296.217	86.44
296.448	94.44
296.679	83.44
296.909	97.44
297.14	83.44
297.37	87.44
297.601	86.44
297.831	71.44
298.062	94.44
298.292	81.44
298.523	101.44
298.753	92.44
298.984	90.44
299.214	98.44
299.445	89.44
299.675	80.44
299.905	89.44
300.136	82.44
300.366	100.44
300.597	91.44
300.827	96.44
301.057	86.44
301.288	94.44
301.518	80.44
301.748	84.44
301.979	84.44
302.209	82.44
302.439	86.44
302.669	89.44
302.9	75.44
303.13	90.44
303.36	87.44
303.59	76.44
303.82	73.44
304.051	74.44
304.281	79.44
304.511	93.44
304.741	89.44
304.971	80.44
305.201	82.44
305.431	79.44
305.661	86.44
305.891	93.44
306.121	81.44
306.352	68.44
306.582	93.44
306.812	92.44
307.042	92.44
307.272	76.44
307.502	70.44
307.731	87.44
307.961	91.44
308.191	89.44
308.421	103.44
308.651	89.44
308.881	99.44
309.111	94.44
309.341	119.44
309.571	107.44
309.8	106.44
310.03	89.44
310.26	98.44
310.49	76.44
310.72	75.44
310.949	74.44
311.179	83.44
311.409	96.44
311.639	88.44
311.868	90.44
312.098	83.44
312.328	72.44
312.557	89.44
312.787	87.44
313.017	82.44
313.246	86.44
313.476	79.44
313.706	69.44
313.935	83.44
314.165	83.44
314.394	83.44
314.624	80.44
314.853	103.44
315.083	87.44
315.312	96.44
315.542	96.44
315.771	105.44
316.001	117.44
316.23	106.44
316.46	113.44
316.689	76.44
316.919	90.44
317.148	95.44
317.377	113.44
317.607	115.44
317.836	140.44
318.065	148.44
318.295	121.44
318.524	100.44
318.753	86.44
318.983	73.44
319.212	85.44
319.441	87.44
319.67	88.44
319.9	81.44
320.129	97.44
320.358	89.44
320.587	71.44
320.816	100.44
321.046	84.44
321.275	97.44
321.504	91.44
321.733	98.44
321.962	102.44
322.191	95.44
322.42	95.44
322.649	75.44
322.878	104.44
323.108	98.44
323.337	93.44
323.566	98.44
323.795	86.44
324.024	94.44
324.253	97.44
324.482	78.44
324.71	83.44
324.939	98.44
325.168	97.44
325.397	73.44
325.626	83.44
325.855	88.44
326.084	79.44
326.313	93.44
326.542	73.44
326.77	93.44
326.999	77.44
327.228	94.44
327.457	82.44
327.686	85.44
327.914	90.44
328.143	85.44
328.372	71.44
328.6	90.44
328.829	67.44
329.058	85.44
329.287	74.44
329.515	77.44
329.744	98.44
329.972	89.44
330.201	97.44
330.43	96.44
330.658	85.44
330.887	75.44
331.115	104.44
331.344	87.44
331.572	95.44
331.801	84.44
332.03	80.44
332.258	96.44
332.486	93.44
332.715	76.44
332.943	121.44
333.172	93.44
333.4	85.44
333.629	82.44
333.857	83.44
334.085	93.44
334.314	90.44
334.542	93.44
334.771	97.44
334.999	103.44
335.227	99.44
335.455	83.44
335.684	97.44
335.912	101.44
336.14	91.44
336.369	107.44
336.597	101.44
336.825	94.44
337.053	93.44
337.281	103.44
337.51	83.44
337.738	90.44
337.966	81.44
338.194	87.44
338.422	83.44
338.65	82.44
338.878	82.44
339.106	87.44
339.334	80.44
339.562	84.44
339.79	85.44
340.018	81.44
340.246	95.44
340.474	94.44
340.702	95.44
340.93	83.44
341.158	88.44
341.386	87.44
341.614	91.44
341.842	81.44
342.07	83.44
342.298	92.44
342.526	96.44
342.754	94.44
342.981	85.44
343.209	81.44
343.437	94.44
343.665	73.44
343.893	84.44
344.12	86.44
344.348	90.44
344.576	83.44
344.804	82.44
345.031	87.44
345.259	80.44
345.487	81.44
345.714	69.44
345.942	80.44
346.17	79.44
346.397	98.44
346.625	89.44
346.853	98.44
347.08	88.44
347.308	80.44
347.535	80.44
347.763	78.44
347.99	72.44
348.218	75.44
348.445	90.44
348.673	88.44
348.9	89.44
349.128	83.44
349.355	93.44
349.583	81.44
349.81	89.44
350.037	86.44
350.265	92.44
350.492	83.44
350.72	92.44
350.947	88.44
351.174	85.44
351.402	94.44
351.629	95.44
351.856	82.44
352.083	85.44
352.311	84.44
352.538	85.44
352.765	93.44
352.992	100.44
353.22	103.44
353.447	92.44
353.674	86.44
353.901	84.44
354.128	84.44
354.355	83.44
354.583	89.44
354.81	85.44
355.037	92.44
355.264	96.44
355.491	95.44
355.718	76.44
355.945	86.44
356.172	81.44
356.399	87.44
356.626	90.44
356.853	95.44
357.08	79.44
357.307	98.44
357.534	95.44
357.761	86.44
357.988	96.44
358.215	93.44
358.441	97.44
358.668	84.44
358.895	107.44
359.122	90.44
359.349	94.44
359.576	83.44
359.802	83.44
360.029	72.44
360.256	95.44
360.483	88.44
360.709	93.44
360.936	95.44
361.163	82.44
361.39	101.44
361.616	79.44
361.843	95.44
362.07	103.44
362.296	98.44
362.523	108.44
362.749	115.44
362.976	129.44
363.203	145.44
363.429	116.44
363.656	106.44
363.882	99.44
364.109	113.44
364.335	131.44
364.562	160.44
364.788	132.44
365.015	97.44
365.241	97.44
365.468	98.44
365.694	94.44
365.92	94.44
366.147	85.44
366.373	71.44
366.599	89.44
366.826	89.44
367.052	95.44
367.278	99.44
367.505	85.44
367.731	90.44
367.957	99.44
368.184	102.44
368.41	103.44
368.636	82.44
368.862	100.44
369.089	96.44
369.315	86.44
369.541	82.44
369.767	96.44
369.993	91.44
370.219	107.44
370.445	114.44
370.672	127.44
370.898	116.44
371.124	107.44
371.35	87.44
371.576	110.44
371.802	93.44
372.028	89.44
372.254	99.44
372.48	92.44
372.706	92.44
372.932	76.44
373.158	100.44
373.384	122.44
373.61	138.44
373.835	168.44
374.061	122.44
374.287	107.44
374.513	104.44
374.739	99.44
374.965	115.44
375.191	104.44
375.416	92.44
375.642	104.44
375.868	106.44
376.094	98.44
376.319	95.44
376.545	112.44
376.771	89.44
376.997	95.44
377.222	92.44
377.448	85.44
377.674	85.44
377.899	83.44
378.125	101.44
378.35	87.44
378.576	86.44
378.802	81.44
379.027	87.44
379.253	75.44
379.478	96.44
379.704	88.44
379.929	97.44
380.155	96.44
380.38	87.44
380.606	79.44
380.831	85.44
381.057	101.44
381.282	90.44
381.507	106.44
381.733	87.44
381.958	105.44
382.184	97.44
382.409	112.44
382.634	112.44
382.86	107.44
383.085	113.44
383.31	120.44
383.535	114.44
383.761	109.44
383.986	123.44
384.211	98.44
384.436	104.44
384.662	89.44
384.887	100.44
385.112	102.44
385.337	88.44
385.562	105.44
385.787	100.44
386.013	98.44
386.238	107.44
386.463	85.44
386.688	102.44
386.913	97.44
387.138	103.44
387.363	105.44
387.588	113.44
387.813	105.44
388.038	111.44
388.263	97.44
388.488	112.44
388.713	86.44
388.938	78.44
389.163	83.44
389.387	90.44
389.612	88.44
389.837	89.44
390.062	98.44
390.287	94.44
390.512	102.44
390.736	86.44
390.961	79.44
391.186	106.44
391.411	89.44
391.636	96.44
391.86	107.44
392.085	111.44
392.31	117.44
392.534	136.44
392.759	167.44
392.984	322.44
393.208	633.44
393.433	1038.44
393.658	713.44
393.882	250.44
394.107	147.44
394.331	158.44
394.556	155.44
394.78	111.44
395.005	108.44
395.229	109.44
395.454	115.44
395.678	122.44
395.903	140.44
396.127	190.44
396.352	222.44
396.576	357.44
396.801	651.44
397.025	783.44
397.249	350.44
397.474	170.44
397.698	132.44
397.922	103.44
398.147	99.44
398.371	96.44
398.595	111.44
398.82	95.44
399.044	81.44
399.268	81.44
399.492	86.44
399.717	88.44
399.941	73.44
400.165	101.44
400.389	96.44
400.613	108.44
400.837	99.44
401.062	85.44
401.286	94.44
401.51	91.44
401.734	96.44
401.958	99.44
402.182	89.44
402.406	84.44
402.63	89.44
402.854	77.44
403.078	85.44
403.302	93.44
403.526	92.44
403.75	93.44
403.974	70.44
404.198	90.44
404.422	87.44
404.645	97.44
404.869	78.44
405.093	77.44
405.317	85.44
405.541	99.44
405.765	89.44
405.988	91.44
406.212	86.44
406.436	81.44
406.66	93.44
406.883	94.44
407.107	102.44
407.331	102.44
407.555	138.44
407.778	163.44
408.002	171.44
408.226	94.44
408.449	86.44
408.673	93.44
408.896	89.44
409.12	85.44
409.344	110.44
409.567	119.44
409.791	117.44
410.014	111.44
410.238	107.44
410.461	82.44
410.685	86.44
410.908	99.44
411.132	97.44
411.355	83.44
411.578	89.44
411.802	86.44
412.025	79.44
412.249	79.44
412.472	76.44
412.695	91.44
412.919	91.44
413.142	94.44
413.365	100.44
413.589	85.44
413.812	93.44
414.035	95.44
414.258	93.44
414.482	87.44
414.705	85.44
414.928	86.44
415.151	89.44
415.374	98.44
415.597	85.44
415.821	86.44
416.044	91.44
416.267	82.44
416.49	83.44
416.713	89.44
416.936	98.44
417.159	92.44
417.382	93.44
417.605	89.44
417.828	89.44
418.051	71.44
418.274	91.44
418.497	84.44
418.72	78.44
418.943	87.44
419.166	88.44
419.389	77.44
419.611	83.44
419.834	76.44
420.057	90.44
420.28	86.44
420.503	96.44
420.726	85.44
420.948	101.44
421.171	113.44
421.394	143.44
421.617	152.44
421.839	165.44
422.062	135.44
422.285	203.44
422.507	405.44
422.73	701.44
422.953	626.44
423.175	266.44
423.398	137.44
423.621	103.44
423.843	104.44
424.066	111.44
424.288	89.44
424.511	90.44
424.733	90.44
424.956	88.44
425.178	104.44
425.401	78.44
425.623	78.44
425.846	81.44
426.068	91.44
426.291	88.44
426.513	103.44
426.735	91.44
426.958	85.44
427.18	110.44
427.402	101.44
427.625	89.44
427.847	98.44
428.069	112.44
428.292	159.44
428.514	191.44
428.736	150.44
428.958	177.44
429.181	186.44
429.403	101.44
429.625	99.44
429.847	155.44
430.069	230.44
430.292	281.44
430.514	246.44
430.736	171.44
430.958	189.44
431.18	118.44
431.402	107.44
431.624	123.44
431.846	159.44
432.068	179.44
432.29	111.44
432.512	100.44
432.734	97.44
432.956	89.44
433.178	94.44
433.4	94.44
433.622	87.44
433.844	97.44
434.066	89.44
434.287	83.44
434.509	83.44
434.731	94.44
434.953	84.44
435.175	101.44
435.397	82.44
435.618	97.44
435.84	115.44
436.062	97.44
436.284	79.44
436.505	86.44
436.727	81.44
436.949	81.44
437.17	89.44
437.392	75.44
437.614	86.44
437.835	77.44
438.057	79.44
438.278	97.44
438.5	93.44
438.721	88.44
438.943	79.44
439.165	85.44
439.386	75.44
439.608	92.44
439.829	72.44
440.05	90.44
440.272	85.44
440.493	89.44
440.715	91.44
440.936	92.44
441.158	85.44
441.379	88.44
441.6	85.44
441.822	92.44
442.043	95.44
442.264	119.44
442.486	153.44
442.707	246.44
442.928	155.44
443.149	135.44
443.371	198.44
443.592	398.44
443.813	320.44
444.034	127.44
444.255	97.44
444.476	100.44
444.698	90.44
444.919	114.44
445.14	210.44
445.361	258.44
445.582	449.44
445.803	389.44
446.024	151.44
446.245	105.44
446.466	89.44
446.687	79.44
446.908	74.44
447.129	89.44
447.35	85.44
447.571	87.44
447.792	61.44
448.013	85.44
448.234	88.44
448.455	75.44
448.675	93.44
448.896	84.44
449.117	81.44
449.338	71.44
449.559	98.44
449.779	85.44
450	91.44
450.221	90.44
450.442	87.44
450.662	89.44
450.883	83.44
451.104	85.44
451.324	72.44
451.545	97.44
451.766	89.44
451.986	86.44
452.207	103.44
452.428	85.44
452.648	124.44
452.869	125.44
453.089	95.44
453.31	73.44
453.53	90.44
453.751	87.44
453.971	93.44
454.192	84.44
454.412	85.44
454.633	84.44
454.853	88.44
455.073	101.44
455.294	86.44
455.514	91.44
455.734	99.44
455.955	72.44
456.175	81.44
456.395	79.44
456.616	89.44
456.836	75.44
457.056	87.44
457.276	80.44
457.497	89.44
457.717	81.44
457.937	113.44
458.157	137.44
458.377	150.44
458.598	145.44
458.818	160.44
459.038	102.44
459.258	90.44
459.478	95.44
459.698	95.44
459.918	73.44
460.138	82.44
460.358	88.44
460.578	104.44
460.798	138.44
461.018	131.44
461.238	90.44
461.458	81.44
461.678	78.44
461.898	84.44
462.118	78.44
462.338	82.44
462.558	84.44
462.777	79.44
462.997	79.44
463.217	81.44
463.437	85.44
463.657	66.44
463.876	63.44
464.096	95.44
464.316	90.44
464.536	74.44
464.755	95.44
464.975	87.44
465.195	81.44
465.414	95.44
465.634	78.44
465.854	82.44
466.073	87.44
466.293	102.44
466.512	74.44
466.732	92.44
466.951	85.44
467.171	84.44
467.391	87.44
467.61	88.44
467.829	79.44
468.049	82.44
468.268	78.44
468.488	93.44
468.707	97.44
468.927	87.44
469.146	85.44
469.365	95.44
469.585	88.44
469.804	94.44
470.023	82.44
470.243	96.44
470.462	88.44
470.681	88.44
470.901	94.44
471.12	113.44
471.339	73.44
471.558	84.44
471.777	86.44
471.997	84.44
472.216	94.44
472.435	81.44
472.654	91.44
472.873	80.44
473.092	81.44
473.311	99.44
473.53	76.44
473.749	87.44
473.968	89.44
474.187	92.44
474.406	89.44
474.625	111.44
474.844	101.44
475.063	85.44
475.282	101.44
475.501	88.44
475.72	94.44
475.939	87.44
476.158	87.44
476.377	94.44
476.596	102.44
476.814	83.44
477.033	80.44
477.252	87.44
477.471	85.44
477.69	77.44
477.908	85.44
478.127	70.44
478.346	98.44
478.564	90.44
478.783	86.44
479.002	97.44
479.22	77.44
479.439	91.44
479.658	94.44
479.876	104.44
480.095	81.44
480.313	84.44
480.532	79.44
480.751	104.44
480.969	85.44
481.188	83.44
481.406	104.44
481.624	96.44
481.843	86.44
482.061	78.44
482.28	94.44
482.498	94.44
482.717	93.44
482.935	84.44
483.153	112.44
483.372	93.44
483.59	85.44
483.808	93.44
484.027	92.44
484.245	109.44
484.463	95.44
484.681	101.44
484.9	93.44
485.118	98.44
485.336	93.44
485.554	97.44
485.772	77.44
485.99	98.44
486.209	90.44
486.427	93.44
486.645	93.44
486.863	97.44
487.081	97.44
487.299	92.44
487.517	101.44
487.735	143.44
487.953	241.44
488.171	180.44
488.389	94.44
488.607	101.44
488.825	85.44
489.043	88.44
489.261	93.44
489.479	84.44
489.696	73.44
489.914	79.44
490.132	81.44
490.35	87.44
490.568	89.44
490.786	92.44
491.003	89.44
491.221	96.44
491.439	78.44
491.657	88.44
491.874	88.44
492.092	91.44
492.31	97.44
492.527	80.44
492.745	75.44
492.963	95.44
493.18	86.44
493.398	94.44
493.615	104.44
493.833	92.44
494.05	99.44
494.268	85.44
494.485	86.44
494.703	90.44
494.92	89.44
495.138	93.44
495.355	85.44
495.573	90.44
495.79	103.44
496.008	85.44
496.225	88.44
496.442	101.44
496.66	83.44
496.877	94.44
497.094	107.44
497.312	89.44
497.529	71.44
497.746	75.44
497.963	93.44
498.181	94.44
498.398	101.44
498.615	99.44
498.832	101.44
499.049	96.44
499.267	101.44
499.484	99.44
499.701	78.44
499.918	76.44
500.135	85.44
500.352	78.44
500.569	85.44
500.786	96.44
501.003	94.44
501.22	104.44
501.437	109.44
501.654	97.44
501.871	80.44
502.088	89.44
502.305	84.44
502.522	97.44
502.739	97.44
502.956	92.44
503.172	98.44
503.389	80.44
503.606	100.44
503.823	93.44
504.04	123.44
504.256	163.44
504.473	157.44
504.69	98.44
504.907	102.44
505.123	98.44
505.34	81.44
505.557	85.44
505.773	100.44
505.99	94.44
506.207	88.44
506.423	101.44
506.64	109.44
506.856	89.44
507.073	101.44
507.289	81.44
507.506	75.44
507.722	91.44
507.939	72.44
508.155	99.44
508.372	100.44
508.588	84.44
508.805	79.44
509.021	92.44
509.238	94.44
509.454	80.44
509.67	85.44
509.887	91.44
510.103	93.44
510.319	84.44
510.536	91.44
510.752	83.44
510.968	85.44
511.184	86.44
511.401	93.44
511.617	97.44
511.833	88.44
512.049	102.44
512.265	86.44
512.481	97.44
512.698	89.44
512.914	102.44
513.13	95.44
513.346	95.44
513.562	94.44
513.778	74.44
513.994	86.44
514.21	98.44
514.426	85.44
514.642	89.44
514.858	85.44
515.074	91.44
515.29	95.44
515.506	97.44
515.721	86.44
515.937	98.44
516.153	86.44
516.369	90.44
516.585	89.44
