Data from 18505_1_HRD10591_00037.txt Node
Date: Mon Jan 19 13:58:49 EST 2026
User: Yrep
Spectrometer: HR+D1059
Trigger mode: 1
Integration Time (sec): 1.000000E-1
Scans to average: 1
Electric dark correction enabled: true
Nonlinearity correction enabled: false
Boxcar width: 0
XAxis mode: Wavelengths
Number of Pixels in Spectrum: 2048
>>>>>Begin Spectral Data<<<<<
223.165	-22.5
223.4	-22.5
223.635	-22.5
223.869	-23.5
224.104	-27.5
224.338	-18.5
224.573	-2.5
224.808	-11.5
225.042	0.5
225.277	-14.5
225.511	-4.5
225.746	3.5
225.98	9.5
226.215	7.5
226.449	16.5
226.683	22.5
226.918	36.5
227.152	28.5
227.387	42.5
227.621	37.5
227.856	54.5
228.09	53.5
228.324	41.5
228.559	41.5
228.793	60.5
229.027	60.5
229.262	68.5
229.496	75.5
229.73	60.5
229.964	77.5
230.199	78.5
230.433	64.5
230.667	61.5
230.901	64.5
231.136	80.5
231.37	87.5
231.604	71.5
231.838	80.5
232.072	68.5
232.306	89.5
232.541	80.5
232.775	80.5
233.009	81.5
233.243	85.5
233.477	70.5
233.711	73.5
233.945	68.5
234.179	93.5
234.413	64.5
234.647	94.5
234.881	77.5
235.115	76.5
235.349	69.5
235.583	66.5
235.817	83.5
236.051	60.5
236.285	74.5
236.519	71.5
236.753	84.5
236.987	87.5
237.221	71.5
237.455	80.5
237.689	94.5
237.922	88.5
238.156	73.5
238.39	78.5
238.624	80.5
238.858	81.5
239.091	86.5
239.325	80.5
239.559	62.5
239.793	73.5
240.027	68.5
240.26	76.5
240.494	79.5
240.728	65.5
240.961	75.5
241.195	85.5
241.429	74.5
241.662	73.5
241.896	85.5
242.13	74.5
242.363	64.5
242.597	78.5
242.83	76.5
243.064	82.5
243.298	74.5
243.531	72.5
243.765	73.5
243.998	74.5
244.232	82.5
244.465	67.5
244.699	85.5
244.932	84.5
245.166	82.5
245.399	92.5
245.633	65.5
245.866	90.5
246.099	74.5
246.333	89.5
246.566	65.5
246.8	81.5
247.033	66.5
247.266	71.5
247.5	77.5
247.733	67.5
247.966	86.5
248.2	55.5
248.433	79.5
248.666	73.5
248.899	87.5
249.133	74.5
249.366	75.5
249.599	83.5
249.832	87.5
250.066	87.5
250.299	87.5
250.532	97.5
250.765	78.5
250.998	88.5
251.231	80.5
251.465	69.5
251.698	64.5
251.931	89.5
252.164	70.5
252.397	72.5
252.63	86.5
252.863	80.5
253.096	79.5
253.329	77.5
253.562	53.5
253.795	62.5
254.028	66.5
254.261	73.5
254.494	88.5
254.727	76.5
254.96	64.5
255.193	78.5
255.426	83.5
255.659	81.5
255.892	85.5
256.124	83.5
256.357	84.5
256.59	84.5
256.823	81.5
257.056	78.5
257.289	81.5
257.521	78.5
257.754	73.5
257.987	81.5
258.22	72.5
258.452	68.5
258.685	80.5
258.918	74.5
259.151	75.5
259.383	82.5
259.616	77.5
259.849	77.5
260.081	88.5
260.314	84.5
260.547	75.5
260.779	79.5
261.012	82.5
261.244	58.5
261.477	87.5
261.71	97.5
261.942	83.5
262.175	85.5
262.407	79.5
262.64	79.5
262.872	80.5
263.105	75.5
263.337	65.5
263.57	73.5
263.802	90.5
264.035	73.5
264.267	73.5
264.499	70.5
264.732	88.5
264.964	93.5
265.197	84.5
265.429	80.5
265.661	81.5
265.894	87.5
266.126	73.5
266.358	77.5
266.591	64.5
266.823	72.5
267.055	63.5
267.287	85.5
267.52	78.5
267.752	93.5
267.984	73.5
268.216	76.5
268.448	81.5
268.681	83.5
268.913	90.5
269.145	78.5
269.377	77.5
269.609	72.5
269.841	91.5
270.073	88.5
270.306	89.5
270.538	86.5
270.77	70.5
271.002	89.5
271.234	82.5
271.466	69.5
271.698	72.5
271.93	96.5
272.162	79.5
272.394	81.5
272.626	83.5
272.858	70.5
273.09	80.5
273.322	85.5
273.553	94.5
273.785	81.5
274.017	84.5
274.249	85.5
274.481	92.5
274.713	76.5
274.945	97.5
275.176	87.5
275.408	72.5
275.64	74.5
275.872	81.5
276.104	64.5
276.335	84.5
276.567	68.5
276.799	78.5
277.031	70.5
277.262	83.5
277.494	80.5
277.726	87.5
277.957	87.5
278.189	97.5
278.421	74.5
278.652	73.5
278.884	71.5
279.115	62.5
279.347	74.5
279.579	92.5
279.81	95.5
280.042	80.5
280.273	81.5
280.505	87.5
280.736	79.5
280.968	92.5
281.199	83.5
281.431	72.5
281.662	85.5
281.894	92.5
282.125	84.5
282.356	85.5
282.588	93.5
282.819	87.5
283.051	74.5
283.282	84.5
283.513	74.5
283.745	97.5
283.976	87.5
284.207	88.5
284.439	80.5
284.67	81.5
284.901	77.5
285.132	82.5
285.364	102.5
285.595	82.5
285.826	93.5
286.057	87.5
286.288	76.5
286.52	109.5
286.751	79.5
286.982	79.5
287.213	100.5
287.444	76.5
287.675	75.5
287.906	81.5
288.138	93.5
288.369	86.5
288.6	101.5
288.831	89.5
289.062	84.5
289.293	82.5
289.524	85.5
289.755	87.5
289.986	85.5
290.217	95.5
290.448	100.5
290.679	88.5
290.91	92.5
291.141	77.5
291.371	77.5
291.602	85.5
291.833	83.5
292.064	87.5
292.295	90.5
292.526	83.5
292.757	80.5
292.987	94.5
293.218	87.5
293.449	82.5
293.68	66.5
293.91	75.5
294.141	82.5
294.372	100.5
294.603	103.5
294.833	86.5
295.064	102.5
295.295	93.5
295.525	88.5
295.756	85.5
295.987	86.5
296.217	95.5
296.448	82.5
296.679	80.5
296.909	97.5
297.14	84.5
297.37	83.5
297.601	83.5
297.831	88.5
298.062	77.5
298.292	92.5
298.523	89.5
298.753	82.5
298.984	75.5
299.214	96.5
299.445	82.5
299.675	83.5
299.905	76.5
300.136	90.5
300.366	94.5
300.597	95.5
300.827	112.5
301.057	72.5
301.288	76.5
301.518	85.5
301.748	94.5
301.979	100.5
302.209	85.5
302.439	92.5
302.669	83.5
302.9	88.5
303.13	78.5
303.36	98.5
303.59	95.5
303.82	92.5
304.051	84.5
304.281	96.5
304.511	94.5
304.741	78.5
304.971	89.5
305.201	85.5
305.431	85.5
305.661	80.5
305.891	77.5
306.121	74.5
306.352	86.5
306.582	79.5
306.812	65.5
307.042	87.5
307.272	84.5
307.502	95.5
307.731	79.5
307.961	97.5
308.191	72.5
308.421	84.5
308.651	96.5
308.881	76.5
309.111	74.5
309.341	88.5
309.571	92.5
309.8	89.5
310.03	79.5
310.26	72.5
310.49	95.5
310.72	88.5
310.949	80.5
311.179	92.5
311.409	74.5
311.639	84.5
311.868	79.5
312.098	90.5
312.328	94.5
312.557	100.5
312.787	97.5
313.017	86.5
313.246	90.5
313.476	82.5
313.706	91.5
313.935	90.5
314.165	86.5
314.394	88.5
314.624	94.5
314.853	80.5
315.083	88.5
315.312	109.5
315.542	88.5
315.771	104.5
316.001	93.5
316.23	93.5
316.46	80.5
316.689	82.5
316.919	75.5
317.148	89.5
317.377	116.5
317.607	85.5
317.836	97.5
318.065	101.5
318.295	100.5
318.524	80.5
318.753	88.5
318.983	85.5
319.212	84.5
319.441	82.5
319.67	78.5
319.9	75.5
320.129	82.5
320.358	80.5
320.587	80.5
320.816	78.5
321.046	85.5
321.275	82.5
321.504	74.5
321.733	75.5
321.962	80.5
322.191	82.5
322.42	85.5
322.649	96.5
322.878	84.5
323.108	94.5
323.337	86.5
323.566	90.5
323.795	80.5
324.024	83.5
324.253	78.5
324.482	101.5
324.71	93.5
324.939	80.5
325.168	86.5
325.397	78.5
325.626	95.5
325.855	76.5
326.084	99.5
326.313	79.5
326.542	100.5
326.77	90.5
326.999	85.5
327.228	74.5
327.457	80.5
327.686	97.5
327.914	86.5
328.143	80.5
328.372	85.5
328.6	96.5
328.829	97.5
329.058	82.5
329.287	80.5
329.515	84.5
329.744	88.5
329.972	75.5
330.201	90.5
330.43	81.5
330.658	73.5
330.887	80.5
331.115	72.5
331.344	79.5
331.572	76.5
331.801	69.5
332.03	84.5
332.258	89.5
332.486	92.5
332.715	85.5
332.943	69.5
333.172	96.5
333.4	80.5
333.629	81.5
333.857	72.5
334.085	80.5
334.314	79.5
334.542	88.5
334.771	92.5
334.999	96.5
335.227	78.5
335.455	84.5
335.684	94.5
335.912	74.5
336.14	89.5
336.369	73.5
336.597	105.5
336.825	80.5
337.053	85.5
337.281	89.5
337.51	105.5
337.738	94.5
337.966	68.5
338.194	94.5
338.422	80.5
338.65	81.5
338.878	83.5
339.106	81.5
339.334	79.5
339.562	79.5
339.79	104.5
340.018	77.5
340.246	86.5
340.474	81.5
340.702	94.5
340.93	101.5
341.158	83.5
341.386	90.5
341.614	76.5
341.842	89.5
342.07	74.5
342.298	80.5
342.526	97.5
342.754	89.5
342.981	77.5
343.209	88.5
343.437	98.5
343.665	77.5
343.893	98.5
344.12	97.5
344.348	85.5
344.576	100.5
344.804	94.5
345.031	79.5
345.259	82.5
345.487	89.5
345.714	74.5
345.942	87.5
346.17	90.5
346.397	78.5
346.625	69.5
346.853	76.5
347.08	88.5
347.308	88.5
347.535	83.5
347.763	78.5
347.99	81.5
348.218	88.5
348.445	92.5
348.673	73.5
348.9	81.5
349.128	77.5
349.355	86.5
349.583	88.5
349.81	105.5
350.037	81.5
350.265	93.5
350.492	84.5
350.72	85.5
350.947	81.5
351.174	84.5
351.402	101.5
351.629	108.5
351.856	84.5
352.083	82.5
352.311	83.5
352.538	88.5
352.765	94.5
352.992	103.5
353.22	90.5
353.447	84.5
353.674	82.5
353.901	97.5
354.128	89.5
354.355	100.5
354.583	94.5
354.81	79.5
355.037	62.5
355.264	86.5
355.491	77.5
355.718	69.5
355.945	87.5
356.172	72.5
356.399	92.5
356.626	97.5
356.853	90.5
357.08	92.5
357.307	93.5
357.534	89.5
357.761	84.5
357.988	70.5
358.215	97.5
358.441	97.5
358.668	79.5
358.895	94.5
359.122	76.5
359.349	88.5
359.576	71.5
359.802	89.5
360.029	94.5
360.256	100.5
360.483	95.5
360.709	95.5
360.936	89.5
361.163	88.5
361.39	95.5
361.616	96.5
361.843	81.5
362.07	88.5
362.296	80.5
362.523	83.5
362.749	90.5
362.976	92.5
363.203	90.5
363.429	88.5
363.656	102.5
363.882	99.5
364.109	89.5
364.335	107.5
364.562	117.5
364.788	95.5
365.015	95.5
365.241	74.5
365.468	94.5
365.694	92.5
365.92	91.5
366.147	78.5
366.373	94.5
366.599	80.5
366.826	92.5
367.052	76.5
367.278	79.5
367.505	87.5
367.731	92.5
367.957	85.5
368.184	99.5
368.41	89.5
368.636	81.5
368.862	88.5
369.089	87.5
369.315	94.5
369.541	84.5
369.767	91.5
369.993	84.5
370.219	88.5
370.445	80.5
370.672	101.5
370.898	88.5
371.124	82.5
371.35	71.5
371.576	88.5
371.802	87.5
372.028	89.5
372.254	99.5
372.48	70.5
372.706	82.5
372.932	91.5
373.158	86.5
373.384	96.5
373.61	108.5
373.835	119.5
374.061	89.5
374.287	79.5
374.513	86.5
374.739	100.5
374.965	88.5
375.191	96.5
375.416	86.5
375.642	82.5
375.868	87.5
376.094	93.5
376.319	78.5
376.545	92.5
376.771	79.5
376.997	81.5
377.222	92.5
377.448	86.5
377.674	88.5
377.899	75.5
378.125	79.5
378.35	92.5
378.576	79.5
378.802	77.5
379.027	78.5
379.253	93.5
379.478	97.5
379.704	72.5
379.929	76.5
380.155	78.5
380.38	84.5
380.606	95.5
380.831	73.5
381.057	97.5
381.282	87.5
381.507	77.5
381.733	86.5
381.958	94.5
382.184	74.5
382.409	74.5
382.634	89.5
382.86	96.5
383.085	97.5
383.31	91.5
383.535	94.5
383.761	101.5
383.986	84.5
384.211	82.5
384.436	97.5
384.662	88.5
384.887	86.5
385.112	83.5
385.337	91.5
385.562	93.5
385.787	88.5
386.013	84.5
386.238	90.5
386.463	97.5
386.688	98.5
386.913	90.5
387.138	98.5
387.363	96.5
387.588	97.5
387.813	88.5
388.038	88.5
388.263	86.5
388.488	77.5
388.713	78.5
388.938	86.5
389.163	101.5
389.387	83.5
389.612	74.5
389.837	93.5
390.062	87.5
390.287	76.5
390.512	82.5
390.736	87.5
390.961	78.5
391.186	74.5
391.411	89.5
391.636	84.5
391.86	92.5
392.085	88.5
392.31	87.5
392.534	97.5
392.759	118.5
392.984	182.5
393.208	365.5
393.433	587.5
393.658	442.5
393.882	163.5
394.107	122.5
394.331	114.5
394.556	113.5
394.78	108.5
395.005	86.5
395.229	85.5
395.454	82.5
395.678	78.5
395.903	118.5
396.127	134.5
396.352	146.5
396.576	218.5
396.801	373.5
397.025	455.5
397.249	221.5
397.474	113.5
397.698	94.5
397.922	84.5
398.147	88.5
398.371	97.5
398.595	78.5
398.82	83.5
399.044	92.5
399.268	76.5
399.492	71.5
399.717	86.5
399.941	96.5
400.165	91.5
400.389	90.5
400.613	93.5
400.837	80.5
401.062	77.5
401.286	94.5
401.51	82.5
401.734	92.5
401.958	89.5
402.182	90.5
402.406	83.5
402.63	93.5
402.854	92.5
403.078	84.5
403.302	82.5
403.526	91.5
403.75	82.5
403.974	97.5
404.198	93.5
404.422	92.5
404.645	106.5
404.869	98.5
405.093	96.5
405.317	86.5
405.541	93.5
405.765	80.5
405.988	85.5
406.212	71.5
406.436	75.5
406.66	84.5
406.883	80.5
407.107	83.5
407.331	102.5
407.555	83.5
407.778	122.5
408.002	119.5
408.226	97.5
408.449	81.5
408.673	85.5
408.896	86.5
409.12	88.5
409.344	90.5
409.567	95.5
409.791	93.5
410.014	100.5
410.238	80.5
410.461	76.5
410.685	79.5
410.908	76.5
411.132	100.5
411.355	83.5
411.578	80.5
411.802	62.5
412.025	84.5
412.249	88.5
412.472	85.5
412.695	73.5
412.919	90.5
413.142	84.5
413.365	84.5
413.589	73.5
413.812	84.5
414.035	87.5
414.258	81.5
414.482	92.5
414.705	79.5
414.928	96.5
415.151	90.5
415.374	76.5
415.597	76.5
415.821	86.5
416.044	88.5
416.267	97.5
416.49	75.5
416.713	92.5
416.936	92.5
417.159	88.5
417.382	92.5
417.605	84.5
417.828	88.5
418.051	76.5
418.274	79.5
418.497	90.5
418.72	82.5
418.943	87.5
419.166	84.5
419.389	71.5
419.611	75.5
419.834	89.5
420.057	82.5
420.28	96.5
420.503	82.5
420.726	85.5
420.948	74.5
421.171	98.5
421.394	108.5
421.617	123.5
421.839	113.5
422.062	119.5
422.285	153.5
422.507	289.5
422.73	488.5
422.953	428.5
423.175	177.5
423.398	112.5
423.621	84.5
423.843	101.5
424.066	98.5
424.288	97.5
424.511	96.5
424.733	82.5
424.956	84.5
425.178	90.5
425.401	74.5
425.623	102.5
425.846	90.5
426.068	80.5
426.291	101.5
426.513	86.5
426.735	88.5
426.958	82.5
427.18	88.5
427.402	84.5
427.625	90.5
427.847	88.5
428.069	98.5
428.292	131.5
428.514	140.5
428.736	118.5
428.958	132.5
429.181	151.5
429.403	79.5
429.625	93.5
429.847	129.5
430.069	146.5
430.292	189.5
430.514	176.5
430.736	134.5
430.958	144.5
431.18	106.5
431.402	96.5
431.624	97.5
431.846	121.5
432.068	139.5
432.29	85.5
432.512	87.5
432.734	76.5
432.956	83.5
433.178	84.5
433.4	90.5
433.622	77.5
433.844	90.5
434.066	80.5
434.287	68.5
434.509	81.5
434.731	90.5
434.953	83.5
435.175	87.5
435.397	76.5
435.618	93.5
435.84	92.5
436.062	91.5
436.284	81.5
436.505	91.5
436.727	64.5
436.949	77.5
437.17	88.5
437.392	79.5
437.614	79.5
437.835	79.5
438.057	67.5
438.278	89.5
438.5	82.5
438.721	93.5
438.943	84.5
439.165	88.5
439.386	84.5
439.608	82.5
439.829	85.5
440.05	76.5
440.272	84.5
440.493	76.5
440.715	77.5
440.936	84.5
441.158	92.5
441.379	81.5
441.6	74.5
441.822	94.5
442.043	74.5
442.264	86.5
442.486	121.5
442.707	155.5
442.928	114.5
443.149	114.5
443.371	145.5
443.592	232.5
443.813	183.5
444.034	103.5
444.255	94.5
444.476	93.5
444.698	105.5
444.919	83.5
445.14	177.5
445.361	198.5
445.582	271.5
445.803	226.5
446.024	101.5
446.245	101.5
446.466	79.5
446.687	81.5
446.908	78.5
447.129	98.5
447.35	80.5
447.571	70.5
447.792	99.5
448.013	78.5
448.234	75.5
448.455	81.5
448.675	88.5
448.896	71.5
449.117	75.5
449.338	92.5
449.559	92.5
449.779	57.5
450	60.5
450.221	84.5
450.442	74.5
450.662	69.5
450.883	81.5
451.104	85.5
451.324	84.5
451.545	88.5
451.766	87.5
451.986	71.5
452.207	79.5
452.428	96.5
452.648	97.5
452.869	92.5
453.089	76.5
453.31	64.5
453.53	84.5
453.751	85.5
453.971	78.5
454.192	84.5
454.412	81.5
454.633	79.5
454.853	82.5
455.073	83.5
455.294	96.5
455.514	95.5
455.734	94.5
455.955	86.5
456.175	94.5
456.395	82.5
456.616	92.5
456.836	92.5
457.056	79.5
457.276	92.5
457.497	85.5
457.717	80.5
457.937	112.5
458.157	110.5
458.377	109.5
458.598	97.5
458.818	121.5
459.038	84.5
459.258	90.5
459.478	77.5
459.698	80.5
459.918	90.5
460.138	96.5
460.358	73.5
460.578	88.5
460.798	100.5
461.018	118.5
461.238	77.5
461.458	82.5
461.678	78.5
461.898	77.5
462.118	94.5
462.338	79.5
462.558	90.5
462.777	88.5
462.997	84.5
463.217	97.5
463.437	73.5
463.657	80.5
463.876	85.5
464.096	85.5
464.316	87.5
464.536	81.5
464.755	85.5
464.975	85.5
465.195	93.5
465.414	96.5
465.634	82.5
465.854	84.5
466.073	85.5
466.293	83.5
466.512	95.5
466.732	89.5
466.951	85.5
467.171	75.5
467.391	81.5
467.61	78.5
467.829	75.5
468.049	73.5
468.268	81.5
468.488	80.5
468.707	75.5
468.927	76.5
469.146	89.5
469.365	95.5
469.585	88.5
469.804	89.5
470.023	81.5
470.243	87.5
470.462	92.5
470.681	90.5
470.901	78.5
471.12	77.5
471.339	74.5
471.558	81.5
471.777	83.5
471.997	85.5
472.216	81.5
472.435	90.5
472.654	89.5
472.873	94.5
473.092	89.5
473.311	80.5
473.53	76.5
473.749	79.5
473.968	92.5
474.187	92.5
474.406	77.5
474.625	78.5
474.844	94.5
475.063	80.5
475.282	87.5
475.501	81.5
475.72	69.5
475.939	85.5
476.158	69.5
476.377	72.5
476.596	75.5
476.814	79.5
477.033	93.5
477.252	83.5
477.471	92.5
477.69	71.5
477.908	81.5
478.127	94.5
478.346	72.5
478.564	95.5
478.783	83.5
479.002	94.5
479.22	95.5
479.439	73.5
479.658	82.5
479.876	86.5
480.095	88.5
480.313	80.5
480.532	84.5
480.751	91.5
480.969	90.5
481.188	84.5
481.406	92.5
481.624	103.5
481.843	84.5
482.061	92.5
482.28	86.5
482.498	71.5
482.717	83.5
482.935	83.5
483.153	85.5
483.372	86.5
483.59	80.5
483.808	89.5
484.027	78.5
484.245	89.5
484.463	84.5
484.681	92.5
484.9	98.5
485.118	86.5
485.336	96.5
485.554	95.5
485.772	84.5
485.99	80.5
486.209	72.5
486.427	84.5
486.645	90.5
486.863	99.5
487.081	83.5
487.299	92.5
487.517	97.5
487.735	97.5
487.953	126.5
488.171	100.5
488.389	94.5
488.607	83.5
488.825	81.5
489.043	88.5
489.261	86.5
489.479	84.5
489.696	87.5
489.914	85.5
490.132	81.5
490.35	101.5
490.568	92.5
490.786	81.5
491.003	87.5
491.221	84.5
491.439	85.5
491.657	86.5
491.874	62.5
492.092	86.5
492.31	87.5
492.527	87.5
492.745	80.5
492.963	96.5
493.18	98.5
493.398	92.5
493.615	91.5
493.833	89.5
494.05	88.5
494.268	101.5
494.485	81.5
494.703	100.5
494.92	95.5
495.138	80.5
495.355	97.5
495.573	96.5
495.79	81.5
496.008	100.5
496.225	77.5
496.442	84.5
496.66	73.5
496.877	92.5
497.094	89.5
497.312	87.5
497.529	95.5
497.746	82.5
497.963	93.5
498.181	98.5
498.398	83.5
498.615	92.5
498.832	84.5
499.049	66.5
499.267	89.5
499.484	83.5
499.701	85.5
499.918	74.5
500.135	98.5
500.352	93.5
500.569	91.5
500.786	96.5
501.003	79.5
501.22	88.5
501.437	101.5
501.654	82.5
501.871	89.5
502.088	92.5
502.305	86.5
502.522	88.5
502.739	89.5
502.956	83.5
503.172	89.5
503.389	90.5
503.606	72.5
503.823	85.5
504.04	89.5
504.256	100.5
504.473	102.5
504.69	85.5
504.907	95.5
505.123	94.5
505.34	84.5
505.557	85.5
505.773	98.5
505.99	64.5
506.207	76.5
506.423	91.5
506.64	93.5
506.856	81.5
507.073	79.5
507.289	83.5
507.506	80.5
507.722	92.5
507.939	84.5
508.155	86.5
508.372	83.5
508.588	92.5
508.805	89.5
509.021	81.5
509.238	88.5
509.454	70.5
509.67	88.5
509.887	84.5
510.103	88.5
510.319	75.5
510.536	84.5
510.752	88.5
510.968	82.5
511.184	79.5
511.401	70.5
511.617	84.5
511.833	82.5
512.049	75.5
512.265	86.5
512.481	90.5
512.698	90.5
512.914	88.5
513.13	89.5
513.346	78.5
513.562	96.5
513.778	79.5
513.994	84.5
514.21	74.5
514.426	83.5
514.642	100.5
514.858	84.5
515.074	88.5
515.29	96.5
515.506	74.5
515.721	90.5
515.937	95.5
516.153	74.5
516.369	80.5
516.585	83.5
516.801	86.5
517.016	89.5
517.232	91.5
517.448	108.5
517.664	86.5
517.879	87.5
518.095	87.5
518.311	91.5
518.527	118.5
518.742	112.5
518.958	119.5
519.173	141.5
519.389	88.5
519.605	92.5
519.82	90.5
520.036	98.5
520.251	93.5
520.467	101.5
520.682	82.5
520.898	84.5
521.113	89.5
521.329	87.5
521.544	83.5
521.76	66.5
521.975	78.5
522.19	87.5
522.406	85.5
522.621	96.5
522.836	77.5
523.052	94.5
523.267	99.5
523.482	79.5
523.698	84.5
523.913	86.5
524.128	83.5
524.343	72.5
524.559	86.5
524.774	85.5
524.989	78.5
525.204	88.5
525.419	82.5
525.634	87.5
525.849	101.5
526.064	118.5
526.28	173.5
526.495	238.5
526.71	274.5
526.925	186.5
527.14	241.5
527.355	239.5
527.57	116.5
527.785	89.5
527.999	92.5
528.214	84.5
528.429	88.5
528.644	83.5
528.859	101.5
529.074	89.5
529.289	75.5
529.503	84.5
529.718	87.5
529.933	88.5
530.148	84.5
530.363	98.5
530.577	90.5
530.792	84.5
531.007	79.5
531.221	84.5
531.436	101.5
531.651	80.5
531.865	99.5
532.08	105.5
532.295	88.5
532.509	89.5
532.724	100.5
532.938	105.5
533.153	78.5
533.367	94.5
533.582	92.5
533.796	90.5
534.011	88.5
534.225	92.5
534.44	93.5
534.654	103.5
534.868	103.5
535.083	135.5
535.297	136.5
535.511	101.5
535.726	109.5
535.94	87.5
536.154	93.5
536.369	97.5
536.583	97.5
536.797	96.5
537.011	89.5
537.225	90.5
537.44	102.5
537.654	106.5
537.868	88.5
538.082	83.5
538.296	95.5
538.51	104.5
