Data from 18505_1_HRD10591_00049.txt Node
Date: Mon Jan 19 13:58:55 EST 2026
User: Yrep
Spectrometer: HR+D1059
Trigger mode: 1
Integration Time (sec): 1.000000E-1
Scans to average: 1
Electric dark correction enabled: true
Nonlinearity correction enabled: false
Boxcar width: 0
XAxis mode: Wavelengths
Number of Pixels in Spectrum: 2048
>>>>>Begin Spectral Data<<<<<
223.165	-3.69
223.4	-3.69
223.635	-3.69
223.869	-14.69
224.104	-23.69
224.338	-18.69
224.573	-16.69
224.808	3.31
225.042	-11.69
225.277	-13.69
225.511	-4.69
225.746	5.31
225.98	3.31
226.215	2.31
226.449	10.31
226.683	38.31
226.918	19.31
227.152	25.31
227.387	47.31
227.621	27.31
227.856	45.31
228.09	48.31
228.324	46.31
228.559	60.31
228.793	64.31
229.027	53.31
229.262	71.31
229.496	71.31
229.73	70.31
229.964	74.31
230.199	73.31
230.433	82.31
230.667	87.31
230.901	84.31
231.136	73.31
231.37	81.31
231.604	70.31
231.838	77.31
232.072	69.31
232.306	86.31
232.541	69.31
232.775	80.31
233.009	73.31
233.243	79.31
233.477	93.31
233.711	82.31
233.945	71.31
234.179	79.31
234.413	86.31
234.647	73.31
234.881	93.31
235.115	78.31
235.349	72.31
235.583	86.31
235.817	71.31
236.051	74.31
236.285	79.31
236.519	75.31
236.753	81.31
236.987	81.31
237.221	83.31
237.455	79.31
237.689	86.31
237.922	63.31
238.156	81.31
238.39	79.31
238.624	76.31
238.858	74.31
239.091	77.31
239.325	81.31
239.559	82.31
239.793	70.31
240.027	84.31
240.26	80.31
240.494	77.31
240.728	90.31
240.961	73.31
241.195	72.31
241.429	79.31
241.662	83.31
241.896	77.31
242.13	72.31
242.363	65.31
242.597	76.31
242.83	74.31
243.064	71.31
243.298	75.31
243.531	80.31
243.765	76.31
243.998	83.31
244.232	77.31
244.465	90.31
244.699	72.31
244.932	69.31
245.166	75.31
245.399	95.31
245.633	97.31
245.866	91.31
246.099	81.31
246.333	79.31
246.566	69.31
246.8	71.31
247.033	78.31
247.266	72.31
247.5	73.31
247.733	75.31
247.966	85.31
248.2	76.31
248.433	84.31
248.666	77.31
248.899	84.31
249.133	76.31
249.366	75.31
249.599	88.31
249.832	83.31
250.066	83.31
250.299	79.31
250.532	69.31
250.765	74.31
250.998	90.31
251.231	80.31
251.465	89.31
251.698	91.31
251.931	84.31
252.164	92.31
252.397	82.31
252.63	77.31
252.863	75.31
253.096	86.31
253.329	87.31
253.562	77.31
253.795	88.31
254.028	78.31
254.261	79.31
254.494	81.31
254.727	77.31
254.96	81.31
255.193	75.31
255.426	86.31
255.659	85.31
255.892	89.31
256.124	65.31
256.357	81.31
256.59	88.31
256.823	88.31
257.056	81.31
257.289	78.31
257.521	92.31
257.754	94.31
257.987	80.31
258.22	81.31
258.452	89.31
258.685	82.31
258.918	79.31
259.151	66.31
259.383	95.31
259.616	73.31
259.849	102.31
260.081	79.31
260.314	79.31
260.547	78.31
260.779	81.31
261.012	92.31
261.244	90.31
261.477	84.31
261.71	79.31
261.942	77.31
262.175	79.31
262.407	82.31
262.64	83.31
262.872	75.31
263.105	96.31
263.337	89.31
263.57	81.31
263.802	86.31
264.035	85.31
264.267	75.31
264.499	88.31
264.732	91.31
264.964	75.31
265.197	91.31
265.429	83.31
265.661	83.31
265.894	81.31
266.126	80.31
266.358	79.31
266.591	89.31
266.823	80.31
267.055	99.31
267.287	89.31
267.52	68.31
267.752	102.31
267.984	82.31
268.216	91.31
268.448	86.31
268.681	82.31
268.913	78.31
269.145	72.31
269.377	78.31
269.609	102.31
269.841	78.31
270.073	83.31
270.306	91.31
270.538	84.31
270.77	89.31
271.002	92.31
271.234	81.31
271.466	86.31
271.698	90.31
271.93	90.31
272.162	86.31
272.394	95.31
272.626	80.31
272.858	81.31
273.09	83.31
273.322	85.31
273.553	69.31
273.785	89.31
274.017	76.31
274.249	85.31
274.481	103.31
274.713	85.31
274.945	104.31
275.176	84.31
275.408	80.31
275.64	85.31
275.872	100.31
276.104	95.31
276.335	85.31
276.567	89.31
276.799	94.31
277.031	78.31
277.262	105.31
277.494	86.31
277.726	73.31
277.957	105.31
278.189	67.31
278.421	91.31
278.652	81.31
278.884	81.31
279.115	78.31
279.347	100.31
279.579	95.31
279.81	97.31
280.042	83.31
280.273	93.31
280.505	85.31
280.736	94.31
280.968	80.31
281.199	79.31
281.431	91.31
281.662	92.31
281.894	80.31
282.125	95.31
282.356	71.31
282.588	82.31
282.819	87.31
283.051	99.31
283.282	94.31
283.513	98.31
283.745	86.31
283.976	79.31
284.207	82.31
284.439	90.31
284.67	74.31
284.901	75.31
285.132	92.31
285.364	106.31
285.595	102.31
285.826	89.31
286.057	89.31
286.288	83.31
286.52	88.31
286.751	79.31
286.982	74.31
287.213	88.31
287.444	92.31
287.675	79.31
287.906	91.31
288.138	97.31
288.369	100.31
288.6	67.31
288.831	83.31
289.062	89.31
289.293	85.31
289.524	88.31
289.755	92.31
289.986	89.31
290.217	94.31
290.448	85.31
290.679	101.31
290.91	84.31
291.141	81.31
291.371	81.31
291.602	93.31
291.833	97.31
292.064	81.31
292.295	86.31
292.526	87.31
292.757	97.31
292.987	89.31
293.218	83.31
293.449	82.31
293.68	85.31
293.91	80.31
294.141	87.31
294.372	97.31
294.603	89.31
294.833	82.31
295.064	81.31
295.295	70.31
295.525	99.31
295.756	75.31
295.987	91.31
296.217	96.31
296.448	91.31
296.679	85.31
296.909	87.31
297.14	82.31
297.37	88.31
297.601	81.31
297.831	78.31
298.062	89.31
298.292	94.31
298.523	89.31
298.753	91.31
298.984	72.31
299.214	76.31
299.445	87.31
299.675	102.31
299.905	71.31
300.136	99.31
300.366	99.31
300.597	99.31
300.827	101.31
301.057	105.31
301.288	99.31
301.518	85.31
301.748	89.31
301.979	104.31
302.209	103.31
302.439	84.31
302.669	83.31
302.9	98.31
303.13	55.31
303.36	91.31
303.59	89.31
303.82	79.31
304.051	82.31
304.281	82.31
304.511	88.31
304.741	81.31
304.971	91.31
305.201	75.31
305.431	84.31
305.661	91.31
305.891	100.31
306.121	91.31
306.352	88.31
306.582	93.31
306.812	91.31
307.042	95.31
307.272	95.31
307.502	83.31
307.731	70.31
307.961	89.31
308.191	97.31
308.421	113.31
308.651	104.31
308.881	98.31
309.111	88.31
309.341	112.31
309.571	101.31
309.8	98.31
310.03	84.31
310.26	95.31
310.49	97.31
310.72	84.31
310.949	88.31
311.179	90.31
311.409	77.31
311.639	83.31
311.868	85.31
312.098	85.31
312.328	87.31
312.557	88.31
312.787	82.31
313.017	82.31
313.246	82.31
313.476	82.31
313.706	88.31
313.935	73.31
314.165	90.31
314.394	84.31
314.624	67.31
314.853	80.31
315.083	85.31
315.312	106.31
315.542	95.31
315.771	115.31
316.001	129.31
316.23	115.31
316.46	86.31
316.689	93.31
316.919	91.31
317.148	104.31
317.377	104.31
317.607	122.31
317.836	139.31
318.065	143.31
318.295	131.31
318.524	107.31
318.753	86.31
318.983	87.31
319.212	88.31
319.441	82.31
319.67	79.31
319.9	96.31
320.129	89.31
320.358	95.31
320.587	91.31
320.816	100.31
321.046	84.31
321.275	85.31
321.504	84.31
321.733	79.31
321.962	97.31
322.191	94.31
322.42	92.31
322.649	88.31
322.878	99.31
323.108	98.31
323.337	96.31
323.566	83.31
323.795	69.31
324.024	80.31
324.253	72.31
324.482	84.31
324.71	75.31
324.939	86.31
325.168	85.31
325.397	91.31
325.626	92.31
325.855	86.31
326.084	89.31
326.313	79.31
326.542	80.31
326.77	95.31
326.999	86.31
327.228	75.31
327.457	83.31
327.686	82.31
327.914	100.31
328.143	97.31
328.372	79.31
328.6	79.31
328.829	89.31
329.058	93.31
329.287	91.31
329.515	72.31
329.744	91.31
329.972	84.31
330.201	85.31
330.43	73.31
330.658	74.31
330.887	81.31
331.115	95.31
331.344	73.31
331.572	81.31
331.801	75.31
332.03	80.31
332.258	75.31
332.486	75.31
332.715	89.31
332.943	87.31
333.172	94.31
333.4	92.31
333.629	94.31
333.857	99.31
334.085	90.31
334.314	105.31
334.542	102.31
334.771	91.31
334.999	111.31
335.227	100.31
335.455	93.31
335.684	97.31
335.912	100.31
336.14	91.31
336.369	109.31
336.597	91.31
336.825	105.31
337.053	81.31
337.281	90.31
337.51	96.31
337.738	97.31
337.966	97.31
338.194	98.31
338.422	93.31
338.65	84.31
338.878	103.31
339.106	78.31
339.334	95.31
339.562	94.31
339.79	91.31
340.018	77.31
340.246	84.31
340.474	80.31
340.702	90.31
340.93	90.31
341.158	82.31
341.386	81.31
341.614	80.31
341.842	94.31
342.07	88.31
342.298	81.31
342.526	86.31
342.754	97.31
342.981	83.31
343.209	83.31
343.437	98.31
343.665	79.31
343.893	88.31
344.12	95.31
344.348	102.31
344.576	93.31
344.804	86.31
345.031	82.31
345.259	88.31
345.487	91.31
345.714	88.31
345.942	83.31
346.17	72.31
346.397	101.31
346.625	85.31
346.853	82.31
347.08	82.31
347.308	90.31
347.535	106.31
347.763	99.31
347.99	94.31
348.218	78.31
348.445	85.31
348.673	85.31
348.9	100.31
349.128	95.31
349.355	90.31
349.583	84.31
349.81	95.31
350.037	100.31
350.265	96.31
350.492	101.31
350.72	95.31
350.947	86.31
351.174	90.31
351.402	88.31
351.629	91.31
351.856	74.31
352.083	85.31
352.311	81.31
352.538	109.31
352.765	90.31
352.992	99.31
353.22	85.31
353.447	88.31
353.674	81.31
353.901	90.31
354.128	90.31
354.355	83.31
354.583	91.31
354.81	83.31
355.037	99.31
355.264	96.31
355.491	91.31
355.718	95.31
355.945	90.31
356.172	91.31
356.399	94.31
356.626	100.31
356.853	101.31
357.08	95.31
357.307	107.31
357.534	102.31
357.761	97.31
357.988	99.31
358.215	103.31
358.441	116.31
358.668	98.31
358.895	89.31
359.122	87.31
359.349	86.31
359.576	85.31
359.802	99.31
360.029	90.31
360.256	109.31
360.483	94.31
360.709	100.31
360.936	103.31
361.163	92.31
361.39	93.31
361.616	88.31
361.843	101.31
362.07	102.31
362.296	97.31
362.523	114.31
362.749	129.31
362.976	128.31
363.203	157.31
363.429	105.31
363.656	106.31
363.882	116.31
364.109	133.31
364.335	157.31
364.562	179.31
364.788	115.31
365.015	101.31
365.241	85.31
365.468	91.31
365.694	93.31
365.92	86.31
366.147	89.31
366.373	85.31
366.599	95.31
366.826	98.31
367.052	75.31
367.278	99.31
367.505	98.31
367.731	76.31
367.957	81.31
368.184	91.31
368.41	97.31
368.636	95.31
368.862	99.31
369.089	97.31
369.315	93.31
369.541	85.31
369.767	81.31
369.993	89.31
370.219	92.31
370.445	97.31
370.672	104.31
370.898	119.31
371.124	89.31
371.35	91.31
371.576	103.31
371.802	99.31
372.028	105.31
372.254	92.31
372.48	105.31
372.706	83.31
372.932	85.31
373.158	103.31
373.384	130.31
373.61	156.31
373.835	137.31
374.061	110.31
374.287	89.31
374.513	113.31
374.739	99.31
374.965	108.31
375.191	95.31
375.416	85.31
375.642	111.31
375.868	116.31
376.094	90.31
376.319	102.31
376.545	86.31
376.771	87.31
376.997	83.31
377.222	78.31
377.448	87.31
377.674	90.31
377.899	89.31
378.125	88.31
378.35	91.31
378.576	99.31
378.802	98.31
379.027	90.31
379.253	85.31
379.478	93.31
379.704	104.31
379.929	90.31
380.155	94.31
380.38	89.31
380.606	83.31
380.831	92.31
381.057	112.31
381.282	98.31
381.507	103.31
381.733	100.31
381.958	88.31
382.184	105.31
382.409	97.31
382.634	122.31
382.86	116.31
383.085	123.31
383.31	96.31
383.535	106.31
383.761	126.31
383.986	137.31
384.211	111.31
384.436	95.31
384.662	94.31
384.887	105.31
385.112	98.31
385.337	105.31
385.562	95.31
385.787	96.31
386.013	105.31
386.238	114.31
386.463	103.31
386.688	118.31
386.913	103.31
387.138	102.31
387.363	116.31
387.588	101.31
387.813	111.31
388.038	103.31
388.263	107.31
388.488	121.31
388.713	95.31
388.938	95.31
389.163	94.31
389.387	102.31
389.612	100.31
389.837	83.31
390.062	103.31
390.287	91.31
390.512	85.31
390.736	98.31
390.961	86.31
391.186	83.31
391.411	106.31
391.636	102.31
391.86	100.31
392.085	110.31
392.31	122.31
392.534	153.31
392.759	185.31
392.984	337.31
393.208	719.31
393.433	1094.31
393.658	801.31
393.882	283.31
394.107	184.31
394.331	190.31
394.556	170.31
394.78	134.31
395.005	101.31
395.229	111.31
395.454	119.31
395.678	146.31
395.903	183.31
396.127	217.31
396.352	293.31
396.576	386.31
396.801	704.31
397.025	832.31
397.249	366.31
397.474	195.31
397.698	148.31
397.922	106.31
398.147	99.31
398.371	89.31
398.595	109.31
398.82	88.31
399.044	89.31
399.268	92.31
399.492	88.31
399.717	99.31
399.941	84.31
400.165	99.31
400.389	91.31
400.613	88.31
400.837	88.31
401.062	82.31
401.286	82.31
401.51	89.31
401.734	86.31
401.958	84.31
402.182	81.31
402.406	90.31
402.63	84.31
402.854	76.31
403.078	91.31
403.302	91.31
403.526	93.31
403.75	93.31
403.974	86.31
404.198	99.31
404.422	112.31
404.645	102.31
404.869	123.31
405.093	96.31
405.317	85.31
405.541	86.31
405.765	89.31
405.988	98.31
406.212	86.31
406.436	86.31
406.66	96.31
406.883	104.31
407.107	76.31
407.331	89.31
407.555	126.31
407.778	185.31
408.002	179.31
408.226	95.31
408.449	95.31
408.673	86.31
408.896	101.31
409.12	99.31
409.344	107.31
409.567	125.31
409.791	135.31
410.014	122.31
410.238	106.31
410.461	99.31
410.685	90.31
410.908	110.31
411.132	88.31
411.355	90.31
411.578	102.31
411.802	89.31
412.025	103.31
412.249	89.31
412.472	102.31
412.695	83.31
412.919	92.31
413.142	85.31
413.365	93.31
413.589	94.31
413.812	90.31
414.035	85.31
414.258	91.31
414.482	93.31
414.705	61.31
414.928	90.31
415.151	93.31
415.374	89.31
415.597	92.31
415.821	98.31
416.044	89.31
416.267	94.31
416.49	81.31
416.713	89.31
416.936	85.31
417.159	88.31
417.382	95.31
417.605	93.31
417.828	91.31
418.051	97.31
418.274	81.31
418.497	87.31
418.72	86.31
418.943	89.31
419.166	78.31
419.389	90.31
419.611	106.31
419.834	105.31
420.057	116.31
420.28	93.31
420.503	98.31
420.726	97.31
420.948	106.31
421.171	97.31
421.394	136.31
421.617	164.31
421.839	175.31
422.062	155.31
422.285	230.31
422.507	427.31
422.73	767.31
422.953	672.31
423.175	272.31
423.398	154.31
423.621	113.31
423.843	109.31
424.066	102.31
424.288	102.31
424.511	111.31
424.733	102.31
424.956	88.31
425.178	93.31
425.401	97.31
425.623	101.31
425.846	85.31
426.068	83.31
426.291	95.31
426.513	87.31
426.735	90.31
426.958	107.31
427.18	76.31
427.402	94.31
427.625	92.31
427.847	111.31
428.069	121.31
428.292	188.31
428.514	225.31
428.736	131.31
428.958	199.31
429.181	212.31
429.403	133.31
429.625	115.31
429.847	162.31
430.069	246.31
430.292	319.31
430.514	279.31
430.736	201.31
430.958	215.31
431.18	135.31
431.402	102.31
431.624	118.31
431.846	177.31
432.068	214.31
432.29	125.31
432.512	103.31
432.734	74.31
432.956	95.31
433.178	101.31
433.4	86.31
433.622	73.31
433.844	83.31
434.066	85.31
434.287	71.31
434.509	82.31
434.731	88.31
434.953	97.31
435.175	83.31
435.397	96.31
435.618	111.31
435.84	106.31
436.062	84.31
436.284	87.31
436.505	85.31
436.727	97.31
436.949	88.31
437.17	97.31
437.392	86.31
437.614	100.31
437.835	84.31
438.057	94.31
438.278	106.31
438.5	96.31
438.721	95.31
438.943	95.31
439.165	90.31
439.386	92.31
439.608	95.31
439.829	100.31
440.05	95.31
440.272	93.31
440.493	96.31
440.715	94.31
440.936	90.31
441.158	89.31
441.379	99.31
441.6	90.31
441.822	95.31
442.043	106.31
442.264	107.31
442.486	192.31
442.707	269.31
442.928	164.31
443.149	148.31
443.371	227.31
443.592	453.31
443.813	365.31
444.034	158.31
444.255	113.31
444.476	102.31
444.698	106.31
444.919	122.31
445.14	239.31
445.361	314.31
445.582	560.31
445.803	488.31
446.024	167.31
446.245	103.31
446.466	92.31
446.687	90.31
446.908	99.31
447.129	89.31
447.35	88.31
447.571	89.31
447.792	89.31
448.013	95.31
448.234	85.31
448.455	86.31
448.675	83.31
448.896	85.31
449.117	91.31
449.338	88.31
449.559	93.31
449.779	99.31
450	86.31
450.221	78.31
450.442	81.31
450.662	79.31
450.883	81.31
451.104	91.31
451.324	106.31
451.545	83.31
451.766	98.31
451.986	97.31
452.207	93.31
452.428	97.31
452.648	109.31
452.869	124.31
453.089	104.31
453.31	103.31
453.53	92.31
453.751	86.31
453.971	88.31
454.192	88.31
454.412	82.31
454.633	88.31
454.853	83.31
455.073	88.31
455.294	77.31
455.514	102.31
455.734	94.31
455.955	86.31
456.175	89.31
456.395	89.31
456.616	99.31
456.836	83.31
457.056	86.31
457.276	80.31
457.497	96.31
457.717	106.31
457.937	143.31
458.157	153.31
458.377	154.31
458.598	169.31
458.818	166.31
459.038	114.31
459.258	84.31
459.478	87.31
459.698	76.31
459.918	76.31
460.138	69.31
460.358	94.31
460.578	98.31
460.798	146.31
461.018	145.31
461.238	86.31
461.458	87.31
461.678	94.31
461.898	88.31
462.118	93.31
462.338	81.31
462.558	89.31
462.777	95.31
462.997	97.31
463.217	77.31
463.437	65.31
463.657	87.31
463.876	83.31
464.096	82.31
464.316	81.31
464.536	78.31
464.755	89.31
464.975	93.31
465.195	83.31
465.414	83.31
465.634	78.31
465.854	89.31
466.073	82.31
466.293	82.31
466.512	90.31
466.732	81.31
466.951	73.31
467.171	90.31
467.391	82.31
467.61	83.31
467.829	84.31
468.049	95.31
468.268	95.31
468.488	89.31
468.707	89.31
468.927	90.31
469.146	88.31
469.365	105.31
469.585	86.31
469.804	79.31
470.023	86.31
470.243	103.31
470.462	101.31
470.681	80.31
470.901	97.31
471.12	75.31
471.339	88.31
471.558	97.31
471.777	87.31
471.997	95.31
472.216	81.31
472.435	91.31
472.654	88.31
472.873	87.31
473.092	88.31
473.311	89.31
473.53	89.31
473.749	89.31
473.968	93.31
474.187	81.31
474.406	98.31
474.625	83.31
474.844	91.31
475.063	90.31
475.282	84.31
475.501	84.31
475.72	89.31
475.939	88.31
476.158	86.31
476.377	94.31
476.596	85.31
476.814	89.31
477.033	87.31
477.252	81.31
477.471	82.31
477.69	73.31
477.908	86.31
478.127	76.31
478.346	89.31
478.564	91.31
478.783	87.31
479.002	90.31
479.22	81.31
479.439	96.31
479.658	92.31
479.876	86.31
480.095	84.31
480.313	91.31
480.532	90.31
480.751	95.31
480.969	96.31
481.188	78.31
481.406	103.31
481.624	88.31
481.843	98.31
482.061	89.31
482.28	78.31
482.498	83.31
482.717	86.31
482.935	96.31
483.153	89.31
483.372	109.31
483.59	101.31
483.808	80.31
484.027	101.31
484.245	86.31
484.463	98.31
484.681	96.31
484.9	111.31
485.118	87.31
485.336	74.31
485.554	90.31
485.772	99.31
485.99	93.31
486.209	93.31
486.427	92.31
486.645	94.31
486.863	93.31
487.081	109.31
487.299	105.31
487.517	114.31
487.735	148.31
487.953	259.31
488.171	215.31
488.389	121.31
488.607	105.31
488.825	110.31
489.043	77.31
489.261	113.31
489.479	95.31
489.696	101.31
489.914	103.31
490.132	104.31
490.35	99.31
490.568	97.31
490.786	106.31
491.003	89.31
491.221	104.31
491.439	90.31
491.657	81.31
491.874	96.31
492.092	90.31
492.31	94.31
492.527	90.31
492.745	88.31
492.963	87.31
493.18	90.31
493.398	104.31
493.615	110.31
493.833	91.31
494.05	85.31
494.268	105.31
494.485	96.31
494.703	95.31
494.92	93.31
495.138	78.31
495.355	77.31
495.573	99.31
495.79	104.31
496.008	99.31
496.225	84.31
496.442	85.31
496.66	100.31
496.877	100.31
497.094	107.31
497.312	75.31
497.529	91.31
497.746	94.31
497.963	90.31
498.181	104.31
498.398	104.31
498.615	96.31
498.832	89.31
499.049	85.31
499.267	91.31
499.484	78.31
499.701	89.31
499.918	101.31
500.135	86.31
500.352	96.31
500.569	85.31
500.786	87.31
501.003	86.31
501.22	85.31
501.437	91.31
501.654	100.31
501.871	82.31
502.088	87.31
502.305	97.31
502.522	81.31
502.739	93.31
502.956	97.31
503.172	91.31
503.389	94.31
503.606	106.31
503.823	95.31
504.04	128.31
504.256	191.31
504.473	198.31
504.69	106.31
504.907	89.31
505.123	96.31
505.34	95.31
505.557	88.31
505.773	82.31
505.99	86.31
506.207	90.31
506.423	93.31
506.64	83.31
506.856	73.31
507.073	91.31
507.289	97.31
507.506	93.31
507.722	90.31
507.939	90.31
508.155	92.31
508.372	83.31
508.588	81.31
508.805	88.31
509.021	71.31
509.238	104.31
509.454	87.31
509.67	87.31
509.887	85.31
510.103	84.31
510.319	95.31
510.536	76.31
510.752	98.31
510.968	97.31
511.184	91.31
511.401	77.31
511.617	98.31
511.833	85.31
512.049	77.31
512.265	81.31
512.481	97.31
512.698	88.31
512.914	66.31
513.13	85.31
513.346	90.31
513.562	94.31
513.778	101.31
513.994	79.31
514.21	91.31
514.426	79.31
514.642	104.31
514.858	79.31
515.074	85.31
515.29	79.31
515.506	75.31
515.721	79.31
515.937	91.31
516.153	78.31
