Data from 18505_1_HRD10591_00021.txt Node
Date: Mon Jan 19 13:58:41 EST 2026
User: Yrep
Spectrometer: HR+D1059
Trigger mode: 1
Integration Time (sec): 1.000000E-1
Scans to average: 1
Electric dark correction enabled: true
Nonlinearity correction enabled: false
Boxcar width: 0
XAxis mode: Wavelengths
Number of Pixels in Spectrum: 2048
>>>>>Begin Spectral Data<<<<<
223.165	-20.75
223.4	-20.75
223.635	-20.75
223.869	-12.75
224.104	-29.75
224.338	-25.75
224.573	-16.75
224.808	-9.75
225.042	1.25
225.277	-13.75
225.511	-17.75
225.746	14.25
225.98	23.25
226.215	23.25
226.449	14.25
226.683	25.25
226.918	23.25
227.152	22.25
227.387	27.25
227.621	38.25
227.856	56.25
228.09	64.25
228.324	63.25
228.559	65.25
228.793	69.25
229.027	61.25
229.262	77.25
229.496	67.25
229.73	70.25
229.964	67.25
230.199	72.25
230.433	81.25
230.667	74.25
230.901	75.25
231.136	75.25
231.37	82.25
231.604	87.25
231.838	76.25
232.072	64.25
232.306	81.25
232.541	90.25
232.775	74.25
233.009	82.25
233.243	79.25
233.477	76.25
233.711	78.25
233.945	73.25
234.179	78.25
234.413	83.25
234.647	73.25
234.881	76.25
235.115	85.25
235.349	91.25
235.583	72.25
235.817	87.25
236.051	70.25
236.285	84.25
236.519	82.25
236.753	78.25
236.987	76.25
237.221	77.25
237.455	75.25
237.689	88.25
237.922	80.25
238.156	63.25
238.39	74.25
238.624	80.25
238.858	73.25
239.091	76.25
239.325	78.25
239.559	80.25
239.793	82.25
240.027	70.25
240.26	80.25
240.494	76.25
240.728	58.25
240.961	65.25
241.195	85.25
241.429	80.25
241.662	80.25
241.896	75.25
242.13	64.25
242.363	79.25
242.597	91.25
242.83	91.25
243.064	87.25
243.298	91.25
243.531	83.25
243.765	86.25
243.998	74.25
244.232	70.25
244.465	76.25
244.699	85.25
244.932	86.25
245.166	74.25
245.399	73.25
245.633	80.25
245.866	95.25
246.099	78.25
246.333	91.25
246.566	88.25
246.8	79.25
247.033	80.25
247.266	73.25
247.5	64.25
247.733	74.25
247.966	65.25
248.2	83.25
248.433	83.25
248.666	73.25
248.899	98.25
249.133	67.25
249.366	82.25
249.599	74.25
249.832	79.25
250.066	84.25
250.299	79.25
250.532	82.25
250.765	86.25
250.998	92.25
251.231	98.25
251.465	72.25
251.698	80.25
251.931	96.25
252.164	80.25
252.397	87.25
252.63	90.25
252.863	88.25
253.096	82.25
253.329	79.25
253.562	73.25
253.795	76.25
254.028	82.25
254.261	80.25
254.494	60.25
254.727	92.25
254.96	89.25
255.193	79.25
255.426	72.25
255.659	84.25
255.892	90.25
256.124	78.25
256.357	70.25
256.59	91.25
256.823	85.25
257.056	83.25
257.289	86.25
257.521	76.25
257.754	88.25
257.987	82.25
258.22	90.25
258.452	90.25
258.685	88.25
258.918	70.25
259.151	85.25
259.383	101.25
259.616	92.25
259.849	75.25
260.081	83.25
260.314	75.25
260.547	74.25
260.779	91.25
261.012	75.25
261.244	91.25
261.477	85.25
261.71	93.25
261.942	85.25
262.175	83.25
262.407	81.25
262.64	79.25
262.872	86.25
263.105	87.25
263.337	90.25
263.57	92.25
263.802	66.25
264.035	86.25
264.267	82.25
264.499	86.25
264.732	79.25
264.964	90.25
265.197	77.25
265.429	88.25
265.661	88.25
265.894	77.25
266.126	94.25
266.358	86.25
266.591	90.25
266.823	77.25
267.055	83.25
267.287	70.25
267.52	90.25
267.752	84.25
267.984	79.25
268.216	93.25
268.448	87.25
268.681	85.25
268.913	95.25
269.145	91.25
269.377	82.25
269.609	94.25
269.841	94.25
270.073	83.25
270.306	80.25
270.538	92.25
270.77	89.25
271.002	97.25
271.234	90.25
271.466	79.25
271.698	83.25
271.93	89.25
272.162	87.25
272.394	82.25
272.626	86.25
272.858	83.25
273.09	75.25
273.322	86.25
273.553	90.25
273.785	86.25
274.017	95.25
274.249	77.25
274.481	87.25
274.713	79.25
274.945	96.25
275.176	86.25
275.408	94.25
275.64	68.25
275.872	91.25
276.104	95.25
276.335	90.25
276.567	91.25
276.799	89.25
277.031	83.25
277.262	82.25
277.494	78.25
277.726	69.25
277.957	84.25
278.189	100.25
278.421	82.25
278.652	66.25
278.884	72.25
279.115	85.25
279.347	88.25
279.579	85.25
279.81	82.25
280.042	104.25
280.273	84.25
280.505	96.25
280.736	89.25
280.968	89.25
281.199	92.25
281.431	78.25
281.662	92.25
281.894	88.25
282.125	84.25
282.356	80.25
282.588	67.25
282.819	67.25
283.051	87.25
283.282	94.25
283.513	80.25
283.745	87.25
283.976	89.25
284.207	91.25
284.439	82.25
284.67	84.25
284.901	102.25
285.132	93.25
285.364	99.25
285.595	87.25
285.826	89.25
286.057	101.25
286.288	87.25
286.52	81.25
286.751	89.25
286.982	76.25
287.213	88.25
287.444	87.25
287.675	90.25
287.906	84.25
288.138	94.25
288.369	100.25
288.6	83.25
288.831	91.25
289.062	95.25
289.293	91.25
289.524	76.25
289.755	86.25
289.986	93.25
290.217	91.25
290.448	89.25
290.679	88.25
290.91	97.25
291.141	88.25
291.371	82.25
291.602	94.25
291.833	80.25
292.064	94.25
292.295	86.25
292.526	80.25
292.757	91.25
292.987	99.25
293.218	84.25
293.449	98.25
293.68	87.25
293.91	84.25
294.141	88.25
294.372	98.25
294.603	78.25
294.833	89.25
295.064	75.25
295.295	92.25
295.525	102.25
295.756	86.25
295.987	90.25
296.217	96.25
296.448	92.25
296.679	95.25
296.909	94.25
297.14	91.25
297.37	89.25
297.601	91.25
297.831	83.25
298.062	89.25
298.292	79.25
298.523	86.25
298.753	91.25
298.984	100.25
299.214	107.25
299.445	92.25
299.675	92.25
299.905	98.25
300.136	98.25
300.366	91.25
300.597	96.25
300.827	94.25
301.057	92.25
301.288	90.25
301.518	89.25
301.748	100.25
301.979	110.25
302.209	96.25
302.439	90.25
302.669	82.25
302.9	84.25
303.13	92.25
303.36	78.25
303.59	84.25
303.82	90.25
304.051	92.25
304.281	101.25
304.511	89.25
304.741	76.25
304.971	88.25
305.201	78.25
305.431	86.25
305.661	78.25
305.891	91.25
306.121	91.25
306.352	88.25
306.582	94.25
306.812	99.25
307.042	89.25
307.272	94.25
307.502	95.25
307.731	86.25
307.961	91.25
308.191	91.25
308.421	99.25
308.651	84.25
308.881	89.25
309.111	102.25
309.341	99.25
309.571	99.25
309.8	86.25
310.03	84.25
310.26	83.25
310.49	88.25
310.72	98.25
310.949	82.25
311.179	78.25
311.409	85.25
311.639	91.25
311.868	85.25
312.098	90.25
312.328	86.25
312.557	92.25
312.787	87.25
313.017	96.25
313.246	102.25
313.476	92.25
313.706	86.25
313.935	65.25
314.165	95.25
314.394	90.25
314.624	93.25
314.853	98.25
315.083	89.25
315.312	87.25
315.542	96.25
315.771	105.25
316.001	104.25
316.23	112.25
316.46	83.25
316.689	98.25
316.919	87.25
317.148	78.25
317.377	86.25
317.607	114.25
317.836	118.25
318.065	130.25
318.295	89.25
318.524	98.25
318.753	102.25
318.983	108.25
319.212	89.25
319.441	89.25
319.67	85.25
319.9	95.25
320.129	94.25
320.358	92.25
320.587	86.25
320.816	92.25
321.046	89.25
321.275	87.25
321.504	99.25
321.733	97.25
321.962	92.25
322.191	95.25
322.42	89.25
322.649	100.25
322.878	85.25
323.108	93.25
323.337	88.25
323.566	94.25
323.795	98.25
324.024	74.25
324.253	87.25
324.482	88.25
324.71	97.25
324.939	85.25
325.168	84.25
325.397	82.25
325.626	87.25
325.855	89.25
326.084	80.25
326.313	96.25
326.542	90.25
326.77	91.25
326.999	70.25
327.228	107.25
327.457	88.25
327.686	103.25
327.914	70.25
328.143	91.25
328.372	95.25
328.6	82.25
328.829	91.25
329.058	87.25
329.287	79.25
329.515	85.25
329.744	83.25
329.972	95.25
330.201	107.25
330.43	99.25
330.658	106.25
330.887	94.25
331.115	107.25
331.344	75.25
331.572	112.25
331.801	86.25
332.03	83.25
332.258	73.25
332.486	94.25
332.715	82.25
332.943	84.25
333.172	97.25
333.4	79.25
333.629	75.25
333.857	87.25
334.085	81.25
334.314	92.25
334.542	94.25
334.771	70.25
334.999	85.25
335.227	106.25
335.455	99.25
335.684	81.25
335.912	100.25
336.14	103.25
336.369	108.25
336.597	104.25
336.825	84.25
337.053	90.25
337.281	92.25
337.51	88.25
337.738	90.25
337.966	85.25
338.194	82.25
338.422	92.25
338.65	87.25
338.878	82.25
339.106	102.25
339.334	96.25
339.562	84.25
339.79	68.25
340.018	75.25
340.246	81.25
340.474	87.25
340.702	84.25
340.93	82.25
341.158	94.25
341.386	86.25
341.614	80.25
341.842	90.25
342.07	75.25
342.298	81.25
342.526	74.25
342.754	79.25
342.981	76.25
343.209	90.25
343.437	101.25
343.665	101.25
343.893	100.25
344.12	102.25
344.348	89.25
344.576	67.25
344.804	88.25
345.031	90.25
345.259	87.25
345.487	100.25
345.714	97.25
345.942	81.25
346.17	104.25
346.397	90.25
346.625	83.25
346.853	77.25
347.08	91.25
347.308	90.25
347.535	99.25
347.763	88.25
347.99	102.25
348.218	90.25
348.445	82.25
348.673	84.25
348.9	84.25
349.128	90.25
349.355	82.25
349.583	92.25
349.81	105.25
350.037	100.25
350.265	81.25
350.492	96.25
350.72	82.25
350.947	98.25
351.174	89.25
351.402	82.25
351.629	85.25
351.856	96.25
352.083	95.25
352.311	84.25
352.538	84.25
352.765	82.25
352.992	79.25
353.22	98.25
353.447	97.25
353.674	91.25
353.901	80.25
354.128	84.25
354.355	92.25
354.583	87.25
354.81	87.25
355.037	92.25
355.264	84.25
355.491	89.25
355.718	88.25
355.945	100.25
356.172	82.25
356.399	87.25
356.626	85.25
356.853	93.25
357.08	96.25
357.307	89.25
357.534	96.25
357.761	84.25
357.988	104.25
358.215	103.25
358.441	94.25
358.668	82.25
358.895	98.25
359.122	87.25
359.349	80.25
359.576	83.25
359.802	91.25
360.029	77.25
360.256	99.25
360.483	88.25
360.709	94.25
360.936	114.25
361.163	94.25
361.39	87.25
361.616	84.25
361.843	103.25
362.07	116.25
362.296	114.25
362.523	113.25
362.749	110.25
362.976	138.25
363.203	140.25
363.429	111.25
363.656	110.25
363.882	98.25
364.109	118.25
364.335	150.25
364.562	154.25
364.788	129.25
365.015	92.25
365.241	81.25
365.468	87.25
365.694	83.25
365.92	87.25
366.147	98.25
366.373	84.25
366.599	87.25
366.826	88.25
367.052	98.25
367.278	98.25
367.505	90.25
367.731	92.25
367.957	100.25
368.184	97.25
368.41	88.25
368.636	70.25
368.862	73.25
369.089	103.25
369.315	79.25
369.541	86.25
369.767	72.25
369.993	87.25
370.219	98.25
370.445	109.25
370.672	120.25
370.898	106.25
371.124	71.25
371.35	87.25
371.576	101.25
371.802	101.25
372.028	91.25
372.254	105.25
372.48	90.25
372.706	88.25
372.932	95.25
373.158	94.25
373.384	108.25
373.61	142.25
373.835	141.25
374.061	116.25
374.287	89.25
374.513	83.25
374.739	94.25
374.965	94.25
375.191	99.25
375.416	96.25
375.642	102.25
375.868	86.25
376.094	87.25
376.319	106.25
376.545	86.25
376.771	94.25
376.997	95.25
377.222	90.25
377.448	78.25
377.674	102.25
377.899	90.25
378.125	76.25
378.35	84.25
378.576	88.25
378.802	89.25
379.027	92.25
379.253	103.25
379.478	88.25
379.704	89.25
379.929	90.25
380.155	86.25
380.38	89.25
380.606	85.25
380.831	88.25
381.057	90.25
381.282	83.25
381.507	100.25
381.733	90.25
381.958	99.25
382.184	105.25
382.409	98.25
382.634	101.25
382.86	113.25
383.085	105.25
383.31	116.25
383.535	114.25
383.761	112.25
383.986	119.25
384.211	99.25
384.436	103.25
384.662	92.25
384.887	94.25
385.112	102.25
385.337	101.25
385.562	81.25
385.787	106.25
386.013	109.25
386.238	91.25
386.463	99.25
386.688	93.25
386.913	92.25
387.138	98.25
387.363	99.25
387.588	87.25
387.813	101.25
388.038	112.25
388.263	101.25
388.488	96.25
388.713	93.25
388.938	95.25
389.163	92.25
389.387	88.25
389.612	105.25
389.837	102.25
390.062	84.25
390.287	102.25
390.512	94.25
390.736	97.25
390.961	99.25
391.186	100.25
391.411	93.25
391.636	92.25
391.86	109.25
392.085	112.25
392.31	115.25
392.534	124.25
392.759	172.25
392.984	306.25
393.208	578.25
393.433	894.25
393.658	641.25
393.882	237.25
394.107	144.25
394.331	151.25
394.556	155.25
394.78	114.25
395.005	110.25
395.229	111.25
395.454	106.25
395.678	118.25
395.903	146.25
396.127	173.25
396.352	237.25
396.576	318.25
396.801	578.25
397.025	684.25
397.249	298.25
397.474	155.25
397.698	116.25
397.922	101.25
398.147	101.25
398.371	102.25
398.595	89.25
398.82	96.25
399.044	100.25
399.268	97.25
399.492	86.25
399.717	89.25
399.941	89.25
400.165	89.25
400.389	83.25
400.613	88.25
400.837	87.25
401.062	103.25
401.286	88.25
401.51	84.25
401.734	101.25
401.958	89.25
402.182	87.25
402.406	87.25
402.63	91.25
402.854	82.25
403.078	86.25
403.302	99.25
403.526	76.25
403.75	86.25
403.974	86.25
404.198	90.25
404.422	115.25
404.645	123.25
404.869	114.25
405.093	105.25
405.317	95.25
405.541	83.25
405.765	104.25
405.988	73.25
406.212	88.25
406.436	84.25
406.66	97.25
406.883	98.25
407.107	91.25
407.331	94.25
407.555	134.25
407.778	174.25
408.002	165.25
408.226	96.25
408.449	96.25
408.673	97.25
408.896	109.25
409.12	91.25
409.344	95.25
409.567	107.25
409.791	121.25
410.014	105.25
410.238	95.25
410.461	91.25
410.685	86.25
410.908	100.25
411.132	96.25
411.355	89.25
411.578	88.25
411.802	91.25
412.025	89.25
412.249	95.25
412.472	83.25
412.695	82.25
412.919	73.25
413.142	105.25
413.365	91.25
413.589	82.25
413.812	77.25
414.035	77.25
414.258	99.25
414.482	92.25
414.705	84.25
414.928	94.25
415.151	92.25
415.374	91.25
415.597	92.25
415.821	91.25
416.044	76.25
416.267	84.25
416.49	84.25
416.713	89.25
416.936	87.25
417.159	95.25
417.382	85.25
417.605	82.25
417.828	89.25
418.051	68.25
418.274	85.25
418.497	89.25
418.72	79.25
418.943	82.25
419.166	97.25
419.389	94.25
419.611	91.25
419.834	85.25
420.057	96.25
420.28	94.25
420.503	94.25
420.726	89.25
420.948	101.25
421.171	109.25
421.394	134.25
421.617	161.25
421.839	168.25
422.062	141.25
422.285	198.25
422.507	396.25
422.73	659.25
422.953	583.25
423.175	245.25
423.398	167.25
423.621	122.25
423.843	107.25
424.066	98.25
424.288	101.25
424.511	101.25
424.733	96.25
424.956	94.25
425.178	97.25
425.401	91.25
425.623	81.25
425.846	92.25
426.068	90.25
426.291	89.25
426.513	79.25
426.735	92.25
426.958	93.25
427.18	88.25
427.402	80.25
427.625	101.25
427.847	88.25
428.069	118.25
428.292	175.25
428.514	202.25
428.736	147.25
428.958	164.25
429.181	192.25
429.403	121.25
429.625	126.25
429.847	166.25
430.069	232.25
430.292	274.25
430.514	257.25
430.736	180.25
430.958	191.25
431.18	133.25
431.402	103.25
431.624	129.25
431.846	166.25
432.068	185.25
432.29	112.25
432.512	104.25
432.734	92.25
432.956	82.25
433.178	96.25
433.4	84.25
433.622	84.25
433.844	89.25
434.066	83.25
434.287	91.25
434.509	86.25
434.731	93.25
434.953	78.25
435.175	86.25
435.397	91.25
435.618	102.25
435.84	98.25
436.062	102.25
436.284	99.25
436.505	98.25
436.727	83.25
436.949	95.25
437.17	91.25
437.392	87.25
437.614	99.25
437.835	90.25
438.057	82.25
438.278	71.25
438.5	82.25
438.721	94.25
438.943	86.25
439.165	75.25
439.386	86.25
439.608	98.25
439.829	87.25
440.05	86.25
440.272	89.25
440.493	79.25
440.715	102.25
440.936	90.25
441.158	86.25
441.379	90.25
441.6	95.25
441.822	96.25
442.043	86.25
442.264	133.25
442.486	182.25
442.707	249.25
442.928	174.25
443.149	130.25
443.371	218.25
443.592	399.25
443.813	347.25
444.034	142.25
444.255	112.25
444.476	106.25
444.698	86.25
444.919	118.25
445.14	196.25
445.361	284.25
445.582	488.25
445.803	398.25
446.024	132.25
446.245	98.25
446.466	96.25
446.687	95.25
446.908	89.25
447.129	84.25
447.35	95.25
447.571	80.25
447.792	81.25
448.013	92.25
448.234	87.25
448.455	84.25
448.675	75.25
448.896	101.25
449.117	96.25
449.338	87.25
449.559	89.25
449.779	95.25
450	92.25
450.221	84.25
450.442	86.25
450.662	78.25
450.883	89.25
451.104	87.25
451.324	80.25
451.545	107.25
451.766	86.25
451.986	87.25
452.207	87.25
452.428	103.25
452.648	101.25
452.869	123.25
453.089	110.25
453.31	91.25
453.53	86.25
453.751	80.25
453.971	90.25
454.192	82.25
454.412	90.25
454.633	87.25
454.853	82.25
455.073	89.25
455.294	86.25
455.514	96.25
455.734	93.25
455.955	97.25
456.175	89.25
456.395	83.25
456.616	82.25
456.836	75.25
457.056	76.25
457.276	86.25
457.497	84.25
457.717	105.25
457.937	115.25
458.157	164.25
458.377	144.25
458.598	146.25
458.818	156.25
459.038	107.25
459.258	83.25
459.478	90.25
459.698	97.25
459.918	87.25
460.138	87.25
460.358	92.25
460.578	106.25
460.798	131.25
461.018	151.25
461.238	110.25
461.458	110.25
461.678	97.25
461.898	92.25
462.118	91.25
462.338	95.25
462.558	93.25
462.777	91.25
462.997	95.25
463.217	79.25
463.437	84.25
463.657	81.25
463.876	94.25
464.096	98.25
464.316	75.25
464.536	90.25
464.755	87.25
464.975	100.25
465.195	98.25
465.414	80.25
465.634	91.25
465.854	89.25
466.073	76.25
466.293	101.25
466.512	107.25
466.732	96.25
466.951	80.25
467.171	83.25
467.391	83.25
467.61	85.25
467.829	92.25
468.049	100.25
468.268	94.25
468.488	83.25
468.707	94.25
468.927	101.25
469.146	88.25
469.365	89.25
469.585	104.25
469.804	91.25
470.023	92.25
470.243	81.25
470.462	96.25
470.681	91.25
470.901	90.25
471.12	74.25
471.339	103.25
471.558	96.25
471.777	93.25
471.997	98.25
472.216	82.25
472.435	89.25
472.654	91.25
472.873	95.25
473.092	84.25
473.311	86.25
473.53	77.25
473.749	104.25
473.968	94.25
474.187	77.25
474.406	91.25
474.625	96.25
474.844	90.25
475.063	97.25
475.282	96.25
475.501	102.25
475.72	100.25
475.939	83.25
476.158	74.25
476.377	90.25
476.596	96.25
476.814	84.25
477.033	94.25
477.252	86.25
477.471	82.25
477.69	77.25
477.908	87.25
478.127	101.25
478.346	90.25
478.564	90.25
478.783	92.25
479.002	81.25
479.22	86.25
479.439	96.25
479.658	90.25
479.876	86.25
480.095	76.25
480.313	85.25
480.532	86.25
480.751	84.25
480.969	88.25
481.188	85.25
481.406	104.25
481.624	89.25
481.843	93.25
482.061	74.25
482.28	81.25
482.498	95.25
482.717	92.25
482.935	98.25
483.153	91.25
483.372	89.25
483.59	81.25
483.808	78.25
484.027	85.25
484.245	92.25
484.463	75.25
484.681	91.25
484.9	100.25
485.118	100.25
485.336	77.25
485.554	91.25
485.772	97.25
485.99	84.25
486.209	92.25
486.427	94.25
486.645	83.25
486.863	94.25
487.081	87.25
487.299	107.25
487.517	121.25
487.735	138.25
487.953	242.25
488.171	186.25
488.389	118.25
488.607	98.25
488.825	86.25
489.043	89.25
489.261	79.25
489.479	89.25
489.696	90.25
489.914	84.25
490.132	91.25
490.35	75.25
490.568	91.25
490.786	79.25
491.003	90.25
491.221	104.25
491.439	89.25
491.657	89.25
491.874	102.25
492.092	98.25
492.31	89.25
492.527	95.25
492.745	74.25
492.963	88.25
493.18	90.25
493.398	104.25
493.615	94.25
493.833	71.25
494.05	93.25
494.268	84.25
494.485	90.25
494.703	102.25
494.92	98.25
495.138	94.25
495.355	83.25
495.573	100.25
495.79	86.25
496.008	115.25
496.225	102.25
496.442	96.25
496.66	107.25
496.877	87.25
497.094	87.25
497.312	99.25
497.529	90.25
497.746	76.25
497.963	90.25
498.181	90.25
498.398	96.25
498.615	77.25
498.832	86.25
499.049	104.25
499.267	108.25
499.484	84.25
499.701	82.25
499.918	86.25
500.135	86.25
500.352	87.25
500.569	80.25
500.786	102.25
501.003	105.25
501.22	98.25
501.437	84.25
501.654	96.25
501.871	114.25
502.088	89.25
502.305	90.25
502.522	87.25
502.739	89.25
502.956	98.25
503.172	96.25
503.389	103.25
503.606	83.25
503.823	104.25
504.04	112.25
504.256	178.25
504.473	165.25
504.69	91.25
504.907	97.25
505.123	90.25
505.34	92.25
505.557	97.25
505.773	92.25
505.99	87.25
506.207	93.25
506.423	81.25
506.64	96.25
506.856	94.25
507.073	91.25
507.289	90.25
507.506	100.25
507.722	90.25
507.939	95.25
508.155	94.25
508.372	86.25
508.588	93.25
508.805	88.25
509.021	76.25
509.238	98.25
509.454	74.25
509.67	98.25
509.887	102.25
510.103	101.25
510.319	90.25
510.536	81.25
510.752	87.25
510.968	96.25
511.184	93.25
511.401	94.25
511.617	99.25
511.833	94.25
512.049	82.25
512.265	99.25
512.481	77.25
512.698	84.25
512.914	81.25
513.13	88.25
513.346	83.25
513.562	91.25
513.778	86.25
513.994	97.25
514.21	79.25
514.426	87.25
514.642	88.25
514.858	85.25
515.074	91.25
515.29	75.25
515.506	91.25
515.721	98.25
515.937	80.25
516.153	91.25
516.369	73.25
516.585	99.25
