Data from 18505_1_HRD10591_00017.txt Node
Date: Mon Jan 19 13:58:39 EST 2026
User: Yrep
Spectrometer: HR+D1059
Trigger mode: 1
Integration Time (sec): 1.000000E-1
Scans to average: 1
Electric dark correction enabled: true
Nonlinearity correction enabled: false
Boxcar width: 0
XAxis mode: Wavelengths
Number of Pixels in Spectrum: 2048
>>>>>Begin Spectral Data<<<<<
223.165	-18.06
223.4	-18.06
223.635	-18.06
223.869	-26.06
224.104	-12.06
224.338	-13.06
224.573	-29.06
224.808	-16.06
225.042	-21.06
225.277	-3.06
225.511	-7.06
225.746	7.94
225.98	10.94
226.215	14.94
226.449	21.94
226.683	31.94
226.918	23.94
227.152	33.94
227.387	22.94
227.621	42.94
227.856	27.94
228.09	50.94
228.324	50.94
228.559	72.94
228.793	64.94
229.027	61.94
229.262	54.94
229.496	71.94
229.73	61.94
229.964	76.94
230.199	72.94
230.433	70.94
230.667	79.94
230.901	78.94
231.136	70.94
231.37	86.94
231.604	86.94
231.838	96.94
232.072	69.94
232.306	76.94
232.541	91.94
232.775	68.94
233.009	71.94
233.243	69.94
233.477	69.94
233.711	77.94
233.945	68.94
234.179	78.94
234.413	70.94
234.647	84.94
234.881	64.94
235.115	74.94
235.349	74.94
235.583	92.94
235.817	85.94
236.051	88.94
236.285	70.94
236.519	70.94
236.753	84.94
236.987	73.94
237.221	87.94
237.455	67.94
237.689	70.94
237.922	80.94
238.156	67.94
238.39	74.94
238.624	90.94
238.858	72.94
239.091	74.94
239.325	78.94
239.559	76.94
239.793	77.94
240.027	75.94
240.26	72.94
240.494	83.94
240.728	72.94
240.961	70.94
241.195	76.94
241.429	80.94
241.662	74.94
241.896	82.94
242.13	69.94
242.363	82.94
242.597	88.94
242.83	72.94
243.064	82.94
243.298	77.94
243.531	64.94
243.765	64.94
243.998	81.94
244.232	78.94
244.465	83.94
244.699	74.94
244.932	82.94
245.166	81.94
245.399	88.94
245.633	73.94
245.866	70.94
246.099	66.94
246.333	72.94
246.566	91.94
246.8	64.94
247.033	64.94
247.266	69.94
247.5	70.94
247.733	79.94
247.966	77.94
248.2	84.94
248.433	85.94
248.666	79.94
248.899	79.94
249.133	81.94
249.366	83.94
249.599	83.94
249.832	82.94
250.066	67.94
250.299	97.94
250.532	81.94
250.765	85.94
250.998	85.94
251.231	77.94
251.465	94.94
251.698	83.94
251.931	78.94
252.164	83.94
252.397	76.94
252.63	93.94
252.863	86.94
253.096	81.94
253.329	75.94
253.562	67.94
253.795	84.94
254.028	79.94
254.261	91.94
254.494	77.94
254.727	66.94
254.96	88.94
255.193	69.94
255.426	77.94
255.659	79.94
255.892	90.94
256.124	68.94
256.357	71.94
256.59	76.94
256.823	83.94
257.056	83.94
257.289	72.94
257.521	87.94
257.754	70.94
257.987	72.94
258.22	82.94
258.452	70.94
258.685	77.94
258.918	83.94
259.151	77.94
259.383	82.94
259.616	66.94
259.849	86.94
260.081	78.94
260.314	77.94
260.547	83.94
260.779	90.94
261.012	71.94
261.244	73.94
261.477	83.94
261.71	72.94
261.942	66.94
262.175	94.94
262.407	83.94
262.64	83.94
262.872	78.94
263.105	78.94
263.337	87.94
263.57	76.94
263.802	86.94
264.035	63.94
264.267	80.94
264.499	80.94
264.732	80.94
264.964	68.94
265.197	89.94
265.429	85.94
265.661	77.94
265.894	70.94
266.126	73.94
266.358	78.94
266.591	83.94
266.823	90.94
267.055	84.94
267.287	83.94
267.52	84.94
267.752	85.94
267.984	86.94
268.216	89.94
268.448	86.94
268.681	92.94
268.913	92.94
269.145	85.94
269.377	81.94
269.609	76.94
269.841	95.94
270.073	74.94
270.306	75.94
270.538	78.94
270.77	82.94
271.002	94.94
271.234	80.94
271.466	87.94
271.698	92.94
271.93	99.94
272.162	83.94
272.394	85.94
272.626	92.94
272.858	76.94
273.09	82.94
273.322	87.94
273.553	76.94
273.785	91.94
274.017	83.94
274.249	72.94
274.481	84.94
274.713	76.94
274.945	81.94
275.176	88.94
275.408	86.94
275.64	80.94
275.872	79.94
276.104	98.94
276.335	89.94
276.567	85.94
276.799	77.94
277.031	79.94
277.262	80.94
277.494	85.94
277.726	80.94
277.957	69.94
278.189	82.94
278.421	97.94
278.652	82.94
278.884	80.94
279.115	69.94
279.347	91.94
279.579	83.94
279.81	88.94
280.042	81.94
280.273	78.94
280.505	80.94
280.736	79.94
280.968	64.94
281.199	93.94
281.431	84.94
281.662	73.94
281.894	94.94
282.125	84.94
282.356	76.94
282.588	71.94
282.819	73.94
283.051	82.94
283.282	75.94
283.513	79.94
283.745	75.94
283.976	77.94
284.207	73.94
284.439	73.94
284.67	77.94
284.901	76.94
285.132	64.94
285.364	93.94
285.595	81.94
285.826	83.94
286.057	71.94
286.288	77.94
286.52	92.94
286.751	76.94
286.982	96.94
287.213	72.94
287.444	83.94
287.675	96.94
287.906	84.94
288.138	86.94
288.369	90.94
288.6	72.94
288.831	83.94
289.062	83.94
289.293	85.94
289.524	78.94
289.755	68.94
289.986	76.94
290.217	70.94
290.448	88.94
290.679	76.94
290.91	86.94
291.141	81.94
291.371	82.94
291.602	87.94
291.833	78.94
292.064	84.94
292.295	83.94
292.526	71.94
292.757	79.94
292.987	86.94
293.218	84.94
293.449	72.94
293.68	81.94
293.91	63.94
294.141	95.94
294.372	81.94
294.603	79.94
294.833	69.94
295.064	78.94
295.295	95.94
295.525	84.94
295.756	99.94
295.987	76.94
296.217	77.94
296.448	74.94
296.679	85.94
296.909	83.94
297.14	80.94
297.37	81.94
297.601	80.94
297.831	86.94
298.062	92.94
298.292	86.94
298.523	87.94
298.753	100.94
298.984	81.94
299.214	77.94
299.445	81.94
299.675	81.94
299.905	89.94
300.136	77.94
300.366	83.94
300.597	96.94
300.827	80.94
301.057	86.94
301.288	86.94
301.518	69.94
301.748	74.94
301.979	100.94
302.209	93.94
302.439	80.94
302.669	84.94
302.9	91.94
303.13	79.94
303.36	73.94
303.59	87.94
303.82	89.94
304.051	88.94
304.281	90.94
304.511	80.94
304.741	75.94
304.971	86.94
305.201	84.94
305.431	80.94
305.661	90.94
305.891	81.94
306.121	112.94
306.352	77.94
306.582	89.94
306.812	86.94
307.042	74.94
307.272	85.94
307.502	91.94
307.731	91.94
307.961	97.94
308.191	94.94
308.421	74.94
308.651	79.94
308.881	93.94
309.111	86.94
309.341	90.94
309.571	90.94
309.8	86.94
310.03	85.94
310.26	86.94
310.49	92.94
310.72	80.94
310.949	82.94
311.179	78.94
311.409	86.94
311.639	64.94
311.868	78.94
312.098	84.94
312.328	84.94
312.557	90.94
312.787	90.94
313.017	87.94
313.246	86.94
313.476	83.94
313.706	68.94
313.935	74.94
314.165	94.94
314.394	94.94
314.624	65.94
314.853	84.94
315.083	88.94
315.312	89.94
315.542	72.94
315.771	90.94
316.001	90.94
316.23	81.94
316.46	82.94
316.689	97.94
316.919	82.94
317.148	75.94
317.377	96.94
317.607	93.94
317.836	78.94
318.065	111.94
318.295	92.94
318.524	87.94
318.753	84.94
318.983	82.94
319.212	85.94
319.441	90.94
319.67	84.94
319.9	96.94
320.129	86.94
320.358	84.94
320.587	88.94
320.816	83.94
321.046	82.94
321.275	81.94
321.504	78.94
321.733	91.94
321.962	78.94
322.191	94.94
322.42	87.94
322.649	95.94
322.878	82.94
323.108	88.94
323.337	91.94
323.566	79.94
323.795	89.94
324.024	95.94
324.253	82.94
324.482	94.94
324.71	77.94
324.939	68.94
325.168	75.94
325.397	80.94
325.626	80.94
325.855	82.94
326.084	80.94
326.313	76.94
326.542	80.94
326.77	86.94
326.999	83.94
327.228	75.94
327.457	87.94
327.686	87.94
327.914	76.94
328.143	90.94
328.372	97.94
328.6	84.94
328.829	70.94
329.058	81.94
329.287	67.94
329.515	74.94
329.744	91.94
329.972	71.94
330.201	84.94
330.43	83.94
330.658	88.94
330.887	82.94
331.115	84.94
331.344	100.94
331.572	66.94
331.801	82.94
332.03	83.94
332.258	95.94
332.486	88.94
332.715	92.94
332.943	75.94
333.172	72.94
333.4	94.94
333.629	83.94
333.857	88.94
334.085	99.94
334.314	87.94
334.542	80.94
334.771	94.94
334.999	87.94
335.227	87.94
335.455	85.94
335.684	87.94
335.912	82.94
336.14	99.94
336.369	96.94
336.597	76.94
336.825	92.94
337.053	69.94
337.281	79.94
337.51	78.94
337.738	78.94
337.966	78.94
338.194	75.94
338.422	86.94
338.65	78.94
338.878	96.94
339.106	90.94
339.334	92.94
339.562	91.94
339.79	82.94
340.018	85.94
340.246	84.94
340.474	78.94
340.702	96.94
340.93	101.94
341.158	70.94
341.386	64.94
341.614	85.94
341.842	82.94
342.07	90.94
342.298	74.94
342.526	86.94
342.754	83.94
342.981	87.94
343.209	82.94
343.437	81.94
343.665	86.94
343.893	92.94
344.12	97.94
344.348	94.94
344.576	72.94
344.804	100.94
345.031	94.94
345.259	76.94
345.487	83.94
345.714	76.94
345.942	84.94
346.17	80.94
346.397	79.94
346.625	67.94
346.853	85.94
347.08	89.94
347.308	88.94
347.535	92.94
347.763	82.94
347.99	90.94
348.218	90.94
348.445	91.94
348.673	91.94
348.9	98.94
349.128	90.94
349.355	93.94
349.583	83.94
349.81	77.94
350.037	71.94
350.265	81.94
350.492	86.94
350.72	79.94
350.947	84.94
351.174	84.94
351.402	66.94
351.629	82.94
351.856	92.94
352.083	76.94
352.311	87.94
352.538	88.94
352.765	82.94
352.992	87.94
353.22	98.94
353.447	88.94
353.674	85.94
353.901	81.94
354.128	90.94
354.355	81.94
354.583	81.94
354.81	91.94
355.037	92.94
355.264	101.94
355.491	92.94
355.718	63.94
355.945	85.94
356.172	84.94
356.399	88.94
356.626	83.94
356.853	86.94
357.08	77.94
357.307	90.94
357.534	102.94
357.761	87.94
357.988	97.94
358.215	88.94
358.441	94.94
358.668	90.94
358.895	92.94
359.122	96.94
359.349	77.94
359.576	71.94
359.802	91.94
360.029	106.94
360.256	83.94
360.483	83.94
360.709	94.94
360.936	97.94
361.163	88.94
361.39	91.94
361.616	80.94
361.843	87.94
362.07	94.94
362.296	79.94
362.523	79.94
362.749	82.94
362.976	106.94
363.203	95.94
363.429	87.94
363.656	89.94
363.882	91.94
364.109	94.94
364.335	101.94
364.562	123.94
364.788	98.94
365.015	90.94
365.241	92.94
365.468	86.94
365.694	81.94
365.92	87.94
366.147	72.94
366.373	98.94
366.599	94.94
366.826	86.94
367.052	78.94
367.278	92.94
367.505	81.94
367.731	72.94
367.957	95.94
368.184	91.94
368.41	76.94
368.636	78.94
368.862	79.94
369.089	87.94
369.315	93.94
369.541	94.94
369.767	78.94
369.993	77.94
370.219	88.94
370.445	90.94
370.672	98.94
370.898	98.94
371.124	85.94
371.35	89.94
371.576	90.94
371.802	90.94
372.028	92.94
372.254	82.94
372.48	79.94
372.706	84.94
372.932	93.94
373.158	97.94
373.384	95.94
373.61	118.94
373.835	115.94
374.061	89.94
374.287	88.94
374.513	83.94
374.739	98.94
374.965	82.94
375.191	90.94
375.416	106.94
375.642	104.94
375.868	98.94
376.094	95.94
376.319	80.94
376.545	85.94
376.771	76.94
376.997	79.94
377.222	88.94
377.448	92.94
377.674	89.94
377.899	89.94
378.125	92.94
378.35	99.94
378.576	83.94
378.802	99.94
379.027	75.94
379.253	88.94
379.478	77.94
379.704	71.94
379.929	72.94
380.155	87.94
380.38	84.94
380.606	79.94
380.831	82.94
381.057	80.94
381.282	80.94
381.507	88.94
381.733	86.94
381.958	70.94
382.184	85.94
382.409	90.94
382.634	82.94
382.86	93.94
383.085	86.94
383.31	90.94
383.535	94.94
383.761	92.94
383.986	101.94
384.211	98.94
384.436	92.94
384.662	92.94
384.887	88.94
385.112	76.94
385.337	91.94
385.562	88.94
385.787	106.94
386.013	91.94
386.238	82.94
386.463	94.94
386.688	103.94
386.913	83.94
387.138	92.94
387.363	84.94
387.588	97.94
387.813	93.94
388.038	100.94
388.263	91.94
388.488	91.94
388.713	99.94
388.938	90.94
389.163	76.94
389.387	87.94
389.612	64.94
389.837	80.94
390.062	93.94
390.287	83.94
390.512	84.94
390.736	83.94
390.961	80.94
391.186	80.94
391.411	81.94
391.636	90.94
391.86	103.94
392.085	106.94
392.31	92.94
392.534	98.94
392.759	113.94
392.984	172.94
393.208	316.94
393.433	474.94
393.658	364.94
393.882	150.94
394.107	102.94
394.331	120.94
394.556	103.94
394.78	90.94
395.005	100.94
395.229	88.94
395.454	93.94
395.678	110.94
395.903	114.94
396.127	123.94
396.352	159.94
396.576	192.94
396.801	314.94
397.025	396.94
397.249	177.94
397.474	119.94
397.698	98.94
397.922	82.94
398.147	78.94
398.371	80.94
398.595	84.94
398.82	84.94
399.044	79.94
399.268	87.94
399.492	93.94
399.717	83.94
399.941	87.94
400.165	95.94
400.389	83.94
400.613	94.94
400.837	89.94
401.062	97.94
401.286	80.94
401.51	87.94
401.734	75.94
401.958	78.94
402.182	70.94
402.406	90.94
402.63	66.94
402.854	80.94
403.078	80.94
403.302	87.94
403.526	88.94
403.75	98.94
403.974	91.94
404.198	93.94
404.422	110.94
404.645	111.94
404.869	102.94
405.093	95.94
405.317	86.94
405.541	70.94
405.765	84.94
405.988	94.94
406.212	82.94
406.436	86.94
406.66	99.94
406.883	78.94
407.107	97.94
407.331	91.94
407.555	94.94
407.778	124.94
408.002	135.94
408.226	89.94
408.449	79.94
408.673	92.94
408.896	96.94
409.12	84.94
409.344	89.94
409.567	99.94
409.791	92.94
410.014	92.94
410.238	90.94
410.461	78.94
410.685	93.94
410.908	83.94
411.132	92.94
411.355	78.94
411.578	90.94
411.802	91.94
412.025	87.94
412.249	90.94
412.472	86.94
412.695	79.94
412.919	69.94
413.142	86.94
413.365	87.94
413.589	77.94
413.812	91.94
414.035	87.94
414.258	78.94
414.482	75.94
414.705	94.94
414.928	86.94
415.151	78.94
415.374	97.94
415.597	86.94
415.821	76.94
416.044	86.94
416.267	70.94
416.49	86.94
416.713	82.94
416.936	75.94
417.159	73.94
417.382	95.94
417.605	80.94
417.828	86.94
418.051	83.94
418.274	84.94
418.497	87.94
418.72	87.94
418.943	80.94
419.166	97.94
419.389	80.94
419.611	92.94
419.834	91.94
420.057	90.94
420.28	91.94
420.503	87.94
420.726	86.94
420.948	82.94
421.171	106.94
421.394	100.94
421.617	130.94
421.839	125.94
422.062	106.94
422.285	158.94
422.507	263.94
422.73	413.94
422.953	365.94
423.175	175.94
423.398	102.94
423.621	102.94
423.843	87.94
424.066	90.94
424.288	97.94
424.511	82.94
424.733	82.94
424.956	80.94
425.178	95.94
425.401	98.94
425.623	82.94
425.846	80.94
426.068	72.94
426.291	90.94
426.513	90.94
426.735	83.94
426.958	92.94
427.18	88.94
427.402	83.94
427.625	83.94
427.847	79.94
428.069	99.94
428.292	124.94
428.514	128.94
428.736	96.94
428.958	125.94
429.181	125.94
429.403	107.94
429.625	101.94
429.847	120.94
430.069	150.94
430.292	204.94
430.514	177.94
430.736	135.94
430.958	141.94
431.18	102.94
431.402	81.94
431.624	109.94
431.846	127.94
432.068	131.94
432.29	89.94
432.512	79.94
432.734	80.94
432.956	86.94
433.178	88.94
433.4	77.94
433.622	78.94
433.844	81.94
434.066	79.94
434.287	67.94
434.509	76.94
434.731	85.94
434.953	83.94
435.175	69.94
435.397	86.94
435.618	82.94
435.84	67.94
436.062	86.94
436.284	85.94
436.505	77.94
436.727	76.94
436.949	86.94
437.17	90.94
437.392	78.94
437.614	82.94
437.835	72.94
438.057	76.94
438.278	84.94
438.5	93.94
438.721	87.94
438.943	73.94
439.165	75.94
439.386	98.94
439.608	82.94
439.829	71.94
440.05	90.94
440.272	88.94
440.493	96.94
440.715	90.94
440.936	82.94
441.158	91.94
441.379	89.94
441.6	87.94
441.822	81.94
442.043	84.94
442.264	74.94
442.486	129.94
442.707	160.94
442.928	123.94
443.149	94.94
443.371	132.94
443.592	234.94
443.813	202.94
444.034	106.94
444.255	86.94
444.476	84.94
444.698	89.94
444.919	92.94
445.14	172.94
445.361	184.94
445.582	267.94
445.803	233.94
446.024	119.94
446.245	92.94
446.466	81.94
446.687	85.94
446.908	92.94
447.129	88.94
447.35	78.94
447.571	74.94
447.792	88.94
448.013	87.94
448.234	88.94
448.455	93.94
448.675	86.94
448.896	75.94
449.117	89.94
449.338	80.94
449.559	79.94
449.779	92.94
450	93.94
450.221	80.94
450.442	78.94
450.662	86.94
450.883	79.94
451.104	76.94
451.324	86.94
451.545	78.94
451.766	83.94
451.986	78.94
452.207	94.94
452.428	76.94
452.648	100.94
452.869	90.94
453.089	82.94
453.31	87.94
453.53	86.94
453.751	79.94
453.971	82.94
454.192	78.94
454.412	99.94
454.633	85.94
454.853	78.94
455.073	77.94
455.294	97.94
455.514	79.94
455.734	76.94
455.955	90.94
456.175	85.94
456.395	77.94
456.616	83.94
456.836	86.94
457.056	82.94
457.276	85.94
457.497	88.94
457.717	91.94
457.937	99.94
458.157	99.94
458.377	114.94
458.598	118.94
458.818	118.94
459.038	104.94
459.258	82.94
459.478	71.94
459.698	80.94
459.918	88.94
460.138	94.94
460.358	83.94
460.578	94.94
460.798	114.94
461.018	115.94
461.238	111.94
461.458	89.94
461.678	91.94
461.898	90.94
462.118	81.94
462.338	76.94
462.558	78.94
462.777	77.94
462.997	91.94
463.217	84.94
463.437	65.94
463.657	73.94
463.876	84.94
464.096	70.94
464.316	72.94
464.536	80.94
464.755	82.94
464.975	85.94
465.195	85.94
465.414	91.94
465.634	71.94
465.854	78.94
466.073	78.94
466.293	87.94
466.512	71.94
466.732	90.94
466.951	92.94
467.171	70.94
467.391	85.94
467.61	77.94
467.829	80.94
468.049	91.94
468.268	81.94
468.488	80.94
468.707	82.94
468.927	84.94
469.146	82.94
469.365	83.94
469.585	77.94
469.804	90.94
470.023	66.94
470.243	82.94
470.462	79.94
470.681	78.94
470.901	79.94
471.12	81.94
471.339	82.94
471.558	73.94
471.777	98.94
471.997	84.94
472.216	85.94
472.435	79.94
472.654	71.94
472.873	90.94
473.092	89.94
473.311	98.94
473.53	89.94
473.749	81.94
473.968	86.94
474.187	94.94
474.406	98.94
474.625	82.94
474.844	91.94
475.063	78.94
475.282	101.94
475.501	98.94
475.72	86.94
475.939	91.94
476.158	92.94
476.377	86.94
476.596	74.94
476.814	86.94
477.033	86.94
477.252	78.94
477.471	91.94
477.69	94.94
477.908	98.94
478.127	94.94
478.346	82.94
478.564	79.94
478.783	70.94
479.002	91.94
479.22	68.94
479.439	82.94
479.658	81.94
479.876	88.94
480.095	84.94
480.313	86.94
480.532	86.94
480.751	81.94
480.969	75.94
481.188	91.94
481.406	93.94
481.624	93.94
481.843	81.94
482.061	72.94
482.28	86.94
482.498	88.94
482.717	81.94
482.935	85.94
483.153	84.94
483.372	102.94
483.59	88.94
483.808	70.94
484.027	89.94
484.245	94.94
484.463	94.94
484.681	89.94
484.9	84.94
485.118	80.94
485.336	84.94
485.554	91.94
485.772	84.94
485.99	75.94
486.209	83.94
486.427	77.94
486.645	82.94
486.863	87.94
487.081	89.94
487.299	84.94
487.517	88.94
487.735	115.94
487.953	143.94
488.171	128.94
488.389	83.94
488.607	84.94
488.825	82.94
489.043	90.94
489.261	78.94
489.479	81.94
489.696	83.94
489.914	88.94
490.132	85.94
490.35	76.94
490.568	107.94
490.786	84.94
491.003	74.94
491.221	76.94
491.439	83.94
491.657	93.94
491.874	86.94
492.092	83.94
492.31	70.94
492.527	94.94
492.745	111.94
492.963	98.94
493.18	76.94
493.398	95.94
493.615	106.94
493.833	104.94
494.05	85.94
494.268	76.94
494.485	90.94
494.703	90.94
494.92	107.94
495.138	86.94
495.355	81.94
495.573	95.94
495.79	99.94
496.008	98.94
496.225	86.94
496.442	64.94
496.66	91.94
496.877	91.94
497.094	109.94
497.312	80.94
497.529	90.94
497.746	94.94
497.963	77.94
498.181	90.94
498.398	98.94
498.615	90.94
498.832	88.94
499.049	91.94
499.267	71.94
499.484	80.94
499.701	74.94
499.918	81.94
500.135	83.94
500.352	86.94
500.569	84.94
500.786	75.94
501.003	96.94
501.22	83.94
501.437	86.94
501.654	95.94
501.871	65.94
502.088	83.94
502.305	93.94
502.522	88.94
502.739	92.94
502.956	89.94
503.172	79.94
503.389	86.94
503.606	86.94
503.823	86.94
504.04	92.94
504.256	121.94
504.473	116.94
504.69	92.94
504.907	84.94
505.123	90.94
505.34	80.94
505.557	99.94
505.773	90.94
505.99	91.94
506.207	86.94
506.423	96.94
506.64	96.94
506.856	90.94
507.073	83.94
507.289	91.94
507.506	73.94
507.722	78.94
507.939	87.94
508.155	82.94
508.372	88.94
508.588	97.94
508.805	94.94
509.021	91.94
509.238	75.94
509.454	71.94
509.67	79.94
509.887	90.94
510.103	84.94
510.319	79.94
510.536	69.94
510.752	86.94
510.968	98.94
511.184	86.94
511.401	88.94
511.617	97.94
511.833	76.94
512.049	82.94
512.265	80.94
512.481	101.94
512.698	90.94
512.914	87.94
513.13	100.94
513.346	72.94
513.562	82.94
513.778	95.94
513.994	72.94
514.21	88.94
514.426	96.94
514.642	86.94
514.858	87.94
515.074	89.94
515.29	83.94
515.506	87.94
515.721	85.94
515.937	90.94
516.153	92.94
516.369	79.94
516.585	82.94
516.801	93.94
517.016	83.94
517.232	76.94
517.448	92.94
517.664	99.94
517.879	80.94
518.095	84.94
518.311	94.94
518.527	93.94
518.742	102.94
