Data from 18505_1_HRD10591_00039.txt Node
Date: Mon Jan 19 13:58:50 EST 2026
User: Yrep
Spectrometer: HR+D1059
Trigger mode: 1
Integration Time (sec): 1.000000E-1
Scans to average: 1
Electric dark correction enabled: true
Nonlinearity correction enabled: false
Boxcar width: 0
XAxis mode: Wavelengths
Number of Pixels in Spectrum: 2048
>>>>>Begin Spectral Data<<<<<
223.165	-25
223.4	-25
223.635	-25
223.869	-25
224.104	-19
224.338	-10
224.573	-8
224.808	-14
225.042	-6
225.277	-3
225.511	1
225.746	1
225.98	-5
226.215	20
226.449	14
226.683	25
226.918	26
227.152	28
227.387	55
227.621	44
227.856	55
228.09	44
228.324	47
228.559	57
228.793	60
229.027	55
229.262	68
229.496	72
229.73	61
229.964	67
230.199	57
230.433	74
230.667	56
230.901	69
231.136	72
231.37	86
231.604	87
231.838	79
232.072	81
232.306	83
232.541	83
232.775	84
233.009	69
233.243	81
233.477	80
233.711	87
233.945	82
234.179	74
234.413	73
234.647	69
234.881	75
235.115	87
235.349	73
235.583	77
235.817	72
236.051	83
236.285	84
236.519	78
236.753	71
236.987	76
237.221	80
237.455	80
237.689	76
237.922	87
238.156	93
238.39	90
238.624	72
238.858	76
239.091	62
239.325	82
239.559	66
239.793	80
240.027	86
240.26	68
240.494	83
240.728	74
240.961	82
241.195	86
241.429	85
241.662	79
241.896	74
242.13	77
242.363	63
242.597	80
242.83	62
243.064	80
243.298	86
243.531	92
243.765	85
243.998	86
244.232	71
244.465	69
244.699	75
244.932	86
245.166	91
245.399	76
245.633	74
245.866	65
246.099	75
246.333	70
246.566	80
246.8	64
247.033	73
247.266	89
247.5	76
247.733	72
247.966	99
248.2	76
248.433	80
248.666	78
248.899	79
249.133	82
249.366	83
249.599	72
249.832	71
250.066	80
250.299	79
250.532	87
250.765	81
250.998	64
251.231	78
251.465	81
251.698	72
251.931	87
252.164	80
252.397	87
252.63	83
252.863	80
253.096	82
253.329	87
253.562	76
253.795	70
254.028	64
254.261	82
254.494	76
254.727	78
254.96	69
255.193	80
255.426	70
255.659	62
255.892	79
256.124	68
256.357	70
256.59	84
256.823	92
257.056	88
257.289	81
257.521	78
257.754	76
257.987	84
258.22	68
258.452	77
258.685	76
258.918	82
259.151	79
259.383	73
259.616	68
259.849	80
260.081	74
260.314	75
260.547	78
260.779	74
261.012	65
261.244	72
261.477	93
261.71	85
261.942	85
262.175	89
262.407	79
262.64	70
262.872	75
263.105	80
263.337	69
263.57	78
263.802	92
264.035	75
264.267	81
264.499	79
264.732	77
264.964	71
265.197	79
265.429	81
265.661	98
265.894	74
266.126	88
266.358	78
266.591	79
266.823	82
267.055	93
267.287	79
267.52	81
267.752	84
267.984	100
268.216	72
268.448	82
268.681	84
268.913	86
269.145	80
269.377	79
269.609	78
269.841	71
270.073	85
270.306	98
270.538	77
270.77	72
271.002	73
271.234	88
271.466	81
271.698	84
271.93	66
272.162	74
272.394	102
272.626	83
272.858	76
273.09	87
273.322	83
273.553	82
273.785	84
274.017	80
274.249	76
274.481	76
274.713	81
274.945	86
275.176	79
275.408	74
275.64	90
275.872	75
276.104	74
276.335	80
276.567	80
276.799	64
277.031	75
277.262	88
277.494	91
277.726	92
277.957	68
278.189	91
278.421	77
278.652	83
278.884	83
279.115	85
279.347	84
279.579	86
279.81	100
280.042	97
280.273	91
280.505	96
280.736	82
280.968	88
281.199	79
281.431	78
281.662	69
281.894	80
282.125	86
282.356	92
282.588	86
282.819	82
283.051	69
283.282	78
283.513	91
283.745	92
283.976	86
284.207	84
284.439	70
284.67	93
284.901	84
285.132	84
285.364	100
285.595	95
285.826	86
286.057	78
286.288	69
286.52	81
286.751	84
286.982	81
287.213	89
287.444	80
287.675	93
287.906	91
288.138	90
288.369	81
288.6	71
288.831	91
289.062	85
289.293	69
289.524	92
289.755	78
289.986	80
290.217	80
290.448	85
290.679	86
290.91	89
291.141	89
291.371	83
291.602	91
291.833	81
292.064	90
292.295	86
292.526	87
292.757	72
292.987	75
293.218	91
293.449	73
293.68	92
293.91	84
294.141	76
294.372	73
294.603	79
294.833	87
295.064	104
295.295	88
295.525	85
295.756	78
295.987	88
296.217	91
296.448	88
296.679	78
296.909	86
297.14	95
297.37	99
297.601	73
297.831	82
298.062	72
298.292	100
298.523	95
298.753	82
298.984	83
299.214	86
299.445	73
299.675	93
299.905	115
300.136	92
300.366	78
300.597	92
300.827	97
301.057	83
301.288	83
301.518	103
301.748	96
301.979	111
302.209	99
302.439	71
302.669	79
302.9	81
303.13	93
303.36	98
303.59	77
303.82	74
304.051	78
304.281	88
304.511	87
304.741	78
304.971	97
305.201	90
305.431	85
305.661	98
305.891	93
306.121	88
306.352	79
306.582	81
306.812	81
307.042	78
307.272	86
307.502	80
307.731	91
307.961	97
308.191	96
308.421	78
308.651	79
308.881	83
309.111	94
309.341	113
309.571	104
309.8	97
310.03	88
310.26	82
310.49	75
310.72	80
310.949	89
311.179	99
311.409	90
311.639	68
311.868	81
312.098	78
312.328	83
312.557	87
312.787	85
313.017	83
313.246	86
313.476	95
313.706	92
313.935	87
314.165	95
314.394	87
314.624	73
314.853	95
315.083	86
315.312	78
315.542	96
315.771	114
316.001	133
316.23	127
316.46	82
316.689	92
316.919	88
317.148	74
317.377	106
317.607	103
317.836	141
318.065	157
318.295	125
318.524	88
318.753	70
318.983	82
319.212	82
319.441	86
319.67	89
319.9	94
320.129	86
320.358	78
320.587	80
320.816	93
321.046	77
321.275	84
321.504	72
321.733	98
321.962	91
322.191	86
322.42	86
322.649	89
322.878	77
323.108	89
323.337	99
323.566	84
323.795	93
324.024	72
324.253	95
324.482	81
324.71	72
324.939	101
325.168	77
325.397	72
325.626	93
325.855	79
326.084	91
326.313	75
326.542	88
326.77	96
326.999	79
327.228	82
327.457	94
327.686	88
327.914	82
328.143	83
328.372	89
328.6	94
328.829	75
329.058	87
329.287	86
329.515	82
329.744	94
329.972	82
330.201	94
330.43	83
330.658	86
330.887	86
331.115	79
331.344	84
331.572	88
331.801	85
332.03	80
332.258	90
332.486	83
332.715	89
332.943	77
333.172	87
333.4	100
333.629	79
333.857	86
334.085	71
334.314	91
334.542	99
334.771	107
334.999	107
335.227	88
335.455	106
335.684	90
335.912	88
336.14	102
336.369	99
336.597	106
336.825	94
337.053	83
337.281	84
337.51	89
337.738	78
337.966	66
338.194	68
338.422	78
338.65	93
338.878	91
339.106	67
339.334	71
339.562	76
339.79	83
340.018	78
340.246	98
340.474	73
340.702	80
340.93	84
341.158	71
341.386	69
341.614	90
341.842	80
342.07	80
342.298	81
342.526	84
342.754	76
342.981	87
343.209	86
343.437	87
343.665	82
343.893	90
344.12	94
344.348	87
344.576	85
344.804	83
345.031	72
345.259	80
345.487	94
345.714	84
345.942	73
346.17	82
346.397	76
346.625	93
346.853	92
347.08	78
347.308	87
347.535	96
347.763	87
347.99	82
348.218	76
348.445	93
348.673	87
348.9	91
349.128	85
349.355	79
349.583	80
349.81	91
350.037	78
350.265	96
350.492	95
350.72	91
350.947	91
351.174	96
351.402	81
351.629	89
351.856	100
352.083	92
352.311	86
352.538	74
352.765	93
352.992	98
353.22	100
353.447	98
353.674	81
353.901	91
354.128	77
354.355	79
354.583	78
354.81	88
355.037	83
355.264	82
355.491	72
355.718	90
355.945	101
356.172	88
356.399	98
356.626	91
356.853	89
357.08	92
357.307	88
357.534	89
357.761	96
357.988	88
358.215	110
358.441	89
358.668	80
358.895	100
359.122	85
359.349	93
359.576	90
359.802	83
360.029	76
360.256	83
360.483	81
360.709	86
360.936	103
361.163	92
361.39	91
361.616	94
361.843	104
362.07	95
362.296	103
362.523	118
362.749	115
362.976	140
363.203	150
363.429	116
363.656	89
363.882	97
364.109	111
364.335	146
364.562	167
364.788	125
365.015	111
365.241	96
365.468	79
365.694	78
365.92	82
366.147	98
366.373	98
366.599	92
366.826	89
367.052	101
367.278	87
367.505	86
367.731	100
367.957	71
368.184	83
368.41	91
368.636	80
368.862	86
369.089	71
369.315	79
369.541	79
369.767	72
369.993	71
370.219	98
370.445	103
370.672	122
370.898	121
371.124	89
371.35	86
371.576	81
371.802	96
372.028	94
372.254	85
372.48	96
372.706	102
372.932	91
373.158	88
373.384	115
373.61	166
373.835	159
374.061	109
374.287	104
374.513	113
374.739	112
374.965	103
375.191	112
375.416	90
375.642	89
375.868	94
376.094	107
376.319	101
376.545	96
376.771	93
376.997	81
377.222	82
377.448	91
377.674	79
377.899	79
378.125	69
378.35	96
378.576	77
378.802	79
379.027	85
379.253	78
379.478	84
379.704	103
379.929	91
380.155	70
380.38	83
380.606	87
380.831	91
381.057	86
381.282	91
381.507	87
381.733	101
381.958	93
382.184	95
382.409	108
382.634	112
382.86	114
383.085	120
383.31	136
383.535	124
383.761	118
383.986	115
384.211	97
384.436	108
384.662	88
384.887	93
385.112	77
385.337	95
385.562	109
385.787	108
386.013	113
386.238	120
386.463	90
386.688	103
386.913	113
387.138	106
387.363	116
387.588	126
387.813	96
388.038	92
388.263	127
388.488	107
388.713	116
388.938	90
389.163	94
389.387	91
389.612	96
389.837	107
390.062	116
390.287	82
390.512	82
390.736	90
390.961	93
391.186	86
391.411	91
391.636	112
391.86	94
392.085	117
392.31	131
392.534	151
392.759	194
392.984	375
393.208	815
393.433	1267
393.658	895
393.882	304
394.107	195
394.331	175
394.556	172
394.78	119
395.005	110
395.229	102
395.454	116
395.678	129
395.903	172
396.127	207
396.352	300
396.576	438
396.801	808
397.025	944
397.249	404
397.474	196
397.698	116
397.922	117
398.147	90
398.371	94
398.595	102
398.82	85
399.044	85
399.268	96
399.492	96
399.717	101
399.941	86
400.165	83
400.389	95
400.613	80
400.837	109
401.062	85
401.286	80
401.51	98
401.734	71
401.958	90
402.182	88
402.406	79
402.63	92
402.854	85
403.078	98
403.302	90
403.526	95
403.75	92
403.974	99
404.198	89
404.422	112
404.645	118
404.869	117
405.093	94
405.317	88
405.541	92
405.765	86
405.988	86
406.212	87
406.436	96
406.66	83
406.883	96
407.107	93
407.331	104
407.555	150
407.778	187
408.002	191
408.226	111
408.449	99
408.673	83
408.896	87
409.12	94
409.344	106
409.567	112
409.791	118
410.014	115
410.238	110
410.461	86
410.685	71
410.908	99
411.132	90
411.355	94
411.578	96
411.802	96
412.025	78
412.249	95
412.472	90
412.695	71
412.919	76
413.142	82
413.365	86
413.589	95
413.812	79
414.035	96
414.258	91
414.482	101
414.705	93
414.928	84
415.151	92
415.374	90
415.597	94
415.821	91
416.044	86
416.267	82
416.49	98
416.713	94
416.936	83
417.159	86
417.382	78
417.605	78
417.828	73
418.051	86
418.274	96
418.497	67
418.72	82
418.943	78
419.166	82
419.389	97
419.611	74
419.834	87
420.057	94
420.28	72
420.503	123
420.726	96
420.948	107
421.171	111
421.394	143
421.617	205
421.839	174
422.062	172
422.285	216
422.507	455
422.73	827
422.953	713
423.175	313
423.398	156
423.621	124
423.843	101
424.066	110
424.288	105
424.511	102
424.733	94
424.956	97
425.178	97
425.401	85
425.623	104
425.846	99
426.068	85
426.291	78
426.513	91
426.735	88
426.958	79
427.18	84
427.402	91
427.625	98
427.847	92
428.069	120
428.292	190
428.514	220
428.736	165
428.958	189
429.181	214
429.403	101
429.625	125
429.847	188
430.069	288
430.292	313
430.514	304
430.736	237
430.958	229
431.18	132
431.402	110
431.624	116
431.846	186
432.068	223
432.29	127
432.512	90
432.734	84
432.956	86
433.178	97
433.4	78
433.622	82
433.844	83
434.066	85
434.287	87
434.509	90
434.731	93
434.953	93
435.175	86
435.397	104
435.618	108
435.84	93
436.062	80
436.284	81
436.505	71
436.727	88
436.949	100
437.17	84
437.392	75
437.614	94
437.835	84
438.057	82
438.278	75
438.5	98
438.721	98
438.943	85
439.165	94
439.386	84
439.608	82
439.829	79
440.05	80
440.272	82
440.493	86
440.715	100
440.936	88
441.158	75
441.379	84
441.6	97
441.822	86
442.043	112
442.264	120
442.486	203
442.707	283
442.928	164
443.149	148
443.371	252
443.592	530
443.813	405
444.034	143
444.255	114
444.476	94
444.698	105
444.919	106
445.14	230
445.361	328
445.582	589
445.803	483
446.024	170
446.245	98
446.466	88
446.687	88
446.908	98
447.129	94
447.35	87
447.571	89
447.792	104
448.013	87
448.234	83
448.455	83
448.675	67
448.896	78
449.117	75
449.338	89
449.559	88
449.779	84
450	88
450.221	88
450.442	89
450.662	91
450.883	84
451.104	87
451.324	85
451.545	94
451.766	83
451.986	81
452.207	85
452.428	90
452.648	99
452.869	128
453.089	115
453.31	88
453.53	90
453.751	108
453.971	80
454.192	76
454.412	81
454.633	77
454.853	98
455.073	83
455.294	91
455.514	106
455.734	92
455.955	85
456.175	81
456.395	69
456.616	87
456.836	92
457.056	84
457.276	88
457.497	88
457.717	99
457.937	133
458.157	138
458.377	178
458.598	160
458.818	166
459.038	115
459.258	77
459.478	92
459.698	92
459.918	91
460.138	91
460.358	106
460.578	104
460.798	143
461.018	146
461.238	108
461.458	92
461.678	99
461.898	86
462.118	80
462.338	79
462.558	86
462.777	79
462.997	86
463.217	76
463.437	70
463.657	80
463.876	75
464.096	86
464.316	82
464.536	80
464.755	78
464.975	93
465.195	82
465.414	85
465.634	89
465.854	85
466.073	70
466.293	80
466.512	67
466.732	69
466.951	87
467.171	92
467.391	72
467.61	87
467.829	80
468.049	94
468.268	69
468.488	91
468.707	91
468.927	105
469.146	90
469.365	90
469.585	95
469.804	76
470.023	90
470.243	77
470.462	98
470.681	84
470.901	78
471.12	92
471.339	80
471.558	86
471.777	90
471.997	78
472.216	94
472.435	87
472.654	82
472.873	91
473.092	85
473.311	92
473.53	95
473.749	87
473.968	83
474.187	85
474.406	81
474.625	77
474.844	93
475.063	83
475.282	71
475.501	77
475.72	85
475.939	94
476.158	87
476.377	77
476.596	83
476.814	82
477.033	81
477.252	98
477.471	85
477.69	80
477.908	87
478.127	72
478.346	84
478.564	86
478.783	94
479.002	78
479.22	97
479.439	97
479.658	77
479.876	89
480.095	79
480.313	79
480.532	92
480.751	74
480.969	84
481.188	104
481.406	91
481.624	86
481.843	84
482.061	92
482.28	79
482.498	94
482.717	87
482.935	92
483.153	73
483.372	79
483.59	91
483.808	90
484.027	81
484.245	71
484.463	91
484.681	97
484.9	78
485.118	111
485.336	106
485.554	79
485.772	108
485.99	92
486.209	94
486.427	94
486.645	98
486.863	80
487.081	85
487.299	95
487.517	97
487.735	150
487.953	288
488.171	199
488.389	93
488.607	90
488.825	72
489.043	86
489.261	104
489.479	79
489.696	94
489.914	78
490.132	72
490.35	97
490.568	104
490.786	90
491.003	78
491.221	96
491.439	81
491.657	84
491.874	88
492.092	70
492.31	88
492.527	88
492.745	96
492.963	88
493.18	87
493.398	98
493.615	99
493.833	91
494.05	86
494.268	82
494.485	77
494.703	84
494.92	86
495.138	91
495.355	92
495.573	95
495.79	90
496.008	84
496.225	95
496.442	100
496.66	97
496.877	85
497.094	91
497.312	96
497.529	88
497.746	97
497.963	99
498.181	91
498.398	93
498.615	96
498.832	87
499.049	90
499.267	92
499.484	96
499.701	92
499.918	91
500.135	91
500.352	91
500.569	94
500.786	87
501.003	97
501.22	84
501.437	97
501.654	98
501.871	85
502.088	77
502.305	81
502.522	99
502.739	98
502.956	95
503.172	84
503.389	90
503.606	85
503.823	92
504.04	125
504.256	184
504.473	189
504.69	111
504.907	94
505.123	80
505.34	83
505.557	84
505.773	82
505.99	83
506.207	80
506.423	90
506.64	78
506.856	85
507.073	87
507.289	80
507.506	77
507.722	61
507.939	87
508.155	78
508.372	78
508.588	81
508.805	84
509.021	83
509.238	91
509.454	78
509.67	96
509.887	116
510.103	94
510.319	80
510.536	84
510.752	89
510.968	87
511.184	93
511.401	72
511.617	100
511.833	72
512.049	89
512.265	90
512.481	73
512.698	95
512.914	90
513.13	82
513.346	84
513.562	90
513.778	94
513.994	89
514.21	110
514.426	84
514.642	73
514.858	99
515.074	98
515.29	93
515.506	95
515.721	89
515.937	82
516.153	89
516.369	80
516.585	92
516.801	95
517.016	99
517.232	92
517.448	118
517.664	128
517.879	95
518.095	95
518.311	114
518.527	161
518.742	133
518.958	246
519.173	265
519.389	125
519.605	101
519.82	93
520.036	94
520.251	96
520.467	64
520.682	72
520.898	86
521.113	74
521.329	73
521.544	85
521.76	87
521.975	88
522.19	81
522.406	83
522.621	90
522.836	99
523.052	85
523.267	82
523.482	92
523.698	88
523.913	92
524.128	92
524.343	92
524.559	97
524.774	91
524.989	95
525.204	91
525.419	101
525.634	113
525.849	117
526.064	155
526.28	384
526.495	592
526.71	680
526.925	389
527.14	547
527.355	498
527.57	156
527.785	106
527.999	92
528.214	92
528.429	91
528.644	94
528.859	91
529.074	95
529.289	92
529.503	76
529.718	77
529.933	87
530.148	95
530.363	70
530.577	88
530.792	108
531.007	86
531.221	84
531.436	71
531.651	93
531.865	87
532.08	85
532.295	91
532.509	92
532.724	103
532.938	115
533.153	80
533.367	98
533.582	96
533.796	91
534.011	104
534.225	102
534.44	103
534.654	99
534.868	138
535.083	256
535.297	218
535.511	115
535.726	104
535.94	102
536.154	101
536.369	86
536.583	108
536.797	98
537.011	97
537.225	103
537.44	87
537.654	103
537.868	98
538.082	100
538.296	100
538.51	107
538.724	101
538.938	86
539.153	107
539.367	111
539.581	102
539.795	107
540.009	99
540.222	91
540.436	99
540.65	111
540.864	95
541.078	99
541.292	102
541.506	104
541.72	93
541.934	96
542.147	90
542.361	104
542.575	93
542.789	95
543.002	107
543.216	97
543.43	89
543.644	94
543.857	102
544.071	103
544.285	106
544.498	107
544.712	86
544.925	86
545.139	109
545.352	102
545.566	102
545.779	103
545.993	99
546.206	110
546.42	114
546.633	111
546.847	133
547.06	130
547.274	132
547.487	162
547.7	187
547.914	199
548.127	189
548.34	216
548.554	218
548.767	203
548.98	218
549.193	196
549.407	177
549.62	197
549.833	226
550.046	224
550.259	257
550.473	235
550.686	244
550.899	272
551.112	302
551.325	329
551.538	346
551.751	278
551.964	272
552.177	258
552.39	255
552.603	239
552.816	229
553.029	236
553.242	241
553.455	240
553.667	239
553.88	245
554.093	238
554.306	229
554.519	229
554.732	215
554.944	234
555.157	207
555.37	212
555.583	206
555.795	197
556.008	193
556.221	160
556.433	166
556.646	147
556.859	154
557.071	164
557.284	151
557.496	149
557.709	146
557.921	134
558.134	165
558.346	281
558.559	236
558.771	223
558.984	620
559.196	780
559.409	341
559.621	582
559.833	399
560.046	519
560.258	393
560.47	390
560.683	200
560.895	128
561.107	123
561.32	114
561.532	116
561.744	112
561.956	107
562.168	111
562.381	95
562.593	85
562.805	102
563.017	100
563.229	95
563.441	99
563.653	96
563.865	99
564.077	90
564.289	82
564.501	84
564.713	106
564.925	93
565.137	86
565.349	101
565.561	95
565.773	104
565.985	102
566.197	84
566.408	70
566.62	101
566.832	99
567.044	90
567.255	105
567.467	96
567.679	85
567.891	96
568.102	94
568.314	106
568.526	88
568.737	108
568.949	102
569.161	110
569.372	92
569.584	98
569.795	75
570.007	101
570.218	83
570.43	85
570.641	97
570.853	79
571.064	108
571.276	96
571.487	89
571.698	101
571.91	88
572.121	100
572.333	86
572.544	92
572.755	93
572.966	99
573.178	99
573.389	110
573.6	97
573.811	104
574.023	98
574.234	98
574.445	85
574.656	88
574.867	94
575.078	108
575.289	86
575.501	85
575.712	92
575.923	92
576.134	86
576.345	81
576.556	105
576.767	88
576.978	96
577.188	90
577.399	96
577.61	98
577.821	86
578.032	87
578.243	93
578.454	95
578.665	95
578.875	91
579.086	89
579.297	104
579.508	101
579.718	84
579.929	79
580.14	107
580.35	109
580.561	104
580.772	88
580.982	104
581.193	112
581.403	90
581.614	92
581.825	91
582.035	90
582.246	90
582.456	98
582.667	97
582.877	88
583.087	95
583.298	94
583.508	100
583.719	93
583.929	101
584.139	88
