Data from 18505_1_HRD10591_00025.txt Node
Date: Mon Jan 19 13:58:43 EST 2026
User: Yrep
Spectrometer: HR+D1059
Trigger mode: 1
Integration Time (sec): 1.000000E-1
Scans to average: 1
Electric dark correction enabled: true
Nonlinearity correction enabled: false
Boxcar width: 0
XAxis mode: Wavelengths
Number of Pixels in Spectrum: 2048
>>>>>Begin Spectral Data<<<<<
223.165	-15.31
223.4	-15.31
223.635	-15.31
223.869	-16.31
224.104	-24.31
224.338	-18.31
224.573	-14.31
224.808	-10.31
225.042	-11.31
225.277	-5.31
225.511	-0.31
225.746	13.69
225.98	13.69
226.215	7.69
226.449	21.69
226.683	17.69
226.918	22.69
227.152	18.69
227.387	52.69
227.621	40.69
227.856	47.69
228.09	58.69
228.324	62.69
228.559	65.69
228.793	73.69
229.027	59.69
229.262	67.69
229.496	66.69
229.73	81.69
229.964	75.69
230.199	59.69
230.433	72.69
230.667	85.69
230.901	69.69
231.136	61.69
231.37	83.69
231.604	70.69
231.838	79.69
232.072	81.69
232.306	77.69
232.541	74.69
232.775	72.69
233.009	79.69
233.243	90.69
233.477	90.69
233.711	85.69
233.945	78.69
234.179	73.69
234.413	87.69
234.647	81.69
234.881	80.69
235.115	78.69
235.349	72.69
235.583	88.69
235.817	91.69
236.051	67.69
236.285	81.69
236.519	67.69
236.753	66.69
236.987	67.69
237.221	70.69
237.455	78.69
237.689	70.69
237.922	76.69
238.156	76.69
238.39	73.69
238.624	87.69
238.858	81.69
239.091	75.69
239.325	81.69
239.559	88.69
239.793	85.69
240.027	85.69
240.26	76.69
240.494	86.69
240.728	76.69
240.961	75.69
241.195	91.69
241.429	73.69
241.662	72.69
241.896	72.69
242.13	81.69
242.363	85.69
242.597	69.69
242.83	81.69
243.064	82.69
243.298	91.69
243.531	61.69
243.765	93.69
243.998	75.69
244.232	95.69
244.465	99.69
244.699	69.69
244.932	59.69
245.166	81.69
245.399	84.69
245.633	69.69
245.866	85.69
246.099	75.69
246.333	82.69
246.566	83.69
246.8	70.69
247.033	80.69
247.266	73.69
247.5	80.69
247.733	76.69
247.966	80.69
248.2	86.69
248.433	78.69
248.666	69.69
248.899	90.69
249.133	91.69
249.366	90.69
249.599	83.69
249.832	89.69
250.066	78.69
250.299	91.69
250.532	74.69
250.765	81.69
250.998	85.69
251.231	81.69
251.465	78.69
251.698	68.69
251.931	81.69
252.164	74.69
252.397	82.69
252.63	87.69
252.863	74.69
253.096	82.69
253.329	77.69
253.562	81.69
253.795	76.69
254.028	67.69
254.261	83.69
254.494	73.69
254.727	90.69
254.96	77.69
255.193	77.69
255.426	75.69
255.659	87.69
255.892	67.69
256.124	78.69
256.357	87.69
256.59	80.69
256.823	93.69
257.056	89.69
257.289	78.69
257.521	84.69
257.754	93.69
257.987	70.69
258.22	68.69
258.452	92.69
258.685	60.69
258.918	68.69
259.151	82.69
259.383	93.69
259.616	61.69
259.849	91.69
260.081	77.69
260.314	66.69
260.547	77.69
260.779	81.69
261.012	77.69
261.244	75.69
261.477	83.69
261.71	63.69
261.942	62.69
262.175	63.69
262.407	64.69
262.64	87.69
262.872	73.69
263.105	76.69
263.337	74.69
263.57	79.69
263.802	83.69
264.035	93.69
264.267	83.69
264.499	77.69
264.732	70.69
264.964	82.69
265.197	69.69
265.429	105.69
265.661	86.69
265.894	85.69
266.126	96.69
266.358	75.69
266.591	78.69
266.823	72.69
267.055	73.69
267.287	75.69
267.52	78.69
267.752	93.69
267.984	93.69
268.216	85.69
268.448	67.69
268.681	74.69
268.913	82.69
269.145	72.69
269.377	84.69
269.609	87.69
269.841	90.69
270.073	75.69
270.306	79.69
270.538	75.69
270.77	82.69
271.002	95.69
271.234	88.69
271.466	99.69
271.698	82.69
271.93	81.69
272.162	91.69
272.394	85.69
272.626	97.69
272.858	82.69
273.09	71.69
273.322	81.69
273.553	73.69
273.785	86.69
274.017	86.69
274.249	76.69
274.481	84.69
274.713	80.69
274.945	86.69
275.176	102.69
275.408	87.69
275.64	82.69
275.872	84.69
276.104	81.69
276.335	89.69
276.567	92.69
276.799	77.69
277.031	74.69
277.262	81.69
277.494	73.69
277.726	86.69
277.957	86.69
278.189	74.69
278.421	87.69
278.652	92.69
278.884	93.69
279.115	80.69
279.347	82.69
279.579	75.69
279.81	89.69
280.042	102.69
280.273	87.69
280.505	75.69
280.736	96.69
280.968	74.69
281.199	87.69
281.431	97.69
281.662	90.69
281.894	89.69
282.125	68.69
282.356	95.69
282.588	84.69
282.819	91.69
283.051	77.69
283.282	81.69
283.513	89.69
283.745	63.69
283.976	83.69
284.207	87.69
284.439	86.69
284.67	83.69
284.901	83.69
285.132	76.69
285.364	87.69
285.595	100.69
285.826	92.69
286.057	85.69
286.288	88.69
286.52	88.69
286.751	101.69
286.982	94.69
287.213	79.69
287.444	88.69
287.675	87.69
287.906	78.69
288.138	87.69
288.369	85.69
288.6	86.69
288.831	82.69
289.062	74.69
289.293	85.69
289.524	79.69
289.755	84.69
289.986	87.69
290.217	95.69
290.448	68.69
290.679	85.69
290.91	97.69
291.141	88.69
291.371	95.69
291.602	87.69
291.833	73.69
292.064	83.69
292.295	91.69
292.526	83.69
292.757	90.69
292.987	83.69
293.218	75.69
293.449	77.69
293.68	83.69
293.91	94.69
294.141	101.69
294.372	72.69
294.603	102.69
294.833	87.69
295.064	96.69
295.295	79.69
295.525	76.69
295.756	79.69
295.987	93.69
296.217	95.69
296.448	93.69
296.679	96.69
296.909	81.69
297.14	74.69
297.37	81.69
297.601	85.69
297.831	81.69
298.062	94.69
298.292	82.69
298.523	77.69
298.753	92.69
298.984	91.69
299.214	94.69
299.445	75.69
299.675	98.69
299.905	88.69
300.136	89.69
300.366	98.69
300.597	95.69
300.827	91.69
301.057	106.69
301.288	85.69
301.518	83.69
301.748	102.69
301.979	98.69
302.209	90.69
302.439	81.69
302.669	91.69
302.9	93.69
303.13	101.69
303.36	93.69
303.59	81.69
303.82	86.69
304.051	95.69
304.281	84.69
304.511	73.69
304.741	85.69
304.971	77.69
305.201	106.69
305.431	79.69
305.661	90.69
305.891	79.69
306.121	75.69
306.352	82.69
306.582	93.69
306.812	86.69
307.042	80.69
307.272	84.69
307.502	93.69
307.731	91.69
307.961	90.69
308.191	93.69
308.421	108.69
308.651	75.69
308.881	91.69
309.111	85.69
309.341	82.69
309.571	97.69
309.8	89.69
310.03	90.69
310.26	87.69
310.49	73.69
310.72	79.69
310.949	83.69
311.179	83.69
311.409	97.69
311.639	90.69
311.868	92.69
312.098	95.69
312.328	86.69
312.557	79.69
312.787	83.69
313.017	85.69
313.246	91.69
313.476	84.69
313.706	87.69
313.935	76.69
314.165	86.69
314.394	71.69
314.624	87.69
314.853	81.69
315.083	91.69
315.312	93.69
315.542	81.69
315.771	93.69
316.001	99.69
316.23	88.69
316.46	95.69
316.689	81.69
316.919	82.69
317.148	100.69
317.377	89.69
317.607	97.69
317.836	91.69
318.065	118.69
318.295	86.69
318.524	86.69
318.753	96.69
318.983	92.69
319.212	82.69
319.441	71.69
319.67	97.69
319.9	97.69
320.129	82.69
320.358	88.69
320.587	85.69
320.816	77.69
321.046	89.69
321.275	102.69
321.504	94.69
321.733	88.69
321.962	85.69
322.191	85.69
322.42	98.69
322.649	114.69
322.878	83.69
323.108	99.69
323.337	101.69
323.566	83.69
323.795	84.69
324.024	84.69
324.253	93.69
324.482	79.69
324.71	76.69
324.939	85.69
325.168	86.69
325.397	72.69
325.626	81.69
325.855	87.69
326.084	93.69
326.313	86.69
326.542	93.69
326.77	83.69
326.999	84.69
327.228	83.69
327.457	82.69
327.686	99.69
327.914	88.69
328.143	70.69
328.372	83.69
328.6	95.69
328.829	89.69
329.058	105.69
329.287	87.69
329.515	82.69
329.744	88.69
329.972	70.69
330.201	92.69
330.43	74.69
330.658	89.69
330.887	79.69
331.115	90.69
331.344	108.69
331.572	81.69
331.801	89.69
332.03	83.69
332.258	86.69
332.486	65.69
332.715	81.69
332.943	76.69
333.172	85.69
333.4	86.69
333.629	83.69
333.857	85.69
334.085	95.69
334.314	88.69
334.542	95.69
334.771	111.69
334.999	111.69
335.227	95.69
335.455	93.69
335.684	91.69
335.912	95.69
336.14	113.69
336.369	83.69
336.597	93.69
336.825	85.69
337.053	93.69
337.281	73.69
337.51	96.69
337.738	79.69
337.966	73.69
338.194	88.69
338.422	88.69
338.65	100.69
338.878	83.69
339.106	83.69
339.334	79.69
339.562	82.69
339.79	86.69
340.018	85.69
340.246	80.69
340.474	83.69
340.702	95.69
340.93	85.69
341.158	76.69
341.386	89.69
341.614	86.69
341.842	96.69
342.07	74.69
342.298	85.69
342.526	74.69
342.754	79.69
342.981	77.69
343.209	85.69
343.437	85.69
343.665	95.69
343.893	85.69
344.12	104.69
344.348	87.69
344.576	94.69
344.804	85.69
345.031	86.69
345.259	88.69
345.487	75.69
345.714	90.69
345.942	77.69
346.17	77.69
346.397	89.69
346.625	78.69
346.853	86.69
347.08	91.69
347.308	87.69
347.535	95.69
347.763	91.69
347.99	88.69
348.218	101.69
348.445	87.69
348.673	87.69
348.9	90.69
349.128	94.69
349.355	95.69
349.583	94.69
349.81	83.69
350.037	74.69
350.265	81.69
350.492	101.69
350.72	93.69
350.947	78.69
351.174	90.69
351.402	94.69
351.629	91.69
351.856	80.69
352.083	90.69
352.311	80.69
352.538	85.69
352.765	95.69
352.992	84.69
353.22	83.69
353.447	72.69
353.674	85.69
353.901	88.69
354.128	87.69
354.355	83.69
354.583	86.69
354.81	83.69
355.037	90.69
355.264	83.69
355.491	88.69
355.718	97.69
355.945	90.69
356.172	92.69
356.399	87.69
356.626	76.69
356.853	100.69
357.08	81.69
357.307	80.69
357.534	91.69
357.761	96.69
357.988	101.69
358.215	80.69
358.441	79.69
358.668	93.69
358.895	79.69
359.122	85.69
359.349	89.69
359.576	68.69
359.802	74.69
360.029	88.69
360.256	93.69
360.483	81.69
360.709	86.69
360.936	86.69
361.163	82.69
361.39	84.69
361.616	90.69
361.843	86.69
362.07	110.69
362.296	107.69
362.523	119.69
362.749	115.69
362.976	132.69
363.203	135.69
363.429	114.69
363.656	106.69
363.882	110.69
364.109	121.69
364.335	150.69
364.562	166.69
364.788	114.69
365.015	91.69
365.241	105.69
365.468	77.69
365.694	83.69
365.92	86.69
366.147	87.69
366.373	92.69
366.599	96.69
366.826	77.69
367.052	86.69
367.278	94.69
367.505	79.69
367.731	97.69
367.957	91.69
368.184	96.69
368.41	97.69
368.636	93.69
368.862	90.69
369.089	97.69
369.315	99.69
369.541	78.69
369.767	85.69
369.993	100.69
370.219	97.69
370.445	89.69
370.672	117.69
370.898	97.69
371.124	77.69
371.35	68.69
371.576	79.69
371.802	97.69
372.028	97.69
372.254	94.69
372.48	80.69
372.706	85.69
372.932	91.69
373.158	85.69
373.384	109.69
373.61	129.69
373.835	129.69
374.061	106.69
374.287	89.69
374.513	92.69
374.739	83.69
374.965	94.69
375.191	86.69
375.416	99.69
375.642	91.69
375.868	95.69
376.094	97.69
376.319	85.69
376.545	65.69
376.771	82.69
376.997	82.69
377.222	93.69
377.448	94.69
377.674	83.69
377.899	84.69
378.125	89.69
378.35	88.69
378.576	84.69
378.802	85.69
379.027	90.69
379.253	92.69
379.478	89.69
379.704	91.69
379.929	87.69
380.155	101.69
380.38	88.69
380.606	80.69
380.831	97.69
381.057	114.69
381.282	86.69
381.507	93.69
381.733	97.69
381.958	90.69
382.184	95.69
382.409	99.69
382.634	107.69
382.86	110.69
383.085	110.69
383.31	106.69
383.535	102.69
383.761	118.69
383.986	119.69
384.211	110.69
384.436	99.69
384.662	87.69
384.887	106.69
385.112	105.69
385.337	87.69
385.562	108.69
385.787	95.69
386.013	110.69
386.238	100.69
386.463	91.69
386.688	95.69
386.913	86.69
387.138	103.69
387.363	94.69
387.588	99.69
387.813	116.69
388.038	98.69
388.263	101.69
388.488	101.69
388.713	86.69
388.938	93.69
389.163	75.69
389.387	77.69
389.612	93.69
389.837	99.69
390.062	85.69
390.287	86.69
390.512	86.69
390.736	94.69
390.961	94.69
391.186	118.69
391.411	79.69
391.636	98.69
391.86	105.69
392.085	125.69
392.31	114.69
392.534	116.69
392.759	157.69
392.984	256.69
393.208	448.69
393.433	685.69
393.658	505.69
393.882	226.69
394.107	162.69
394.331	133.69
394.556	162.69
394.78	128.69
395.005	110.69
395.229	101.69
395.454	99.69
395.678	113.69
395.903	153.69
396.127	178.69
396.352	211.69
396.576	284.69
396.801	474.69
397.025	520.69
397.249	289.69
397.474	170.69
397.698	135.69
397.922	103.69
398.147	87.69
398.371	76.69
398.595	91.69
398.82	86.69
399.044	104.69
399.268	102.69
399.492	96.69
399.717	85.69
399.941	87.69
400.165	97.69
400.389	90.69
400.613	74.69
400.837	79.69
401.062	83.69
401.286	84.69
401.51	94.69
401.734	73.69
401.958	67.69
402.182	85.69
402.406	87.69
402.63	78.69
402.854	98.69
403.078	92.69
403.302	93.69
403.526	87.69
403.75	100.69
403.974	88.69
404.198	91.69
404.422	115.69
404.645	114.69
404.869	123.69
405.093	104.69
405.317	106.69
405.541	80.69
405.765	95.69
405.988	86.69
406.212	83.69
406.436	89.69
406.66	95.69
406.883	98.69
407.107	79.69
407.331	90.69
407.555	115.69
407.778	140.69
408.002	143.69
408.226	98.69
408.449	83.69
408.673	91.69
408.896	88.69
409.12	97.69
409.344	108.69
409.567	122.69
409.791	120.69
410.014	117.69
410.238	109.69
410.461	103.69
410.685	93.69
410.908	94.69
411.132	82.69
411.355	103.69
411.578	90.69
411.802	91.69
412.025	94.69
412.249	97.69
412.472	90.69
412.695	87.69
412.919	90.69
413.142	85.69
413.365	100.69
413.589	93.69
413.812	96.69
414.035	78.69
414.258	94.69
414.482	86.69
414.705	65.69
414.928	91.69
415.151	93.69
415.374	88.69
415.597	89.69
415.821	83.69
416.044	94.69
416.267	85.69
416.49	91.69
416.713	91.69
416.936	90.69
417.159	88.69
417.382	93.69
417.605	89.69
417.828	90.69
418.051	79.69
418.274	81.69
418.497	73.69
418.72	83.69
418.943	76.69
419.166	74.69
419.389	94.69
419.611	81.69
419.834	85.69
420.057	106.69
420.28	111.69
420.503	106.69
420.726	100.69
420.948	101.69
421.171	101.69
421.394	127.69
421.617	144.69
421.839	154.69
422.062	139.69
422.285	207.69
422.507	394.69
422.73	600.69
422.953	522.69
423.175	253.69
423.398	138.69
423.621	127.69
423.843	113.69
424.066	111.69
424.288	107.69
424.511	96.69
424.733	93.69
424.956	90.69
425.178	94.69
425.401	104.69
425.623	106.69
425.846	82.69
426.068	87.69
426.291	88.69
426.513	83.69
426.735	95.69
426.958	80.69
427.18	83.69
427.402	94.69
427.625	101.69
427.847	101.69
428.069	109.69
428.292	164.69
428.514	201.69
428.736	133.69
428.958	159.69
429.181	171.69
429.403	118.69
429.625	112.69
429.847	152.69
430.069	227.69
430.292	279.69
430.514	245.69
430.736	177.69
430.958	193.69
431.18	100.69
431.402	101.69
431.624	129.69
431.846	147.69
432.068	164.69
432.29	125.69
432.512	82.69
432.734	91.69
432.956	90.69
433.178	100.69
433.4	70.69
433.622	92.69
433.844	95.69
434.066	90.69
434.287	84.69
434.509	85.69
434.731	98.69
434.953	89.69
435.175	89.69
435.397	82.69
435.618	100.69
435.84	109.69
436.062	95.69
436.284	98.69
436.505	81.69
436.727	85.69
436.949	103.69
437.17	97.69
437.392	76.69
437.614	97.69
437.835	86.69
438.057	93.69
438.278	100.69
438.5	102.69
438.721	87.69
438.943	87.69
439.165	79.69
439.386	78.69
439.608	84.69
439.829	81.69
440.05	93.69
440.272	83.69
440.493	89.69
440.715	102.69
440.936	89.69
441.158	93.69
441.379	92.69
441.6	94.69
441.822	95.69
442.043	103.69
442.264	122.69
442.486	179.69
442.707	271.69
442.928	159.69
443.149	133.69
443.371	236.69
443.592	423.69
443.813	365.69
444.034	150.69
444.255	93.69
444.476	99.69
444.698	91.69
444.919	101.69
445.14	200.69
445.361	303.69
445.582	511.69
445.803	405.69
446.024	161.69
446.245	113.69
446.466	78.69
446.687	89.69
446.908	86.69
447.129	83.69
447.35	100.69
447.571	87.69
447.792	97.69
448.013	82.69
448.234	89.69
448.455	82.69
448.675	94.69
448.896	74.69
449.117	92.69
449.338	87.69
449.559	96.69
449.779	80.69
450	90.69
450.221	86.69
450.442	84.69
450.662	92.69
450.883	104.69
451.104	99.69
451.324	102.69
451.545	86.69
451.766	83.69
451.986	79.69
452.207	93.69
452.428	91.69
452.648	97.69
452.869	121.69
453.089	96.69
453.31	97.69
453.53	99.69
453.751	85.69
453.971	84.69
454.192	76.69
454.412	79.69
454.633	75.69
454.853	80.69
455.073	87.69
455.294	87.69
455.514	83.69
455.734	101.69
455.955	96.69
456.175	74.69
456.395	78.69
456.616	83.69
456.836	102.69
457.056	96.69
457.276	84.69
457.497	85.69
457.717	94.69
457.937	150.69
458.157	142.69
458.377	163.69
458.598	173.69
458.818	177.69
459.038	121.69
459.258	83.69
459.478	104.69
459.698	96.69
459.918	90.69
460.138	88.69
460.358	95.69
460.578	100.69
460.798	138.69
461.018	142.69
461.238	105.69
461.458	82.69
461.678	85.69
461.898	102.69
462.118	78.69
462.338	80.69
462.558	89.69
462.777	86.69
462.997	93.69
463.217	84.69
463.437	79.69
463.657	88.69
463.876	90.69
464.096	97.69
464.316	87.69
464.536	71.69
464.755	80.69
464.975	81.69
465.195	74.69
465.414	77.69
465.634	85.69
465.854	91.69
466.073	83.69
466.293	67.69
466.512	100.69
466.732	84.69
466.951	85.69
467.171	81.69
467.391	97.69
467.61	81.69
467.829	80.69
468.049	93.69
468.268	82.69
468.488	102.69
468.707	92.69
468.927	90.69
469.146	97.69
469.365	79.69
469.585	89.69
469.804	90.69
470.023	91.69
470.243	81.69
470.462	76.69
470.681	67.69
470.901	72.69
471.12	96.69
471.339	83.69
471.558	76.69
471.777	85.69
471.997	86.69
472.216	75.69
472.435	84.69
472.654	85.69
472.873	87.69
473.092	79.69
473.311	99.69
473.53	90.69
473.749	78.69
473.968	90.69
474.187	93.69
474.406	87.69
474.625	74.69
474.844	80.69
475.063	62.69
475.282	82.69
475.501	82.69
475.72	96.69
475.939	69.69
476.158	89.69
476.377	96.69
476.596	85.69
476.814	93.69
477.033	83.69
477.252	86.69
477.471	82.69
477.69	89.69
477.908	92.69
478.127	85.69
478.346	95.69
478.564	95.69
478.783	76.69
479.002	81.69
479.22	76.69
479.439	82.69
479.658	77.69
479.876	99.69
480.095	65.69
480.313	84.69
480.532	79.69
480.751	82.69
480.969	91.69
481.188	93.69
481.406	99.69
481.624	87.69
481.843	87.69
482.061	99.69
482.28	87.69
482.498	93.69
482.717	93.69
482.935	75.69
483.153	90.69
483.372	99.69
483.59	93.69
483.808	78.69
484.027	90.69
484.245	89.69
484.463	82.69
484.681	115.69
484.9	90.69
485.118	92.69
485.336	82.69
485.554	82.69
485.772	87.69
485.99	99.69
486.209	90.69
486.427	79.69
486.645	83.69
486.863	80.69
487.081	89.69
487.299	111.69
487.517	99.69
487.735	147.69
487.953	265.69
488.171	215.69
488.389	109.69
488.607	111.69
488.825	96.69
489.043	105.69
489.261	91.69
489.479	101.69
489.696	88.69
489.914	89.69
490.132	92.69
490.35	89.69
490.568	87.69
490.786	86.69
491.003	89.69
491.221	83.69
491.439	84.69
491.657	89.69
491.874	102.69
492.092	86.69
492.31	87.69
492.527	85.69
492.745	79.69
492.963	104.69
493.18	90.69
493.398	105.69
493.615	91.69
493.833	93.69
494.05	87.69
494.268	84.69
494.485	91.69
494.703	74.69
494.92	91.69
495.138	96.69
495.355	87.69
495.573	87.69
495.79	85.69
496.008	102.69
496.225	94.69
496.442	86.69
496.66	88.69
496.877	96.69
497.094	86.69
497.312	83.69
497.529	81.69
497.746	73.69
497.963	90.69
498.181	102.69
498.398	103.69
498.615	87.69
498.832	94.69
499.049	87.69
499.267	90.69
499.484	88.69
499.701	86.69
499.918	81.69
500.135	100.69
500.352	97.69
500.569	86.69
500.786	102.69
501.003	100.69
501.22	85.69
501.437	88.69
501.654	91.69
501.871	74.69
502.088	90.69
502.305	86.69
502.522	77.69
502.739	77.69
502.956	98.69
503.172	79.69
503.389	82.69
503.606	96.69
503.823	106.69
504.04	119.69
504.256	195.69
504.473	186.69
504.69	123.69
504.907	93.69
505.123	82.69
505.34	90.69
505.557	95.69
505.773	91.69
505.99	92.69
506.207	78.69
506.423	85.69
506.64	82.69
506.856	91.69
507.073	105.69
507.289	78.69
507.506	85.69
507.722	88.69
507.939	84.69
508.155	85.69
508.372	88.69
508.588	81.69
508.805	89.69
509.021	88.69
509.238	89.69
509.454	85.69
509.67	80.69
509.887	93.69
510.103	81.69
510.319	80.69
510.536	85.69
510.752	94.69
510.968	89.69
511.184	81.69
511.401	76.69
511.617	90.69
511.833	94.69
512.049	89.69
512.265	73.69
512.481	89.69
512.698	75.69
512.914	95.69
513.13	96.69
513.346	96.69
513.562	77.69
513.778	91.69
513.994	96.69
514.21	90.69
514.426	78.69
514.642	86.69
514.858	78.69
515.074	81.69
515.29	88.69
515.506	74.69
515.721	88.69
515.937	91.69
516.153	90.69
516.369	94.69
516.585	91.69
516.801	91.69
517.016	109.69
