Data from 18505_1_HRD10591_00026.txt Node
Date: Mon Jan 19 13:58:44 EST 2026
User: Yrep
Spectrometer: HR+D1059
Trigger mode: 1
Integration Time (sec): 1.000000E-1
Scans to average: 1
Electric dark correction enabled: true
Nonlinearity correction enabled: false
Boxcar width: 0
XAxis mode: Wavelengths
Number of Pixels in Spectrum: 2048
>>>>>Begin Spectral Data<<<<<
223.165	-18.31
223.4	-18.31
223.635	-18.31
223.869	-12.31
224.104	-9.31
224.338	-12.31
224.573	-26.31
224.808	-17.31
225.042	1.69
225.277	-5.31
225.511	-6.31
225.746	-2.31
225.98	12.69
226.215	6.69
226.449	31.69
226.683	17.69
226.918	19.69
227.152	19.69
227.387	36.69
227.621	51.69
227.856	38.69
228.09	42.69
228.324	60.69
228.559	65.69
228.793	61.69
229.027	62.69
229.262	82.69
229.496	66.69
229.73	67.69
229.964	58.69
230.199	63.69
230.433	79.69
230.667	73.69
230.901	89.69
231.136	83.69
231.37	81.69
231.604	76.69
231.838	75.69
232.072	83.69
232.306	86.69
232.541	90.69
232.775	80.69
233.009	81.69
233.243	91.69
233.477	83.69
233.711	93.69
233.945	82.69
234.179	74.69
234.413	70.69
234.647	78.69
234.881	74.69
235.115	75.69
235.349	81.69
235.583	69.69
235.817	77.69
236.051	90.69
236.285	79.69
236.519	79.69
236.753	83.69
236.987	85.69
237.221	79.69
237.455	82.69
237.689	86.69
237.922	78.69
238.156	71.69
238.39	59.69
238.624	72.69
238.858	89.69
239.091	71.69
239.325	79.69
239.559	84.69
239.793	90.69
240.027	67.69
240.26	74.69
240.494	61.69
240.728	84.69
240.961	83.69
241.195	69.69
241.429	74.69
241.662	85.69
241.896	68.69
242.13	89.69
242.363	87.69
242.597	81.69
242.83	74.69
243.064	71.69
243.298	68.69
243.531	64.69
243.765	81.69
243.998	93.69
244.232	78.69
244.465	80.69
244.699	89.69
244.932	77.69
245.166	82.69
245.399	90.69
245.633	78.69
245.866	89.69
246.099	80.69
246.333	74.69
246.566	79.69
246.8	70.69
247.033	72.69
247.266	78.69
247.5	70.69
247.733	83.69
247.966	93.69
248.2	82.69
248.433	73.69
248.666	85.69
248.899	83.69
249.133	71.69
249.366	80.69
249.599	76.69
249.832	69.69
250.066	91.69
250.299	85.69
250.532	90.69
250.765	84.69
250.998	84.69
251.231	80.69
251.465	71.69
251.698	65.69
251.931	76.69
252.164	63.69
252.397	71.69
252.63	81.69
252.863	78.69
253.096	87.69
253.329	77.69
253.562	68.69
253.795	94.69
254.028	96.69
254.261	76.69
254.494	84.69
254.727	74.69
254.96	76.69
255.193	84.69
255.426	76.69
255.659	66.69
255.892	96.69
256.124	82.69
256.357	75.69
256.59	83.69
256.823	93.69
257.056	66.69
257.289	81.69
257.521	89.69
257.754	64.69
257.987	86.69
258.22	81.69
258.452	87.69
258.685	90.69
258.918	75.69
259.151	84.69
259.383	83.69
259.616	73.69
259.849	82.69
260.081	83.69
260.314	82.69
260.547	72.69
260.779	78.69
261.012	98.69
261.244	87.69
261.477	80.69
261.71	80.69
261.942	84.69
262.175	79.69
262.407	84.69
262.64	90.69
262.872	77.69
263.105	76.69
263.337	75.69
263.57	75.69
263.802	90.69
264.035	90.69
264.267	79.69
264.499	75.69
264.732	85.69
264.964	72.69
265.197	73.69
265.429	72.69
265.661	81.69
265.894	87.69
266.126	74.69
266.358	79.69
266.591	75.69
266.823	74.69
267.055	87.69
267.287	93.69
267.52	82.69
267.752	81.69
267.984	76.69
268.216	75.69
268.448	91.69
268.681	86.69
268.913	75.69
269.145	78.69
269.377	73.69
269.609	75.69
269.841	85.69
270.073	81.69
270.306	84.69
270.538	85.69
270.77	81.69
271.002	91.69
271.234	90.69
271.466	72.69
271.698	61.69
271.93	85.69
272.162	86.69
272.394	94.69
272.626	85.69
272.858	73.69
273.09	82.69
273.322	77.69
273.553	88.69
273.785	79.69
274.017	82.69
274.249	63.69
274.481	65.69
274.713	79.69
274.945	93.69
275.176	69.69
275.408	86.69
275.64	96.69
275.872	86.69
276.104	80.69
276.335	71.69
276.567	83.69
276.799	81.69
277.031	76.69
277.262	83.69
277.494	86.69
277.726	90.69
277.957	86.69
278.189	70.69
278.421	94.69
278.652	76.69
278.884	85.69
279.115	85.69
279.347	82.69
279.579	74.69
279.81	79.69
280.042	93.69
280.273	103.69
280.505	83.69
280.736	82.69
280.968	81.69
281.199	76.69
281.431	71.69
281.662	85.69
281.894	84.69
282.125	82.69
282.356	93.69
282.588	90.69
282.819	75.69
283.051	90.69
283.282	76.69
283.513	93.69
283.745	78.69
283.976	72.69
284.207	75.69
284.439	82.69
284.67	94.69
284.901	102.69
285.132	92.69
285.364	93.69
285.595	85.69
285.826	86.69
286.057	82.69
286.288	85.69
286.52	78.69
286.751	99.69
286.982	89.69
287.213	87.69
287.444	98.69
287.675	93.69
287.906	96.69
288.138	79.69
288.369	80.69
288.6	79.69
288.831	84.69
289.062	75.69
289.293	78.69
289.524	81.69
289.755	79.69
289.986	91.69
290.217	94.69
290.448	79.69
290.679	80.69
290.91	90.69
291.141	80.69
291.371	90.69
291.602	79.69
291.833	80.69
292.064	87.69
292.295	74.69
292.526	95.69
292.757	93.69
292.987	83.69
293.218	74.69
293.449	92.69
293.68	79.69
293.91	95.69
294.141	85.69
294.372	86.69
294.603	84.69
294.833	69.69
295.064	78.69
295.295	90.69
295.525	81.69
295.756	85.69
295.987	89.69
296.217	96.69
296.448	84.69
296.679	82.69
296.909	75.69
297.14	75.69
297.37	82.69
297.601	83.69
297.831	82.69
298.062	91.69
298.292	82.69
298.523	83.69
298.753	85.69
298.984	87.69
299.214	81.69
299.445	86.69
299.675	76.69
299.905	85.69
300.136	81.69
300.366	94.69
300.597	75.69
300.827	93.69
301.057	80.69
301.288	85.69
301.518	77.69
301.748	87.69
301.979	90.69
302.209	75.69
302.439	79.69
302.669	74.69
302.9	82.69
303.13	89.69
303.36	97.69
303.59	95.69
303.82	88.69
304.051	85.69
304.281	79.69
304.511	81.69
304.741	86.69
304.971	85.69
305.201	82.69
305.431	89.69
305.661	85.69
305.891	95.69
306.121	87.69
306.352	76.69
306.582	83.69
306.812	86.69
307.042	80.69
307.272	87.69
307.502	96.69
307.731	81.69
307.961	87.69
308.191	87.69
308.421	94.69
308.651	88.69
308.881	91.69
309.111	104.69
309.341	91.69
309.571	88.69
309.8	84.69
310.03	82.69
310.26	65.69
310.49	78.69
310.72	83.69
310.949	99.69
311.179	95.69
311.409	85.69
311.639	94.69
311.868	89.69
312.098	82.69
312.328	73.69
312.557	79.69
312.787	82.69
313.017	98.69
313.246	89.69
313.476	94.69
313.706	83.69
313.935	90.69
314.165	90.69
314.394	81.69
314.624	79.69
314.853	85.69
315.083	79.69
315.312	90.69
315.542	96.69
315.771	85.69
316.001	113.69
316.23	76.69
316.46	74.69
316.689	89.69
316.919	79.69
317.148	83.69
317.377	101.69
317.607	86.69
317.836	93.69
318.065	102.69
318.295	113.69
318.524	83.69
318.753	104.69
318.983	73.69
319.212	89.69
319.441	97.69
319.67	81.69
319.9	84.69
320.129	81.69
320.358	87.69
320.587	86.69
320.816	70.69
321.046	86.69
321.275	91.69
321.504	95.69
321.733	111.69
321.962	96.69
322.191	102.69
322.42	81.69
322.649	93.69
322.878	83.69
323.108	83.69
323.337	88.69
323.566	83.69
323.795	91.69
324.024	72.69
324.253	84.69
324.482	90.69
324.71	76.69
324.939	90.69
325.168	91.69
325.397	74.69
325.626	90.69
325.855	83.69
326.084	97.69
326.313	88.69
326.542	89.69
326.77	77.69
326.999	85.69
327.228	79.69
327.457	72.69
327.686	90.69
327.914	97.69
328.143	79.69
328.372	85.69
328.6	87.69
328.829	87.69
329.058	87.69
329.287	83.69
329.515	81.69
329.744	98.69
329.972	94.69
330.201	79.69
330.43	75.69
330.658	88.69
330.887	91.69
331.115	85.69
331.344	101.69
331.572	92.69
331.801	76.69
332.03	79.69
332.258	85.69
332.486	98.69
332.715	97.69
332.943	95.69
333.172	88.69
333.4	71.69
333.629	74.69
333.857	77.69
334.085	81.69
334.314	93.69
334.542	85.69
334.771	91.69
334.999	84.69
335.227	88.69
335.455	90.69
335.684	97.69
335.912	97.69
336.14	101.69
336.369	97.69
336.597	105.69
336.825	95.69
337.053	91.69
337.281	85.69
337.51	80.69
337.738	85.69
337.966	83.69
338.194	79.69
338.422	85.69
338.65	80.69
338.878	97.69
339.106	87.69
339.334	81.69
339.562	90.69
339.79	85.69
340.018	80.69
340.246	89.69
340.474	89.69
340.702	82.69
340.93	97.69
341.158	75.69
341.386	86.69
341.614	87.69
341.842	82.69
342.07	83.69
342.298	89.69
342.526	95.69
342.754	85.69
342.981	91.69
343.209	80.69
343.437	88.69
343.665	79.69
343.893	75.69
344.12	90.69
344.348	75.69
344.576	91.69
344.804	79.69
345.031	91.69
345.259	79.69
345.487	97.69
345.714	83.69
345.942	79.69
346.17	93.69
346.397	90.69
346.625	93.69
346.853	85.69
347.08	75.69
347.308	99.69
347.535	78.69
347.763	75.69
347.99	90.69
348.218	90.69
348.445	85.69
348.673	77.69
348.9	94.69
349.128	75.69
349.355	77.69
349.583	87.69
349.81	78.69
350.037	78.69
350.265	86.69
350.492	85.69
350.72	88.69
350.947	76.69
351.174	89.69
351.402	85.69
351.629	88.69
351.856	71.69
352.083	83.69
352.311	73.69
352.538	74.69
352.765	97.69
352.992	91.69
353.22	81.69
353.447	88.69
353.674	75.69
353.901	79.69
354.128	75.69
354.355	83.69
354.583	75.69
354.81	84.69
355.037	76.69
355.264	71.69
355.491	86.69
355.718	83.69
355.945	86.69
356.172	84.69
356.399	94.69
356.626	95.69
356.853	83.69
357.08	96.69
357.307	97.69
357.534	95.69
357.761	85.69
357.988	95.69
358.215	90.69
358.441	90.69
358.668	88.69
358.895	98.69
359.122	82.69
359.349	79.69
359.576	73.69
359.802	68.69
360.029	84.69
360.256	86.69
360.483	80.69
360.709	79.69
360.936	96.69
361.163	84.69
361.39	93.69
361.616	74.69
361.843	81.69
362.07	92.69
362.296	84.69
362.523	92.69
362.749	98.69
362.976	104.69
363.203	117.69
363.429	89.69
363.656	77.69
363.882	86.69
364.109	101.69
364.335	115.69
364.562	99.69
364.788	79.69
365.015	112.69
365.241	92.69
365.468	90.69
365.694	89.69
365.92	73.69
366.147	80.69
366.373	89.69
366.599	78.69
366.826	97.69
367.052	93.69
367.278	80.69
367.505	75.69
367.731	93.69
367.957	106.69
368.184	79.69
368.41	100.69
368.636	88.69
368.862	93.69
369.089	98.69
369.315	85.69
369.541	94.69
369.767	88.69
369.993	71.69
370.219	79.69
370.445	100.69
370.672	83.69
370.898	101.69
371.124	83.69
371.35	83.69
371.576	75.69
371.802	87.69
372.028	89.69
372.254	88.69
372.48	95.69
372.706	79.69
372.932	80.69
373.158	90.69
373.384	82.69
373.61	95.69
373.835	115.69
374.061	87.69
374.287	74.69
374.513	77.69
374.739	75.69
374.965	95.69
375.191	92.69
375.416	95.69
375.642	87.69
375.868	94.69
376.094	88.69
376.319	85.69
376.545	96.69
376.771	87.69
376.997	81.69
377.222	82.69
377.448	93.69
377.674	95.69
377.899	89.69
378.125	84.69
378.35	83.69
378.576	98.69
378.802	91.69
379.027	91.69
379.253	74.69
379.478	94.69
379.704	74.69
379.929	86.69
380.155	78.69
380.38	84.69
380.606	82.69
380.831	74.69
381.057	91.69
381.282	74.69
381.507	96.69
381.733	82.69
381.958	94.69
382.184	89.69
382.409	79.69
382.634	105.69
382.86	85.69
383.085	88.69
383.31	87.69
383.535	101.69
383.761	105.69
383.986	112.69
384.211	89.69
384.436	85.69
384.662	78.69
384.887	75.69
385.112	80.69
385.337	86.69
385.562	85.69
385.787	90.69
386.013	105.69
386.238	97.69
386.463	84.69
386.688	100.69
386.913	59.69
387.138	80.69
387.363	89.69
387.588	99.69
387.813	100.69
388.038	91.69
388.263	101.69
388.488	99.69
388.713	88.69
388.938	74.69
389.163	91.69
389.387	81.69
389.612	81.69
389.837	89.69
390.062	79.69
390.287	86.69
390.512	92.69
390.736	94.69
390.961	95.69
391.186	82.69
391.411	93.69
391.636	77.69
391.86	91.69
392.085	104.69
392.31	100.69
392.534	102.69
392.759	114.69
392.984	149.69
393.208	296.69
393.433	449.69
393.658	335.69
393.882	146.69
394.107	114.69
394.331	114.69
394.556	97.69
394.78	103.69
395.005	84.69
395.229	101.69
395.454	106.69
395.678	109.69
395.903	133.69
396.127	120.69
396.352	152.69
396.576	181.69
396.801	284.69
397.025	358.69
397.249	182.69
397.474	113.69
397.698	110.69
397.922	88.69
398.147	98.69
398.371	99.69
398.595	81.69
398.82	87.69
399.044	83.69
399.268	82.69
399.492	96.69
399.717	88.69
399.941	92.69
400.165	91.69
400.389	82.69
400.613	102.69
400.837	89.69
401.062	82.69
401.286	91.69
401.51	96.69
401.734	93.69
401.958	79.69
402.182	94.69
402.406	81.69
402.63	89.69
402.854	79.69
403.078	86.69
403.302	100.69
403.526	94.69
403.75	81.69
403.974	84.69
404.198	82.69
404.422	89.69
404.645	141.69
404.869	107.69
405.093	94.69
405.317	97.69
405.541	79.69
405.765	79.69
405.988	87.69
406.212	88.69
406.436	87.69
406.66	92.69
406.883	92.69
407.107	91.69
407.331	90.69
407.555	117.69
407.778	118.69
408.002	112.69
408.226	83.69
408.449	87.69
408.673	88.69
408.896	89.69
409.12	78.69
409.344	97.69
409.567	81.69
409.791	93.69
410.014	97.69
410.238	112.69
410.461	88.69
410.685	76.69
410.908	86.69
411.132	104.69
411.355	74.69
411.578	86.69
411.802	82.69
412.025	90.69
412.249	99.69
412.472	92.69
412.695	81.69
412.919	82.69
413.142	84.69
413.365	90.69
413.589	87.69
413.812	84.69
414.035	88.69
414.258	89.69
414.482	71.69
414.705	87.69
414.928	83.69
415.151	76.69
415.374	89.69
415.597	87.69
415.821	74.69
416.044	96.69
416.267	93.69
416.49	81.69
416.713	92.69
416.936	76.69
417.159	76.69
417.382	82.69
417.605	84.69
417.828	101.69
418.051	81.69
418.274	72.69
418.497	85.69
418.72	86.69
418.943	85.69
419.166	78.69
419.389	87.69
419.611	88.69
419.834	80.69
420.057	85.69
420.28	90.69
420.503	94.69
420.726	96.69
420.948	97.69
421.171	108.69
421.394	102.69
421.617	129.69
421.839	125.69
422.062	135.69
422.285	160.69
422.507	292.69
422.73	474.69
422.953	407.69
423.175	209.69
423.398	128.69
423.621	89.69
423.843	91.69
424.066	91.69
424.288	82.69
424.511	103.69
424.733	106.69
424.956	92.69
425.178	93.69
425.401	86.69
425.623	84.69
425.846	76.69
426.068	83.69
426.291	79.69
426.513	88.69
426.735	90.69
426.958	88.69
427.18	80.69
427.402	98.69
427.625	89.69
427.847	92.69
428.069	95.69
428.292	130.69
428.514	148.69
428.736	121.69
428.958	141.69
429.181	140.69
429.403	105.69
429.625	94.69
429.847	128.69
430.069	167.69
430.292	193.69
430.514	195.69
430.736	140.69
430.958	160.69
431.18	89.69
431.402	79.69
431.624	84.69
431.846	133.69
432.068	137.69
432.29	101.69
432.512	91.69
432.734	80.69
432.956	84.69
433.178	97.69
433.4	99.69
433.622	102.69
433.844	91.69
434.066	78.69
434.287	96.69
434.509	79.69
434.731	73.69
434.953	59.69
435.175	84.69
435.397	91.69
435.618	99.69
435.84	76.69
436.062	74.69
436.284	87.69
436.505	91.69
436.727	86.69
436.949	68.69
437.17	83.69
437.392	77.69
437.614	79.69
437.835	72.69
438.057	83.69
438.278	90.69
438.5	87.69
438.721	78.69
438.943	88.69
439.165	93.69
439.386	83.69
439.608	85.69
439.829	88.69
440.05	77.69
440.272	91.69
440.493	91.69
440.715	86.69
440.936	96.69
441.158	97.69
441.379	80.69
441.6	75.69
441.822	87.69
442.043	92.69
442.264	98.69
442.486	146.69
442.707	185.69
442.928	125.69
443.149	119.69
443.371	154.69
443.592	272.69
443.813	230.69
444.034	104.69
444.255	92.69
444.476	93.69
444.698	83.69
444.919	90.69
445.14	193.69
445.361	230.69
445.582	314.69
445.803	274.69
446.024	114.69
446.245	102.69
446.466	84.69
446.687	94.69
446.908	73.69
447.129	89.69
447.35	70.69
447.571	83.69
447.792	83.69
448.013	81.69
448.234	96.69
448.455	80.69
448.675	78.69
448.896	90.69
449.117	88.69
449.338	80.69
449.559	87.69
449.779	92.69
450	84.69
450.221	87.69
450.442	80.69
450.662	94.69
450.883	102.69
451.104	90.69
451.324	74.69
451.545	101.69
451.766	85.69
451.986	76.69
452.207	81.69
452.428	74.69
452.648	92.69
452.869	100.69
453.089	92.69
453.31	74.69
453.53	71.69
453.751	89.69
453.971	68.69
454.192	99.69
454.412	90.69
454.633	83.69
454.853	89.69
455.073	81.69
455.294	79.69
455.514	82.69
455.734	94.69
455.955	86.69
456.175	86.69
456.395	101.69
456.616	94.69
456.836	95.69
457.056	89.69
457.276	103.69
457.497	87.69
457.717	90.69
457.937	102.69
458.157	121.69
458.377	124.69
458.598	116.69
458.818	130.69
459.038	111.69
459.258	95.69
459.478	89.69
459.698	87.69
459.918	89.69
460.138	101.69
460.358	81.69
460.578	101.69
460.798	143.69
461.018	120.69
461.238	95.69
461.458	89.69
461.678	96.69
461.898	74.69
462.118	75.69
462.338	73.69
462.558	84.69
462.777	93.69
462.997	81.69
463.217	76.69
463.437	81.69
463.657	88.69
463.876	99.69
464.096	84.69
464.316	82.69
464.536	79.69
464.755	96.69
464.975	88.69
465.195	87.69
465.414	101.69
465.634	81.69
465.854	77.69
466.073	94.69
466.293	76.69
466.512	85.69
466.732	82.69
466.951	89.69
467.171	95.69
467.391	77.69
467.61	65.69
467.829	89.69
468.049	87.69
468.268	86.69
468.488	72.69
468.707	103.69
468.927	97.69
469.146	77.69
469.365	87.69
469.585	95.69
469.804	89.69
470.023	78.69
470.243	91.69
470.462	96.69
470.681	79.69
470.901	78.69
471.12	89.69
471.339	77.69
471.558	90.69
471.777	81.69
471.997	101.69
472.216	89.69
472.435	83.69
472.654	91.69
472.873	86.69
473.092	85.69
473.311	86.69
473.53	90.69
473.749	98.69
473.968	84.69
474.187	85.69
474.406	87.69
474.625	80.69
474.844	92.69
475.063	73.69
475.282	88.69
475.501	78.69
475.72	99.69
475.939	85.69
476.158	95.69
476.377	97.69
476.596	93.69
476.814	85.69
477.033	90.69
477.252	75.69
477.471	89.69
477.69	75.69
477.908	87.69
478.127	95.69
478.346	95.69
478.564	90.69
478.783	85.69
479.002	72.69
479.22	89.69
479.439	91.69
479.658	80.69
479.876	88.69
480.095	85.69
480.313	94.69
480.532	87.69
480.751	97.69
480.969	75.69
481.188	87.69
481.406	88.69
481.624	77.69
481.843	60.69
482.061	88.69
482.28	78.69
482.498	89.69
482.717	89.69
482.935	96.69
483.153	95.69
483.372	86.69
483.59	83.69
483.808	79.69
484.027	77.69
484.245	86.69
484.463	89.69
484.681	81.69
484.9	80.69
485.118	95.69
485.336	79.69
485.554	68.69
485.772	93.69
485.99	84.69
486.209	81.69
486.427	87.69
486.645	84.69
486.863	86.69
487.081	92.69
487.299	87.69
487.517	97.69
487.735	115.69
487.953	173.69
488.171	140.69
488.389	89.69
488.607	99.69
488.825	93.69
489.043	84.69
489.261	93.69
489.479	89.69
489.696	85.69
489.914	92.69
490.132	82.69
490.35	94.69
490.568	93.69
490.786	82.69
491.003	91.69
491.221	69.69
491.439	72.69
491.657	87.69
491.874	87.69
492.092	84.69
492.31	84.69
492.527	99.69
492.745	80.69
492.963	78.69
493.18	80.69
493.398	90.69
493.615	95.69
493.833	81.69
494.05	87.69
494.268	79.69
494.485	86.69
494.703	86.69
494.92	88.69
495.138	95.69
495.355	101.69
495.573	94.69
495.79	83.69
496.008	83.69
496.225	79.69
496.442	90.69
496.66	96.69
496.877	102.69
497.094	89.69
497.312	83.69
497.529	75.69
497.746	88.69
497.963	85.69
498.181	95.69
498.398	85.69
498.615	79.69
498.832	83.69
499.049	79.69
499.267	88.69
499.484	74.69
499.701	93.69
499.918	89.69
500.135	90.69
500.352	80.69
500.569	99.69
500.786	90.69
501.003	87.69
501.22	91.69
501.437	86.69
501.654	90.69
501.871	86.69
502.088	110.69
502.305	88.69
502.522	83.69
502.739	72.69
502.956	87.69
503.172	88.69
503.389	81.69
503.606	84.69
503.823	95.69
504.04	84.69
504.256	130.69
504.473	145.69
504.69	97.69
504.907	91.69
505.123	85.69
505.34	84.69
505.557	92.69
505.773	97.69
505.99	98.69
506.207	86.69
506.423	86.69
506.64	86.69
506.856	93.69
507.073	86.69
507.289	77.69
507.506	79.69
507.722	83.69
507.939	79.69
508.155	82.69
508.372	87.69
508.588	90.69
508.805	87.69
509.021	88.69
509.238	91.69
509.454	84.69
509.67	82.69
509.887	96.69
510.103	93.69
510.319	81.69
510.536	78.69
510.752	90.69
510.968	74.69
511.184	86.69
511.401	76.69
511.617	100.69
511.833	73.69
512.049	93.69
512.265	102.69
512.481	73.69
512.698	77.69
512.914	82.69
513.13	93.69
513.346	91.69
513.562	89.69
513.778	89.69
513.994	78.69
514.21	86.69
514.426	96.69
514.642	83.69
514.858	99.69
515.074	87.69
515.29	86.69
515.506	82.69
515.721	87.69
515.937	75.69
516.153	78.69
516.369	96.69
516.585	83.69
516.801	96.69
517.016	92.69
517.232	91.69
517.448	109.69
517.664	86.69
517.879	95.69
518.095	87.69
518.311	101.69
