Data from 18505_1_HRD10591_00014.txt Node
Date: Mon Jan 19 13:58:38 EST 2026
User: Yrep
Spectrometer: HR+D1059
Trigger mode: 1
Integration Time (sec): 1.000000E-1
Scans to average: 1
Electric dark correction enabled: true
Nonlinearity correction enabled: false
Boxcar width: 0
XAxis mode: Wavelengths
Number of Pixels in Spectrum: 2048
>>>>>Begin Spectral Data<<<<<
223.165	-5.94
223.4	-5.94
223.635	-5.94
223.869	-19.94
224.104	-17.94
224.338	-14.94
224.573	-9.94
224.808	-24.94
225.042	-7.94
225.277	-1.94
225.511	-0.94
225.746	-4.94
225.98	5.06
226.215	7.06
226.449	23.06
226.683	17.06
226.918	35.06
227.152	22.06
227.387	47.06
227.621	35.06
227.856	41.06
228.09	55.06
228.324	53.06
228.559	73.06
228.793	52.06
229.027	66.06
229.262	56.06
229.496	67.06
229.73	75.06
229.964	68.06
230.199	81.06
230.433	92.06
230.667	66.06
230.901	69.06
231.136	75.06
231.37	85.06
231.604	76.06
231.838	86.06
232.072	95.06
232.306	87.06
232.541	72.06
232.775	88.06
233.009	86.06
233.243	80.06
233.477	85.06
233.711	79.06
233.945	79.06
234.179	66.06
234.413	80.06
234.647	83.06
234.881	74.06
235.115	67.06
235.349	83.06
235.583	74.06
235.817	77.06
236.051	82.06
236.285	84.06
236.519	95.06
236.753	82.06
236.987	71.06
237.221	82.06
237.455	68.06
237.689	83.06
237.922	89.06
238.156	81.06
238.39	86.06
238.624	83.06
238.858	69.06
239.091	74.06
239.325	74.06
239.559	73.06
239.793	83.06
240.027	93.06
240.26	80.06
240.494	75.06
240.728	80.06
240.961	75.06
241.195	85.06
241.429	72.06
241.662	73.06
241.896	62.06
242.13	80.06
242.363	76.06
242.597	74.06
242.83	72.06
243.064	71.06
243.298	76.06
243.531	77.06
243.765	81.06
243.998	83.06
244.232	92.06
244.465	101.06
244.699	70.06
244.932	79.06
245.166	69.06
245.399	76.06
245.633	79.06
245.866	82.06
246.099	83.06
246.333	74.06
246.566	83.06
246.8	80.06
247.033	83.06
247.266	87.06
247.5	80.06
247.733	77.06
247.966	74.06
248.2	72.06
248.433	88.06
248.666	77.06
248.899	70.06
249.133	68.06
249.366	67.06
249.599	75.06
249.832	66.06
250.066	85.06
250.299	66.06
250.532	80.06
250.765	77.06
250.998	91.06
251.231	75.06
251.465	91.06
251.698	76.06
251.931	74.06
252.164	80.06
252.397	102.06
252.63	97.06
252.863	87.06
253.096	88.06
253.329	90.06
253.562	79.06
253.795	87.06
254.028	93.06
254.261	75.06
254.494	69.06
254.727	80.06
254.96	80.06
255.193	96.06
255.426	81.06
255.659	72.06
255.892	82.06
256.124	76.06
256.357	73.06
256.59	95.06
256.823	84.06
257.056	63.06
257.289	88.06
257.521	91.06
257.754	74.06
257.987	83.06
258.22	81.06
258.452	95.06
258.685	88.06
258.918	90.06
259.151	76.06
259.383	79.06
259.616	88.06
259.849	84.06
260.081	80.06
260.314	83.06
260.547	83.06
260.779	72.06
261.012	87.06
261.244	82.06
261.477	93.06
261.71	78.06
261.942	77.06
262.175	81.06
262.407	94.06
262.64	86.06
262.872	96.06
263.105	77.06
263.337	78.06
263.57	82.06
263.802	92.06
264.035	87.06
264.267	90.06
264.499	100.06
264.732	76.06
264.964	70.06
265.197	72.06
265.429	73.06
265.661	99.06
265.894	82.06
266.126	88.06
266.358	90.06
266.591	82.06
266.823	91.06
267.055	85.06
267.287	81.06
267.52	86.06
267.752	77.06
267.984	80.06
268.216	92.06
268.448	75.06
268.681	96.06
268.913	93.06
269.145	75.06
269.377	83.06
269.609	95.06
269.841	93.06
270.073	77.06
270.306	83.06
270.538	79.06
270.77	71.06
271.002	72.06
271.234	89.06
271.466	99.06
271.698	82.06
271.93	91.06
272.162	92.06
272.394	96.06
272.626	83.06
272.858	78.06
273.09	85.06
273.322	76.06
273.553	85.06
273.785	90.06
274.017	80.06
274.249	84.06
274.481	65.06
274.713	98.06
274.945	84.06
275.176	77.06
275.408	92.06
275.64	91.06
275.872	82.06
276.104	81.06
276.335	92.06
276.567	84.06
276.799	80.06
277.031	81.06
277.262	72.06
277.494	66.06
277.726	94.06
277.957	79.06
278.189	97.06
278.421	90.06
278.652	78.06
278.884	90.06
279.115	80.06
279.347	91.06
279.579	83.06
279.81	101.06
280.042	89.06
280.273	93.06
280.505	87.06
280.736	84.06
280.968	97.06
281.199	102.06
281.431	74.06
281.662	92.06
281.894	88.06
282.125	84.06
282.356	74.06
282.588	97.06
282.819	88.06
283.051	83.06
283.282	77.06
283.513	84.06
283.745	82.06
283.976	82.06
284.207	86.06
284.439	96.06
284.67	98.06
284.901	89.06
285.132	99.06
285.364	96.06
285.595	114.06
285.826	82.06
286.057	94.06
286.288	96.06
286.52	90.06
286.751	90.06
286.982	92.06
287.213	80.06
287.444	79.06
287.675	87.06
287.906	95.06
288.138	100.06
288.369	110.06
288.6	106.06
288.831	74.06
289.062	98.06
289.293	78.06
289.524	76.06
289.755	87.06
289.986	89.06
290.217	72.06
290.448	86.06
290.679	85.06
290.91	80.06
291.141	88.06
291.371	94.06
291.602	83.06
291.833	95.06
292.064	92.06
292.295	96.06
292.526	96.06
292.757	85.06
292.987	96.06
293.218	98.06
293.449	90.06
293.68	81.06
293.91	90.06
294.141	101.06
294.372	92.06
294.603	91.06
294.833	80.06
295.064	81.06
295.295	83.06
295.525	93.06
295.756	91.06
295.987	79.06
296.217	86.06
296.448	89.06
296.679	90.06
296.909	93.06
297.14	100.06
297.37	93.06
297.601	81.06
297.831	78.06
298.062	80.06
298.292	111.06
298.523	90.06
298.753	91.06
298.984	86.06
299.214	69.06
299.445	90.06
299.675	87.06
299.905	106.06
300.136	95.06
300.366	101.06
300.597	96.06
300.827	116.06
301.057	101.06
301.288	83.06
301.518	94.06
301.748	89.06
301.979	108.06
302.209	78.06
302.439	86.06
302.669	91.06
302.9	92.06
303.13	84.06
303.36	88.06
303.59	83.06
303.82	76.06
304.051	88.06
304.281	82.06
304.511	86.06
304.741	91.06
304.971	74.06
305.201	88.06
305.431	86.06
305.661	84.06
305.891	80.06
306.121	72.06
306.352	87.06
306.582	93.06
306.812	91.06
307.042	88.06
307.272	101.06
307.502	90.06
307.731	100.06
307.961	98.06
308.191	105.06
308.421	108.06
308.651	105.06
308.881	106.06
309.111	111.06
309.341	121.06
309.571	124.06
309.8	106.06
310.03	86.06
310.26	79.06
310.49	80.06
310.72	86.06
310.949	90.06
311.179	101.06
311.409	89.06
311.639	85.06
311.868	84.06
312.098	87.06
312.328	84.06
312.557	101.06
312.787	89.06
313.017	84.06
313.246	70.06
313.476	82.06
313.706	84.06
313.935	81.06
314.165	93.06
314.394	83.06
314.624	85.06
314.853	84.06
315.083	103.06
315.312	96.06
315.542	107.06
315.771	118.06
316.001	132.06
316.23	126.06
316.46	91.06
316.689	89.06
316.919	89.06
317.148	101.06
317.377	116.06
317.607	116.06
317.836	144.06
318.065	162.06
318.295	143.06
318.524	110.06
318.753	75.06
318.983	84.06
319.212	91.06
319.441	90.06
319.67	76.06
319.9	92.06
320.129	87.06
320.358	79.06
320.587	88.06
320.816	84.06
321.046	84.06
321.275	85.06
321.504	95.06
321.733	82.06
321.962	96.06
322.191	95.06
322.42	95.06
322.649	99.06
322.878	104.06
323.108	102.06
323.337	105.06
323.566	101.06
323.795	94.06
324.024	91.06
324.253	88.06
324.482	80.06
324.71	94.06
324.939	88.06
325.168	76.06
325.397	94.06
325.626	85.06
325.855	99.06
326.084	99.06
326.313	89.06
326.542	94.06
326.77	94.06
326.999	81.06
327.228	103.06
327.457	102.06
327.686	86.06
327.914	87.06
328.143	110.06
328.372	94.06
328.6	89.06
328.829	79.06
329.058	90.06
329.287	82.06
329.515	77.06
329.744	88.06
329.972	95.06
330.201	92.06
330.43	91.06
330.658	91.06
330.887	89.06
331.115	76.06
331.344	84.06
331.572	99.06
331.801	78.06
332.03	94.06
332.258	87.06
332.486	106.06
332.715	85.06
332.943	94.06
333.172	85.06
333.4	92.06
333.629	94.06
333.857	87.06
334.085	99.06
334.314	108.06
334.542	99.06
334.771	111.06
334.999	115.06
335.227	103.06
335.455	114.06
335.684	111.06
335.912	103.06
336.14	119.06
336.369	110.06
336.597	116.06
336.825	99.06
337.053	114.06
337.281	89.06
337.51	80.06
337.738	97.06
337.966	90.06
338.194	79.06
338.422	87.06
338.65	98.06
338.878	96.06
339.106	89.06
339.334	102.06
339.562	84.06
339.79	97.06
340.018	84.06
340.246	89.06
340.474	101.06
340.702	97.06
340.93	96.06
341.158	92.06
341.386	79.06
341.614	103.06
341.842	99.06
342.07	84.06
342.298	87.06
342.526	93.06
342.754	70.06
342.981	82.06
343.209	98.06
343.437	91.06
343.665	100.06
343.893	106.06
344.12	92.06
344.348	98.06
344.576	94.06
344.804	92.06
345.031	85.06
345.259	99.06
345.487	92.06
345.714	95.06
345.942	88.06
346.17	96.06
346.397	92.06
346.625	83.06
346.853	97.06
347.08	82.06
347.308	97.06
347.535	100.06
347.763	113.06
347.99	94.06
348.218	82.06
348.445	91.06
348.673	89.06
348.9	101.06
349.128	112.06
349.355	89.06
349.583	84.06
349.81	95.06
350.037	83.06
350.265	111.06
350.492	87.06
350.72	87.06
350.947	94.06
351.174	88.06
351.402	100.06
351.629	104.06
351.856	94.06
352.083	86.06
352.311	92.06
352.538	84.06
352.765	88.06
352.992	108.06
353.22	94.06
353.447	98.06
353.674	95.06
353.901	94.06
354.128	89.06
354.355	79.06
354.583	92.06
354.81	98.06
355.037	84.06
355.264	92.06
355.491	86.06
355.718	99.06
355.945	99.06
356.172	88.06
356.399	78.06
356.626	100.06
356.853	104.06
357.08	109.06
357.307	99.06
357.534	102.06
357.761	100.06
357.988	114.06
358.215	103.06
358.441	96.06
358.668	96.06
358.895	105.06
359.122	95.06
359.349	100.06
359.576	93.06
359.802	100.06
360.029	93.06
360.256	106.06
360.483	79.06
360.709	101.06
360.936	98.06
361.163	88.06
361.39	87.06
361.616	111.06
361.843	113.06
362.07	107.06
362.296	119.06
362.523	127.06
362.749	131.06
362.976	163.06
363.203	178.06
363.429	126.06
363.656	114.06
363.882	112.06
364.109	155.06
364.335	211.06
364.562	230.06
364.788	148.06
365.015	115.06
365.241	99.06
365.468	97.06
365.694	92.06
365.92	94.06
366.147	88.06
366.373	92.06
366.599	104.06
366.826	99.06
367.052	103.06
367.278	100.06
367.505	96.06
367.731	107.06
367.957	99.06
368.184	96.06
368.41	90.06
368.636	88.06
368.862	82.06
369.089	81.06
369.315	94.06
369.541	84.06
369.767	92.06
369.993	89.06
370.219	109.06
370.445	111.06
370.672	144.06
370.898	126.06
371.124	104.06
371.35	103.06
371.576	99.06
371.802	102.06
372.028	107.06
372.254	111.06
372.48	96.06
372.706	86.06
372.932	98.06
373.158	107.06
373.384	151.06
373.61	202.06
373.835	216.06
374.061	138.06
374.287	102.06
374.513	117.06
374.739	117.06
374.965	123.06
375.191	113.06
375.416	91.06
375.642	113.06
375.868	112.06
376.094	106.06
376.319	100.06
376.545	90.06
376.771	90.06
376.997	106.06
377.222	90.06
377.448	95.06
377.674	97.06
377.899	91.06
378.125	94.06
378.35	92.06
378.576	100.06
378.802	98.06
379.027	97.06
379.253	86.06
379.478	100.06
379.704	92.06
379.929	95.06
380.155	112.06
380.38	97.06
380.606	100.06
380.831	87.06
381.057	98.06
381.282	110.06
381.507	102.06
381.733	114.06
381.958	124.06
382.184	121.06
382.409	116.06
382.634	122.06
382.86	127.06
383.085	136.06
383.31	137.06
383.535	141.06
383.761	144.06
383.986	150.06
384.211	125.06
384.436	105.06
384.662	123.06
384.887	112.06
385.112	103.06
385.337	104.06
385.562	125.06
385.787	145.06
386.013	131.06
386.238	133.06
386.463	107.06
386.688	130.06
386.913	104.06
387.138	128.06
387.363	114.06
387.588	134.06
387.813	122.06
388.038	122.06
388.263	122.06
388.488	116.06
388.713	104.06
388.938	93.06
389.163	90.06
389.387	106.06
389.612	114.06
389.837	104.06
390.062	104.06
390.287	114.06
390.512	95.06
390.736	111.06
390.961	105.06
391.186	102.06
391.411	100.06
391.636	120.06
391.86	125.06
392.085	130.06
392.31	144.06
392.534	177.06
392.759	257.06
392.984	451.06
393.208	947.06
393.433	1477.06
393.658	1066.06
393.882	387.06
394.107	213.06
394.331	205.06
394.556	236.06
394.78	168.06
395.005	131.06
395.229	128.06
395.454	137.06
395.678	169.06
395.903	222.06
396.127	299.06
396.352	372.06
396.576	525.06
396.801	952.06
397.025	1150.06
397.249	503.06
397.474	250.06
397.698	171.06
397.922	122.06
398.147	110.06
398.371	114.06
398.595	94.06
398.82	111.06
399.044	97.06
399.268	97.06
399.492	106.06
399.717	100.06
399.941	102.06
400.165	97.06
400.389	101.06
400.613	107.06
400.837	95.06
401.062	100.06
401.286	91.06
401.51	72.06
401.734	97.06
401.958	90.06
402.182	94.06
402.406	89.06
402.63	87.06
402.854	95.06
403.078	108.06
403.302	108.06
403.526	98.06
403.75	96.06
403.974	82.06
404.198	88.06
404.422	106.06
404.645	118.06
404.869	100.06
405.093	92.06
405.317	87.06
405.541	84.06
405.765	80.06
405.988	90.06
406.212	85.06
406.436	91.06
406.66	97.06
406.883	106.06
407.107	105.06
407.331	106.06
407.555	143.06
407.778	208.06
408.002	224.06
408.226	121.06
408.449	110.06
408.673	98.06
408.896	100.06
409.12	90.06
409.344	116.06
409.567	135.06
409.791	151.06
410.014	140.06
410.238	126.06
410.461	99.06
410.685	99.06
410.908	100.06
411.132	99.06
411.355	105.06
411.578	91.06
411.802	83.06
412.025	91.06
412.249	86.06
412.472	86.06
412.695	91.06
412.919	89.06
413.142	118.06
413.365	92.06
413.589	92.06
413.812	91.06
414.035	98.06
414.258	98.06
414.482	98.06
414.705	84.06
414.928	98.06
415.151	87.06
415.374	86.06
415.597	85.06
415.821	84.06
416.044	68.06
416.267	93.06
416.49	90.06
416.713	91.06
416.936	84.06
417.159	87.06
417.382	80.06
417.605	96.06
417.828	78.06
418.051	88.06
418.274	90.06
418.497	96.06
418.72	87.06
418.943	95.06
419.166	98.06
419.389	95.06
419.611	100.06
419.834	84.06
420.057	86.06
420.28	92.06
420.503	97.06
420.726	105.06
420.948	107.06
421.171	126.06
421.394	159.06
421.617	216.06
421.839	220.06
422.062	191.06
422.285	289.06
422.507	615.06
422.73	1067.06
422.953	924.06
423.175	376.06
423.398	180.06
423.621	149.06
423.843	124.06
424.066	123.06
424.288	119.06
424.511	111.06
424.733	99.06
424.956	110.06
425.178	98.06
425.401	107.06
425.623	102.06
425.846	104.06
426.068	101.06
426.291	100.06
426.513	107.06
426.735	89.06
426.958	94.06
427.18	99.06
427.402	103.06
427.625	88.06
427.847	112.06
428.069	140.06
428.292	228.06
428.514	270.06
428.736	164.06
428.958	231.06
429.181	249.06
429.403	134.06
429.625	119.06
429.847	210.06
430.069	321.06
430.292	395.06
430.514	378.06
430.736	260.06
430.958	280.06
431.18	146.06
431.402	112.06
431.624	141.06
431.846	222.06
432.068	260.06
432.29	133.06
432.512	101.06
432.734	95.06
432.956	99.06
433.178	102.06
433.4	99.06
433.622	95.06
433.844	92.06
434.066	90.06
434.287	76.06
434.509	79.06
434.731	99.06
434.953	104.06
435.175	102.06
435.397	102.06
435.618	115.06
435.84	124.06
436.062	94.06
436.284	101.06
436.505	93.06
436.727	80.06
436.949	87.06
437.17	72.06
437.392	89.06
437.614	95.06
437.835	92.06
438.057	91.06
438.278	90.06
438.5	94.06
438.721	104.06
438.943	88.06
439.165	87.06
439.386	75.06
439.608	100.06
439.829	85.06
440.05	112.06
440.272	94.06
440.493	94.06
440.715	108.06
440.936	110.06
441.158	112.06
441.379	105.06
441.6	96.06
441.822	116.06
442.043	115.06
442.264	150.06
442.486	239.06
442.707	358.06
442.928	216.06
443.149	175.06
443.371	300.06
443.592	644.06
443.813	520.06
444.034	182.06
444.255	121.06
444.476	99.06
444.698	104.06
444.919	120.06
445.14	235.06
445.361	395.06
445.582	775.06
445.803	647.06
446.024	208.06
446.245	132.06
446.466	91.06
446.687	94.06
446.908	90.06
447.129	84.06
447.35	89.06
447.571	87.06
447.792	101.06
448.013	77.06
448.234	96.06
448.455	86.06
448.675	80.06
448.896	86.06
449.117	90.06
449.338	91.06
449.559	95.06
449.779	83.06
450	94.06
450.221	92.06
450.442	75.06
450.662	95.06
450.883	78.06
451.104	96.06
451.324	95.06
451.545	95.06
451.766	86.06
451.986	99.06
452.207	102.06
452.428	102.06
452.648	115.06
452.869	139.06
453.089	126.06
453.31	95.06
453.53	94.06
453.751	107.06
453.971	89.06
454.192	83.06
454.412	96.06
454.633	88.06
454.853	77.06
455.073	94.06
455.294	99.06
455.514	103.06
455.734	95.06
455.955	89.06
456.175	98.06
456.395	99.06
456.616	75.06
456.836	93.06
457.056	104.06
457.276	97.06
457.497	99.06
457.717	121.06
457.937	157.06
458.157	204.06
458.377	220.06
458.598	219.06
458.818	240.06
459.038	135.06
459.258	91.06
459.478	99.06
459.698	103.06
459.918	105.06
460.138	98.06
460.358	94.06
460.578	125.06
460.798	185.06
461.018	169.06
461.238	97.06
461.458	83.06
461.678	81.06
461.898	88.06
462.118	98.06
462.338	82.06
462.558	95.06
462.777	75.06
462.997	94.06
463.217	87.06
463.437	81.06
463.657	91.06
463.876	104.06
464.096	102.06
464.316	76.06
464.536	70.06
464.755	87.06
464.975	99.06
465.195	87.06
465.414	76.06
465.634	82.06
465.854	95.06
466.073	87.06
466.293	82.06
466.512	73.06
466.732	86.06
466.951	70.06
467.171	99.06
467.391	80.06
467.61	92.06
467.829	91.06
468.049	82.06
468.268	80.06
468.488	106.06
468.707	97.06
468.927	94.06
469.146	104.06
469.365	96.06
469.585	95.06
469.804	93.06
470.023	80.06
470.243	86.06
470.462	89.06
470.681	94.06
470.901	87.06
471.12	89.06
471.339	96.06
471.558	96.06
471.777	94.06
471.997	76.06
472.216	83.06
472.435	95.06
472.654	87.06
472.873	88.06
473.092	100.06
473.311	83.06
473.53	105.06
473.749	87.06
473.968	95.06
474.187	95.06
474.406	87.06
474.625	93.06
474.844	98.06
475.063	88.06
475.282	78.06
475.501	94.06
475.72	96.06
475.939	91.06
476.158	100.06
476.377	66.06
476.596	78.06
476.814	84.06
477.033	92.06
477.252	94.06
477.471	87.06
477.69	100.06
477.908	92.06
478.127	88.06
478.346	86.06
478.564	107.06
478.783	88.06
479.002	97.06
479.22	76.06
479.439	106.06
479.658	103.06
479.876	91.06
480.095	99.06
480.313	101.06
480.532	91.06
480.751	97.06
480.969	90.06
481.188	82.06
481.406	89.06
481.624	82.06
481.843	100.06
482.061	92.06
482.28	97.06
482.498	90.06
482.717	100.06
482.935	94.06
483.153	90.06
483.372	102.06
483.59	103.06
483.808	96.06
484.027	112.06
484.245	112.06
484.463	91.06
484.681	101.06
484.9	91.06
485.118	97.06
485.336	92.06
485.554	84.06
485.772	81.06
485.99	85.06
486.209	84.06
486.427	102.06
486.645	90.06
486.863	100.06
487.081	99.06
487.299	100.06
487.517	127.06
487.735	188.06
487.953	382.06
488.171	272.06
488.389	110.06
488.607	99.06
488.825	96.06
489.043	88.06
489.261	81.06
489.479	101.06
489.696	98.06
489.914	97.06
490.132	98.06
490.35	95.06
490.568	101.06
490.786	106.06
491.003	103.06
491.221	95.06
491.439	96.06
491.657	102.06
491.874	88.06
492.092	91.06
492.31	90.06
492.527	94.06
492.745	106.06
492.963	99.06
493.18	98.06
493.398	112.06
493.615	116.06
493.833	93.06
494.05	92.06
494.268	75.06
494.485	89.06
494.703	94.06
494.92	94.06
495.138	79.06
495.355	107.06
495.573	96.06
495.79	85.06
496.008	121.06
496.225	95.06
496.442	87.06
496.66	97.06
496.877	92.06
497.094	96.06
497.312	90.06
497.529	87.06
497.746	85.06
497.963	103.06
498.181	99.06
498.398	119.06
498.615	105.06
498.832	91.06
499.049	104.06
499.267	98.06
499.484	81.06
499.701	90.06
499.918	96.06
500.135	100.06
500.352	87.06
500.569	90.06
500.786	91.06
501.003	104.06
501.22	109.06
501.437	100.06
501.654	98.06
501.871	79.06
502.088	86.06
502.305	98.06
502.522	90.06
502.739	102.06
502.956	99.06
503.172	115.06
503.389	100.06
503.606	99.06
503.823	100.06
504.04	150.06
504.256	259.06
504.473	252.06
504.69	130.06
504.907	108.06
505.123	92.06
505.34	94.06
505.557	110.06
505.773	96.06
505.99	91.06
506.207	88.06
506.423	86.06
506.64	83.06
506.856	99.06
507.073	84.06
507.289	92.06
507.506	98.06
507.722	80.06
507.939	79.06
508.155	85.06
508.372	91.06
508.588	92.06
508.805	97.06
509.021	99.06
509.238	100.06
509.454	85.06
509.67	103.06
509.887	88.06
510.103	85.06
510.319	87.06
510.536	98.06
510.752	93.06
510.968	91.06
511.184	107.06
511.401	88.06
511.617	87.06
511.833	101.06
512.049	87.06
512.265	90.06
512.481	95.06
512.698	91.06
512.914	85.06
513.13	82.06
513.346	92.06
513.562	87.06
513.778	82.06
513.994	110.06
514.21	108.06
514.426	99.06
