Data from 18505_1_HRD10591_00016.txt Node
Date: Mon Jan 19 13:58:39 EST 2026
User: Yrep
Spectrometer: HR+D1059
Trigger mode: 1
Integration Time (sec): 1.000000E-1
Scans to average: 1
Electric dark correction enabled: true
Nonlinearity correction enabled: false
Boxcar width: 0
XAxis mode: Wavelengths
Number of Pixels in Spectrum: 2048
>>>>>Begin Spectral Data<<<<<
223.165	-20.69
223.4	-20.69
223.635	-20.69
223.869	-23.69
224.104	-8.69
224.338	-14.69
224.573	-17.69
224.808	-0.69
225.042	-16.69
225.277	-4.69
225.511	4.31
225.746	9.31
225.98	-9.69
226.215	11.31
226.449	13.31
226.683	17.31
226.918	16.31
227.152	45.31
227.387	47.31
227.621	36.31
227.856	47.31
228.09	48.31
228.324	34.31
228.559	57.31
228.793	67.31
229.027	55.31
229.262	47.31
229.496	65.31
229.73	69.31
229.964	64.31
230.199	66.31
230.433	64.31
230.667	68.31
230.901	68.31
231.136	78.31
231.37	71.31
231.604	69.31
231.838	59.31
232.072	81.31
232.306	70.31
232.541	72.31
232.775	81.31
233.009	68.31
233.243	76.31
233.477	90.31
233.711	77.31
233.945	90.31
234.179	79.31
234.413	79.31
234.647	81.31
234.881	60.31
235.115	81.31
235.349	84.31
235.583	80.31
235.817	69.31
236.051	84.31
236.285	64.31
236.519	77.31
236.753	82.31
236.987	68.31
237.221	75.31
237.455	69.31
237.689	77.31
237.922	61.31
238.156	69.31
238.39	82.31
238.624	70.31
238.858	80.31
239.091	69.31
239.325	67.31
239.559	60.31
239.793	62.31
240.027	84.31
240.26	77.31
240.494	86.31
240.728	65.31
240.961	78.31
241.195	63.31
241.429	66.31
241.662	67.31
241.896	70.31
242.13	72.31
242.363	61.31
242.597	71.31
242.83	86.31
243.064	86.31
243.298	62.31
243.531	70.31
243.765	62.31
243.998	64.31
244.232	81.31
244.465	62.31
244.699	70.31
244.932	69.31
245.166	59.31
245.399	69.31
245.633	82.31
245.866	77.31
246.099	71.31
246.333	66.31
246.566	79.31
246.8	80.31
247.033	75.31
247.266	73.31
247.5	77.31
247.733	63.31
247.966	82.31
248.2	79.31
248.433	74.31
248.666	71.31
248.899	76.31
249.133	75.31
249.366	77.31
249.599	89.31
249.832	66.31
250.066	74.31
250.299	71.31
250.532	72.31
250.765	83.31
250.998	69.31
251.231	79.31
251.465	79.31
251.698	65.31
251.931	74.31
252.164	91.31
252.397	75.31
252.63	88.31
252.863	79.31
253.096	66.31
253.329	81.31
253.562	73.31
253.795	72.31
254.028	74.31
254.261	93.31
254.494	76.31
254.727	73.31
254.96	77.31
255.193	76.31
255.426	85.31
255.659	81.31
255.892	91.31
256.124	85.31
256.357	91.31
256.59	94.31
256.823	75.31
257.056	77.31
257.289	79.31
257.521	82.31
257.754	77.31
257.987	65.31
258.22	82.31
258.452	80.31
258.685	82.31
258.918	73.31
259.151	72.31
259.383	81.31
259.616	78.31
259.849	84.31
260.081	64.31
260.314	72.31
260.547	77.31
260.779	69.31
261.012	77.31
261.244	78.31
261.477	75.31
261.71	71.31
261.942	85.31
262.175	79.31
262.407	78.31
262.64	90.31
262.872	67.31
263.105	85.31
263.337	78.31
263.57	87.31
263.802	75.31
264.035	81.31
264.267	63.31
264.499	69.31
264.732	66.31
264.964	75.31
265.197	89.31
265.429	85.31
265.661	75.31
265.894	81.31
266.126	85.31
266.358	79.31
266.591	81.31
266.823	85.31
267.055	65.31
267.287	61.31
267.52	72.31
267.752	77.31
267.984	97.31
268.216	86.31
268.448	88.31
268.681	69.31
268.913	69.31
269.145	82.31
269.377	69.31
269.609	75.31
269.841	72.31
270.073	85.31
270.306	87.31
270.538	84.31
270.77	80.31
271.002	84.31
271.234	83.31
271.466	92.31
271.698	71.31
271.93	67.31
272.162	89.31
272.394	89.31
272.626	78.31
272.858	73.31
273.09	93.31
273.322	83.31
273.553	81.31
273.785	82.31
274.017	77.31
274.249	78.31
274.481	82.31
274.713	58.31
274.945	69.31
275.176	85.31
275.408	70.31
275.64	81.31
275.872	73.31
276.104	93.31
276.335	79.31
276.567	82.31
276.799	75.31
277.031	89.31
277.262	85.31
277.494	52.31
277.726	88.31
277.957	90.31
278.189	87.31
278.421	87.31
278.652	81.31
278.884	84.31
279.115	83.31
279.347	80.31
279.579	67.31
279.81	73.31
280.042	91.31
280.273	88.31
280.505	84.31
280.736	86.31
280.968	71.31
281.199	87.31
281.431	85.31
281.662	74.31
281.894	85.31
282.125	77.31
282.356	75.31
282.588	89.31
282.819	85.31
283.051	86.31
283.282	80.31
283.513	88.31
283.745	73.31
283.976	86.31
284.207	72.31
284.439	78.31
284.67	72.31
284.901	94.31
285.132	96.31
285.364	97.31
285.595	92.31
285.826	89.31
286.057	91.31
286.288	80.31
286.52	78.31
286.751	78.31
286.982	86.31
287.213	84.31
287.444	72.31
287.675	87.31
287.906	91.31
288.138	87.31
288.369	103.31
288.6	71.31
288.831	85.31
289.062	95.31
289.293	77.31
289.524	83.31
289.755	88.31
289.986	86.31
290.217	79.31
290.448	87.31
290.679	81.31
290.91	77.31
291.141	86.31
291.371	97.31
291.602	77.31
291.833	79.31
292.064	67.31
292.295	79.31
292.526	76.31
292.757	74.31
292.987	94.31
293.218	79.31
293.449	81.31
293.68	84.31
293.91	85.31
294.141	74.31
294.372	79.31
294.603	90.31
294.833	81.31
295.064	86.31
295.295	101.31
295.525	82.31
295.756	81.31
295.987	87.31
296.217	89.31
296.448	97.31
296.679	87.31
296.909	81.31
297.14	82.31
297.37	85.31
297.601	77.31
297.831	90.31
298.062	76.31
298.292	75.31
298.523	70.31
298.753	77.31
298.984	88.31
299.214	87.31
299.445	85.31
299.675	95.31
299.905	89.31
300.136	84.31
300.366	107.31
300.597	86.31
300.827	94.31
301.057	114.31
301.288	102.31
301.518	83.31
301.748	80.31
301.979	109.31
302.209	86.31
302.439	96.31
302.669	75.31
302.9	91.31
303.13	66.31
303.36	90.31
303.59	69.31
303.82	86.31
304.051	91.31
304.281	85.31
304.511	78.31
304.741	84.31
304.971	75.31
305.201	85.31
305.431	73.31
305.661	92.31
305.891	85.31
306.121	90.31
306.352	70.31
306.582	89.31
306.812	97.31
307.042	76.31
307.272	75.31
307.502	87.31
307.731	91.31
307.961	102.31
308.191	89.31
308.421	102.31
308.651	97.31
308.881	91.31
309.111	93.31
309.341	111.31
309.571	93.31
309.8	86.31
310.03	85.31
310.26	92.31
310.49	73.31
310.72	71.31
310.949	72.31
311.179	71.31
311.409	81.31
311.639	91.31
311.868	81.31
312.098	82.31
312.328	72.31
312.557	84.31
312.787	79.31
313.017	87.31
313.246	85.31
313.476	84.31
313.706	81.31
313.935	84.31
314.165	81.31
314.394	98.31
314.624	82.31
314.853	89.31
315.083	86.31
315.312	83.31
315.542	69.31
315.771	101.31
316.001	105.31
316.23	98.31
316.46	100.31
316.689	76.31
316.919	78.31
317.148	105.31
317.377	96.31
317.607	98.31
317.836	100.31
318.065	111.31
318.295	107.31
318.524	97.31
318.753	83.31
318.983	89.31
319.212	82.31
319.441	87.31
319.67	82.31
319.9	89.31
320.129	87.31
320.358	85.31
320.587	86.31
320.816	73.31
321.046	97.31
321.275	98.31
321.504	77.31
321.733	88.31
321.962	100.31
322.191	92.31
322.42	85.31
322.649	93.31
322.878	92.31
323.108	90.31
323.337	90.31
323.566	87.31
323.795	76.31
324.024	90.31
324.253	71.31
324.482	76.31
324.71	102.31
324.939	94.31
325.168	97.31
325.397	83.31
325.626	73.31
325.855	80.31
326.084	91.31
326.313	78.31
326.542	74.31
326.77	87.31
326.999	83.31
327.228	97.31
327.457	83.31
327.686	80.31
327.914	84.31
328.143	85.31
328.372	82.31
328.6	86.31
328.829	97.31
329.058	91.31
329.287	85.31
329.515	88.31
329.744	85.31
329.972	82.31
330.201	86.31
330.43	91.31
330.658	67.31
330.887	80.31
331.115	81.31
331.344	87.31
331.572	84.31
331.801	86.31
332.03	86.31
332.258	85.31
332.486	98.31
332.715	76.31
332.943	77.31
333.172	84.31
333.4	82.31
333.629	97.31
333.857	86.31
334.085	103.31
334.314	93.31
334.542	94.31
334.771	107.31
334.999	114.31
335.227	92.31
335.455	89.31
335.684	84.31
335.912	103.31
336.14	114.31
336.369	109.31
336.597	93.31
336.825	94.31
337.053	70.31
337.281	86.31
337.51	82.31
337.738	75.31
337.966	92.31
338.194	88.31
338.422	85.31
338.65	78.31
338.878	80.31
339.106	93.31
339.334	81.31
339.562	91.31
339.79	84.31
340.018	83.31
340.246	81.31
340.474	83.31
340.702	70.31
340.93	81.31
341.158	85.31
341.386	69.31
341.614	96.31
341.842	91.31
342.07	86.31
342.298	85.31
342.526	81.31
342.754	65.31
342.981	66.31
343.209	97.31
343.437	107.31
343.665	87.31
343.893	93.31
344.12	78.31
344.348	101.31
344.576	84.31
344.804	86.31
345.031	80.31
345.259	89.31
345.487	73.31
345.714	96.31
345.942	81.31
346.17	78.31
346.397	73.31
346.625	76.31
346.853	90.31
347.08	85.31
347.308	96.31
347.535	91.31
347.763	85.31
347.99	76.31
348.218	91.31
348.445	76.31
348.673	79.31
348.9	101.31
349.128	89.31
349.355	87.31
349.583	100.31
349.81	89.31
350.037	88.31
350.265	91.31
350.492	84.31
350.72	79.31
350.947	71.31
351.174	82.31
351.402	87.31
351.629	89.31
351.856	73.31
352.083	75.31
352.311	102.31
352.538	104.31
352.765	106.31
352.992	96.31
353.22	94.31
353.447	83.31
353.674	80.31
353.901	100.31
354.128	91.31
354.355	96.31
354.583	90.31
354.81	71.31
355.037	69.31
355.264	93.31
355.491	77.31
355.718	87.31
355.945	95.31
356.172	82.31
356.399	85.31
356.626	83.31
356.853	78.31
357.08	110.31
357.307	90.31
357.534	72.31
357.761	97.31
357.988	98.31
358.215	94.31
358.441	99.31
358.668	107.31
358.895	89.31
359.122	81.31
359.349	71.31
359.576	87.31
359.802	70.31
360.029	100.31
360.256	84.31
360.483	85.31
360.709	93.31
360.936	85.31
361.163	86.31
361.39	97.31
361.616	98.31
361.843	97.31
362.07	114.31
362.296	127.31
362.523	135.31
362.749	121.31
362.976	164.31
363.203	173.31
363.429	123.31
363.656	126.31
363.882	114.31
364.109	146.31
364.335	186.31
364.562	197.31
364.788	148.31
365.015	111.31
365.241	104.31
365.468	85.31
365.694	91.31
365.92	87.31
366.147	89.31
366.373	85.31
366.599	87.31
366.826	86.31
367.052	82.31
367.278	81.31
367.505	84.31
367.731	89.31
367.957	85.31
368.184	97.31
368.41	81.31
368.636	94.31
368.862	95.31
369.089	87.31
369.315	88.31
369.541	81.31
369.767	78.31
369.993	90.31
370.219	85.31
370.445	95.31
370.672	133.31
370.898	92.31
371.124	90.31
371.35	88.31
371.576	89.31
371.802	95.31
372.028	114.31
372.254	108.31
372.48	86.31
372.706	101.31
372.932	83.31
373.158	93.31
373.384	122.31
373.61	121.31
373.835	132.31
374.061	119.31
374.287	100.31
374.513	86.31
374.739	96.31
374.965	123.31
375.191	104.31
375.416	97.31
375.642	83.31
375.868	102.31
376.094	113.31
376.319	99.31
376.545	101.31
376.771	94.31
376.997	97.31
377.222	77.31
377.448	89.31
377.674	71.31
377.899	85.31
378.125	87.31
378.35	86.31
378.576	88.31
378.802	93.31
379.027	73.31
379.253	87.31
379.478	97.31
379.704	88.31
379.929	91.31
380.155	83.31
380.38	98.31
380.606	81.31
380.831	91.31
381.057	101.31
381.282	105.31
381.507	103.31
381.733	103.31
381.958	97.31
382.184	116.31
382.409	116.31
382.634	105.31
382.86	118.31
383.085	124.31
383.31	125.31
383.535	131.31
383.761	125.31
383.986	140.31
384.211	123.31
384.436	107.31
384.662	87.31
384.887	81.31
385.112	91.31
385.337	95.31
385.562	99.31
385.787	108.31
386.013	107.31
386.238	99.31
386.463	100.31
386.688	111.31
386.913	101.31
387.138	93.31
387.363	103.31
387.588	83.31
387.813	104.31
388.038	101.31
388.263	109.31
388.488	98.31
388.713	108.31
388.938	97.31
389.163	109.31
389.387	90.31
389.612	91.31
389.837	83.31
390.062	99.31
390.287	113.31
390.512	103.31
390.736	111.31
390.961	90.31
391.186	107.31
391.411	93.31
391.636	107.31
391.86	109.31
392.085	127.31
392.31	129.31
392.534	151.31
392.759	197.31
392.984	319.31
393.208	535.31
393.433	767.31
393.658	589.31
393.882	275.31
394.107	185.31
394.331	185.31
394.556	186.31
394.78	129.31
395.005	121.31
395.229	119.31
395.454	128.31
395.678	135.31
395.903	182.31
396.127	238.31
396.352	274.31
396.576	349.31
396.801	531.31
397.025	612.31
397.249	339.31
397.474	197.31
397.698	134.31
397.922	113.31
398.147	102.31
398.371	91.31
398.595	87.31
398.82	85.31
399.044	93.31
399.268	102.31
399.492	85.31
399.717	86.31
399.941	91.31
400.165	99.31
400.389	81.31
400.613	72.31
400.837	98.31
401.062	111.31
401.286	85.31
401.51	78.31
401.734	90.31
401.958	84.31
402.182	83.31
402.406	82.31
402.63	96.31
402.854	95.31
403.078	103.31
403.302	92.31
403.526	91.31
403.75	96.31
403.974	89.31
404.198	113.31
404.422	127.31
404.645	135.31
404.869	108.31
405.093	87.31
405.317	94.31
405.541	101.31
405.765	90.31
405.988	93.31
406.212	97.31
406.436	105.31
406.66	96.31
406.883	89.31
407.107	104.31
407.331	101.31
407.555	117.31
407.778	162.31
408.002	158.31
408.226	94.31
408.449	83.31
408.673	85.31
408.896	97.31
409.12	91.31
409.344	128.31
409.567	132.31
409.791	134.31
410.014	130.31
410.238	132.31
410.461	109.31
410.685	97.31
410.908	109.31
411.132	78.31
411.355	83.31
411.578	101.31
411.802	95.31
412.025	89.31
412.249	99.31
412.472	89.31
412.695	78.31
412.919	90.31
413.142	91.31
413.365	101.31
413.589	89.31
413.812	82.31
414.035	95.31
414.258	95.31
414.482	88.31
414.705	93.31
414.928	78.31
415.151	86.31
415.374	74.31
415.597	94.31
415.821	96.31
416.044	83.31
416.267	94.31
416.49	71.31
416.713	101.31
416.936	92.31
417.159	96.31
417.382	87.31
417.605	75.31
417.828	87.31
418.051	103.31
418.274	90.31
418.497	86.31
418.72	102.31
418.943	91.31
419.166	92.31
419.389	80.31
419.611	97.31
419.834	102.31
420.057	99.31
420.28	101.31
420.503	89.31
420.726	93.31
420.948	89.31
421.171	108.31
421.394	133.31
421.617	173.31
421.839	164.31
422.062	205.31
422.285	300.31
422.507	532.31
422.73	779.31
422.953	711.31
423.175	355.31
423.398	211.31
423.621	172.31
423.843	138.31
424.066	119.31
424.288	126.31
424.511	97.31
424.733	123.31
424.956	100.31
425.178	94.31
425.401	100.31
425.623	95.31
425.846	93.31
426.068	95.31
426.291	78.31
426.513	72.31
426.735	89.31
426.958	94.31
427.18	87.31
427.402	109.31
427.625	95.31
427.847	100.31
428.069	130.31
428.292	208.31
428.514	247.31
428.736	169.31
428.958	207.31
429.181	208.31
429.403	131.31
429.625	129.31
429.847	189.31
430.069	307.31
430.292	353.31
430.514	318.31
430.736	225.31
430.958	256.31
431.18	137.31
431.402	103.31
431.624	131.31
431.846	211.31
432.068	240.31
432.29	135.31
432.512	86.31
432.734	90.31
432.956	89.31
433.178	89.31
433.4	94.31
433.622	85.31
433.844	71.31
434.066	87.31
434.287	63.31
434.509	93.31
434.731	84.31
434.953	76.31
435.175	100.31
435.397	109.31
435.618	112.31
435.84	109.31
436.062	96.31
436.284	101.31
436.505	91.31
436.727	74.31
436.949	90.31
437.17	86.31
437.392	96.31
437.614	89.31
437.835	80.31
438.057	79.31
438.278	91.31
438.5	100.31
438.721	90.31
438.943	85.31
439.165	90.31
439.386	80.31
439.608	89.31
439.829	86.31
440.05	102.31
440.272	90.31
440.493	90.31
440.715	94.31
440.936	74.31
441.158	85.31
441.379	91.31
441.6	94.31
441.822	105.31
442.043	117.31
442.264	130.31
442.486	269.31
442.707	347.31
442.928	210.31
443.149	164.31
443.371	294.31
443.592	561.31
443.813	472.31
444.034	189.31
444.255	127.31
444.476	128.31
444.698	118.31
444.919	117.31
445.14	240.31
445.361	384.31
445.582	685.31
445.803	553.31
446.024	206.31
446.245	113.31
446.466	93.31
446.687	87.31
446.908	83.31
447.129	82.31
447.35	94.31
447.571	94.31
447.792	106.31
448.013	81.31
448.234	72.31
448.455	92.31
448.675	78.31
448.896	95.31
449.117	83.31
449.338	87.31
449.559	80.31
449.779	69.31
450	84.31
450.221	85.31
450.442	71.31
450.662	91.31
450.883	89.31
451.104	89.31
451.324	94.31
451.545	95.31
451.766	102.31
451.986	91.31
452.207	78.31
452.428	81.31
452.648	113.31
452.869	140.31
453.089	119.31
453.31	97.31
453.53	92.31
453.751	94.31
453.971	89.31
454.192	89.31
454.412	71.31
454.633	91.31
454.853	101.31
455.073	79.31
455.294	94.31
455.514	90.31
455.734	106.31
455.955	86.31
456.175	84.31
456.395	92.31
456.616	79.31
456.836	93.31
457.056	85.31
457.276	101.31
457.497	86.31
457.717	111.31
457.937	173.31
458.157	196.31
458.377	206.31
458.598	198.31
458.818	215.31
459.038	130.31
459.258	98.31
459.478	82.31
459.698	84.31
459.918	96.31
460.138	89.31
460.358	94.31
460.578	109.31
460.798	164.31
461.018	146.31
461.238	86.31
461.458	92.31
461.678	98.31
461.898	99.31
462.118	95.31
462.338	91.31
462.558	92.31
462.777	79.31
462.997	75.31
463.217	83.31
463.437	83.31
463.657	78.31
463.876	88.31
464.096	82.31
464.316	71.31
464.536	87.31
464.755	77.31
464.975	85.31
465.195	83.31
465.414	84.31
465.634	90.31
465.854	90.31
466.073	83.31
466.293	63.31
466.512	79.31
466.732	61.31
466.951	86.31
467.171	88.31
467.391	94.31
467.61	89.31
467.829	94.31
468.049	85.31
468.268	89.31
468.488	94.31
468.707	94.31
468.927	95.31
469.146	86.31
469.365	86.31
469.585	92.31
469.804	70.31
470.023	77.31
470.243	89.31
470.462	78.31
470.681	85.31
470.901	85.31
471.12	72.31
471.339	84.31
471.558	86.31
471.777	91.31
471.997	91.31
472.216	83.31
472.435	84.31
472.654	75.31
472.873	105.31
473.092	94.31
473.311	73.31
473.53	86.31
473.749	94.31
473.968	102.31
474.187	89.31
474.406	75.31
474.625	84.31
474.844	94.31
475.063	77.31
475.282	85.31
475.501	85.31
475.72	96.31
475.939	96.31
476.158	90.31
476.377	101.31
476.596	81.31
476.814	90.31
477.033	85.31
477.252	89.31
477.471	91.31
477.69	76.31
477.908	85.31
478.127	92.31
478.346	96.31
478.564	90.31
478.783	83.31
479.002	85.31
479.22	89.31
479.439	89.31
479.658	85.31
479.876	83.31
480.095	77.31
480.313	83.31
480.532	77.31
480.751	89.31
480.969	83.31
481.188	90.31
481.406	103.31
481.624	96.31
481.843	98.31
482.061	92.31
482.28	89.31
482.498	94.31
482.717	94.31
482.935	99.31
483.153	99.31
483.372	106.31
483.59	98.31
483.808	90.31
484.027	86.31
484.245	91.31
484.463	92.31
484.681	100.31
484.9	97.31
485.118	100.31
485.336	91.31
485.554	91.31
485.772	92.31
485.99	95.31
486.209	97.31
486.427	87.31
486.645	83.31
486.863	94.31
487.081	87.31
487.299	102.31
487.517	117.31
487.735	172.31
487.953	361.31
488.171	311.31
488.389	122.31
488.607	94.31
488.825	87.31
489.043	87.31
489.261	96.31
489.479	105.31
489.696	93.31
489.914	94.31
490.132	87.31
490.35	100.31
490.568	91.31
490.786	93.31
491.003	86.31
491.221	85.31
491.439	87.31
491.657	107.31
491.874	100.31
492.092	97.31
492.31	93.31
492.527	78.31
492.745	71.31
492.963	80.31
493.18	86.31
493.398	96.31
493.615	100.31
493.833	95.31
494.05	94.31
494.268	83.31
494.485	95.31
494.703	86.31
494.92	85.31
495.138	94.31
495.355	88.31
495.573	86.31
495.79	90.31
496.008	93.31
496.225	96.31
496.442	110.31
496.66	93.31
496.877	96.31
497.094	110.31
497.312	87.31
497.529	81.31
497.746	83.31
497.963	99.31
498.181	106.31
498.398	110.31
498.615	99.31
498.832	98.31
499.049	90.31
499.267	98.31
499.484	94.31
499.701	102.31
499.918	92.31
500.135	98.31
500.352	91.31
500.569	84.31
500.786	92.31
501.003	121.31
501.22	93.31
501.437	94.31
501.654	87.31
501.871	103.31
502.088	93.31
502.305	86.31
502.522	86.31
502.739	75.31
502.956	82.31
503.172	91.31
503.389	83.31
503.606	94.31
503.823	115.31
504.04	136.31
504.256	229.31
504.473	228.31
504.69	137.31
504.907	105.31
505.123	106.31
505.34	87.31
505.557	105.31
505.773	91.31
505.99	89.31
506.207	89.31
506.423	93.31
506.64	93.31
506.856	96.31
507.073	75.31
507.289	80.31
507.506	82.31
507.722	86.31
507.939	94.31
508.155	70.31
508.372	92.31
508.588	85.31
508.805	95.31
509.021	98.31
509.238	82.31
509.454	78.31
509.67	94.31
509.887	95.31
510.103	93.31
510.319	80.31
510.536	93.31
510.752	76.31
510.968	84.31
511.184	66.31
511.401	97.31
511.617	84.31
511.833	85.31
512.049	79.31
512.265	77.31
512.481	84.31
512.698	84.31
512.914	79.31
513.13	105.31
513.346	79.31
513.562	92.31
513.778	90.31
513.994	80.31
514.21	94.31
514.426	93.31
514.642	85.31
514.858	68.31
515.074	77.31
515.29	93.31
515.506	94.31
515.721	93.31
515.937	89.31
516.153	85.31
516.369	85.31
