Data from 18505_1_HRD10591_00041.txt Node
Date: Mon Jan 19 13:58:51 EST 2026
User: Yrep
Spectrometer: HR+D1059
Trigger mode: 1
Integration Time (sec): 1.000000E-1
Scans to average: 1
Electric dark correction enabled: true
Nonlinearity correction enabled: false
Boxcar width: 0
XAxis mode: Wavelengths
Number of Pixels in Spectrum: 2048
>>>>>Begin Spectral Data<<<<<
223.165	-13.12
223.4	-13.12
223.635	-13.12
223.869	-1.12
224.104	-19.12
224.338	-9.12
224.573	-23.12
224.808	-19.12
225.042	-6.12
225.277	-11.12
225.511	-0.12
225.746	9.88
225.98	1.88
226.215	11.88
226.449	10.88
226.683	15.88
226.918	24.88
227.152	26.88
227.387	34.88
227.621	35.88
227.856	60.88
228.09	42.88
228.324	42.88
228.559	55.88
228.793	53.88
229.027	69.88
229.262	59.88
229.496	54.88
229.73	53.88
229.964	68.88
230.199	78.88
230.433	80.88
230.667	72.88
230.901	88.88
231.136	80.88
231.37	78.88
231.604	90.88
231.838	75.88
232.072	77.88
232.306	91.88
232.541	78.88
232.775	71.88
233.009	88.88
233.243	82.88
233.477	86.88
233.711	78.88
233.945	89.88
234.179	70.88
234.413	68.88
234.647	83.88
234.881	84.88
235.115	76.88
235.349	76.88
235.583	89.88
235.817	75.88
236.051	73.88
236.285	77.88
236.519	81.88
236.753	74.88
236.987	68.88
237.221	85.88
237.455	64.88
237.689	80.88
237.922	77.88
238.156	63.88
238.39	77.88
238.624	87.88
238.858	64.88
239.091	74.88
239.325	84.88
239.559	69.88
239.793	73.88
240.027	66.88
240.26	64.88
240.494	82.88
240.728	83.88
240.961	69.88
241.195	89.88
241.429	68.88
241.662	76.88
241.896	80.88
242.13	68.88
242.363	74.88
242.597	73.88
242.83	81.88
243.064	66.88
243.298	78.88
243.531	85.88
243.765	67.88
243.998	75.88
244.232	75.88
244.465	86.88
244.699	67.88
244.932	74.88
245.166	74.88
245.399	67.88
245.633	85.88
245.866	74.88
246.099	77.88
246.333	78.88
246.566	74.88
246.8	69.88
247.033	76.88
247.266	77.88
247.5	60.88
247.733	76.88
247.966	74.88
248.2	82.88
248.433	81.88
248.666	82.88
248.899	88.88
249.133	73.88
249.366	88.88
249.599	70.88
249.832	80.88
250.066	70.88
250.299	82.88
250.532	93.88
250.765	86.88
250.998	77.88
251.231	77.88
251.465	75.88
251.698	88.88
251.931	77.88
252.164	78.88
252.397	81.88
252.63	95.88
252.863	85.88
253.096	94.88
253.329	85.88
253.562	79.88
253.795	87.88
254.028	94.88
254.261	70.88
254.494	83.88
254.727	84.88
254.96	70.88
255.193	72.88
255.426	73.88
255.659	70.88
255.892	79.88
256.124	76.88
256.357	63.88
256.59	85.88
256.823	71.88
257.056	78.88
257.289	92.88
257.521	87.88
257.754	82.88
257.987	80.88
258.22	96.88
258.452	76.88
258.685	91.88
258.918	81.88
259.151	73.88
259.383	84.88
259.616	65.88
259.849	76.88
260.081	89.88
260.314	74.88
260.547	82.88
260.779	82.88
261.012	85.88
261.244	74.88
261.477	88.88
261.71	78.88
261.942	74.88
262.175	80.88
262.407	84.88
262.64	80.88
262.872	87.88
263.105	91.88
263.337	82.88
263.57	77.88
263.802	90.88
264.035	74.88
264.267	84.88
264.499	83.88
264.732	82.88
264.964	69.88
265.197	84.88
265.429	84.88
265.661	89.88
265.894	71.88
266.126	82.88
266.358	91.88
266.591	77.88
266.823	88.88
267.055	76.88
267.287	82.88
267.52	80.88
267.752	89.88
267.984	97.88
268.216	80.88
268.448	83.88
268.681	87.88
268.913	90.88
269.145	84.88
269.377	82.88
269.609	85.88
269.841	88.88
270.073	73.88
270.306	95.88
270.538	85.88
270.77	86.88
271.002	78.88
271.234	82.88
271.466	70.88
271.698	83.88
271.93	71.88
272.162	73.88
272.394	99.88
272.626	100.88
272.858	78.88
273.09	83.88
273.322	80.88
273.553	84.88
273.785	99.88
274.017	87.88
274.249	77.88
274.481	78.88
274.713	88.88
274.945	88.88
275.176	72.88
275.408	87.88
275.64	86.88
275.872	69.88
276.104	74.88
276.335	82.88
276.567	90.88
276.799	77.88
277.031	85.88
277.262	89.88
277.494	83.88
277.726	89.88
277.957	94.88
278.189	85.88
278.421	90.88
278.652	75.88
278.884	60.88
279.115	85.88
279.347	81.88
279.579	86.88
279.81	73.88
280.042	75.88
280.273	85.88
280.505	76.88
280.736	70.88
280.968	84.88
281.199	84.88
281.431	85.88
281.662	89.88
281.894	78.88
282.125	80.88
282.356	80.88
282.588	82.88
282.819	89.88
283.051	89.88
283.282	85.88
283.513	84.88
283.745	85.88
283.976	87.88
284.207	98.88
284.439	85.88
284.67	72.88
284.901	80.88
285.132	90.88
285.364	67.88
285.595	89.88
285.826	90.88
286.057	81.88
286.288	71.88
286.52	80.88
286.751	97.88
286.982	102.88
287.213	86.88
287.444	101.88
287.675	93.88
287.906	85.88
288.138	77.88
288.369	89.88
288.6	76.88
288.831	76.88
289.062	90.88
289.293	84.88
289.524	77.88
289.755	86.88
289.986	79.88
290.217	91.88
290.448	76.88
290.679	77.88
290.91	103.88
291.141	94.88
291.371	95.88
291.602	93.88
291.833	87.88
292.064	75.88
292.295	79.88
292.526	89.88
292.757	85.88
292.987	86.88
293.218	90.88
293.449	76.88
293.68	85.88
293.91	89.88
294.141	85.88
294.372	83.88
294.603	66.88
294.833	72.88
295.064	73.88
295.295	83.88
295.525	90.88
295.756	78.88
295.987	79.88
296.217	80.88
296.448	75.88
296.679	69.88
296.909	94.88
297.14	79.88
297.37	90.88
297.601	85.88
297.831	90.88
298.062	91.88
298.292	60.88
298.523	88.88
298.753	97.88
298.984	72.88
299.214	84.88
299.445	74.88
299.675	86.88
299.905	78.88
300.136	83.88
300.366	95.88
300.597	88.88
300.827	77.88
301.057	80.88
301.288	64.88
301.518	72.88
301.748	84.88
301.979	89.88
302.209	91.88
302.439	80.88
302.669	78.88
302.9	73.88
303.13	83.88
303.36	80.88
303.59	93.88
303.82	79.88
304.051	94.88
304.281	81.88
304.511	80.88
304.741	78.88
304.971	85.88
305.201	86.88
305.431	79.88
305.661	73.88
305.891	82.88
306.121	75.88
306.352	89.88
306.582	77.88
306.812	99.88
307.042	91.88
307.272	78.88
307.502	75.88
307.731	82.88
307.961	70.88
308.191	82.88
308.421	92.88
308.651	85.88
308.881	77.88
309.111	82.88
309.341	86.88
309.571	98.88
309.8	89.88
310.03	80.88
310.26	74.88
310.49	87.88
310.72	87.88
310.949	80.88
311.179	85.88
311.409	98.88
311.639	95.88
311.868	83.88
312.098	71.88
312.328	84.88
312.557	81.88
312.787	86.88
313.017	82.88
313.246	88.88
313.476	82.88
313.706	84.88
313.935	80.88
314.165	95.88
314.394	86.88
314.624	83.88
314.853	82.88
315.083	78.88
315.312	80.88
315.542	80.88
315.771	88.88
316.001	93.88
316.23	90.88
316.46	87.88
316.689	84.88
316.919	84.88
317.148	103.88
317.377	78.88
317.607	84.88
317.836	93.88
318.065	84.88
318.295	96.88
318.524	88.88
318.753	84.88
318.983	81.88
319.212	84.88
319.441	94.88
319.67	88.88
319.9	77.88
320.129	75.88
320.358	84.88
320.587	96.88
320.816	92.88
321.046	96.88
321.275	88.88
321.504	88.88
321.733	82.88
321.962	96.88
322.191	84.88
322.42	81.88
322.649	88.88
322.878	80.88
323.108	85.88
323.337	83.88
323.566	91.88
323.795	76.88
324.024	87.88
324.253	92.88
324.482	85.88
324.71	88.88
324.939	101.88
325.168	85.88
325.397	77.88
325.626	85.88
325.855	84.88
326.084	78.88
326.313	103.88
326.542	90.88
326.77	93.88
326.999	82.88
327.228	88.88
327.457	86.88
327.686	94.88
327.914	79.88
328.143	88.88
328.372	87.88
328.6	84.88
328.829	87.88
329.058	90.88
329.287	70.88
329.515	87.88
329.744	91.88
329.972	78.88
330.201	82.88
330.43	97.88
330.658	92.88
330.887	88.88
331.115	75.88
331.344	77.88
331.572	93.88
331.801	85.88
332.03	92.88
332.258	82.88
332.486	80.88
332.715	87.88
332.943	94.88
333.172	88.88
333.4	83.88
333.629	82.88
333.857	81.88
334.085	100.88
334.314	85.88
334.542	72.88
334.771	83.88
334.999	84.88
335.227	81.88
335.455	75.88
335.684	84.88
335.912	84.88
336.14	89.88
336.369	89.88
336.597	92.88
336.825	88.88
337.053	92.88
337.281	80.88
337.51	84.88
337.738	84.88
337.966	84.88
338.194	79.88
338.422	77.88
338.65	86.88
338.878	74.88
339.106	66.88
339.334	93.88
339.562	87.88
339.79	84.88
340.018	75.88
340.246	87.88
340.474	81.88
340.702	94.88
340.93	77.88
341.158	81.88
341.386	82.88
341.614	89.88
341.842	84.88
342.07	79.88
342.298	92.88
342.526	82.88
342.754	84.88
342.981	93.88
343.209	79.88
343.437	82.88
343.665	82.88
343.893	91.88
344.12	98.88
344.348	92.88
344.576	89.88
344.804	91.88
345.031	91.88
345.259	73.88
345.487	79.88
345.714	84.88
345.942	78.88
346.17	69.88
346.397	82.88
346.625	78.88
346.853	79.88
347.08	79.88
347.308	73.88
347.535	74.88
347.763	75.88
347.99	91.88
348.218	74.88
348.445	85.88
348.673	78.88
348.9	78.88
349.128	90.88
349.355	80.88
349.583	78.88
349.81	76.88
350.037	76.88
350.265	100.88
350.492	88.88
350.72	97.88
350.947	95.88
351.174	90.88
351.402	82.88
351.629	70.88
351.856	83.88
352.083	85.88
352.311	87.88
352.538	74.88
352.765	73.88
352.992	89.88
353.22	87.88
353.447	87.88
353.674	92.88
353.901	94.88
354.128	92.88
354.355	61.88
354.583	83.88
354.81	84.88
355.037	77.88
355.264	72.88
355.491	91.88
355.718	85.88
355.945	86.88
356.172	95.88
356.399	91.88
356.626	81.88
356.853	97.88
357.08	88.88
357.307	95.88
357.534	88.88
357.761	93.88
357.988	86.88
358.215	71.88
358.441	76.88
358.668	74.88
358.895	81.88
359.122	83.88
359.349	74.88
359.576	85.88
359.802	73.88
360.029	93.88
360.256	88.88
360.483	78.88
360.709	88.88
360.936	92.88
361.163	70.88
361.39	85.88
361.616	92.88
361.843	90.88
362.07	89.88
362.296	75.88
362.523	78.88
362.749	87.88
362.976	104.88
363.203	100.88
363.429	92.88
363.656	85.88
363.882	74.88
364.109	93.88
364.335	126.88
364.562	102.88
364.788	98.88
365.015	86.88
365.241	84.88
365.468	92.88
365.694	82.88
365.92	92.88
366.147	104.88
366.373	78.88
366.599	86.88
366.826	84.88
367.052	84.88
367.278	72.88
367.505	81.88
367.731	87.88
367.957	81.88
368.184	68.88
368.41	73.88
368.636	79.88
368.862	94.88
369.089	84.88
369.315	100.88
369.541	81.88
369.767	84.88
369.993	79.88
370.219	78.88
370.445	91.88
370.672	78.88
370.898	73.88
371.124	86.88
371.35	85.88
371.576	88.88
371.802	85.88
372.028	90.88
372.254	94.88
372.48	89.88
372.706	86.88
372.932	78.88
373.158	89.88
373.384	85.88
373.61	98.88
373.835	83.88
374.061	93.88
374.287	102.88
374.513	98.88
374.739	73.88
374.965	75.88
375.191	90.88
375.416	84.88
375.642	92.88
375.868	84.88
376.094	74.88
376.319	77.88
376.545	87.88
376.771	92.88
376.997	86.88
377.222	81.88
377.448	81.88
377.674	94.88
377.899	78.88
378.125	83.88
378.35	96.88
378.576	67.88
378.802	90.88
379.027	81.88
379.253	92.88
379.478	84.88
379.704	92.88
379.929	89.88
380.155	86.88
380.38	73.88
380.606	82.88
380.831	103.88
381.057	102.88
381.282	77.88
381.507	94.88
381.733	74.88
381.958	64.88
382.184	80.88
382.409	91.88
382.634	89.88
382.86	93.88
383.085	92.88
383.31	86.88
383.535	94.88
383.761	98.88
383.986	96.88
384.211	77.88
384.436	78.88
384.662	89.88
384.887	80.88
385.112	80.88
385.337	93.88
385.562	92.88
385.787	87.88
386.013	88.88
386.238	82.88
386.463	80.88
386.688	90.88
386.913	81.88
387.138	80.88
387.363	81.88
387.588	90.88
387.813	86.88
388.038	85.88
388.263	94.88
388.488	81.88
388.713	78.88
388.938	81.88
389.163	81.88
389.387	92.88
389.612	78.88
389.837	97.88
390.062	80.88
390.287	80.88
390.512	86.88
390.736	82.88
390.961	83.88
391.186	100.88
391.411	96.88
391.636	84.88
391.86	71.88
392.085	85.88
392.31	101.88
392.534	87.88
392.759	103.88
392.984	114.88
393.208	179.88
393.433	226.88
393.658	192.88
393.882	110.88
394.107	95.88
394.331	94.88
394.556	97.88
394.78	97.88
395.005	66.88
395.229	82.88
395.454	93.88
395.678	87.88
395.903	96.88
396.127	104.88
396.352	130.88
396.576	134.88
396.801	184.88
397.025	184.88
397.249	130.88
397.474	106.88
397.698	102.88
397.922	88.88
398.147	86.88
398.371	91.88
398.595	89.88
398.82	79.88
399.044	88.88
399.268	94.88
399.492	76.88
399.717	86.88
399.941	77.88
400.165	93.88
400.389	80.88
400.613	81.88
400.837	88.88
401.062	82.88
401.286	87.88
401.51	85.88
401.734	88.88
401.958	87.88
402.182	93.88
402.406	79.88
402.63	77.88
402.854	90.88
403.078	78.88
403.302	77.88
403.526	91.88
403.75	92.88
403.974	82.88
404.198	102.88
404.422	99.88
404.645	117.88
404.869	101.88
405.093	94.88
405.317	89.88
405.541	85.88
405.765	78.88
405.988	71.88
406.212	80.88
406.436	87.88
406.66	73.88
406.883	84.88
407.107	99.88
407.331	75.88
407.555	81.88
407.778	93.88
408.002	95.88
408.226	97.88
408.449	86.88
408.673	81.88
408.896	81.88
409.12	81.88
409.344	91.88
409.567	84.88
409.791	93.88
410.014	87.88
410.238	91.88
410.461	105.88
410.685	97.88
410.908	93.88
411.132	90.88
411.355	87.88
411.578	65.88
411.802	84.88
412.025	87.88
412.249	87.88
412.472	84.88
412.695	69.88
412.919	76.88
413.142	75.88
413.365	96.88
413.589	78.88
413.812	80.88
414.035	90.88
414.258	88.88
414.482	72.88
414.705	75.88
414.928	81.88
415.151	71.88
415.374	81.88
415.597	88.88
415.821	84.88
416.044	87.88
416.267	74.88
416.49	83.88
416.713	84.88
416.936	84.88
417.159	80.88
417.382	81.88
417.605	72.88
417.828	92.88
418.051	96.88
418.274	93.88
418.497	94.88
418.72	77.88
418.943	84.88
419.166	84.88
419.389	67.88
419.611	86.88
419.834	90.88
420.057	91.88
420.28	81.88
420.503	92.88
420.726	78.88
420.948	85.88
421.171	93.88
421.394	100.88
421.617	101.88
421.839	98.88
422.062	121.88
422.285	145.88
422.507	206.88
422.73	293.88
422.953	273.88
423.175	146.88
423.398	98.88
423.621	110.88
423.843	88.88
424.066	84.88
424.288	87.88
424.511	93.88
424.733	82.88
424.956	79.88
425.178	93.88
425.401	78.88
425.623	60.88
425.846	87.88
426.068	87.88
426.291	84.88
426.513	79.88
426.735	84.88
426.958	72.88
427.18	74.88
427.402	81.88
427.625	72.88
427.847	71.88
428.069	108.88
428.292	114.88
428.514	126.88
428.736	98.88
428.958	124.88
429.181	100.88
429.403	88.88
429.625	86.88
429.847	105.88
430.069	132.88
430.292	138.88
430.514	132.88
430.736	109.88
430.958	126.88
431.18	93.88
431.402	73.88
431.624	99.88
431.846	108.88
432.068	112.88
432.29	96.88
432.512	109.88
432.734	74.88
432.956	95.88
433.178	94.88
433.4	84.88
433.622	78.88
433.844	75.88
434.066	80.88
434.287	82.88
434.509	79.88
434.731	66.88
434.953	76.88
435.175	73.88
435.397	81.88
435.618	79.88
435.84	87.88
436.062	88.88
436.284	88.88
436.505	82.88
436.727	82.88
436.949	73.88
437.17	97.88
437.392	87.88
437.614	78.88
437.835	88.88
438.057	74.88
438.278	90.88
438.5	98.88
438.721	73.88
438.943	90.88
439.165	81.88
439.386	80.88
439.608	89.88
439.829	77.88
440.05	77.88
440.272	80.88
440.493	89.88
440.715	72.88
440.936	84.88
441.158	79.88
441.379	90.88
441.6	94.88
441.822	85.88
442.043	95.88
442.264	100.88
442.486	118.88
442.707	133.88
442.928	117.88
443.149	118.88
443.371	139.88
443.592	186.88
443.813	160.88
444.034	112.88
444.255	88.88
444.476	89.88
444.698	89.88
444.919	100.88
445.14	179.88
445.361	188.88
445.582	231.88
445.803	184.88
446.024	116.88
446.245	119.88
446.466	80.88
446.687	92.88
446.908	87.88
447.129	72.88
447.35	81.88
447.571	79.88
447.792	77.88
448.013	88.88
448.234	99.88
448.455	85.88
448.675	82.88
448.896	71.88
449.117	77.88
449.338	71.88
449.559	82.88
449.779	67.88
450	82.88
450.221	85.88
450.442	79.88
450.662	94.88
450.883	67.88
451.104	81.88
451.324	78.88
451.545	85.88
451.766	81.88
451.986	70.88
452.207	82.88
452.428	85.88
452.648	87.88
452.869	82.88
453.089	84.88
453.31	89.88
453.53	57.88
453.751	82.88
453.971	94.88
454.192	83.88
454.412	74.88
454.633	82.88
454.853	81.88
455.073	78.88
455.294	90.88
455.514	85.88
455.734	80.88
455.955	89.88
456.175	84.88
456.395	63.88
456.616	92.88
456.836	82.88
457.056	73.88
457.276	83.88
457.497	74.88
457.717	94.88
457.937	88.88
458.157	101.88
458.377	99.88
458.598	92.88
458.818	109.88
459.038	97.88
459.258	76.88
459.478	79.88
459.698	81.88
459.918	81.88
460.138	108.88
460.358	95.88
460.578	94.88
460.798	102.88
461.018	93.88
461.238	79.88
461.458	70.88
461.678	92.88
461.898	79.88
462.118	87.88
462.338	61.88
462.558	84.88
462.777	72.88
462.997	83.88
463.217	80.88
463.437	86.88
463.657	84.88
463.876	75.88
464.096	74.88
464.316	76.88
464.536	83.88
464.755	82.88
464.975	86.88
465.195	78.88
465.414	93.88
465.634	84.88
465.854	89.88
466.073	77.88
466.293	66.88
466.512	87.88
466.732	80.88
466.951	72.88
467.171	71.88
467.391	95.88
467.61	81.88
467.829	105.88
468.049	88.88
468.268	86.88
468.488	84.88
468.707	82.88
468.927	68.88
469.146	86.88
469.365	82.88
469.585	92.88
469.804	104.88
470.023	87.88
470.243	88.88
470.462	94.88
470.681	74.88
470.901	81.88
471.12	96.88
471.339	77.88
471.558	82.88
471.777	92.88
471.997	74.88
472.216	89.88
472.435	96.88
472.654	99.88
472.873	80.88
473.092	95.88
473.311	84.88
473.53	91.88
473.749	88.88
473.968	81.88
474.187	93.88
474.406	86.88
474.625	55.88
474.844	82.88
475.063	83.88
475.282	82.88
475.501	74.88
475.72	86.88
475.939	75.88
476.158	91.88
476.377	82.88
476.596	82.88
476.814	82.88
477.033	81.88
477.252	85.88
477.471	96.88
477.69	93.88
477.908	75.88
478.127	81.88
478.346	90.88
478.564	82.88
478.783	94.88
479.002	82.88
479.22	67.88
479.439	94.88
479.658	86.88
479.876	81.88
480.095	87.88
480.313	85.88
480.532	82.88
480.751	84.88
480.969	77.88
481.188	74.88
481.406	83.88
481.624	90.88
481.843	91.88
482.061	82.88
482.28	93.88
482.498	85.88
482.717	86.88
482.935	79.88
483.153	90.88
483.372	85.88
483.59	71.88
483.808	86.88
484.027	85.88
484.245	97.88
484.463	78.88
484.681	98.88
484.9	88.88
485.118	79.88
485.336	74.88
485.554	97.88
485.772	87.88
485.99	73.88
486.209	100.88
486.427	85.88
486.645	89.88
486.863	79.88
487.081	84.88
487.299	86.88
487.517	99.88
487.735	113.88
487.953	136.88
488.171	126.88
488.389	94.88
488.607	73.88
488.825	84.88
489.043	78.88
489.261	84.88
489.479	69.88
489.696	69.88
489.914	92.88
490.132	86.88
490.35	93.88
490.568	88.88
490.786	96.88
491.003	78.88
491.221	89.88
491.439	93.88
491.657	83.88
491.874	94.88
492.092	80.88
492.31	70.88
492.527	84.88
492.745	82.88
492.963	92.88
493.18	77.88
493.398	95.88
493.615	92.88
493.833	92.88
494.05	76.88
494.268	74.88
494.485	84.88
494.703	97.88
494.92	77.88
495.138	80.88
495.355	90.88
495.573	79.88
495.79	89.88
496.008	92.88
496.225	92.88
496.442	82.88
496.66	85.88
496.877	94.88
497.094	93.88
497.312	86.88
497.529	92.88
497.746	89.88
497.963	80.88
498.181	73.88
498.398	72.88
498.615	80.88
498.832	74.88
499.049	73.88
499.267	95.88
499.484	82.88
499.701	89.88
499.918	90.88
500.135	91.88
500.352	82.88
500.569	76.88
500.786	86.88
501.003	96.88
501.22	83.88
501.437	97.88
501.654	80.88
501.871	81.88
502.088	89.88
502.305	81.88
502.522	97.88
502.739	86.88
502.956	74.88
503.172	93.88
503.389	86.88
503.606	81.88
503.823	110.88
504.04	93.88
504.256	122.88
504.473	114.88
504.69	97.88
504.907	89.88
505.123	85.88
505.34	91.88
505.557	87.88
505.773	81.88
505.99	79.88
506.207	93.88
506.423	85.88
506.64	92.88
506.856	87.88
507.073	82.88
507.289	81.88
507.506	84.88
507.722	87.88
507.939	95.88
508.155	83.88
508.372	94.88
508.588	76.88
508.805	85.88
509.021	86.88
509.238	79.88
509.454	95.88
509.67	99.88
509.887	89.88
510.103	90.88
510.319	67.88
510.536	82.88
510.752	88.88
510.968	88.88
511.184	65.88
511.401	77.88
511.617	92.88
511.833	82.88
512.049	82.88
512.265	87.88
512.481	93.88
512.698	94.88
512.914	80.88
513.13	89.88
513.346	86.88
513.562	83.88
513.778	85.88
513.994	82.88
514.21	72.88
514.426	64.88
514.642	82.88
514.858	80.88
515.074	94.88
515.29	92.88
515.506	83.88
515.721	89.88
515.937	80.88
516.153	95.88
516.369	88.88
516.585	93.88
516.801	88.88
517.016	79.88
517.232	75.88
517.448	68.88
517.664	82.88
517.879	90.88
518.095	96.88
518.311	76.88
518.527	96.88
518.742	94.88
518.958	108.88
