Data from 18505_1_HRD10591_00029.txt Node
Date: Mon Jan 19 13:58:45 EST 2026
User: Yrep
Spectrometer: HR+D1059
Trigger mode: 1
Integration Time (sec): 1.000000E-1
Scans to average: 1
Electric dark correction enabled: true
Nonlinearity correction enabled: false
Boxcar width: 0
XAxis mode: Wavelengths
Number of Pixels in Spectrum: 2048
>>>>>Begin Spectral Data<<<<<
223.165	-12.12
223.4	-12.12
223.635	-12.12
223.869	-22.12
224.104	1.88
224.338	-11.12
224.573	-15.12
224.808	-14.12
225.042	-15.12
225.277	0.88
225.511	-7.12
225.746	8.88
225.98	-5.12
226.215	19.88
226.449	13.88
226.683	11.88
226.918	17.88
227.152	26.88
227.387	32.88
227.621	55.88
227.856	37.88
228.09	42.88
228.324	44.88
228.559	42.88
228.793	57.88
229.027	63.88
229.262	55.88
229.496	56.88
229.73	64.88
229.964	61.88
230.199	82.88
230.433	71.88
230.667	78.88
230.901	76.88
231.136	68.88
231.37	71.88
231.604	73.88
231.838	86.88
232.072	76.88
232.306	67.88
232.541	79.88
232.775	70.88
233.009	74.88
233.243	88.88
233.477	72.88
233.711	70.88
233.945	79.88
234.179	62.88
234.413	79.88
234.647	83.88
234.881	62.88
235.115	74.88
235.349	68.88
235.583	81.88
235.817	75.88
236.051	95.88
236.285	78.88
236.519	63.88
236.753	67.88
236.987	60.88
237.221	73.88
237.455	72.88
237.689	88.88
237.922	64.88
238.156	80.88
238.39	64.88
238.624	71.88
238.858	81.88
239.091	75.88
239.325	67.88
239.559	66.88
239.793	62.88
240.027	81.88
240.26	56.88
240.494	73.88
240.728	62.88
240.961	73.88
241.195	64.88
241.429	70.88
241.662	73.88
241.896	75.88
242.13	80.88
242.363	77.88
242.597	77.88
242.83	95.88
243.064	64.88
243.298	68.88
243.531	73.88
243.765	68.88
243.998	63.88
244.232	73.88
244.465	73.88
244.699	57.88
244.932	67.88
245.166	80.88
245.399	73.88
245.633	70.88
245.866	78.88
246.099	65.88
246.333	77.88
246.566	81.88
246.8	72.88
247.033	72.88
247.266	79.88
247.5	68.88
247.733	73.88
247.966	71.88
248.2	78.88
248.433	79.88
248.666	85.88
248.899	80.88
249.133	70.88
249.366	90.88
249.599	68.88
249.832	75.88
250.066	66.88
250.299	80.88
250.532	83.88
250.765	66.88
250.998	74.88
251.231	67.88
251.465	83.88
251.698	74.88
251.931	69.88
252.164	87.88
252.397	86.88
252.63	77.88
252.863	81.88
253.096	79.88
253.329	64.88
253.562	67.88
253.795	76.88
254.028	69.88
254.261	77.88
254.494	79.88
254.727	79.88
254.96	67.88
255.193	77.88
255.426	70.88
255.659	79.88
255.892	81.88
256.124	61.88
256.357	79.88
256.59	66.88
256.823	85.88
257.056	81.88
257.289	69.88
257.521	70.88
257.754	81.88
257.987	75.88
258.22	95.88
258.452	77.88
258.685	84.88
258.918	74.88
259.151	83.88
259.383	82.88
259.616	78.88
259.849	83.88
260.081	88.88
260.314	69.88
260.547	84.88
260.779	83.88
261.012	80.88
261.244	75.88
261.477	81.88
261.71	81.88
261.942	74.88
262.175	67.88
262.407	68.88
262.64	74.88
262.872	67.88
263.105	72.88
263.337	77.88
263.57	78.88
263.802	80.88
264.035	68.88
264.267	68.88
264.499	76.88
264.732	67.88
264.964	66.88
265.197	73.88
265.429	69.88
265.661	65.88
265.894	77.88
266.126	78.88
266.358	78.88
266.591	77.88
266.823	72.88
267.055	78.88
267.287	76.88
267.52	73.88
267.752	83.88
267.984	71.88
268.216	59.88
268.448	81.88
268.681	75.88
268.913	74.88
269.145	75.88
269.377	76.88
269.609	66.88
269.841	89.88
270.073	88.88
270.306	75.88
270.538	70.88
270.77	73.88
271.002	73.88
271.234	77.88
271.466	89.88
271.698	80.88
271.93	72.88
272.162	76.88
272.394	76.88
272.626	80.88
272.858	86.88
273.09	73.88
273.322	76.88
273.553	73.88
273.785	82.88
274.017	91.88
274.249	87.88
274.481	70.88
274.713	81.88
274.945	88.88
275.176	93.88
275.408	83.88
275.64	83.88
275.872	87.88
276.104	92.88
276.335	88.88
276.567	79.88
276.799	76.88
277.031	68.88
277.262	69.88
277.494	69.88
277.726	80.88
277.957	75.88
278.189	78.88
278.421	92.88
278.652	79.88
278.884	77.88
279.115	58.88
279.347	80.88
279.579	81.88
279.81	94.88
280.042	84.88
280.273	93.88
280.505	92.88
280.736	91.88
280.968	73.88
281.199	81.88
281.431	83.88
281.662	74.88
281.894	69.88
282.125	82.88
282.356	76.88
282.588	72.88
282.819	90.88
283.051	84.88
283.282	65.88
283.513	89.88
283.745	63.88
283.976	86.88
284.207	77.88
284.439	63.88
284.67	90.88
284.901	92.88
285.132	79.88
285.364	100.88
285.595	95.88
285.826	76.88
286.057	71.88
286.288	82.88
286.52	82.88
286.751	79.88
286.982	83.88
287.213	85.88
287.444	75.88
287.675	72.88
287.906	77.88
288.138	85.88
288.369	102.88
288.6	87.88
288.831	75.88
289.062	73.88
289.293	85.88
289.524	75.88
289.755	89.88
289.986	81.88
290.217	74.88
290.448	76.88
290.679	85.88
290.91	81.88
291.141	87.88
291.371	83.88
291.602	72.88
291.833	88.88
292.064	84.88
292.295	80.88
292.526	81.88
292.757	89.88
292.987	75.88
293.218	82.88
293.449	89.88
293.68	85.88
293.91	94.88
294.141	88.88
294.372	83.88
294.603	75.88
294.833	80.88
295.064	86.88
295.295	74.88
295.525	90.88
295.756	88.88
295.987	91.88
296.217	54.88
296.448	70.88
296.679	85.88
296.909	90.88
297.14	92.88
297.37	85.88
297.601	87.88
297.831	88.88
298.062	82.88
298.292	73.88
298.523	80.88
298.753	88.88
298.984	78.88
299.214	88.88
299.445	85.88
299.675	107.88
299.905	87.88
300.136	89.88
300.366	77.88
300.597	92.88
300.827	88.88
301.057	85.88
301.288	81.88
301.518	93.88
301.748	80.88
301.979	88.88
302.209	91.88
302.439	84.88
302.669	87.88
302.9	69.88
303.13	71.88
303.36	80.88
303.59	83.88
303.82	69.88
304.051	78.88
304.281	73.88
304.511	95.88
304.741	74.88
304.971	89.88
305.201	83.88
305.431	73.88
305.661	80.88
305.891	81.88
306.121	74.88
306.352	84.88
306.582	76.88
306.812	89.88
307.042	80.88
307.272	73.88
307.502	82.88
307.731	81.88
307.961	90.88
308.191	86.88
308.421	94.88
308.651	88.88
308.881	95.88
309.111	89.88
309.341	106.88
309.571	96.88
309.8	91.88
310.03	91.88
310.26	75.88
310.49	74.88
310.72	74.88
310.949	85.88
311.179	79.88
311.409	80.88
311.639	69.88
311.868	87.88
312.098	82.88
312.328	83.88
312.557	86.88
312.787	89.88
313.017	80.88
313.246	89.88
313.476	74.88
313.706	82.88
313.935	93.88
314.165	85.88
314.394	83.88
314.624	94.88
314.853	87.88
315.083	95.88
315.312	84.88
315.542	104.88
315.771	103.88
316.001	129.88
316.23	109.88
316.46	79.88
316.689	90.88
316.919	70.88
317.148	86.88
317.377	98.88
317.607	85.88
317.836	138.88
318.065	163.88
318.295	119.88
318.524	107.88
318.753	89.88
318.983	92.88
319.212	78.88
319.441	80.88
319.67	96.88
319.9	87.88
320.129	94.88
320.358	95.88
320.587	93.88
320.816	73.88
321.046	83.88
321.275	84.88
321.504	87.88
321.733	89.88
321.962	78.88
322.191	75.88
322.42	87.88
322.649	87.88
322.878	95.88
323.108	90.88
323.337	86.88
323.566	75.88
323.795	81.88
324.024	77.88
324.253	72.88
324.482	90.88
324.71	91.88
324.939	84.88
325.168	80.88
325.397	82.88
325.626	67.88
325.855	80.88
326.084	76.88
326.313	95.88
326.542	89.88
326.77	88.88
326.999	82.88
327.228	83.88
327.457	90.88
327.686	80.88
327.914	82.88
328.143	75.88
328.372	85.88
328.6	76.88
328.829	80.88
329.058	78.88
329.287	73.88
329.515	86.88
329.744	69.88
329.972	78.88
330.201	89.88
330.43	90.88
330.658	83.88
330.887	83.88
331.115	87.88
331.344	84.88
331.572	82.88
331.801	72.88
332.03	79.88
332.258	76.88
332.486	98.88
332.715	76.88
332.943	83.88
333.172	92.88
333.4	85.88
333.629	88.88
333.857	82.88
334.085	89.88
334.314	87.88
334.542	104.88
334.771	113.88
334.999	95.88
335.227	106.88
335.455	105.88
335.684	93.88
335.912	98.88
336.14	101.88
336.369	92.88
336.597	101.88
336.825	71.88
337.053	75.88
337.281	97.88
337.51	81.88
337.738	82.88
337.966	84.88
338.194	93.88
338.422	93.88
338.65	106.88
338.878	85.88
339.106	75.88
339.334	88.88
339.562	87.88
339.79	96.88
340.018	93.88
340.246	77.88
340.474	77.88
340.702	88.88
340.93	71.88
341.158	69.88
341.386	74.88
341.614	91.88
341.842	76.88
342.07	71.88
342.298	65.88
342.526	79.88
342.754	83.88
342.981	83.88
343.209	81.88
343.437	100.88
343.665	82.88
343.893	95.88
344.12	87.88
344.348	91.88
344.576	66.88
344.804	75.88
345.031	81.88
345.259	82.88
345.487	90.88
345.714	88.88
345.942	95.88
346.17	92.88
346.397	91.88
346.625	94.88
346.853	84.88
347.08	95.88
347.308	73.88
347.535	88.88
347.763	91.88
347.99	84.88
348.218	78.88
348.445	85.88
348.673	95.88
348.9	78.88
349.128	92.88
349.355	87.88
349.583	71.88
349.81	90.88
350.037	75.88
350.265	86.88
350.492	75.88
350.72	75.88
350.947	91.88
351.174	87.88
351.402	79.88
351.629	82.88
351.856	84.88
352.083	82.88
352.311	65.88
352.538	79.88
352.765	89.88
352.992	87.88
353.22	88.88
353.447	73.88
353.674	71.88
353.901	90.88
354.128	89.88
354.355	83.88
354.583	72.88
354.81	85.88
355.037	86.88
355.264	87.88
355.491	91.88
355.718	93.88
355.945	93.88
356.172	96.88
356.399	90.88
356.626	82.88
356.853	87.88
357.08	97.88
357.307	93.88
357.534	77.88
357.761	107.88
357.988	89.88
358.215	85.88
358.441	95.88
358.668	77.88
358.895	89.88
359.122	102.88
359.349	76.88
359.576	79.88
359.802	82.88
360.029	92.88
360.256	74.88
360.483	82.88
360.709	87.88
360.936	95.88
361.163	96.88
361.39	84.88
361.616	87.88
361.843	99.88
362.07	88.88
362.296	111.88
362.523	133.88
362.749	129.88
362.976	146.88
363.203	171.88
363.429	117.88
363.656	109.88
363.882	96.88
364.109	118.88
364.335	179.88
364.562	208.88
364.788	133.88
365.015	93.88
365.241	95.88
365.468	88.88
365.694	69.88
365.92	93.88
366.147	85.88
366.373	84.88
366.599	77.88
366.826	76.88
367.052	90.88
367.278	87.88
367.505	79.88
367.731	96.88
367.957	93.88
368.184	84.88
368.41	87.88
368.636	81.88
368.862	93.88
369.089	90.88
369.315	87.88
369.541	85.88
369.767	79.88
369.993	94.88
370.219	98.88
370.445	100.88
370.672	136.88
370.898	108.88
371.124	94.88
371.35	76.88
371.576	98.88
371.802	109.88
372.028	105.88
372.254	101.88
372.48	91.88
372.706	98.88
372.932	98.88
373.158	108.88
373.384	135.88
373.61	175.88
373.835	193.88
374.061	119.88
374.287	105.88
374.513	98.88
374.739	121.88
374.965	124.88
375.191	103.88
375.416	100.88
375.642	83.88
375.868	121.88
376.094	107.88
376.319	91.88
376.545	88.88
376.771	81.88
376.997	71.88
377.222	74.88
377.448	84.88
377.674	78.88
377.899	76.88
378.125	83.88
378.35	89.88
378.576	80.88
378.802	84.88
379.027	73.88
379.253	85.88
379.478	75.88
379.704	82.88
379.929	87.88
380.155	76.88
380.38	95.88
380.606	90.88
380.831	97.88
381.057	90.88
381.282	100.88
381.507	93.88
381.733	105.88
381.958	97.88
382.184	109.88
382.409	110.88
382.634	116.88
382.86	116.88
383.085	101.88
383.31	119.88
383.535	129.88
383.761	127.88
383.986	122.88
384.211	107.88
384.436	94.88
384.662	95.88
384.887	106.88
385.112	97.88
385.337	88.88
385.562	99.88
385.787	106.88
386.013	117.88
386.238	113.88
386.463	96.88
386.688	119.88
386.913	107.88
387.138	115.88
387.363	123.88
387.588	112.88
387.813	120.88
388.038	112.88
388.263	110.88
388.488	109.88
388.713	103.88
388.938	98.88
389.163	98.88
389.387	83.88
389.612	100.88
389.837	91.88
390.062	105.88
390.287	91.88
390.512	75.88
390.736	97.88
390.961	93.88
391.186	104.88
391.411	99.88
391.636	108.88
391.86	106.88
392.085	112.88
392.31	128.88
392.534	156.88
392.759	209.88
392.984	412.88
393.208	885.88
393.433	1424.88
393.658	997.88
393.882	319.88
394.107	194.88
394.331	178.88
394.556	185.88
394.78	143.88
395.005	113.88
395.229	113.88
395.454	124.88
395.678	146.88
395.903	183.88
396.127	253.88
396.352	325.88
396.576	491.88
396.801	885.88
397.025	1026.88
397.249	465.88
397.474	220.88
397.698	118.88
397.922	110.88
398.147	87.88
398.371	101.88
398.595	87.88
398.82	83.88
399.044	84.88
399.268	80.88
399.492	81.88
399.717	82.88
399.941	91.88
400.165	77.88
400.389	87.88
400.613	97.88
400.837	75.88
401.062	77.88
401.286	92.88
401.51	76.88
401.734	84.88
401.958	99.88
402.182	87.88
402.406	70.88
402.63	72.88
402.854	82.88
403.078	84.88
403.302	95.88
403.526	79.88
403.75	66.88
403.974	84.88
404.198	96.88
404.422	107.88
404.645	130.88
404.869	131.88
405.093	100.88
405.317	80.88
405.541	82.88
405.765	80.88
405.988	83.88
406.212	88.88
406.436	97.88
406.66	103.88
406.883	93.88
407.107	88.88
407.331	104.88
407.555	140.88
407.778	208.88
408.002	209.88
408.226	109.88
408.449	89.88
408.673	84.88
408.896	104.88
409.12	107.88
409.344	113.88
409.567	112.88
409.791	137.88
410.014	127.88
410.238	107.88
410.461	86.88
410.685	103.88
410.908	89.88
411.132	96.88
411.355	80.88
411.578	90.88
411.802	83.88
412.025	88.88
412.249	90.88
412.472	87.88
412.695	98.88
412.919	75.88
413.142	92.88
413.365	77.88
413.589	89.88
413.812	85.88
414.035	95.88
414.258	99.88
414.482	83.88
414.705	90.88
414.928	96.88
415.151	94.88
415.374	89.88
415.597	94.88
415.821	81.88
416.044	79.88
416.267	81.88
416.49	95.88
416.713	71.88
416.936	80.88
417.159	79.88
417.382	75.88
417.605	83.88
417.828	70.88
418.051	95.88
418.274	74.88
418.497	92.88
418.72	72.88
418.943	96.88
419.166	90.88
419.389	81.88
419.611	93.88
419.834	82.88
420.057	98.88
420.28	90.88
420.503	96.88
420.726	89.88
420.948	107.88
421.171	92.88
421.394	150.88
421.617	220.88
421.839	193.88
422.062	179.88
422.285	264.88
422.507	544.88
422.73	933.88
422.953	800.88
423.175	327.88
423.398	164.88
423.621	133.88
423.843	103.88
424.066	115.88
424.288	108.88
424.511	97.88
424.733	103.88
424.956	100.88
425.178	82.88
425.401	95.88
425.623	96.88
425.846	86.88
426.068	86.88
426.291	80.88
426.513	76.88
426.735	100.88
426.958	89.88
427.18	91.88
427.402	93.88
427.625	88.88
427.847	81.88
428.069	132.88
428.292	207.88
428.514	243.88
428.736	147.88
428.958	216.88
429.181	223.88
429.403	121.88
429.625	134.88
429.847	183.88
430.069	302.88
430.292	335.88
430.514	319.88
430.736	213.88
430.958	233.88
431.18	127.88
431.402	108.88
431.624	113.88
431.846	176.88
432.068	236.88
432.29	116.88
432.512	88.88
432.734	93.88
432.956	99.88
433.178	108.88
433.4	95.88
433.622	97.88
433.844	82.88
434.066	93.88
434.287	73.88
434.509	88.88
434.731	83.88
434.953	69.88
435.175	69.88
435.397	98.88
435.618	119.88
435.84	108.88
436.062	95.88
436.284	84.88
436.505	83.88
436.727	88.88
436.949	84.88
437.17	91.88
437.392	69.88
437.614	92.88
437.835	87.88
438.057	78.88
438.278	69.88
438.5	98.88
438.721	83.88
438.943	85.88
439.165	77.88
439.386	88.88
439.608	91.88
439.829	89.88
440.05	71.88
440.272	80.88
440.493	92.88
440.715	90.88
440.936	98.88
441.158	93.88
441.379	93.88
441.6	92.88
441.822	96.88
442.043	95.88
442.264	116.88
442.486	208.88
442.707	321.88
442.928	204.88
443.149	147.88
443.371	266.88
443.592	525.88
443.813	448.88
444.034	163.88
444.255	93.88
444.476	96.88
444.698	113.88
444.919	109.88
445.14	248.88
445.361	365.88
445.582	681.88
445.803	564.88
446.024	193.88
446.245	100.88
446.466	87.88
446.687	80.88
446.908	96.88
447.129	90.88
447.35	87.88
447.571	80.88
447.792	70.88
448.013	88.88
448.234	96.88
448.455	76.88
448.675	90.88
448.896	84.88
449.117	85.88
449.338	73.88
449.559	79.88
449.779	81.88
450	72.88
450.221	73.88
450.442	83.88
450.662	90.88
450.883	94.88
451.104	83.88
451.324	84.88
451.545	83.88
451.766	88.88
451.986	91.88
452.207	87.88
452.428	87.88
452.648	100.88
452.869	143.88
453.089	111.88
453.31	85.88
453.53	90.88
453.751	83.88
453.971	69.88
454.192	90.88
454.412	76.88
454.633	98.88
454.853	98.88
455.073	87.88
455.294	75.88
455.514	107.88
455.734	73.88
455.955	83.88
456.175	76.88
456.395	75.88
456.616	92.88
456.836	80.88
457.056	85.88
457.276	94.88
457.497	94.88
457.717	97.88
457.937	159.88
458.157	185.88
458.377	187.88
458.598	169.88
458.818	188.88
459.038	123.88
459.258	103.88
459.478	78.88
459.698	80.88
459.918	87.88
460.138	95.88
460.358	89.88
460.578	103.88
460.798	153.88
461.018	161.88
461.238	87.88
461.458	82.88
461.678	100.88
461.898	92.88
462.118	75.88
462.338	76.88
462.558	65.88
462.777	71.88
462.997	90.88
463.217	81.88
463.437	87.88
463.657	98.88
463.876	78.88
464.096	87.88
464.316	80.88
464.536	69.88
464.755	88.88
464.975	77.88
465.195	96.88
465.414	70.88
465.634	91.88
465.854	86.88
466.073	80.88
466.293	90.88
466.512	87.88
466.732	83.88
466.951	85.88
467.171	78.88
467.391	89.88
467.61	84.88
467.829	90.88
468.049	82.88
468.268	79.88
468.488	73.88
468.707	91.88
468.927	83.88
469.146	100.88
469.365	74.88
469.585	84.88
469.804	77.88
470.023	75.88
470.243	73.88
470.462	67.88
470.681	75.88
470.901	79.88
471.12	65.88
471.339	89.88
471.558	77.88
471.777	87.88
471.997	91.88
472.216	79.88
472.435	75.88
472.654	79.88
472.873	78.88
473.092	75.88
473.311	96.88
473.53	82.88
473.749	93.88
473.968	83.88
474.187	74.88
474.406	87.88
474.625	88.88
474.844	78.88
475.063	83.88
475.282	75.88
475.501	90.88
475.72	80.88
475.939	82.88
476.158	74.88
476.377	67.88
476.596	85.88
476.814	87.88
477.033	76.88
477.252	85.88
477.471	88.88
477.69	71.88
477.908	89.88
478.127	89.88
478.346	87.88
478.564	95.88
478.783	92.88
479.002	83.88
479.22	73.88
479.439	79.88
479.658	96.88
479.876	91.88
480.095	92.88
480.313	79.88
480.532	100.88
480.751	103.88
480.969	86.88
481.188	86.88
481.406	100.88
481.624	91.88
481.843	85.88
482.061	86.88
482.28	87.88
482.498	88.88
482.717	90.88
482.935	94.88
483.153	92.88
483.372	90.88
483.59	100.88
483.808	93.88
484.027	86.88
484.245	100.88
484.463	80.88
484.681	79.88
484.9	81.88
485.118	77.88
485.336	82.88
485.554	85.88
485.772	75.88
485.99	70.88
486.209	73.88
486.427	92.88
486.645	81.88
486.863	87.88
487.081	94.88
487.299	110.88
487.517	114.88
487.735	148.88
487.953	333.88
488.171	233.88
488.389	112.88
488.607	83.88
488.825	80.88
489.043	95.88
489.261	90.88
489.479	78.88
489.696	87.88
489.914	81.88
490.132	82.88
490.35	94.88
490.568	95.88
490.786	80.88
491.003	84.88
491.221	67.88
491.439	89.88
491.657	90.88
491.874	81.88
492.092	91.88
492.31	97.88
492.527	85.88
492.745	82.88
492.963	96.88
493.18	86.88
493.398	89.88
493.615	102.88
493.833	103.88
494.05	77.88
494.268	88.88
494.485	78.88
494.703	94.88
494.92	90.88
495.138	86.88
495.355	81.88
495.573	83.88
495.79	99.88
496.008	76.88
496.225	90.88
496.442	93.88
496.66	102.88
496.877	99.88
497.094	98.88
497.312	84.88
497.529	81.88
497.746	97.88
497.963	80.88
498.181	100.88
498.398	88.88
498.615	88.88
498.832	87.88
499.049	97.88
499.267	107.88
499.484	90.88
499.701	87.88
499.918	80.88
500.135	89.88
500.352	94.88
500.569	93.88
500.786	100.88
501.003	94.88
501.22	80.88
501.437	83.88
501.654	87.88
501.871	75.88
502.088	90.88
502.305	81.88
502.522	85.88
502.739	83.88
502.956	89.88
503.172	103.88
503.389	102.88
503.606	92.88
503.823	99.88
504.04	120.88
504.256	213.88
504.473	224.88
504.69	98.88
504.907	92.88
505.123	100.88
505.34	92.88
505.557	87.88
505.773	82.88
505.99	90.88
506.207	78.88
506.423	94.88
506.64	89.88
506.856	88.88
507.073	87.88
507.289	85.88
507.506	81.88
507.722	76.88
507.939	93.88
508.155	88.88
508.372	92.88
508.588	77.88
508.805	99.88
509.021	93.88
509.238	83.88
509.454	85.88
509.67	75.88
509.887	82.88
510.103	66.88
510.319	85.88
510.536	99.88
510.752	82.88
510.968	93.88
511.184	80.88
511.401	81.88
511.617	65.88
511.833	76.88
512.049	99.88
512.265	90.88
512.481	89.88
512.698	88.88
512.914	87.88
513.13	81.88
513.346	89.88
513.562	90.88
513.778	88.88
513.994	55.88
514.21	76.88
514.426	89.88
514.642	84.88
514.858	87.88
515.074	98.88
515.29	93.88
515.506	84.88
515.721	77.88
515.937	74.88
516.153	75.88
516.369	100.88
516.585	81.88
516.801	87.88
517.016	120.88
