Data from 18505_1_HRD10591_00032.txt Node
Date: Mon Jan 19 13:58:47 EST 2026
User: Yrep
Spectrometer: HR+D1059
Trigger mode: 1
Integration Time (sec): 1.000000E-1
Scans to average: 1
Electric dark correction enabled: true
Nonlinearity correction enabled: false
Boxcar width: 0
XAxis mode: Wavelengths
Number of Pixels in Spectrum: 2048
>>>>>Begin Spectral Data<<<<<
223.165	-19.06
223.4	-19.06
223.635	-19.06
223.869	-13.06
224.104	-31.06
224.338	-17.06
224.573	-1.06
224.808	-7.06
225.042	-7.06
225.277	-9.06
225.511	-9.06
225.746	2.94
225.98	2.94
226.215	23.94
226.449	0.94
226.683	30.94
226.918	21.94
227.152	29.94
227.387	30.94
227.621	40.94
227.856	41.94
228.09	42.94
228.324	48.94
228.559	40.94
228.793	64.94
229.027	57.94
229.262	67.94
229.496	64.94
229.73	60.94
229.964	74.94
230.199	70.94
230.433	72.94
230.667	78.94
230.901	69.94
231.136	79.94
231.37	62.94
231.604	80.94
231.838	84.94
232.072	80.94
232.306	73.94
232.541	89.94
232.775	103.94
233.009	85.94
233.243	93.94
233.477	84.94
233.711	80.94
233.945	79.94
234.179	87.94
234.413	73.94
234.647	94.94
234.881	65.94
235.115	81.94
235.349	69.94
235.583	80.94
235.817	80.94
236.051	68.94
236.285	68.94
236.519	71.94
236.753	68.94
236.987	70.94
237.221	88.94
237.455	85.94
237.689	79.94
237.922	83.94
238.156	78.94
238.39	84.94
238.624	77.94
238.858	75.94
239.091	61.94
239.325	64.94
239.559	82.94
239.793	72.94
240.027	74.94
240.26	62.94
240.494	69.94
240.728	85.94
240.961	80.94
241.195	84.94
241.429	80.94
241.662	74.94
241.896	71.94
242.13	76.94
242.363	73.94
242.597	81.94
242.83	78.94
243.064	76.94
243.298	78.94
243.531	97.94
243.765	86.94
243.998	100.94
244.232	86.94
244.465	60.94
244.699	68.94
244.932	62.94
245.166	78.94
245.399	76.94
245.633	77.94
245.866	74.94
246.099	77.94
246.333	76.94
246.566	68.94
246.8	69.94
247.033	80.94
247.266	76.94
247.5	70.94
247.733	70.94
247.966	74.94
248.2	71.94
248.433	83.94
248.666	88.94
248.899	67.94
249.133	81.94
249.366	73.94
249.599	75.94
249.832	80.94
250.066	73.94
250.299	67.94
250.532	83.94
250.765	81.94
250.998	74.94
251.231	77.94
251.465	70.94
251.698	69.94
251.931	70.94
252.164	65.94
252.397	79.94
252.63	82.94
252.863	91.94
253.096	80.94
253.329	71.94
253.562	84.94
253.795	80.94
254.028	80.94
254.261	78.94
254.494	74.94
254.727	73.94
254.96	72.94
255.193	82.94
255.426	74.94
255.659	63.94
255.892	78.94
256.124	83.94
256.357	82.94
256.59	70.94
256.823	95.94
257.056	84.94
257.289	61.94
257.521	80.94
257.754	82.94
257.987	81.94
258.22	87.94
258.452	69.94
258.685	64.94
258.918	75.94
259.151	89.94
259.383	92.94
259.616	82.94
259.849	85.94
260.081	74.94
260.314	80.94
260.547	83.94
260.779	91.94
261.012	80.94
261.244	72.94
261.477	96.94
261.71	81.94
261.942	96.94
262.175	73.94
262.407	81.94
262.64	67.94
262.872	77.94
263.105	75.94
263.337	86.94
263.57	79.94
263.802	80.94
264.035	73.94
264.267	66.94
264.499	62.94
264.732	81.94
264.964	66.94
265.197	82.94
265.429	93.94
265.661	78.94
265.894	74.94
266.126	85.94
266.358	81.94
266.591	78.94
266.823	77.94
267.055	80.94
267.287	66.94
267.52	83.94
267.752	84.94
267.984	84.94
268.216	71.94
268.448	104.94
268.681	77.94
268.913	96.94
269.145	70.94
269.377	82.94
269.609	90.94
269.841	79.94
270.073	84.94
270.306	89.94
270.538	97.94
270.77	96.94
271.002	88.94
271.234	83.94
271.466	75.94
271.698	88.94
271.93	72.94
272.162	85.94
272.394	84.94
272.626	81.94
272.858	84.94
273.09	78.94
273.322	78.94
273.553	87.94
273.785	76.94
274.017	98.94
274.249	82.94
274.481	83.94
274.713	94.94
274.945	75.94
275.176	68.94
275.408	77.94
275.64	89.94
275.872	82.94
276.104	92.94
276.335	74.94
276.567	80.94
276.799	73.94
277.031	88.94
277.262	80.94
277.494	78.94
277.726	82.94
277.957	78.94
278.189	84.94
278.421	94.94
278.652	79.94
278.884	82.94
279.115	75.94
279.347	72.94
279.579	95.94
279.81	75.94
280.042	83.94
280.273	78.94
280.505	85.94
280.736	100.94
280.968	89.94
281.199	89.94
281.431	86.94
281.662	86.94
281.894	83.94
282.125	92.94
282.356	90.94
282.588	79.94
282.819	72.94
283.051	74.94
283.282	74.94
283.513	66.94
283.745	89.94
283.976	86.94
284.207	90.94
284.439	86.94
284.67	88.94
284.901	86.94
285.132	85.94
285.364	92.94
285.595	88.94
285.826	72.94
286.057	72.94
286.288	91.94
286.52	100.94
286.751	82.94
286.982	85.94
287.213	71.94
287.444	89.94
287.675	86.94
287.906	74.94
288.138	95.94
288.369	92.94
288.6	86.94
288.831	85.94
289.062	69.94
289.293	95.94
289.524	101.94
289.755	88.94
289.986	85.94
290.217	75.94
290.448	65.94
290.679	92.94
290.91	96.94
291.141	76.94
291.371	88.94
291.602	100.94
291.833	68.94
292.064	88.94
292.295	76.94
292.526	82.94
292.757	92.94
292.987	84.94
293.218	71.94
293.449	75.94
293.68	87.94
293.91	79.94
294.141	94.94
294.372	82.94
294.603	68.94
294.833	80.94
295.064	69.94
295.295	89.94
295.525	95.94
295.756	92.94
295.987	76.94
296.217	75.94
296.448	87.94
296.679	80.94
296.909	92.94
297.14	73.94
297.37	92.94
297.601	87.94
297.831	79.94
298.062	97.94
298.292	98.94
298.523	99.94
298.753	88.94
298.984	88.94
299.214	80.94
299.445	93.94
299.675	89.94
299.905	76.94
300.136	89.94
300.366	76.94
300.597	87.94
300.827	94.94
301.057	89.94
301.288	89.94
301.518	80.94
301.748	73.94
301.979	96.94
302.209	75.94
302.439	88.94
302.669	85.94
302.9	94.94
303.13	72.94
303.36	84.94
303.59	83.94
303.82	84.94
304.051	93.94
304.281	88.94
304.511	90.94
304.741	90.94
304.971	90.94
305.201	90.94
305.431	96.94
305.661	89.94
305.891	95.94
306.121	100.94
306.352	85.94
306.582	83.94
306.812	88.94
307.042	90.94
307.272	89.94
307.502	80.94
307.731	75.94
307.961	84.94
308.191	99.94
308.421	86.94
308.651	90.94
308.881	73.94
309.111	96.94
309.341	81.94
309.571	90.94
309.8	80.94
310.03	75.94
310.26	92.94
310.49	77.94
310.72	85.94
310.949	85.94
311.179	92.94
311.409	87.94
311.639	82.94
311.868	79.94
312.098	74.94
312.328	96.94
312.557	82.94
312.787	85.94
313.017	88.94
313.246	78.94
313.476	92.94
313.706	83.94
313.935	84.94
314.165	71.94
314.394	73.94
314.624	84.94
314.853	81.94
315.083	73.94
315.312	77.94
315.542	80.94
315.771	84.94
316.001	86.94
316.23	91.94
316.46	88.94
316.689	87.94
316.919	88.94
317.148	61.94
317.377	89.94
317.607	89.94
317.836	92.94
318.065	86.94
318.295	90.94
318.524	99.94
318.753	83.94
318.983	91.94
319.212	75.94
319.441	76.94
319.67	82.94
319.9	82.94
320.129	89.94
320.358	89.94
320.587	72.94
320.816	86.94
321.046	88.94
321.275	77.94
321.504	102.94
321.733	87.94
321.962	81.94
322.191	100.94
322.42	85.94
322.649	89.94
322.878	92.94
323.108	84.94
323.337	87.94
323.566	85.94
323.795	87.94
324.024	90.94
324.253	82.94
324.482	81.94
324.71	83.94
324.939	90.94
325.168	84.94
325.397	92.94
325.626	77.94
325.855	91.94
326.084	103.94
326.313	87.94
326.542	83.94
326.77	87.94
326.999	80.94
327.228	79.94
327.457	86.94
327.686	79.94
327.914	85.94
328.143	100.94
328.372	90.94
328.6	88.94
328.829	85.94
329.058	90.94
329.287	96.94
329.515	86.94
329.744	86.94
329.972	81.94
330.201	68.94
330.43	88.94
330.658	93.94
330.887	83.94
331.115	87.94
331.344	83.94
331.572	85.94
331.801	88.94
332.03	95.94
332.258	94.94
332.486	94.94
332.715	85.94
332.943	86.94
333.172	97.94
333.4	76.94
333.629	88.94
333.857	74.94
334.085	84.94
334.314	82.94
334.542	89.94
334.771	86.94
334.999	73.94
335.227	88.94
335.455	72.94
335.684	68.94
335.912	85.94
336.14	92.94
336.369	79.94
336.597	81.94
336.825	95.94
337.053	82.94
337.281	74.94
337.51	82.94
337.738	79.94
337.966	73.94
338.194	75.94
338.422	80.94
338.65	75.94
338.878	80.94
339.106	77.94
339.334	100.94
339.562	92.94
339.79	82.94
340.018	74.94
340.246	81.94
340.474	77.94
340.702	78.94
340.93	77.94
341.158	92.94
341.386	78.94
341.614	77.94
341.842	88.94
342.07	87.94
342.298	99.94
342.526	88.94
342.754	75.94
342.981	92.94
343.209	90.94
343.437	94.94
343.665	89.94
343.893	88.94
344.12	86.94
344.348	73.94
344.576	86.94
344.804	86.94
345.031	81.94
345.259	87.94
345.487	94.94
345.714	83.94
345.942	84.94
346.17	81.94
346.397	83.94
346.625	95.94
346.853	87.94
347.08	78.94
347.308	82.94
347.535	88.94
347.763	93.94
347.99	90.94
348.218	80.94
348.445	99.94
348.673	82.94
348.9	76.94
349.128	77.94
349.355	83.94
349.583	81.94
349.81	85.94
350.037	78.94
350.265	88.94
350.492	72.94
350.72	72.94
350.947	84.94
351.174	84.94
351.402	83.94
351.629	85.94
351.856	71.94
352.083	71.94
352.311	72.94
352.538	85.94
352.765	80.94
352.992	101.94
353.22	102.94
353.447	84.94
353.674	92.94
353.901	86.94
354.128	68.94
354.355	86.94
354.583	66.94
354.81	80.94
355.037	93.94
355.264	87.94
355.491	86.94
355.718	82.94
355.945	75.94
356.172	93.94
356.399	78.94
356.626	84.94
356.853	89.94
357.08	96.94
357.307	90.94
357.534	88.94
357.761	77.94
357.988	92.94
358.215	92.94
358.441	88.94
358.668	80.94
358.895	78.94
359.122	82.94
359.349	81.94
359.576	96.94
359.802	96.94
360.029	88.94
360.256	73.94
360.483	81.94
360.709	80.94
360.936	80.94
361.163	87.94
361.39	89.94
361.616	85.94
361.843	83.94
362.07	96.94
362.296	92.94
362.523	87.94
362.749	89.94
362.976	95.94
363.203	102.94
363.429	99.94
363.656	89.94
363.882	94.94
364.109	97.94
364.335	105.94
364.562	99.94
364.788	95.94
365.015	75.94
365.241	89.94
365.468	92.94
365.694	82.94
365.92	92.94
366.147	93.94
366.373	76.94
366.599	85.94
366.826	90.94
367.052	90.94
367.278	81.94
367.505	92.94
367.731	87.94
367.957	80.94
368.184	92.94
368.41	85.94
368.636	87.94
368.862	74.94
369.089	80.94
369.315	74.94
369.541	78.94
369.767	96.94
369.993	81.94
370.219	100.94
370.445	94.94
370.672	78.94
370.898	90.94
371.124	80.94
371.35	68.94
371.576	84.94
371.802	79.94
372.028	84.94
372.254	89.94
372.48	85.94
372.706	82.94
372.932	91.94
373.158	74.94
373.384	88.94
373.61	89.94
373.835	96.94
374.061	78.94
374.287	84.94
374.513	85.94
374.739	81.94
374.965	81.94
375.191	82.94
375.416	90.94
375.642	86.94
375.868	85.94
376.094	98.94
376.319	87.94
376.545	82.94
376.771	84.94
376.997	82.94
377.222	92.94
377.448	88.94
377.674	94.94
377.899	81.94
378.125	95.94
378.35	75.94
378.576	99.94
378.802	83.94
379.027	85.94
379.253	82.94
379.478	91.94
379.704	84.94
379.929	92.94
380.155	75.94
380.38	79.94
380.606	82.94
380.831	84.94
381.057	72.94
381.282	101.94
381.507	82.94
381.733	84.94
381.958	86.94
382.184	87.94
382.409	77.94
382.634	96.94
382.86	84.94
383.085	82.94
383.31	87.94
383.535	88.94
383.761	89.94
383.986	93.94
384.211	81.94
384.436	79.94
384.662	85.94
384.887	80.94
385.112	84.94
385.337	86.94
385.562	88.94
385.787	72.94
386.013	88.94
386.238	80.94
386.463	86.94
386.688	94.94
386.913	84.94
387.138	86.94
387.363	96.94
387.588	90.94
387.813	90.94
388.038	89.94
388.263	88.94
388.488	82.94
388.713	94.94
388.938	71.94
389.163	91.94
389.387	68.94
389.612	79.94
389.837	87.94
390.062	80.94
390.287	94.94
390.512	92.94
390.736	77.94
390.961	97.94
391.186	85.94
391.411	84.94
391.636	83.94
391.86	78.94
392.085	86.94
392.31	91.94
392.534	113.94
392.759	113.94
392.984	132.94
393.208	224.94
393.433	322.94
393.658	240.94
393.882	117.94
394.107	132.94
394.331	112.94
394.556	112.94
394.78	107.94
395.005	85.94
395.229	90.94
395.454	99.94
395.678	92.94
395.903	99.94
396.127	115.94
396.352	136.94
396.576	161.94
396.801	241.94
397.025	263.94
397.249	139.94
397.474	108.94
397.698	93.94
397.922	89.94
398.147	88.94
398.371	90.94
398.595	97.94
398.82	73.94
399.044	77.94
399.268	86.94
399.492	85.94
399.717	82.94
399.941	89.94
400.165	70.94
400.389	85.94
400.613	89.94
400.837	85.94
401.062	93.94
401.286	95.94
401.51	80.94
401.734	84.94
401.958	81.94
402.182	77.94
402.406	91.94
402.63	82.94
402.854	86.94
403.078	71.94
403.302	82.94
403.526	78.94
403.75	87.94
403.974	81.94
404.198	77.94
404.422	89.94
404.645	89.94
404.869	96.94
405.093	74.94
405.317	75.94
405.541	94.94
405.765	81.94
405.988	84.94
406.212	71.94
406.436	92.94
406.66	89.94
406.883	82.94
407.107	83.94
407.331	78.94
407.555	89.94
407.778	97.94
408.002	115.94
408.226	79.94
408.449	78.94
408.673	84.94
408.896	82.94
409.12	80.94
409.344	104.94
409.567	99.94
409.791	102.94
410.014	101.94
410.238	91.94
410.461	85.94
410.685	80.94
410.908	84.94
411.132	85.94
411.355	85.94
411.578	83.94
411.802	82.94
412.025	79.94
412.249	98.94
412.472	98.94
412.695	79.94
412.919	73.94
413.142	90.94
413.365	90.94
413.589	73.94
413.812	72.94
414.035	86.94
414.258	79.94
414.482	82.94
414.705	97.94
414.928	89.94
415.151	79.94
415.374	76.94
415.597	76.94
415.821	80.94
416.044	86.94
416.267	93.94
416.49	73.94
416.713	83.94
416.936	85.94
417.159	80.94
417.382	95.94
417.605	75.94
417.828	87.94
418.051	85.94
418.274	85.94
418.497	81.94
418.72	85.94
418.943	79.94
419.166	78.94
419.389	73.94
419.611	78.94
419.834	92.94
420.057	83.94
420.28	88.94
420.503	77.94
420.726	82.94
420.948	88.94
421.171	87.94
421.394	104.94
421.617	115.94
421.839	106.94
422.062	110.94
422.285	124.94
422.507	211.94
422.73	348.94
422.953	288.94
423.175	164.94
423.398	111.94
423.621	97.94
423.843	88.94
424.066	74.94
424.288	81.94
424.511	98.94
424.733	87.94
424.956	97.94
425.178	93.94
425.401	79.94
425.623	75.94
425.846	92.94
426.068	90.94
426.291	96.94
426.513	94.94
426.735	102.94
426.958	82.94
427.18	96.94
427.402	97.94
427.625	97.94
427.847	77.94
428.069	97.94
428.292	110.94
428.514	118.94
428.736	103.94
428.958	120.94
429.181	103.94
429.403	100.94
429.625	101.94
429.847	104.94
430.069	144.94
430.292	163.94
430.514	155.94
430.736	109.94
430.958	133.94
431.18	106.94
431.402	79.94
431.624	88.94
431.846	118.94
432.068	122.94
432.29	78.94
432.512	84.94
432.734	79.94
432.956	90.94
433.178	87.94
433.4	91.94
433.622	85.94
433.844	81.94
434.066	90.94
434.287	84.94
434.509	81.94
434.731	89.94
434.953	86.94
435.175	82.94
435.397	87.94
435.618	83.94
435.84	85.94
436.062	90.94
436.284	85.94
436.505	80.94
436.727	79.94
436.949	66.94
437.17	86.94
437.392	82.94
437.614	82.94
437.835	80.94
438.057	81.94
438.278	86.94
438.5	78.94
438.721	80.94
438.943	89.94
439.165	77.94
439.386	78.94
439.608	95.94
439.829	83.94
440.05	90.94
440.272	85.94
440.493	85.94
440.715	81.94
440.936	82.94
441.158	87.94
441.379	89.94
441.6	89.94
441.822	87.94
442.043	87.94
442.264	95.94
442.486	108.94
442.707	142.94
442.928	115.94
443.149	117.94
443.371	119.94
443.592	202.94
443.813	190.94
444.034	115.94
444.255	92.94
444.476	78.94
444.698	103.94
444.919	92.94
445.14	177.94
445.361	188.94
445.582	224.94
445.803	199.94
446.024	95.94
446.245	92.94
446.466	78.94
446.687	80.94
446.908	85.94
447.129	67.94
447.35	86.94
447.571	94.94
447.792	77.94
448.013	87.94
448.234	93.94
448.455	84.94
448.675	81.94
448.896	74.94
449.117	81.94
449.338	74.94
449.559	85.94
449.779	72.94
450	80.94
450.221	73.94
450.442	85.94
450.662	84.94
450.883	79.94
451.104	82.94
451.324	70.94
451.545	84.94
451.766	85.94
451.986	82.94
452.207	75.94
452.428	81.94
452.648	100.94
452.869	84.94
453.089	85.94
453.31	85.94
453.53	80.94
453.751	80.94
453.971	81.94
454.192	67.94
454.412	71.94
454.633	81.94
454.853	97.94
455.073	81.94
455.294	72.94
455.514	76.94
455.734	94.94
455.955	86.94
456.175	79.94
456.395	85.94
456.616	88.94
456.836	76.94
457.056	76.94
457.276	74.94
457.497	82.94
457.717	81.94
457.937	98.94
458.157	108.94
458.377	114.94
458.598	88.94
458.818	103.94
459.038	103.94
459.258	74.94
459.478	90.94
459.698	80.94
459.918	90.94
460.138	86.94
460.358	81.94
460.578	97.94
460.798	97.94
461.018	108.94
461.238	84.94
461.458	89.94
461.678	70.94
461.898	70.94
462.118	81.94
462.338	86.94
462.558	89.94
462.777	89.94
462.997	88.94
463.217	77.94
463.437	86.94
463.657	88.94
463.876	86.94
464.096	83.94
464.316	76.94
464.536	83.94
464.755	72.94
464.975	65.94
465.195	92.94
465.414	76.94
465.634	75.94
465.854	74.94
466.073	92.94
466.293	76.94
466.512	74.94
466.732	90.94
466.951	77.94
467.171	79.94
467.391	71.94
467.61	92.94
467.829	77.94
468.049	88.94
468.268	89.94
468.488	82.94
468.707	80.94
468.927	74.94
469.146	75.94
469.365	92.94
469.585	92.94
469.804	87.94
470.023	76.94
470.243	79.94
470.462	74.94
470.681	78.94
470.901	80.94
471.12	77.94
471.339	68.94
471.558	78.94
471.777	88.94
471.997	77.94
472.216	82.94
472.435	82.94
472.654	85.94
472.873	84.94
473.092	77.94
473.311	85.94
473.53	80.94
473.749	89.94
473.968	96.94
474.187	75.94
474.406	85.94
474.625	88.94
474.844	80.94
475.063	79.94
475.282	80.94
475.501	78.94
475.72	82.94
475.939	88.94
476.158	76.94
476.377	83.94
476.596	72.94
476.814	89.94
477.033	95.94
477.252	81.94
477.471	88.94
477.69	73.94
477.908	108.94
478.127	92.94
478.346	82.94
478.564	96.94
478.783	73.94
479.002	90.94
479.22	79.94
479.439	70.94
479.658	72.94
479.876	85.94
480.095	67.94
480.313	73.94
480.532	81.94
480.751	88.94
480.969	88.94
481.188	88.94
481.406	92.94
481.624	81.94
481.843	98.94
482.061	85.94
482.28	78.94
482.498	75.94
482.717	93.94
482.935	83.94
483.153	77.94
483.372	87.94
483.59	80.94
483.808	78.94
484.027	73.94
484.245	88.94
484.463	88.94
484.681	88.94
484.9	98.94
485.118	84.94
485.336	73.94
485.554	92.94
485.772	88.94
485.99	76.94
486.209	72.94
486.427	88.94
486.645	81.94
486.863	95.94
487.081	82.94
487.299	97.94
487.517	89.94
487.735	101.94
487.953	148.94
488.171	113.94
488.389	84.94
488.607	76.94
488.825	85.94
489.043	93.94
489.261	73.94
489.479	95.94
489.696	87.94
489.914	74.94
490.132	94.94
490.35	85.94
490.568	81.94
490.786	103.94
491.003	90.94
491.221	74.94
491.439	80.94
491.657	88.94
491.874	79.94
492.092	87.94
492.31	96.94
492.527	95.94
492.745	80.94
492.963	83.94
493.18	79.94
493.398	86.94
493.615	93.94
493.833	90.94
494.05	85.94
494.268	92.94
494.485	82.94
494.703	71.94
494.92	89.94
495.138	85.94
495.355	94.94
495.573	88.94
495.79	74.94
496.008	68.94
496.225	78.94
496.442	87.94
496.66	88.94
496.877	87.94
497.094	102.94
497.312	70.94
497.529	93.94
497.746	84.94
497.963	84.94
498.181	87.94
498.398	70.94
498.615	93.94
498.832	87.94
499.049	93.94
499.267	65.94
499.484	74.94
499.701	88.94
499.918	88.94
500.135	86.94
500.352	78.94
500.569	77.94
500.786	83.94
501.003	92.94
501.22	75.94
501.437	96.94
501.654	96.94
501.871	88.94
502.088	65.94
502.305	88.94
502.522	89.94
502.739	88.94
502.956	87.94
503.172	89.94
503.389	74.94
503.606	86.94
503.823	85.94
504.04	103.94
504.256	86.94
504.473	120.94
504.69	84.94
504.907	98.94
505.123	85.94
505.34	93.94
505.557	87.94
505.773	87.94
505.99	85.94
506.207	80.94
506.423	83.94
506.64	83.94
506.856	92.94
507.073	81.94
507.289	84.94
507.506	84.94
507.722	82.94
507.939	89.94
508.155	66.94
508.372	78.94
508.588	87.94
508.805	78.94
509.021	98.94
509.238	90.94
509.454	77.94
509.67	93.94
509.887	80.94
510.103	86.94
510.319	80.94
510.536	101.94
510.752	86.94
510.968	93.94
511.184	74.94
511.401	82.94
511.617	94.94
511.833	77.94
512.049	74.94
512.265	86.94
512.481	78.94
512.698	85.94
512.914	108.94
513.13	85.94
513.346	74.94
513.562	72.94
513.778	82.94
513.994	81.94
514.21	68.94
514.426	80.94
514.642	92.94
514.858	93.94
515.074	78.94
515.29	75.94
515.506	83.94
515.721	69.94
515.937	80.94
516.153	73.94
516.369	84.94
516.585	84.94
516.801	86.94
517.016	83.94
517.232	82.94
517.448	92.94
517.664	90.94
517.879	81.94
518.095	101.94
518.311	76.94
518.527	96.94
518.742	103.94
518.958	141.94
