Data from 18505_1_HRD10591_00044.txt Node
Date: Mon Jan 19 13:58:53 EST 2026
User: Yrep
Spectrometer: HR+D1059
Trigger mode: 1
Integration Time (sec): 1.000000E-1
Scans to average: 1
Electric dark correction enabled: true
Nonlinearity correction enabled: false
Boxcar width: 0
XAxis mode: Wavelengths
Number of Pixels in Spectrum: 2048
>>>>>Begin Spectral Data<<<<<
223.165	-16.5
223.4	-16.5
223.635	-16.5
223.869	-18.5
224.104	-19.5
224.338	-26.5
224.573	-18.5
224.808	-18.5
225.042	1.5
225.277	-3.5
225.511	-10.5
225.746	16.5
225.98	8.5
226.215	14.5
226.449	19.5
226.683	17.5
226.918	30.5
227.152	23.5
227.387	34.5
227.621	37.5
227.856	54.5
228.09	53.5
228.324	55.5
228.559	56.5
228.793	55.5
229.027	68.5
229.262	56.5
229.496	60.5
229.73	72.5
229.964	58.5
230.199	65.5
230.433	77.5
230.667	76.5
230.901	85.5
231.136	86.5
231.37	80.5
231.604	76.5
231.838	72.5
232.072	85.5
232.306	91.5
232.541	78.5
232.775	79.5
233.009	79.5
233.243	81.5
233.477	91.5
233.711	85.5
233.945	78.5
234.179	86.5
234.413	77.5
234.647	87.5
234.881	94.5
235.115	93.5
235.349	77.5
235.583	81.5
235.817	79.5
236.051	72.5
236.285	77.5
236.519	77.5
236.753	75.5
236.987	77.5
237.221	76.5
237.455	78.5
237.689	79.5
237.922	73.5
238.156	65.5
238.39	79.5
238.624	75.5
238.858	82.5
239.091	84.5
239.325	73.5
239.559	65.5
239.793	86.5
240.027	80.5
240.26	72.5
240.494	75.5
240.728	91.5
240.961	70.5
241.195	77.5
241.429	72.5
241.662	70.5
241.896	88.5
242.13	88.5
242.363	66.5
242.597	83.5
242.83	94.5
243.064	87.5
243.298	74.5
243.531	65.5
243.765	73.5
243.998	78.5
244.232	69.5
244.465	68.5
244.699	77.5
244.932	84.5
245.166	73.5
245.399	83.5
245.633	77.5
245.866	74.5
246.099	78.5
246.333	74.5
246.566	73.5
246.8	73.5
247.033	76.5
247.266	94.5
247.5	71.5
247.733	72.5
247.966	79.5
248.2	90.5
248.433	83.5
248.666	82.5
248.899	70.5
249.133	76.5
249.366	93.5
249.599	84.5
249.832	81.5
250.066	78.5
250.299	76.5
250.532	70.5
250.765	83.5
250.998	80.5
251.231	78.5
251.465	79.5
251.698	81.5
251.931	76.5
252.164	68.5
252.397	79.5
252.63	76.5
252.863	87.5
253.096	62.5
253.329	88.5
253.562	80.5
253.795	79.5
254.028	79.5
254.261	73.5
254.494	88.5
254.727	85.5
254.96	70.5
255.193	86.5
255.426	78.5
255.659	79.5
255.892	88.5
256.124	72.5
256.357	89.5
256.59	89.5
256.823	77.5
257.056	80.5
257.289	86.5
257.521	76.5
257.754	72.5
257.987	77.5
258.22	81.5
258.452	87.5
258.685	70.5
258.918	74.5
259.151	77.5
259.383	86.5
259.616	64.5
259.849	80.5
260.081	86.5
260.314	81.5
260.547	83.5
260.779	71.5
261.012	85.5
261.244	67.5
261.477	96.5
261.71	78.5
261.942	71.5
262.175	95.5
262.407	75.5
262.64	81.5
262.872	84.5
263.105	85.5
263.337	79.5
263.57	88.5
263.802	81.5
264.035	73.5
264.267	88.5
264.499	88.5
264.732	91.5
264.964	84.5
265.197	94.5
265.429	62.5
265.661	74.5
265.894	92.5
266.126	85.5
266.358	81.5
266.591	68.5
266.823	78.5
267.055	77.5
267.287	84.5
267.52	85.5
267.752	75.5
267.984	95.5
268.216	71.5
268.448	81.5
268.681	79.5
268.913	84.5
269.145	80.5
269.377	76.5
269.609	80.5
269.841	80.5
270.073	70.5
270.306	91.5
270.538	85.5
270.77	75.5
271.002	85.5
271.234	87.5
271.466	72.5
271.698	71.5
271.93	70.5
272.162	87.5
272.394	87.5
272.626	90.5
272.858	84.5
273.09	86.5
273.322	93.5
273.553	88.5
273.785	88.5
274.017	80.5
274.249	72.5
274.481	87.5
274.713	71.5
274.945	86.5
275.176	78.5
275.408	81.5
275.64	86.5
275.872	71.5
276.104	83.5
276.335	74.5
276.567	83.5
276.799	68.5
277.031	69.5
277.262	89.5
277.494	92.5
277.726	79.5
277.957	91.5
278.189	85.5
278.421	63.5
278.652	89.5
278.884	95.5
279.115	73.5
279.347	87.5
279.579	95.5
279.81	81.5
280.042	93.5
280.273	81.5
280.505	79.5
280.736	84.5
280.968	75.5
281.199	79.5
281.431	91.5
281.662	72.5
281.894	79.5
282.125	84.5
282.356	97.5
282.588	78.5
282.819	78.5
283.051	83.5
283.282	82.5
283.513	85.5
283.745	71.5
283.976	74.5
284.207	88.5
284.439	84.5
284.67	75.5
284.901	87.5
285.132	69.5
285.364	81.5
285.595	80.5
285.826	91.5
286.057	79.5
286.288	89.5
286.52	70.5
286.751	82.5
286.982	91.5
287.213	71.5
287.444	83.5
287.675	73.5
287.906	80.5
288.138	82.5
288.369	80.5
288.6	88.5
288.831	79.5
289.062	80.5
289.293	85.5
289.524	89.5
289.755	98.5
289.986	83.5
290.217	88.5
290.448	84.5
290.679	80.5
290.91	78.5
291.141	81.5
291.371	87.5
291.602	81.5
291.833	76.5
292.064	81.5
292.295	91.5
292.526	84.5
292.757	76.5
292.987	80.5
293.218	78.5
293.449	79.5
293.68	69.5
293.91	85.5
294.141	73.5
294.372	86.5
294.603	98.5
294.833	83.5
295.064	71.5
295.295	83.5
295.525	80.5
295.756	74.5
295.987	76.5
296.217	83.5
296.448	82.5
296.679	85.5
296.909	95.5
297.14	76.5
297.37	85.5
297.601	81.5
297.831	77.5
298.062	86.5
298.292	73.5
298.523	93.5
298.753	86.5
298.984	94.5
299.214	93.5
299.445	81.5
299.675	80.5
299.905	72.5
300.136	70.5
300.366	80.5
300.597	95.5
300.827	70.5
301.057	84.5
301.288	77.5
301.518	89.5
301.748	68.5
301.979	81.5
302.209	83.5
302.439	79.5
302.669	89.5
302.9	86.5
303.13	83.5
303.36	85.5
303.59	82.5
303.82	86.5
304.051	72.5
304.281	81.5
304.511	77.5
304.741	73.5
304.971	86.5
305.201	88.5
305.431	88.5
305.661	83.5
305.891	81.5
306.121	83.5
306.352	73.5
306.582	88.5
306.812	74.5
307.042	88.5
307.272	81.5
307.502	69.5
307.731	93.5
307.961	83.5
308.191	84.5
308.421	84.5
308.651	84.5
308.881	82.5
309.111	80.5
309.341	92.5
309.571	94.5
309.8	81.5
310.03	60.5
310.26	78.5
310.49	79.5
310.72	70.5
310.949	86.5
311.179	79.5
311.409	83.5
311.639	89.5
311.868	72.5
312.098	79.5
312.328	97.5
312.557	85.5
312.787	80.5
313.017	76.5
313.246	76.5
313.476	88.5
313.706	89.5
313.935	75.5
314.165	76.5
314.394	73.5
314.624	76.5
314.853	82.5
315.083	89.5
315.312	80.5
315.542	77.5
315.771	89.5
316.001	80.5
316.23	72.5
316.46	73.5
316.689	67.5
316.919	73.5
317.148	95.5
317.377	91.5
317.607	87.5
317.836	85.5
318.065	89.5
318.295	81.5
318.524	82.5
318.753	89.5
318.983	86.5
319.212	98.5
319.441	78.5
319.67	68.5
319.9	68.5
320.129	76.5
320.358	74.5
320.587	71.5
320.816	88.5
321.046	73.5
321.275	105.5
321.504	85.5
321.733	89.5
321.962	85.5
322.191	102.5
322.42	76.5
322.649	82.5
322.878	83.5
323.108	83.5
323.337	76.5
323.566	79.5
323.795	79.5
324.024	79.5
324.253	72.5
324.482	85.5
324.71	76.5
324.939	74.5
325.168	76.5
325.397	92.5
325.626	79.5
325.855	73.5
326.084	82.5
326.313	87.5
326.542	82.5
326.77	68.5
326.999	85.5
327.228	87.5
327.457	68.5
327.686	89.5
327.914	76.5
328.143	90.5
328.372	78.5
328.6	79.5
328.829	65.5
329.058	74.5
329.287	81.5
329.515	85.5
329.744	73.5
329.972	91.5
330.201	89.5
330.43	89.5
330.658	85.5
330.887	69.5
331.115	80.5
331.344	81.5
331.572	76.5
331.801	73.5
332.03	84.5
332.258	87.5
332.486	79.5
332.715	84.5
332.943	70.5
333.172	80.5
333.4	85.5
333.629	81.5
333.857	90.5
334.085	79.5
334.314	87.5
334.542	83.5
334.771	80.5
334.999	104.5
335.227	69.5
335.455	86.5
335.684	84.5
335.912	81.5
336.14	79.5
336.369	82.5
336.597	106.5
336.825	77.5
337.053	78.5
337.281	86.5
337.51	78.5
337.738	80.5
337.966	68.5
338.194	73.5
338.422	75.5
338.65	71.5
338.878	77.5
339.106	82.5
339.334	91.5
339.562	72.5
339.79	81.5
340.018	86.5
340.246	83.5
340.474	85.5
340.702	77.5
340.93	72.5
341.158	89.5
341.386	76.5
341.614	87.5
341.842	78.5
342.07	90.5
342.298	94.5
342.526	80.5
342.754	73.5
342.981	81.5
343.209	76.5
343.437	85.5
343.665	76.5
343.893	96.5
344.12	83.5
344.348	85.5
344.576	85.5
344.804	95.5
345.031	68.5
345.259	87.5
345.487	63.5
345.714	73.5
345.942	83.5
346.17	92.5
346.397	79.5
346.625	87.5
346.853	72.5
347.08	77.5
347.308	91.5
347.535	78.5
347.763	76.5
347.99	78.5
348.218	86.5
348.445	93.5
348.673	77.5
348.9	77.5
349.128	91.5
349.355	83.5
349.583	68.5
349.81	79.5
350.037	67.5
350.265	92.5
350.492	87.5
350.72	82.5
350.947	77.5
351.174	87.5
351.402	77.5
351.629	85.5
351.856	87.5
352.083	72.5
352.311	79.5
352.538	83.5
352.765	93.5
352.992	72.5
353.22	74.5
353.447	83.5
353.674	51.5
353.901	87.5
354.128	79.5
354.355	70.5
354.583	84.5
354.81	85.5
355.037	76.5
355.264	81.5
355.491	97.5
355.718	102.5
355.945	87.5
356.172	80.5
356.399	84.5
356.626	73.5
356.853	90.5
357.08	83.5
357.307	85.5
357.534	84.5
357.761	82.5
357.988	90.5
358.215	81.5
358.441	89.5
358.668	79.5
358.895	97.5
359.122	88.5
359.349	84.5
359.576	67.5
359.802	86.5
360.029	67.5
360.256	81.5
360.483	69.5
360.709	93.5
360.936	88.5
361.163	72.5
361.39	93.5
361.616	79.5
361.843	83.5
362.07	81.5
362.296	73.5
362.523	76.5
362.749	76.5
362.976	74.5
363.203	78.5
363.429	88.5
363.656	88.5
363.882	64.5
364.109	75.5
364.335	87.5
364.562	85.5
364.788	89.5
365.015	84.5
365.241	84.5
365.468	74.5
365.694	89.5
365.92	74.5
366.147	70.5
366.373	84.5
366.599	75.5
366.826	77.5
367.052	87.5
367.278	79.5
367.505	78.5
367.731	85.5
367.957	87.5
368.184	97.5
368.41	63.5
368.636	87.5
368.862	78.5
369.089	98.5
369.315	89.5
369.541	80.5
369.767	63.5
369.993	88.5
370.219	91.5
370.445	87.5
370.672	91.5
370.898	76.5
371.124	91.5
371.35	80.5
371.576	79.5
371.802	75.5
372.028	94.5
372.254	80.5
372.48	70.5
372.706	68.5
372.932	82.5
373.158	78.5
373.384	100.5
373.61	83.5
373.835	88.5
374.061	79.5
374.287	78.5
374.513	84.5
374.739	66.5
374.965	79.5
375.191	78.5
375.416	72.5
375.642	85.5
375.868	99.5
376.094	81.5
376.319	85.5
376.545	72.5
376.771	67.5
376.997	74.5
377.222	77.5
377.448	94.5
377.674	97.5
377.899	83.5
378.125	89.5
378.35	82.5
378.576	81.5
378.802	95.5
379.027	76.5
379.253	70.5
379.478	79.5
379.704	91.5
379.929	63.5
380.155	64.5
380.38	86.5
380.606	73.5
380.831	77.5
381.057	84.5
381.282	78.5
381.507	78.5
381.733	91.5
381.958	78.5
382.184	91.5
382.409	82.5
382.634	92.5
382.86	80.5
383.085	92.5
383.31	78.5
383.535	85.5
383.761	68.5
383.986	96.5
384.211	74.5
384.436	79.5
384.662	68.5
384.887	65.5
385.112	85.5
385.337	80.5
385.562	86.5
385.787	100.5
386.013	86.5
386.238	92.5
386.463	67.5
386.688	84.5
386.913	87.5
387.138	74.5
387.363	82.5
387.588	80.5
387.813	77.5
388.038	84.5
388.263	85.5
388.488	84.5
388.713	77.5
388.938	84.5
389.163	86.5
389.387	72.5
389.612	77.5
389.837	78.5
390.062	78.5
390.287	79.5
390.512	71.5
390.736	74.5
390.961	84.5
391.186	85.5
391.411	79.5
391.636	75.5
391.86	81.5
392.085	87.5
392.31	85.5
392.534	81.5
392.759	75.5
392.984	108.5
393.208	144.5
393.433	216.5
393.658	173.5
393.882	100.5
394.107	93.5
394.331	77.5
394.556	81.5
394.78	83.5
395.005	85.5
395.229	70.5
395.454	94.5
395.678	87.5
395.903	85.5
396.127	91.5
396.352	97.5
396.576	116.5
396.801	159.5
397.025	173.5
397.249	107.5
397.474	71.5
397.698	83.5
397.922	83.5
398.147	79.5
398.371	73.5
398.595	71.5
398.82	71.5
399.044	75.5
399.268	93.5
399.492	81.5
399.717	85.5
399.941	85.5
400.165	80.5
400.389	79.5
400.613	72.5
400.837	71.5
401.062	93.5
401.286	74.5
401.51	85.5
401.734	77.5
401.958	71.5
402.182	77.5
402.406	86.5
402.63	77.5
402.854	85.5
403.078	87.5
403.302	65.5
403.526	85.5
403.75	80.5
403.974	77.5
404.198	80.5
404.422	81.5
404.645	73.5
404.869	88.5
405.093	70.5
405.317	76.5
405.541	69.5
405.765	72.5
405.988	92.5
406.212	67.5
406.436	78.5
406.66	98.5
406.883	89.5
407.107	78.5
407.331	85.5
407.555	91.5
407.778	101.5
408.002	91.5
408.226	76.5
408.449	84.5
408.673	81.5
408.896	81.5
409.12	80.5
409.344	93.5
409.567	90.5
409.791	73.5
410.014	77.5
410.238	72.5
410.461	71.5
410.685	82.5
410.908	88.5
411.132	78.5
411.355	94.5
411.578	87.5
411.802	86.5
412.025	73.5
412.249	94.5
412.472	81.5
412.695	78.5
412.919	81.5
413.142	69.5
413.365	73.5
413.589	96.5
413.812	84.5
414.035	85.5
414.258	72.5
414.482	85.5
414.705	70.5
414.928	77.5
415.151	87.5
415.374	74.5
415.597	76.5
415.821	77.5
416.044	79.5
416.267	71.5
416.49	62.5
416.713	70.5
416.936	70.5
417.159	90.5
417.382	83.5
417.605	65.5
417.828	81.5
418.051	76.5
418.274	85.5
418.497	79.5
418.72	79.5
418.943	72.5
419.166	78.5
419.389	88.5
419.611	69.5
419.834	75.5
420.057	76.5
420.28	70.5
420.503	91.5
420.726	70.5
420.948	88.5
421.171	88.5
421.394	92.5
421.617	95.5
421.839	87.5
422.062	82.5
422.285	94.5
422.507	124.5
422.73	191.5
422.953	172.5
423.175	97.5
423.398	70.5
423.621	86.5
423.843	77.5
424.066	75.5
424.288	90.5
424.511	86.5
424.733	65.5
424.956	87.5
425.178	77.5
425.401	67.5
425.623	84.5
425.846	102.5
426.068	81.5
426.291	83.5
426.513	79.5
426.735	80.5
426.958	87.5
427.18	78.5
427.402	78.5
427.625	73.5
427.847	77.5
428.069	88.5
428.292	91.5
428.514	92.5
428.736	86.5
428.958	97.5
429.181	83.5
429.403	78.5
429.625	75.5
429.847	83.5
430.069	97.5
430.292	113.5
430.514	103.5
430.736	87.5
430.958	98.5
431.18	88.5
431.402	79.5
431.624	88.5
431.846	81.5
432.068	91.5
432.29	85.5
432.512	86.5
432.734	78.5
432.956	73.5
433.178	92.5
433.4	80.5
433.622	89.5
433.844	88.5
434.066	85.5
434.287	83.5
434.509	80.5
434.731	85.5
434.953	91.5
435.175	86.5
435.397	83.5
435.618	63.5
435.84	91.5
436.062	74.5
436.284	74.5
436.505	76.5
436.727	77.5
436.949	99.5
437.17	81.5
437.392	98.5
437.614	78.5
437.835	70.5
438.057	78.5
438.278	83.5
438.5	69.5
438.721	84.5
438.943	85.5
439.165	93.5
439.386	78.5
439.608	79.5
439.829	74.5
440.05	74.5
440.272	79.5
440.493	87.5
440.715	70.5
440.936	79.5
441.158	85.5
441.379	72.5
441.6	91.5
441.822	69.5
442.043	80.5
442.264	70.5
442.486	80.5
442.707	92.5
442.928	83.5
443.149	94.5
443.371	88.5
443.592	109.5
443.813	98.5
444.034	84.5
444.255	84.5
444.476	91.5
444.698	92.5
444.919	90.5
445.14	155.5
445.361	136.5
445.582	117.5
445.803	109.5
446.024	77.5
446.245	77.5
446.466	71.5
446.687	95.5
446.908	94.5
447.129	82.5
447.35	71.5
447.571	88.5
447.792	71.5
448.013	84.5
448.234	70.5
448.455	86.5
448.675	91.5
448.896	79.5
449.117	82.5
449.338	74.5
449.559	74.5
449.779	83.5
450	85.5
450.221	80.5
450.442	85.5
450.662	82.5
450.883	86.5
451.104	83.5
451.324	81.5
451.545	84.5
451.766	82.5
451.986	87.5
452.207	79.5
452.428	89.5
452.648	65.5
452.869	83.5
453.089	77.5
453.31	87.5
453.53	79.5
453.751	89.5
453.971	82.5
454.192	80.5
454.412	74.5
454.633	73.5
454.853	96.5
455.073	83.5
455.294	71.5
455.514	76.5
455.734	79.5
455.955	87.5
456.175	79.5
456.395	86.5
456.616	86.5
456.836	98.5
457.056	82.5
457.276	70.5
457.497	81.5
457.717	78.5
457.937	76.5
458.157	80.5
458.377	82.5
458.598	91.5
458.818	83.5
459.038	72.5
459.258	87.5
459.478	87.5
459.698	81.5
459.918	80.5
460.138	79.5
460.358	74.5
460.578	94.5
460.798	105.5
461.018	94.5
461.238	79.5
461.458	78.5
461.678	71.5
461.898	77.5
462.118	85.5
462.338	83.5
462.558	97.5
462.777	88.5
462.997	81.5
463.217	74.5
463.437	82.5
463.657	76.5
463.876	74.5
464.096	85.5
464.316	89.5
464.536	92.5
464.755	79.5
464.975	68.5
465.195	76.5
465.414	79.5
465.634	79.5
465.854	74.5
466.073	77.5
466.293	88.5
466.512	77.5
466.732	97.5
466.951	80.5
467.171	87.5
467.391	83.5
467.61	79.5
467.829	83.5
468.049	87.5
468.268	86.5
468.488	101.5
468.707	89.5
468.927	86.5
469.146	76.5
469.365	76.5
469.585	80.5
469.804	88.5
470.023	80.5
470.243	87.5
470.462	73.5
470.681	86.5
470.901	73.5
471.12	90.5
471.339	85.5
471.558	79.5
471.777	82.5
471.997	80.5
472.216	89.5
472.435	94.5
472.654	97.5
472.873	89.5
473.092	82.5
473.311	75.5
473.53	75.5
473.749	83.5
473.968	86.5
474.187	95.5
474.406	87.5
474.625	87.5
474.844	91.5
475.063	76.5
475.282	92.5
475.501	77.5
475.72	92.5
475.939	65.5
476.158	83.5
476.377	92.5
476.596	74.5
476.814	83.5
477.033	99.5
477.252	90.5
477.471	80.5
477.69	91.5
477.908	85.5
478.127	84.5
478.346	74.5
478.564	86.5
478.783	85.5
479.002	79.5
479.22	95.5
479.439	89.5
479.658	83.5
479.876	78.5
480.095	86.5
480.313	73.5
480.532	70.5
480.751	84.5
480.969	100.5
481.188	86.5
481.406	86.5
481.624	79.5
481.843	81.5
482.061	77.5
482.28	70.5
482.498	81.5
482.717	77.5
482.935	90.5
483.153	89.5
483.372	93.5
483.59	96.5
483.808	92.5
484.027	95.5
484.245	94.5
484.463	82.5
484.681	96.5
484.9	88.5
485.118	72.5
485.336	76.5
485.554	87.5
485.772	72.5
485.99	85.5
486.209	97.5
486.427	70.5
486.645	85.5
486.863	77.5
487.081	74.5
487.299	83.5
487.517	91.5
487.735	90.5
487.953	94.5
488.171	84.5
488.389	83.5
488.607	84.5
488.825	73.5
489.043	77.5
489.261	80.5
489.479	88.5
489.696	88.5
489.914	74.5
490.132	67.5
490.35	80.5
490.568	73.5
490.786	68.5
491.003	83.5
491.221	78.5
491.439	85.5
491.657	91.5
491.874	92.5
492.092	84.5
492.31	99.5
492.527	84.5
492.745	82.5
492.963	77.5
493.18	81.5
493.398	93.5
493.615	91.5
493.833	97.5
494.05	98.5
494.268	80.5
494.485	88.5
494.703	62.5
494.92	83.5
495.138	80.5
495.355	87.5
495.573	85.5
495.79	83.5
496.008	76.5
496.225	83.5
496.442	82.5
496.66	78.5
496.877	90.5
497.094	87.5
497.312	80.5
497.529	83.5
497.746	77.5
497.963	85.5
498.181	95.5
498.398	87.5
498.615	79.5
498.832	86.5
499.049	91.5
499.267	79.5
499.484	69.5
499.701	74.5
499.918	83.5
500.135	64.5
500.352	83.5
500.569	84.5
500.786	86.5
501.003	77.5
501.22	83.5
501.437	89.5
501.654	80.5
501.871	80.5
502.088	79.5
502.305	87.5
502.522	87.5
502.739	72.5
502.956	86.5
503.172	90.5
503.389	81.5
503.606	85.5
503.823	68.5
504.04	104.5
504.256	92.5
504.473	95.5
504.69	74.5
504.907	97.5
505.123	92.5
505.34	84.5
505.557	97.5
505.773	85.5
505.99	70.5
506.207	83.5
506.423	97.5
506.64	78.5
506.856	91.5
507.073	84.5
507.289	81.5
507.506	68.5
507.722	80.5
507.939	81.5
508.155	87.5
508.372	89.5
508.588	86.5
508.805	87.5
509.021	84.5
509.238	84.5
509.454	84.5
509.67	80.5
509.887	77.5
510.103	88.5
510.319	94.5
510.536	91.5
510.752	87.5
510.968	79.5
511.184	78.5
511.401	87.5
511.617	79.5
511.833	76.5
512.049	65.5
512.265	72.5
512.481	85.5
512.698	89.5
512.914	80.5
513.13	95.5
513.346	81.5
513.562	93.5
513.778	101.5
513.994	83.5
514.21	67.5
514.426	88.5
514.642	83.5
514.858	75.5
515.074	83.5
515.29	98.5
515.506	82.5
515.721	75.5
515.937	99.5
516.153	78.5
516.369	79.5
516.585	86.5
516.801	95.5
517.016	94.5
517.232	84.5
517.448	78.5
517.664	83.5
517.879	75.5
518.095	84.5
518.311	80.5
518.527	81.5
518.742	92.5
518.958	89.5
519.173	94.5
519.389	73.5
519.605	89.5
519.82	86.5
520.036	81.5
520.251	69.5
520.467	81.5
520.682	81.5
520.898	82.5
521.113	88.5
521.329	84.5
521.544	86.5
521.76	95.5
521.975	86.5
522.19	92.5
522.406	96.5
522.621	79.5
522.836	87.5
523.052	85.5
523.267	71.5
523.482	81.5
523.698	79.5
523.913	93.5
524.128	83.5
524.343	85.5
524.559	97.5
524.774	99.5
524.989	88.5
525.204	70.5
525.419	84.5
525.634	78.5
525.849	83.5
526.064	85.5
526.28	106.5
526.495	109.5
526.71	118.5
526.925	109.5
527.14	119.5
527.355	110.5
527.57	87.5
527.785	81.5
527.999	73.5
528.214	72.5
528.429	76.5
528.644	80.5
528.859	99.5
529.074	79.5
529.289	84.5
529.503	86.5
529.718	101.5
529.933	79.5
530.148	72.5
530.363	81.5
530.577	83.5
530.792	76.5
531.007	71.5
531.221	83.5
531.436	76.5
531.651	90.5
531.865	88.5
532.08	83.5
532.295	95.5
532.509	90.5
532.724	76.5
532.938	56.5
533.153	80.5
533.367	85.5
533.582	80.5
533.796	83.5
534.011	89.5
534.225	96.5
534.44	92.5
534.654	73.5
534.868	86.5
535.083	100.5
535.297	97.5
535.511	86.5
535.726	91.5
535.94	89.5
536.154	82.5
536.369	83.5
536.583	87.5
536.797	78.5
537.011	83.5
537.225	81.5
537.44	78.5
537.654	94.5
537.868	80.5
538.082	79.5
538.296	76.5
538.51	86.5
538.724	93.5
538.938	87.5
539.153	96.5
539.367	90.5
539.581	72.5
539.795	75.5
540.009	90.5
