Data from 18505_1_HRD10591_00050.txt Node
Date: Mon Jan 19 13:58:56 EST 2026
User: Yrep
Spectrometer: HR+D1059
Trigger mode: 1
Integration Time (sec): 1.000000E-1
Scans to average: 1
Electric dark correction enabled: true
Nonlinearity correction enabled: false
Boxcar width: 0
XAxis mode: Wavelengths
Number of Pixels in Spectrum: 2048
>>>>>Begin Spectral Data<<<<<
223.165	-16.5
223.4	-16.5
223.635	-16.5
223.869	-21.5
224.104	-16.5
224.338	-19.5
224.573	0.5
224.808	-5.5
225.042	-1.5
225.277	-10.5
225.511	-7.5
225.746	6.5
225.98	16.5
226.215	2.5
226.449	13.5
226.683	14.5
226.918	23.5
227.152	21.5
227.387	37.5
227.621	39.5
227.856	48.5
228.09	51.5
228.324	38.5
228.559	60.5
228.793	57.5
229.027	68.5
229.262	56.5
229.496	50.5
229.73	76.5
229.964	63.5
230.199	72.5
230.433	62.5
230.667	67.5
230.901	83.5
231.136	63.5
231.37	79.5
231.604	68.5
231.838	76.5
232.072	88.5
232.306	73.5
232.541	70.5
232.775	75.5
233.009	70.5
233.243	80.5
233.477	83.5
233.711	86.5
233.945	70.5
234.179	80.5
234.413	90.5
234.647	74.5
234.881	86.5
235.115	75.5
235.349	70.5
235.583	72.5
235.817	88.5
236.051	72.5
236.285	64.5
236.519	76.5
236.753	69.5
236.987	87.5
237.221	74.5
237.455	83.5
237.689	76.5
237.922	80.5
238.156	70.5
238.39	65.5
238.624	56.5
238.858	75.5
239.091	72.5
239.325	71.5
239.559	74.5
239.793	70.5
240.027	87.5
240.26	80.5
240.494	75.5
240.728	82.5
240.961	62.5
241.195	79.5
241.429	63.5
241.662	67.5
241.896	79.5
242.13	86.5
242.363	76.5
242.597	78.5
242.83	92.5
243.064	87.5
243.298	79.5
243.531	71.5
243.765	71.5
243.998	80.5
244.232	76.5
244.465	67.5
244.699	84.5
244.932	77.5
245.166	65.5
245.399	82.5
245.633	69.5
245.866	78.5
246.099	78.5
246.333	66.5
246.566	73.5
246.8	72.5
247.033	74.5
247.266	86.5
247.5	88.5
247.733	93.5
247.966	71.5
248.2	71.5
248.433	65.5
248.666	73.5
248.899	88.5
249.133	82.5
249.366	78.5
249.599	78.5
249.832	68.5
250.066	84.5
250.299	82.5
250.532	92.5
250.765	83.5
250.998	61.5
251.231	78.5
251.465	78.5
251.698	82.5
251.931	80.5
252.164	67.5
252.397	80.5
252.63	64.5
252.863	79.5
253.096	69.5
253.329	81.5
253.562	72.5
253.795	82.5
254.028	74.5
254.261	86.5
254.494	73.5
254.727	91.5
254.96	89.5
255.193	76.5
255.426	71.5
255.659	76.5
255.892	68.5
256.124	72.5
256.357	90.5
256.59	64.5
256.823	70.5
257.056	75.5
257.289	72.5
257.521	88.5
257.754	76.5
257.987	82.5
258.22	94.5
258.452	91.5
258.685	89.5
258.918	68.5
259.151	71.5
259.383	82.5
259.616	74.5
259.849	76.5
260.081	78.5
260.314	84.5
260.547	72.5
260.779	80.5
261.012	96.5
261.244	78.5
261.477	90.5
261.71	82.5
261.942	79.5
262.175	92.5
262.407	76.5
262.64	95.5
262.872	87.5
263.105	80.5
263.337	68.5
263.57	84.5
263.802	89.5
264.035	73.5
264.267	88.5
264.499	77.5
264.732	78.5
264.964	88.5
265.197	85.5
265.429	86.5
265.661	84.5
265.894	85.5
266.126	78.5
266.358	78.5
266.591	90.5
266.823	80.5
267.055	85.5
267.287	70.5
267.52	87.5
267.752	86.5
267.984	87.5
268.216	84.5
268.448	91.5
268.681	87.5
268.913	74.5
269.145	78.5
269.377	73.5
269.609	74.5
269.841	88.5
270.073	81.5
270.306	88.5
270.538	81.5
270.77	81.5
271.002	70.5
271.234	73.5
271.466	86.5
271.698	66.5
271.93	95.5
272.162	82.5
272.394	72.5
272.626	87.5
272.858	94.5
273.09	75.5
273.322	71.5
273.553	82.5
273.785	78.5
274.017	75.5
274.249	78.5
274.481	84.5
274.713	76.5
274.945	79.5
275.176	61.5
275.408	84.5
275.64	78.5
275.872	75.5
276.104	66.5
276.335	73.5
276.567	71.5
276.799	84.5
277.031	82.5
277.262	98.5
277.494	78.5
277.726	87.5
277.957	85.5
278.189	79.5
278.421	77.5
278.652	86.5
278.884	81.5
279.115	82.5
279.347	90.5
279.579	71.5
279.81	80.5
280.042	85.5
280.273	74.5
280.505	82.5
280.736	68.5
280.968	78.5
281.199	95.5
281.431	85.5
281.662	70.5
281.894	80.5
282.125	93.5
282.356	84.5
282.588	84.5
282.819	75.5
283.051	85.5
283.282	67.5
283.513	82.5
283.745	71.5
283.976	81.5
284.207	74.5
284.439	90.5
284.67	91.5
284.901	82.5
285.132	76.5
285.364	91.5
285.595	78.5
285.826	73.5
286.057	87.5
286.288	79.5
286.52	92.5
286.751	77.5
286.982	91.5
287.213	85.5
287.444	88.5
287.675	73.5
287.906	98.5
288.138	78.5
288.369	83.5
288.6	93.5
288.831	93.5
289.062	85.5
289.293	73.5
289.524	64.5
289.755	76.5
289.986	84.5
290.217	75.5
290.448	106.5
290.679	82.5
290.91	74.5
291.141	86.5
291.371	78.5
291.602	71.5
291.833	94.5
292.064	81.5
292.295	81.5
292.526	72.5
292.757	82.5
292.987	78.5
293.218	83.5
293.449	76.5
293.68	78.5
293.91	94.5
294.141	84.5
294.372	71.5
294.603	72.5
294.833	81.5
295.064	71.5
295.295	82.5
295.525	79.5
295.756	84.5
295.987	82.5
296.217	84.5
296.448	78.5
296.679	78.5
296.909	85.5
297.14	79.5
297.37	93.5
297.601	82.5
297.831	62.5
298.062	79.5
298.292	93.5
298.523	76.5
298.753	79.5
298.984	79.5
299.214	84.5
299.445	85.5
299.675	82.5
299.905	94.5
300.136	79.5
300.366	87.5
300.597	84.5
300.827	70.5
301.057	86.5
301.288	80.5
301.518	84.5
301.748	89.5
301.979	86.5
302.209	78.5
302.439	92.5
302.669	82.5
302.9	87.5
303.13	86.5
303.36	63.5
303.59	86.5
303.82	68.5
304.051	101.5
304.281	86.5
304.511	93.5
304.741	80.5
304.971	83.5
305.201	78.5
305.431	86.5
305.661	81.5
305.891	66.5
306.121	83.5
306.352	80.5
306.582	89.5
306.812	89.5
307.042	79.5
307.272	91.5
307.502	81.5
307.731	91.5
307.961	78.5
308.191	72.5
308.421	78.5
308.651	78.5
308.881	83.5
309.111	87.5
309.341	96.5
309.571	73.5
309.8	93.5
310.03	88.5
310.26	78.5
310.49	76.5
310.72	76.5
310.949	69.5
311.179	81.5
311.409	78.5
311.639	88.5
311.868	58.5
312.098	82.5
312.328	93.5
312.557	78.5
312.787	90.5
313.017	88.5
313.246	86.5
313.476	92.5
313.706	91.5
313.935	100.5
314.165	83.5
314.394	105.5
314.624	90.5
314.853	83.5
315.083	74.5
315.312	90.5
315.542	74.5
315.771	85.5
316.001	76.5
316.23	98.5
316.46	84.5
316.689	79.5
316.919	91.5
317.148	74.5
317.377	95.5
317.607	90.5
317.836	98.5
318.065	103.5
318.295	85.5
318.524	65.5
318.753	78.5
318.983	81.5
319.212	79.5
319.441	83.5
319.67	70.5
319.9	74.5
320.129	78.5
320.358	80.5
320.587	99.5
320.816	84.5
321.046	70.5
321.275	88.5
321.504	85.5
321.733	90.5
321.962	85.5
322.191	87.5
322.42	79.5
322.649	82.5
322.878	83.5
323.108	93.5
323.337	80.5
323.566	90.5
323.795	72.5
324.024	78.5
324.253	82.5
324.482	83.5
324.71	71.5
324.939	88.5
325.168	70.5
325.397	86.5
325.626	78.5
325.855	84.5
326.084	84.5
326.313	90.5
326.542	84.5
326.77	60.5
326.999	76.5
327.228	82.5
327.457	87.5
327.686	94.5
327.914	76.5
328.143	84.5
328.372	75.5
328.6	84.5
328.829	78.5
329.058	69.5
329.287	76.5
329.515	83.5
329.744	80.5
329.972	74.5
330.201	95.5
330.43	86.5
330.658	84.5
330.887	92.5
331.115	95.5
331.344	77.5
331.572	83.5
331.801	82.5
332.03	73.5
332.258	74.5
332.486	84.5
332.715	85.5
332.943	70.5
333.172	73.5
333.4	76.5
333.629	92.5
333.857	75.5
334.085	97.5
334.314	83.5
334.542	94.5
334.771	93.5
334.999	80.5
335.227	81.5
335.455	93.5
335.684	76.5
335.912	86.5
336.14	84.5
336.369	72.5
336.597	80.5
336.825	81.5
337.053	82.5
337.281	88.5
337.51	71.5
337.738	86.5
337.966	83.5
338.194	86.5
338.422	74.5
338.65	92.5
338.878	87.5
339.106	72.5
339.334	88.5
339.562	81.5
339.79	88.5
340.018	79.5
340.246	91.5
340.474	84.5
340.702	83.5
340.93	97.5
341.158	79.5
341.386	82.5
341.614	71.5
341.842	77.5
342.07	78.5
342.298	94.5
342.526	79.5
342.754	83.5
342.981	78.5
343.209	85.5
343.437	97.5
343.665	94.5
343.893	79.5
344.12	96.5
344.348	91.5
344.576	78.5
344.804	89.5
345.031	90.5
345.259	80.5
345.487	72.5
345.714	84.5
345.942	74.5
346.17	86.5
346.397	98.5
346.625	94.5
346.853	87.5
347.08	92.5
347.308	88.5
347.535	71.5
347.763	75.5
347.99	80.5
348.218	85.5
348.445	76.5
348.673	70.5
348.9	83.5
349.128	84.5
349.355	70.5
349.583	87.5
349.81	78.5
350.037	80.5
350.265	71.5
350.492	90.5
350.72	83.5
350.947	81.5
351.174	91.5
351.402	77.5
351.629	78.5
351.856	101.5
352.083	79.5
352.311	80.5
352.538	65.5
352.765	86.5
352.992	86.5
353.22	83.5
353.447	89.5
353.674	83.5
353.901	78.5
354.128	81.5
354.355	94.5
354.583	84.5
354.81	91.5
355.037	79.5
355.264	85.5
355.491	83.5
355.718	82.5
355.945	79.5
356.172	81.5
356.399	91.5
356.626	85.5
356.853	85.5
357.08	75.5
357.307	86.5
357.534	82.5
357.761	71.5
357.988	79.5
358.215	82.5
358.441	86.5
358.668	82.5
358.895	85.5
359.122	88.5
359.349	78.5
359.576	90.5
359.802	74.5
360.029	67.5
360.256	63.5
360.483	86.5
360.709	83.5
360.936	81.5
361.163	70.5
361.39	76.5
361.616	86.5
361.843	80.5
362.07	84.5
362.296	88.5
362.523	83.5
362.749	68.5
362.976	83.5
363.203	87.5
363.429	88.5
363.656	79.5
363.882	76.5
364.109	101.5
364.335	103.5
364.562	89.5
364.788	84.5
365.015	76.5
365.241	82.5
365.468	70.5
365.694	78.5
365.92	94.5
366.147	86.5
366.373	78.5
366.599	73.5
366.826	95.5
367.052	78.5
367.278	71.5
367.505	79.5
367.731	88.5
367.957	85.5
368.184	75.5
368.41	82.5
368.636	81.5
368.862	101.5
369.089	82.5
369.315	70.5
369.541	85.5
369.767	86.5
369.993	73.5
370.219	73.5
370.445	78.5
370.672	93.5
370.898	84.5
371.124	92.5
371.35	76.5
371.576	63.5
371.802	69.5
372.028	79.5
372.254	83.5
372.48	82.5
372.706	82.5
372.932	71.5
373.158	76.5
373.384	83.5
373.61	74.5
373.835	87.5
374.061	90.5
374.287	76.5
374.513	85.5
374.739	86.5
374.965	89.5
375.191	89.5
375.416	91.5
375.642	90.5
375.868	93.5
376.094	86.5
376.319	83.5
376.545	85.5
376.771	72.5
376.997	96.5
377.222	85.5
377.448	79.5
377.674	65.5
377.899	74.5
378.125	88.5
378.35	90.5
378.576	67.5
378.802	79.5
379.027	88.5
379.253	73.5
379.478	60.5
379.704	87.5
379.929	84.5
380.155	76.5
380.38	74.5
380.606	73.5
380.831	75.5
381.057	76.5
381.282	84.5
381.507	95.5
381.733	76.5
381.958	80.5
382.184	80.5
382.409	81.5
382.634	86.5
382.86	83.5
383.085	79.5
383.31	70.5
383.535	70.5
383.761	72.5
383.986	82.5
384.211	78.5
384.436	79.5
384.662	83.5
384.887	71.5
385.112	84.5
385.337	81.5
385.562	91.5
385.787	93.5
386.013	91.5
386.238	82.5
386.463	72.5
386.688	92.5
386.913	74.5
387.138	78.5
387.363	95.5
387.588	85.5
387.813	86.5
388.038	98.5
388.263	95.5
388.488	78.5
388.713	70.5
388.938	93.5
389.163	83.5
389.387	88.5
389.612	71.5
389.837	84.5
390.062	85.5
390.287	85.5
390.512	84.5
390.736	85.5
390.961	86.5
391.186	84.5
391.411	72.5
391.636	83.5
391.86	78.5
392.085	77.5
392.31	80.5
392.534	92.5
392.759	87.5
392.984	118.5
393.208	162.5
393.433	214.5
393.658	172.5
393.882	94.5
394.107	74.5
394.331	90.5
394.556	103.5
394.78	76.5
395.005	83.5
395.229	94.5
395.454	93.5
395.678	82.5
395.903	103.5
396.127	90.5
396.352	94.5
396.576	115.5
396.801	148.5
397.025	201.5
397.249	120.5
397.474	82.5
397.698	80.5
397.922	93.5
398.147	80.5
398.371	70.5
398.595	82.5
398.82	85.5
399.044	85.5
399.268	70.5
399.492	74.5
399.717	73.5
399.941	88.5
400.165	86.5
400.389	78.5
400.613	85.5
400.837	72.5
401.062	78.5
401.286	79.5
401.51	84.5
401.734	67.5
401.958	70.5
402.182	72.5
402.406	77.5
402.63	86.5
402.854	86.5
403.078	91.5
403.302	76.5
403.526	84.5
403.75	83.5
403.974	86.5
404.198	84.5
404.422	91.5
404.645	93.5
404.869	90.5
405.093	82.5
405.317	80.5
405.541	80.5
405.765	85.5
405.988	67.5
406.212	84.5
406.436	71.5
406.66	91.5
406.883	80.5
407.107	81.5
407.331	72.5
407.555	76.5
407.778	84.5
408.002	87.5
408.226	86.5
408.449	76.5
408.673	81.5
408.896	74.5
409.12	70.5
409.344	76.5
409.567	75.5
409.791	91.5
410.014	91.5
410.238	81.5
410.461	91.5
410.685	77.5
410.908	79.5
411.132	91.5
411.355	90.5
411.578	82.5
411.802	86.5
412.025	81.5
412.249	82.5
412.472	86.5
412.695	85.5
412.919	83.5
413.142	89.5
413.365	86.5
413.589	76.5
413.812	83.5
414.035	88.5
414.258	76.5
414.482	88.5
414.705	69.5
414.928	84.5
415.151	82.5
415.374	86.5
415.597	70.5
415.821	79.5
416.044	81.5
416.267	76.5
416.49	78.5
416.713	72.5
416.936	83.5
417.159	87.5
417.382	92.5
417.605	81.5
417.828	87.5
418.051	91.5
418.274	78.5
418.497	93.5
418.72	80.5
418.943	87.5
419.166	72.5
419.389	76.5
419.611	87.5
419.834	76.5
420.057	80.5
420.28	86.5
420.503	90.5
420.726	77.5
420.948	70.5
421.171	70.5
421.394	81.5
421.617	86.5
421.839	102.5
422.062	89.5
422.285	97.5
422.507	146.5
422.73	208.5
422.953	172.5
423.175	99.5
423.398	84.5
423.621	91.5
423.843	86.5
424.066	82.5
424.288	82.5
424.511	79.5
424.733	80.5
424.956	88.5
425.178	88.5
425.401	71.5
425.623	78.5
425.846	71.5
426.068	71.5
426.291	71.5
426.513	90.5
426.735	86.5
426.958	85.5
427.18	87.5
427.402	75.5
427.625	66.5
427.847	77.5
428.069	70.5
428.292	95.5
428.514	88.5
428.736	103.5
428.958	87.5
429.181	109.5
429.403	83.5
429.625	84.5
429.847	96.5
430.069	102.5
430.292	106.5
430.514	114.5
430.736	114.5
430.958	92.5
431.18	89.5
431.402	76.5
431.624	81.5
431.846	86.5
432.068	90.5
432.29	88.5
432.512	78.5
432.734	87.5
432.956	82.5
433.178	82.5
433.4	91.5
433.622	82.5
433.844	80.5
434.066	78.5
434.287	74.5
434.509	77.5
434.731	75.5
434.953	77.5
435.175	87.5
435.397	80.5
435.618	92.5
435.84	84.5
436.062	78.5
436.284	83.5
436.505	74.5
436.727	69.5
436.949	87.5
437.17	92.5
437.392	67.5
437.614	79.5
437.835	80.5
438.057	93.5
438.278	64.5
438.5	89.5
438.721	70.5
438.943	85.5
439.165	68.5
439.386	69.5
439.608	78.5
439.829	76.5
440.05	78.5
440.272	73.5
440.493	84.5
440.715	80.5
440.936	98.5
441.158	71.5
441.379	76.5
441.6	73.5
441.822	84.5
442.043	84.5
442.264	70.5
442.486	92.5
442.707	93.5
442.928	98.5
443.149	88.5
443.371	82.5
443.592	107.5
443.813	113.5
444.034	85.5
444.255	89.5
444.476	73.5
444.698	63.5
444.919	83.5
445.14	172.5
445.361	133.5
445.582	142.5
445.803	119.5
446.024	87.5
446.245	70.5
446.466	84.5
446.687	76.5
446.908	77.5
447.129	84.5
447.35	59.5
447.571	82.5
447.792	81.5
448.013	83.5
448.234	97.5
448.455	78.5
448.675	76.5
448.896	83.5
449.117	85.5
449.338	76.5
449.559	69.5
449.779	76.5
450	70.5
450.221	80.5
450.442	82.5
450.662	65.5
450.883	89.5
451.104	92.5
451.324	92.5
451.545	76.5
451.766	91.5
451.986	86.5
452.207	78.5
452.428	88.5
452.648	87.5
452.869	86.5
453.089	88.5
453.31	79.5
453.53	76.5
453.751	86.5
453.971	73.5
454.192	76.5
454.412	78.5
454.633	81.5
454.853	82.5
455.073	76.5
455.294	73.5
455.514	70.5
455.734	84.5
455.955	87.5
456.175	90.5
456.395	76.5
456.616	80.5
456.836	92.5
457.056	84.5
457.276	86.5
457.497	73.5
457.717	88.5
457.937	79.5
458.157	82.5
458.377	82.5
458.598	76.5
458.818	93.5
459.038	84.5
459.258	80.5
459.478	90.5
459.698	66.5
459.918	68.5
460.138	86.5
460.358	82.5
460.578	102.5
460.798	96.5
461.018	75.5
461.238	81.5
461.458	71.5
461.678	80.5
461.898	76.5
462.118	60.5
462.338	89.5
462.558	82.5
462.777	93.5
462.997	86.5
463.217	92.5
463.437	81.5
463.657	70.5
463.876	70.5
464.096	72.5
464.316	78.5
464.536	87.5
464.755	82.5
464.975	74.5
465.195	81.5
465.414	87.5
465.634	73.5
465.854	82.5
466.073	59.5
466.293	74.5
466.512	82.5
466.732	91.5
466.951	85.5
467.171	97.5
467.391	88.5
467.61	80.5
467.829	69.5
468.049	72.5
468.268	78.5
468.488	74.5
468.707	85.5
468.927	76.5
469.146	87.5
469.365	80.5
469.585	85.5
469.804	78.5
470.023	78.5
470.243	80.5
470.462	77.5
470.681	85.5
470.901	91.5
471.12	68.5
471.339	78.5
471.558	96.5
471.777	66.5
471.997	86.5
472.216	77.5
472.435	93.5
472.654	84.5
472.873	80.5
473.092	75.5
473.311	82.5
473.53	84.5
473.749	76.5
473.968	80.5
474.187	79.5
474.406	92.5
474.625	87.5
474.844	88.5
475.063	75.5
475.282	85.5
475.501	91.5
475.72	89.5
475.939	71.5
476.158	78.5
476.377	75.5
476.596	78.5
476.814	95.5
477.033	82.5
477.252	84.5
477.471	72.5
477.69	70.5
477.908	87.5
478.127	90.5
478.346	87.5
478.564	104.5
478.783	71.5
479.002	86.5
479.22	71.5
479.439	82.5
479.658	87.5
479.876	68.5
480.095	80.5
480.313	82.5
480.532	70.5
480.751	84.5
480.969	82.5
481.188	66.5
481.406	69.5
481.624	86.5
481.843	67.5
482.061	76.5
482.28	77.5
482.498	68.5
482.717	88.5
482.935	90.5
483.153	89.5
483.372	90.5
483.59	80.5
483.808	86.5
484.027	83.5
484.245	94.5
484.463	90.5
484.681	100.5
484.9	88.5
485.118	86.5
485.336	67.5
485.554	78.5
485.772	69.5
485.99	73.5
486.209	72.5
486.427	84.5
486.645	75.5
486.863	72.5
487.081	80.5
487.299	83.5
487.517	82.5
487.735	79.5
487.953	78.5
488.171	94.5
488.389	87.5
488.607	83.5
488.825	80.5
489.043	71.5
489.261	87.5
489.479	85.5
489.696	86.5
489.914	69.5
490.132	79.5
490.35	86.5
490.568	65.5
490.786	77.5
491.003	79.5
491.221	96.5
491.439	87.5
491.657	92.5
491.874	74.5
492.092	89.5
492.31	83.5
492.527	78.5
492.745	80.5
492.963	85.5
493.18	60.5
493.398	73.5
493.615	86.5
493.833	93.5
494.05	85.5
494.268	88.5
494.485	82.5
494.703	77.5
494.92	92.5
495.138	97.5
495.355	87.5
495.573	80.5
495.79	74.5
496.008	82.5
496.225	81.5
496.442	88.5
496.66	73.5
496.877	83.5
497.094	86.5
497.312	71.5
497.529	84.5
497.746	101.5
497.963	86.5
498.181	88.5
498.398	81.5
498.615	94.5
498.832	82.5
499.049	88.5
499.267	97.5
499.484	70.5
499.701	87.5
499.918	93.5
500.135	76.5
500.352	84.5
500.569	83.5
500.786	82.5
501.003	86.5
501.22	92.5
501.437	85.5
501.654	76.5
501.871	68.5
502.088	85.5
502.305	89.5
502.522	93.5
502.739	83.5
502.956	84.5
503.172	86.5
503.389	77.5
503.606	69.5
503.823	90.5
504.04	85.5
504.256	91.5
504.473	89.5
504.69	77.5
504.907	77.5
505.123	89.5
505.34	99.5
505.557	79.5
505.773	81.5
505.99	78.5
506.207	91.5
506.423	73.5
506.64	84.5
506.856	82.5
507.073	70.5
507.289	65.5
507.506	70.5
507.722	80.5
507.939	92.5
508.155	87.5
508.372	81.5
508.588	95.5
508.805	82.5
509.021	96.5
509.238	92.5
509.454	97.5
509.67	65.5
509.887	76.5
510.103	60.5
510.319	90.5
510.536	108.5
510.752	88.5
510.968	83.5
511.184	79.5
511.401	75.5
511.617	90.5
511.833	74.5
512.049	69.5
512.265	80.5
512.481	70.5
512.698	88.5
512.914	100.5
513.13	89.5
513.346	67.5
513.562	84.5
513.778	66.5
513.994	80.5
514.21	81.5
514.426	84.5
514.642	85.5
514.858	89.5
515.074	88.5
515.29	93.5
515.506	59.5
515.721	70.5
515.937	92.5
516.153	79.5
516.369	92.5
516.585	78.5
516.801	69.5
517.016	78.5
517.232	64.5
517.448	87.5
517.664	66.5
517.879	72.5
518.095	90.5
518.311	90.5
518.527	90.5
518.742	84.5
518.958	93.5
519.173	110.5
519.389	84.5
519.605	78.5
519.82	72.5
520.036	77.5
520.251	77.5
520.467	87.5
520.682	94.5
520.898	85.5
521.113	87.5
521.329	79.5
521.544	84.5
521.76	86.5
521.975	83.5
522.19	83.5
522.406	80.5
522.621	91.5
522.836	92.5
523.052	95.5
523.267	84.5
523.482	79.5
523.698	85.5
523.913	94.5
524.128	86.5
524.343	82.5
524.559	100.5
524.774	86.5
524.989	76.5
525.204	78.5
525.419	85.5
525.634	87.5
525.849	71.5
526.064	98.5
526.28	122.5
526.495	126.5
526.71	139.5
526.925	106.5
527.14	140.5
527.355	123.5
527.57	82.5
527.785	96.5
527.999	84.5
528.214	83.5
528.429	97.5
528.644	90.5
528.859	84.5
529.074	93.5
529.289	60.5
529.503	78.5
529.718	89.5
529.933	83.5
530.148	77.5
530.363	86.5
530.577	85.5
530.792	88.5
531.007	71.5
531.221	78.5
531.436	72.5
531.651	72.5
531.865	74.5
532.08	85.5
532.295	78.5
532.509	88.5
532.724	94.5
532.938	84.5
533.153	82.5
533.367	92.5
533.582	84.5
533.796	78.5
534.011	79.5
534.225	84.5
534.44	77.5
534.654	96.5
534.868	80.5
535.083	97.5
535.297	96.5
535.511	81.5
535.726	74.5
535.94	88.5
536.154	82.5
536.369	85.5
536.583	85.5
536.797	81.5
537.011	90.5
537.225	90.5
537.44	67.5
537.654	90.5
537.868	78.5
538.082	76.5
538.296	76.5
538.51	85.5
538.724	78.5
538.938	77.5
539.153	82.5
539.367	82.5
539.581	71.5
539.795	78.5
540.009	83.5
