Data from 18505_1_HRD10591_00042.txt Node
Date: Mon Jan 19 13:58:52 EST 2026
User: Yrep
Spectrometer: HR+D1059
Trigger mode: 1
Integration Time (sec): 1.000000E-1
Scans to average: 1
Electric dark correction enabled: true
Nonlinearity correction enabled: false
Boxcar width: 0
XAxis mode: Wavelengths
Number of Pixels in Spectrum: 2048
>>>>>Begin Spectral Data<<<<<
223.165	-14.5
223.4	-14.5
223.635	-14.5
223.869	-30.5
224.104	-11.5
224.338	-29.5
224.573	-16.5
224.808	-0.5
225.042	-5.5
225.277	-6.5
225.511	-7.5
225.746	10.5
225.98	7.5
226.215	10.5
226.449	17.5
226.683	23.5
226.918	27.5
227.152	25.5
227.387	32.5
227.621	36.5
227.856	55.5
228.09	46.5
228.324	39.5
228.559	59.5
228.793	71.5
229.027	55.5
229.262	59.5
229.496	65.5
229.73	74.5
229.964	59.5
230.199	72.5
230.433	89.5
230.667	95.5
230.901	67.5
231.136	82.5
231.37	69.5
231.604	79.5
231.838	83.5
232.072	79.5
232.306	72.5
232.541	75.5
232.775	79.5
233.009	82.5
233.243	74.5
233.477	89.5
233.711	85.5
233.945	76.5
234.179	80.5
234.413	91.5
234.647	79.5
234.881	67.5
235.115	77.5
235.349	84.5
235.583	81.5
235.817	93.5
236.051	68.5
236.285	79.5
236.519	71.5
236.753	77.5
236.987	91.5
237.221	77.5
237.455	89.5
237.689	69.5
237.922	66.5
238.156	73.5
238.39	77.5
238.624	67.5
238.858	73.5
239.091	83.5
239.325	69.5
239.559	75.5
239.793	65.5
240.027	89.5
240.26	72.5
240.494	70.5
240.728	74.5
240.961	70.5
241.195	70.5
241.429	88.5
241.662	69.5
241.896	74.5
242.13	71.5
242.363	81.5
242.597	78.5
242.83	79.5
243.064	72.5
243.298	78.5
243.531	67.5
243.765	77.5
243.998	79.5
244.232	83.5
244.465	79.5
244.699	86.5
244.932	75.5
245.166	77.5
245.399	76.5
245.633	79.5
245.866	71.5
246.099	73.5
246.333	81.5
246.566	69.5
246.8	61.5
247.033	71.5
247.266	85.5
247.5	73.5
247.733	68.5
247.966	81.5
248.2	82.5
248.433	70.5
248.666	80.5
248.899	80.5
249.133	73.5
249.366	93.5
249.599	71.5
249.832	89.5
250.066	81.5
250.299	83.5
250.532	63.5
250.765	74.5
250.998	77.5
251.231	88.5
251.465	83.5
251.698	85.5
251.931	74.5
252.164	76.5
252.397	73.5
252.63	71.5
252.863	83.5
253.096	72.5
253.329	79.5
253.562	84.5
253.795	92.5
254.028	79.5
254.261	80.5
254.494	63.5
254.727	95.5
254.96	75.5
255.193	85.5
255.426	86.5
255.659	77.5
255.892	72.5
256.124	73.5
256.357	85.5
256.59	73.5
256.823	76.5
257.056	69.5
257.289	89.5
257.521	74.5
257.754	63.5
257.987	73.5
258.22	69.5
258.452	86.5
258.685	84.5
258.918	73.5
259.151	83.5
259.383	100.5
259.616	81.5
259.849	94.5
260.081	78.5
260.314	79.5
260.547	80.5
260.779	81.5
261.012	84.5
261.244	89.5
261.477	77.5
261.71	73.5
261.942	66.5
262.175	82.5
262.407	82.5
262.64	85.5
262.872	61.5
263.105	79.5
263.337	72.5
263.57	75.5
263.802	67.5
264.035	73.5
264.267	83.5
264.499	90.5
264.732	89.5
264.964	82.5
265.197	77.5
265.429	90.5
265.661	70.5
265.894	73.5
266.126	88.5
266.358	76.5
266.591	83.5
266.823	76.5
267.055	88.5
267.287	76.5
267.52	84.5
267.752	70.5
267.984	77.5
268.216	93.5
268.448	100.5
268.681	74.5
268.913	83.5
269.145	72.5
269.377	74.5
269.609	78.5
269.841	80.5
270.073	80.5
270.306	92.5
270.538	81.5
270.77	77.5
271.002	99.5
271.234	73.5
271.466	85.5
271.698	77.5
271.93	90.5
272.162	87.5
272.394	92.5
272.626	85.5
272.858	79.5
273.09	80.5
273.322	78.5
273.553	67.5
273.785	87.5
274.017	77.5
274.249	84.5
274.481	92.5
274.713	74.5
274.945	84.5
275.176	79.5
275.408	73.5
275.64	86.5
275.872	88.5
276.104	84.5
276.335	87.5
276.567	64.5
276.799	75.5
277.031	80.5
277.262	83.5
277.494	83.5
277.726	76.5
277.957	97.5
278.189	77.5
278.421	85.5
278.652	71.5
278.884	75.5
279.115	86.5
279.347	78.5
279.579	85.5
279.81	95.5
280.042	79.5
280.273	90.5
280.505	88.5
280.736	79.5
280.968	88.5
281.199	85.5
281.431	85.5
281.662	77.5
281.894	101.5
282.125	80.5
282.356	81.5
282.588	83.5
282.819	75.5
283.051	87.5
283.282	77.5
283.513	86.5
283.745	68.5
283.976	93.5
284.207	78.5
284.439	99.5
284.67	65.5
284.901	86.5
285.132	80.5
285.364	87.5
285.595	85.5
285.826	83.5
286.057	85.5
286.288	89.5
286.52	82.5
286.751	80.5
286.982	73.5
287.213	88.5
287.444	89.5
287.675	86.5
287.906	69.5
288.138	79.5
288.369	99.5
288.6	84.5
288.831	86.5
289.062	100.5
289.293	95.5
289.524	95.5
289.755	70.5
289.986	71.5
290.217	91.5
290.448	79.5
290.679	89.5
290.91	73.5
291.141	74.5
291.371	82.5
291.602	79.5
291.833	89.5
292.064	94.5
292.295	90.5
292.526	71.5
292.757	98.5
292.987	95.5
293.218	99.5
293.449	81.5
293.68	81.5
293.91	88.5
294.141	88.5
294.372	79.5
294.603	81.5
294.833	101.5
295.064	72.5
295.295	78.5
295.525	73.5
295.756	100.5
295.987	79.5
296.217	80.5
296.448	89.5
296.679	76.5
296.909	84.5
297.14	65.5
297.37	76.5
297.601	85.5
297.831	83.5
298.062	85.5
298.292	74.5
298.523	90.5
298.753	62.5
298.984	69.5
299.214	91.5
299.445	86.5
299.675	86.5
299.905	85.5
300.136	88.5
300.366	83.5
300.597	78.5
300.827	84.5
301.057	99.5
301.288	80.5
301.518	87.5
301.748	93.5
301.979	103.5
302.209	85.5
302.439	96.5
302.669	101.5
302.9	69.5
303.13	76.5
303.36	87.5
303.59	73.5
303.82	85.5
304.051	79.5
304.281	79.5
304.511	93.5
304.741	92.5
304.971	91.5
305.201	95.5
305.431	83.5
305.661	73.5
305.891	87.5
306.121	95.5
306.352	84.5
306.582	77.5
306.812	81.5
307.042	61.5
307.272	80.5
307.502	90.5
307.731	89.5
307.961	91.5
308.191	77.5
308.421	79.5
308.651	78.5
308.881	91.5
309.111	87.5
309.341	95.5
309.571	92.5
309.8	91.5
310.03	94.5
310.26	97.5
310.49	69.5
310.72	63.5
310.949	75.5
311.179	89.5
311.409	100.5
311.639	77.5
311.868	89.5
312.098	87.5
312.328	68.5
312.557	104.5
312.787	74.5
313.017	85.5
313.246	90.5
313.476	95.5
313.706	85.5
313.935	99.5
314.165	82.5
314.394	81.5
314.624	73.5
314.853	77.5
315.083	88.5
315.312	84.5
315.542	88.5
315.771	96.5
316.001	91.5
316.23	95.5
316.46	85.5
316.689	71.5
316.919	95.5
317.148	75.5
317.377	71.5
317.607	101.5
317.836	95.5
318.065	92.5
318.295	93.5
318.524	93.5
318.753	68.5
318.983	65.5
319.212	87.5
319.441	84.5
319.67	94.5
319.9	83.5
320.129	82.5
320.358	93.5
320.587	89.5
320.816	83.5
321.046	83.5
321.275	92.5
321.504	91.5
321.733	77.5
321.962	76.5
322.191	93.5
322.42	74.5
322.649	99.5
322.878	78.5
323.108	91.5
323.337	94.5
323.566	83.5
323.795	86.5
324.024	88.5
324.253	90.5
324.482	80.5
324.71	87.5
324.939	88.5
325.168	71.5
325.397	87.5
325.626	78.5
325.855	89.5
326.084	88.5
326.313	70.5
326.542	86.5
326.77	99.5
326.999	93.5
327.228	97.5
327.457	97.5
327.686	73.5
327.914	67.5
328.143	79.5
328.372	97.5
328.6	81.5
328.829	87.5
329.058	91.5
329.287	91.5
329.515	77.5
329.744	93.5
329.972	89.5
330.201	83.5
330.43	84.5
330.658	86.5
330.887	89.5
331.115	80.5
331.344	77.5
331.572	63.5
331.801	77.5
332.03	83.5
332.258	70.5
332.486	95.5
332.715	77.5
332.943	76.5
333.172	76.5
333.4	87.5
333.629	75.5
333.857	76.5
334.085	81.5
334.314	85.5
334.542	77.5
334.771	86.5
334.999	86.5
335.227	84.5
335.455	88.5
335.684	91.5
335.912	97.5
336.14	88.5
336.369	82.5
336.597	85.5
336.825	82.5
337.053	87.5
337.281	75.5
337.51	81.5
337.738	80.5
337.966	82.5
338.194	92.5
338.422	72.5
338.65	70.5
338.878	95.5
339.106	95.5
339.334	74.5
339.562	77.5
339.79	82.5
340.018	69.5
340.246	76.5
340.474	70.5
340.702	91.5
340.93	92.5
341.158	81.5
341.386	80.5
341.614	83.5
341.842	79.5
342.07	93.5
342.298	76.5
342.526	63.5
342.754	83.5
342.981	88.5
343.209	92.5
343.437	93.5
343.665	81.5
343.893	88.5
344.12	83.5
344.348	85.5
344.576	87.5
344.804	81.5
345.031	70.5
345.259	77.5
345.487	67.5
345.714	73.5
345.942	91.5
346.17	88.5
346.397	73.5
346.625	72.5
346.853	84.5
347.08	77.5
347.308	80.5
347.535	79.5
347.763	81.5
347.99	76.5
348.218	84.5
348.445	74.5
348.673	88.5
348.9	80.5
349.128	75.5
349.355	83.5
349.583	79.5
349.81	75.5
350.037	78.5
350.265	98.5
350.492	73.5
350.72	84.5
350.947	85.5
351.174	89.5
351.402	89.5
351.629	92.5
351.856	90.5
352.083	83.5
352.311	71.5
352.538	86.5
352.765	80.5
352.992	89.5
353.22	85.5
353.447	87.5
353.674	89.5
353.901	81.5
354.128	82.5
354.355	83.5
354.583	84.5
354.81	75.5
355.037	87.5
355.264	80.5
355.491	89.5
355.718	86.5
355.945	84.5
356.172	84.5
356.399	71.5
356.626	81.5
356.853	93.5
357.08	91.5
357.307	86.5
357.534	72.5
357.761	96.5
357.988	87.5
358.215	89.5
358.441	88.5
358.668	79.5
358.895	99.5
359.122	77.5
359.349	81.5
359.576	86.5
359.802	83.5
360.029	72.5
360.256	91.5
360.483	73.5
360.709	86.5
360.936	91.5
361.163	71.5
361.39	78.5
361.616	88.5
361.843	79.5
362.07	98.5
362.296	81.5
362.523	91.5
362.749	91.5
362.976	95.5
363.203	101.5
363.429	91.5
363.656	67.5
363.882	87.5
364.109	100.5
364.335	100.5
364.562	102.5
364.788	92.5
365.015	92.5
365.241	86.5
365.468	89.5
365.694	77.5
365.92	92.5
366.147	83.5
366.373	73.5
366.599	86.5
366.826	78.5
367.052	76.5
367.278	84.5
367.505	85.5
367.731	87.5
367.957	95.5
368.184	83.5
368.41	71.5
368.636	102.5
368.862	79.5
369.089	79.5
369.315	69.5
369.541	89.5
369.767	82.5
369.993	72.5
370.219	74.5
370.445	84.5
370.672	77.5
370.898	76.5
371.124	87.5
371.35	83.5
371.576	77.5
371.802	78.5
372.028	92.5
372.254	94.5
372.48	80.5
372.706	90.5
372.932	92.5
373.158	97.5
373.384	101.5
373.61	101.5
373.835	101.5
374.061	79.5
374.287	80.5
374.513	81.5
374.739	89.5
374.965	80.5
375.191	95.5
375.416	98.5
375.642	86.5
375.868	83.5
376.094	82.5
376.319	74.5
376.545	82.5
376.771	79.5
376.997	89.5
377.222	65.5
377.448	83.5
377.674	69.5
377.899	81.5
378.125	88.5
378.35	101.5
378.576	74.5
378.802	80.5
379.027	89.5
379.253	89.5
379.478	99.5
379.704	80.5
379.929	69.5
380.155	91.5
380.38	84.5
380.606	101.5
380.831	101.5
381.057	80.5
381.282	99.5
381.507	83.5
381.733	100.5
381.958	83.5
382.184	86.5
382.409	101.5
382.634	85.5
382.86	78.5
383.085	87.5
383.31	89.5
383.535	89.5
383.761	95.5
383.986	85.5
384.211	86.5
384.436	81.5
384.662	88.5
384.887	73.5
385.112	84.5
385.337	72.5
385.562	93.5
385.787	96.5
386.013	70.5
386.238	73.5
386.463	82.5
386.688	89.5
386.913	71.5
387.138	77.5
387.363	88.5
387.588	87.5
387.813	79.5
388.038	95.5
388.263	100.5
388.488	95.5
388.713	96.5
388.938	91.5
389.163	103.5
389.387	87.5
389.612	87.5
389.837	96.5
390.062	93.5
390.287	79.5
390.512	88.5
390.736	80.5
390.961	84.5
391.186	79.5
391.411	109.5
391.636	84.5
391.86	88.5
392.085	80.5
392.31	87.5
392.534	91.5
392.759	118.5
392.984	161.5
393.208	298.5
393.433	420.5
393.658	312.5
393.882	131.5
394.107	105.5
394.331	96.5
394.556	104.5
394.78	94.5
395.005	93.5
395.229	92.5
395.454	101.5
395.678	104.5
395.903	101.5
396.127	129.5
396.352	137.5
396.576	176.5
396.801	289.5
397.025	335.5
397.249	167.5
397.474	114.5
397.698	96.5
397.922	93.5
398.147	91.5
398.371	89.5
398.595	83.5
398.82	87.5
399.044	79.5
399.268	76.5
399.492	97.5
399.717	94.5
399.941	98.5
400.165	84.5
400.389	74.5
400.613	82.5
400.837	78.5
401.062	96.5
401.286	79.5
401.51	94.5
401.734	83.5
401.958	63.5
402.182	88.5
402.406	83.5
402.63	93.5
402.854	75.5
403.078	82.5
403.302	89.5
403.526	90.5
403.75	89.5
403.974	93.5
404.198	110.5
404.422	131.5
404.645	144.5
404.869	119.5
405.093	104.5
405.317	87.5
405.541	91.5
405.765	89.5
405.988	93.5
406.212	78.5
406.436	79.5
406.66	79.5
406.883	95.5
407.107	77.5
407.331	94.5
407.555	109.5
407.778	111.5
408.002	91.5
408.226	95.5
408.449	71.5
408.673	78.5
408.896	82.5
409.12	79.5
409.344	93.5
409.567	95.5
409.791	85.5
410.014	86.5
410.238	85.5
410.461	83.5
410.685	102.5
410.908	96.5
411.132	99.5
411.355	97.5
411.578	79.5
411.802	77.5
412.025	67.5
412.249	76.5
412.472	73.5
412.695	71.5
412.919	89.5
413.142	80.5
413.365	95.5
413.589	86.5
413.812	79.5
414.035	88.5
414.258	93.5
414.482	86.5
414.705	87.5
414.928	84.5
415.151	79.5
415.374	80.5
415.597	81.5
415.821	83.5
416.044	82.5
416.267	84.5
416.49	81.5
416.713	97.5
416.936	89.5
417.159	89.5
417.382	85.5
417.605	95.5
417.828	97.5
418.051	87.5
418.274	92.5
418.497	90.5
418.72	80.5
418.943	81.5
419.166	86.5
419.389	93.5
419.611	83.5
419.834	94.5
420.057	91.5
420.28	84.5
420.503	79.5
420.726	83.5
420.948	94.5
421.171	88.5
421.394	89.5
421.617	113.5
421.839	125.5
422.062	118.5
422.285	144.5
422.507	251.5
422.73	407.5
422.953	354.5
423.175	169.5
423.398	127.5
423.621	102.5
423.843	95.5
424.066	106.5
424.288	87.5
424.511	83.5
424.733	87.5
424.956	83.5
425.178	75.5
425.401	89.5
425.623	85.5
425.846	87.5
426.068	78.5
426.291	95.5
426.513	87.5
426.735	81.5
426.958	83.5
427.18	89.5
427.402	80.5
427.625	82.5
427.847	95.5
428.069	90.5
428.292	115.5
428.514	130.5
428.736	110.5
428.958	132.5
429.181	122.5
429.403	93.5
429.625	78.5
429.847	118.5
430.069	163.5
430.292	176.5
430.514	177.5
430.736	134.5
430.958	131.5
431.18	98.5
431.402	83.5
431.624	99.5
431.846	123.5
432.068	134.5
432.29	84.5
432.512	80.5
432.734	91.5
432.956	76.5
433.178	84.5
433.4	85.5
433.622	84.5
433.844	77.5
434.066	92.5
434.287	77.5
434.509	73.5
434.731	93.5
434.953	77.5
435.175	69.5
435.397	84.5
435.618	86.5
435.84	95.5
436.062	90.5
436.284	82.5
436.505	86.5
436.727	88.5
436.949	90.5
437.17	98.5
437.392	79.5
437.614	90.5
437.835	77.5
438.057	78.5
438.278	87.5
438.5	85.5
438.721	99.5
438.943	89.5
439.165	86.5
439.386	91.5
439.608	80.5
439.829	81.5
440.05	89.5
440.272	88.5
440.493	80.5
440.715	85.5
440.936	93.5
441.158	85.5
441.379	81.5
441.6	89.5
441.822	84.5
442.043	87.5
442.264	91.5
442.486	126.5
442.707	154.5
442.928	116.5
443.149	89.5
443.371	158.5
443.592	245.5
443.813	210.5
444.034	115.5
444.255	93.5
444.476	87.5
444.698	91.5
444.919	93.5
445.14	191.5
445.361	208.5
445.582	292.5
445.803	236.5
446.024	128.5
446.245	85.5
446.466	85.5
446.687	96.5
446.908	71.5
447.129	94.5
447.35	81.5
447.571	89.5
447.792	89.5
448.013	81.5
448.234	83.5
448.455	83.5
448.675	83.5
448.896	68.5
449.117	84.5
449.338	92.5
449.559	79.5
449.779	72.5
450	95.5
450.221	75.5
450.442	86.5
450.662	77.5
450.883	67.5
451.104	87.5
451.324	79.5
451.545	85.5
451.766	79.5
451.986	82.5
452.207	84.5
452.428	88.5
452.648	78.5
452.869	71.5
453.089	74.5
453.31	91.5
453.53	85.5
453.751	81.5
453.971	79.5
454.192	86.5
454.412	88.5
454.633	72.5
454.853	63.5
455.073	79.5
455.294	83.5
455.514	96.5
455.734	92.5
455.955	91.5
456.175	85.5
456.395	86.5
456.616	68.5
456.836	82.5
457.056	69.5
457.276	96.5
457.497	87.5
457.717	86.5
457.937	91.5
458.157	113.5
458.377	97.5
458.598	106.5
458.818	107.5
459.038	87.5
459.258	77.5
459.478	93.5
459.698	91.5
459.918	87.5
460.138	87.5
460.358	92.5
460.578	94.5
460.798	122.5
461.018	120.5
461.238	85.5
461.458	90.5
461.678	92.5
461.898	97.5
462.118	75.5
462.338	86.5
462.558	77.5
462.777	88.5
462.997	69.5
463.217	85.5
463.437	91.5
463.657	84.5
463.876	86.5
464.096	91.5
464.316	78.5
464.536	74.5
464.755	85.5
464.975	71.5
465.195	84.5
465.414	79.5
465.634	89.5
465.854	76.5
466.073	90.5
466.293	86.5
466.512	83.5
466.732	66.5
466.951	88.5
467.171	77.5
467.391	93.5
467.61	91.5
467.829	66.5
468.049	83.5
468.268	88.5
468.488	78.5
468.707	70.5
468.927	97.5
469.146	71.5
469.365	85.5
469.585	95.5
469.804	86.5
470.023	85.5
470.243	78.5
470.462	81.5
470.681	90.5
470.901	86.5
471.12	91.5
471.339	75.5
471.558	74.5
471.777	84.5
471.997	91.5
472.216	77.5
472.435	85.5
472.654	87.5
472.873	86.5
473.092	80.5
473.311	67.5
473.53	69.5
473.749	63.5
473.968	80.5
474.187	93.5
474.406	89.5
474.625	69.5
474.844	70.5
475.063	69.5
475.282	80.5
475.501	73.5
475.72	90.5
475.939	87.5
476.158	79.5
476.377	86.5
476.596	85.5
476.814	71.5
477.033	90.5
477.252	89.5
477.471	80.5
477.69	80.5
477.908	86.5
478.127	100.5
478.346	72.5
478.564	88.5
478.783	91.5
479.002	82.5
479.22	93.5
479.439	79.5
479.658	77.5
479.876	68.5
480.095	71.5
480.313	87.5
480.532	88.5
480.751	76.5
480.969	84.5
481.188	89.5
481.406	68.5
481.624	96.5
481.843	96.5
482.061	79.5
482.28	89.5
482.498	80.5
482.717	74.5
482.935	84.5
483.153	67.5
483.372	83.5
483.59	73.5
483.808	92.5
484.027	89.5
484.245	78.5
484.463	83.5
484.681	86.5
484.9	78.5
485.118	85.5
485.336	82.5
485.554	79.5
485.772	92.5
485.99	75.5
486.209	76.5
486.427	80.5
486.645	92.5
486.863	88.5
487.081	80.5
487.299	98.5
487.517	88.5
487.735	99.5
487.953	123.5
488.171	111.5
488.389	92.5
488.607	79.5
488.825	69.5
489.043	76.5
489.261	74.5
489.479	89.5
489.696	69.5
489.914	83.5
490.132	63.5
490.35	87.5
490.568	80.5
490.786	78.5
491.003	91.5
491.221	85.5
491.439	88.5
491.657	89.5
491.874	87.5
492.092	88.5
492.31	77.5
492.527	86.5
492.745	61.5
492.963	80.5
493.18	88.5
493.398	86.5
493.615	85.5
493.833	69.5
494.05	97.5
494.268	86.5
494.485	97.5
494.703	87.5
494.92	87.5
495.138	86.5
495.355	96.5
495.573	79.5
495.79	89.5
496.008	86.5
496.225	76.5
496.442	97.5
496.66	89.5
496.877	98.5
497.094	95.5
497.312	95.5
497.529	87.5
497.746	81.5
497.963	84.5
498.181	99.5
498.398	95.5
498.615	79.5
498.832	83.5
499.049	92.5
499.267	85.5
499.484	87.5
499.701	79.5
499.918	81.5
500.135	84.5
500.352	94.5
500.569	79.5
500.786	95.5
501.003	86.5
501.22	90.5
501.437	104.5
501.654	80.5
501.871	89.5
502.088	82.5
502.305	93.5
502.522	85.5
502.739	89.5
502.956	81.5
503.172	75.5
503.389	79.5
503.606	96.5
503.823	97.5
504.04	90.5
504.256	108.5
504.473	100.5
504.69	89.5
504.907	86.5
505.123	99.5
505.34	81.5
505.557	74.5
505.773	84.5
505.99	86.5
506.207	78.5
506.423	92.5
506.64	86.5
506.856	79.5
507.073	94.5
507.289	88.5
507.506	82.5
507.722	92.5
507.939	84.5
508.155	86.5
508.372	97.5
508.588	92.5
508.805	73.5
509.021	85.5
509.238	79.5
509.454	87.5
509.67	83.5
509.887	83.5
510.103	74.5
510.319	97.5
510.536	90.5
510.752	87.5
510.968	79.5
511.184	90.5
511.401	83.5
511.617	86.5
511.833	80.5
512.049	86.5
512.265	81.5
512.481	81.5
512.698	95.5
512.914	91.5
513.13	78.5
513.346	99.5
513.562	78.5
513.778	84.5
513.994	73.5
514.21	96.5
514.426	89.5
514.642	71.5
514.858	91.5
515.074	85.5
515.29	82.5
515.506	88.5
515.721	78.5
515.937	81.5
516.153	68.5
516.369	83.5
516.585	83.5
516.801	90.5
517.016	74.5
517.232	75.5
517.448	88.5
517.664	98.5
517.879	94.5
518.095	77.5
518.311	83.5
518.527	89.5
518.742	104.5
518.958	136.5
519.173	136.5
519.389	96.5
519.605	88.5
519.82	87.5
520.036	71.5
520.251	90.5
520.467	77.5
520.682	83.5
520.898	89.5
521.113	74.5
521.329	73.5
521.544	77.5
521.76	84.5
521.975	81.5
522.19	80.5
522.406	57.5
522.621	87.5
522.836	84.5
523.052	87.5
523.267	81.5
523.482	93.5
523.698	84.5
523.913	86.5
524.128	81.5
524.343	95.5
524.559	97.5
524.774	85.5
524.989	81.5
525.204	81.5
525.419	97.5
525.634	88.5
525.849	95.5
526.064	115.5
526.28	151.5
526.495	248.5
526.71	280.5
526.925	205.5
527.14	259.5
527.355	256.5
527.57	107.5
527.785	100.5
527.999	87.5
528.214	83.5
528.429	88.5
528.644	94.5
528.859	99.5
529.074	96.5
529.289	87.5
529.503	80.5
529.718	103.5
529.933	87.5
530.148	57.5
530.363	84.5
530.577	87.5
530.792	84.5
531.007	98.5
531.221	95.5
531.436	97.5
531.651	82.5
531.865	76.5
532.08	73.5
532.295	89.5
532.509	87.5
532.724	79.5
532.938	95.5
533.153	78.5
533.367	89.5
533.582	83.5
533.796	111.5
534.011	93.5
534.225	90.5
534.44	98.5
534.654	107.5
534.868	103.5
535.083	131.5
535.297	124.5
535.511	85.5
535.726	95.5
535.94	102.5
536.154	94.5
536.369	92.5
536.583	82.5
536.797	92.5
537.011	95.5
537.225	85.5
537.44	95.5
537.654	83.5
537.868	80.5
538.082	93.5
538.296	79.5
538.51	88.5
538.724	83.5
538.938	93.5
