Data from 18505_1_HRD10591_00031.txt Node
Date: Mon Jan 19 13:58:46 EST 2026
User: Yrep
Spectrometer: HR+D1059
Trigger mode: 1
Integration Time (sec): 1.000000E-1
Scans to average: 1
Electric dark correction enabled: true
Nonlinearity correction enabled: false
Boxcar width: 0
XAxis mode: Wavelengths
Number of Pixels in Spectrum: 2048
>>>>>Begin Spectral Data<<<<<
223.165	-25.25
223.4	-25.25
223.635	-25.25
223.869	-21.25
224.104	-23.25
224.338	-20.25
224.573	6.75
224.808	-0.25
225.042	-12.25
225.277	-11.25
225.511	-12.25
225.746	4.75
225.98	7.75
226.215	10.75
226.449	15.75
226.683	12.75
226.918	39.75
227.152	27.75
227.387	34.75
227.621	35.75
227.856	53.75
228.09	44.75
228.324	50.75
228.559	59.75
228.793	60.75
229.027	63.75
229.262	65.75
229.496	58.75
229.73	67.75
229.964	77.75
230.199	87.75
230.433	72.75
230.667	76.75
230.901	79.75
231.136	88.75
231.37	70.75
231.604	74.75
231.838	85.75
232.072	89.75
232.306	83.75
232.541	83.75
232.775	75.75
233.009	84.75
233.243	73.75
233.477	74.75
233.711	105.75
233.945	87.75
234.179	88.75
234.413	89.75
234.647	78.75
234.881	93.75
235.115	79.75
235.349	74.75
235.583	79.75
235.817	83.75
236.051	76.75
236.285	85.75
236.519	79.75
236.753	80.75
236.987	87.75
237.221	86.75
237.455	75.75
237.689	86.75
237.922	78.75
238.156	71.75
238.39	77.75
238.624	77.75
238.858	75.75
239.091	72.75
239.325	79.75
239.559	73.75
239.793	88.75
240.027	78.75
240.26	63.75
240.494	85.75
240.728	74.75
240.961	88.75
241.195	73.75
241.429	76.75
241.662	80.75
241.896	75.75
242.13	63.75
242.363	92.75
242.597	73.75
242.83	83.75
243.064	67.75
243.298	75.75
243.531	73.75
243.765	81.75
243.998	89.75
244.232	86.75
244.465	90.75
244.699	82.75
244.932	75.75
245.166	88.75
245.399	65.75
245.633	91.75
245.866	69.75
246.099	79.75
246.333	81.75
246.566	74.75
246.8	76.75
247.033	87.75
247.266	85.75
247.5	70.75
247.733	80.75
247.966	85.75
248.2	84.75
248.433	68.75
248.666	77.75
248.899	75.75
249.133	82.75
249.366	109.75
249.599	82.75
249.832	97.75
250.066	91.75
250.299	87.75
250.532	103.75
250.765	81.75
250.998	83.75
251.231	89.75
251.465	89.75
251.698	75.75
251.931	80.75
252.164	65.75
252.397	87.75
252.63	90.75
252.863	96.75
253.096	87.75
253.329	85.75
253.562	71.75
253.795	82.75
254.028	92.75
254.261	80.75
254.494	92.75
254.727	86.75
254.96	74.75
255.193	69.75
255.426	88.75
255.659	90.75
255.892	91.75
256.124	86.75
256.357	87.75
256.59	96.75
256.823	81.75
257.056	91.75
257.289	90.75
257.521	79.75
257.754	88.75
257.987	75.75
258.22	88.75
258.452	87.75
258.685	84.75
258.918	79.75
259.151	77.75
259.383	77.75
259.616	92.75
259.849	81.75
260.081	79.75
260.314	75.75
260.547	91.75
260.779	96.75
261.012	74.75
261.244	88.75
261.477	81.75
261.71	91.75
261.942	85.75
262.175	58.75
262.407	85.75
262.64	81.75
262.872	83.75
263.105	86.75
263.337	83.75
263.57	73.75
263.802	88.75
264.035	85.75
264.267	82.75
264.499	81.75
264.732	83.75
264.964	86.75
265.197	99.75
265.429	82.75
265.661	87.75
265.894	65.75
266.126	81.75
266.358	65.75
266.591	82.75
266.823	90.75
267.055	76.75
267.287	80.75
267.52	88.75
267.752	90.75
267.984	103.75
268.216	95.75
268.448	76.75
268.681	89.75
268.913	97.75
269.145	87.75
269.377	75.75
269.609	85.75
269.841	95.75
270.073	86.75
270.306	91.75
270.538	85.75
270.77	79.75
271.002	84.75
271.234	95.75
271.466	97.75
271.698	92.75
271.93	83.75
272.162	97.75
272.394	87.75
272.626	86.75
272.858	82.75
273.09	77.75
273.322	82.75
273.553	100.75
273.785	92.75
274.017	73.75
274.249	88.75
274.481	97.75
274.713	86.75
274.945	88.75
275.176	71.75
275.408	90.75
275.64	89.75
275.872	77.75
276.104	81.75
276.335	88.75
276.567	82.75
276.799	63.75
277.031	87.75
277.262	88.75
277.494	96.75
277.726	98.75
277.957	87.75
278.189	86.75
278.421	93.75
278.652	103.75
278.884	95.75
279.115	83.75
279.347	82.75
279.579	84.75
279.81	92.75
280.042	84.75
280.273	87.75
280.505	98.75
280.736	103.75
280.968	88.75
281.199	99.75
281.431	83.75
281.662	93.75
281.894	82.75
282.125	101.75
282.356	97.75
282.588	87.75
282.819	81.75
283.051	91.75
283.282	84.75
283.513	88.75
283.745	82.75
283.976	99.75
284.207	80.75
284.439	89.75
284.67	84.75
284.901	93.75
285.132	94.75
285.364	113.75
285.595	99.75
285.826	76.75
286.057	87.75
286.288	83.75
286.52	87.75
286.751	80.75
286.982	87.75
287.213	74.75
287.444	91.75
287.675	90.75
287.906	82.75
288.138	99.75
288.369	99.75
288.6	91.75
288.831	85.75
289.062	92.75
289.293	90.75
289.524	92.75
289.755	84.75
289.986	74.75
290.217	91.75
290.448	84.75
290.679	96.75
290.91	93.75
291.141	91.75
291.371	67.75
291.602	77.75
291.833	76.75
292.064	82.75
292.295	94.75
292.526	92.75
292.757	84.75
292.987	92.75
293.218	90.75
293.449	76.75
293.68	94.75
293.91	81.75
294.141	93.75
294.372	99.75
294.603	96.75
294.833	89.75
295.064	87.75
295.295	93.75
295.525	85.75
295.756	96.75
295.987	92.75
296.217	99.75
296.448	76.75
296.679	95.75
296.909	92.75
297.14	95.75
297.37	97.75
297.601	90.75
297.831	85.75
298.062	93.75
298.292	83.75
298.523	89.75
298.753	82.75
298.984	79.75
299.214	102.75
299.445	107.75
299.675	103.75
299.905	115.75
300.136	104.75
300.366	97.75
300.597	113.75
300.827	99.75
301.057	98.75
301.288	87.75
301.518	95.75
301.748	97.75
301.979	109.75
302.209	117.75
302.439	94.75
302.669	81.75
302.9	95.75
303.13	82.75
303.36	98.75
303.59	91.75
303.82	90.75
304.051	89.75
304.281	91.75
304.511	98.75
304.741	101.75
304.971	94.75
305.201	90.75
305.431	98.75
305.661	99.75
305.891	107.75
306.121	102.75
306.352	98.75
306.582	71.75
306.812	85.75
307.042	83.75
307.272	88.75
307.502	83.75
307.731	101.75
307.961	107.75
308.191	88.75
308.421	107.75
308.651	93.75
308.881	94.75
309.111	91.75
309.341	98.75
309.571	95.75
309.8	105.75
310.03	98.75
310.26	74.75
310.49	99.75
310.72	90.75
310.949	97.75
311.179	98.75
311.409	91.75
311.639	91.75
311.868	83.75
312.098	87.75
312.328	91.75
312.557	105.75
312.787	97.75
313.017	89.75
313.246	99.75
313.476	89.75
313.706	91.75
313.935	86.75
314.165	81.75
314.394	104.75
314.624	87.75
314.853	91.75
315.083	84.75
315.312	99.75
315.542	103.75
315.771	104.75
316.001	107.75
316.23	102.75
316.46	98.75
316.689	95.75
316.919	85.75
317.148	83.75
317.377	92.75
317.607	100.75
317.836	106.75
318.065	109.75
318.295	120.75
318.524	91.75
318.753	96.75
318.983	86.75
319.212	84.75
319.441	85.75
319.67	100.75
319.9	82.75
320.129	100.75
320.358	99.75
320.587	87.75
320.816	93.75
321.046	95.75
321.275	91.75
321.504	83.75
321.733	95.75
321.962	87.75
322.191	95.75
322.42	90.75
322.649	84.75
322.878	93.75
323.108	91.75
323.337	102.75
323.566	101.75
323.795	93.75
324.024	98.75
324.253	101.75
324.482	90.75
324.71	96.75
324.939	102.75
325.168	86.75
325.397	90.75
325.626	104.75
325.855	78.75
326.084	81.75
326.313	92.75
326.542	82.75
326.77	93.75
326.999	79.75
327.228	94.75
327.457	81.75
327.686	100.75
327.914	98.75
328.143	93.75
328.372	84.75
328.6	89.75
328.829	92.75
329.058	61.75
329.287	96.75
329.515	92.75
329.744	95.75
329.972	89.75
330.201	103.75
330.43	93.75
330.658	81.75
330.887	79.75
331.115	92.75
331.344	93.75
331.572	92.75
331.801	92.75
332.03	85.75
332.258	86.75
332.486	90.75
332.715	85.75
332.943	100.75
333.172	86.75
333.4	95.75
333.629	76.75
333.857	87.75
334.085	100.75
334.314	101.75
334.542	93.75
334.771	97.75
334.999	96.75
335.227	98.75
335.455	105.75
335.684	97.75
335.912	109.75
336.14	113.75
336.369	113.75
336.597	109.75
336.825	101.75
337.053	93.75
337.281	83.75
337.51	95.75
337.738	89.75
337.966	102.75
338.194	88.75
338.422	86.75
338.65	87.75
338.878	106.75
339.106	83.75
339.334	88.75
339.562	86.75
339.79	96.75
340.018	91.75
340.246	93.75
340.474	84.75
340.702	93.75
340.93	97.75
341.158	97.75
341.386	88.75
341.614	88.75
341.842	82.75
342.07	85.75
342.298	91.75
342.526	87.75
342.754	89.75
342.981	83.75
343.209	77.75
343.437	100.75
343.665	84.75
343.893	95.75
344.12	95.75
344.348	88.75
344.576	95.75
344.804	89.75
345.031	101.75
345.259	85.75
345.487	85.75
345.714	92.75
345.942	96.75
346.17	92.75
346.397	76.75
346.625	88.75
346.853	91.75
347.08	98.75
347.308	98.75
347.535	104.75
347.763	88.75
347.99	95.75
348.218	100.75
348.445	95.75
348.673	90.75
348.9	89.75
349.128	98.75
349.355	92.75
349.583	99.75
349.81	95.75
350.037	75.75
350.265	94.75
350.492	85.75
350.72	87.75
350.947	93.75
351.174	84.75
351.402	85.75
351.629	80.75
351.856	83.75
352.083	91.75
352.311	83.75
352.538	91.75
352.765	93.75
352.992	102.75
353.22	98.75
353.447	100.75
353.674	94.75
353.901	98.75
354.128	85.75
354.355	96.75
354.583	97.75
354.81	108.75
355.037	87.75
355.264	111.75
355.491	107.75
355.718	98.75
355.945	102.75
356.172	98.75
356.399	99.75
356.626	91.75
356.853	89.75
357.08	101.75
357.307	99.75
357.534	108.75
357.761	98.75
357.988	92.75
358.215	105.75
358.441	83.75
358.668	102.75
358.895	108.75
359.122	95.75
359.349	104.75
359.576	80.75
359.802	100.75
360.029	98.75
360.256	74.75
360.483	97.75
360.709	101.75
360.936	94.75
361.163	91.75
361.39	105.75
361.616	100.75
361.843	98.75
362.07	103.75
362.296	122.75
362.523	127.75
362.749	126.75
362.976	141.75
363.203	162.75
363.429	132.75
363.656	106.75
363.882	112.75
364.109	138.75
364.335	188.75
364.562	197.75
364.788	132.75
365.015	106.75
365.241	102.75
365.468	83.75
365.694	94.75
365.92	101.75
366.147	93.75
366.373	97.75
366.599	104.75
366.826	84.75
367.052	100.75
367.278	93.75
367.505	96.75
367.731	97.75
367.957	83.75
368.184	79.75
368.41	97.75
368.636	99.75
368.862	75.75
369.089	93.75
369.315	82.75
369.541	97.75
369.767	75.75
369.993	107.75
370.219	99.75
370.445	99.75
370.672	109.75
370.898	111.75
371.124	96.75
371.35	92.75
371.576	97.75
371.802	96.75
372.028	105.75
372.254	112.75
372.48	91.75
372.706	108.75
372.932	101.75
373.158	96.75
373.384	102.75
373.61	135.75
373.835	150.75
374.061	127.75
374.287	87.75
374.513	84.75
374.739	123.75
374.965	111.75
375.191	125.75
375.416	116.75
375.642	109.75
375.868	105.75
376.094	119.75
376.319	105.75
376.545	107.75
376.771	102.75
376.997	87.75
377.222	80.75
377.448	97.75
377.674	99.75
377.899	95.75
378.125	87.75
378.35	85.75
378.576	89.75
378.802	100.75
379.027	77.75
379.253	109.75
379.478	99.75
379.704	105.75
379.929	97.75
380.155	93.75
380.38	89.75
380.606	95.75
380.831	106.75
381.057	102.75
381.282	86.75
381.507	102.75
381.733	107.75
381.958	105.75
382.184	105.75
382.409	99.75
382.634	107.75
382.86	116.75
383.085	119.75
383.31	123.75
383.535	123.75
383.761	115.75
383.986	123.75
384.211	124.75
384.436	112.75
384.662	94.75
384.887	97.75
385.112	107.75
385.337	92.75
385.562	113.75
385.787	122.75
386.013	117.75
386.238	108.75
386.463	113.75
386.688	107.75
386.913	123.75
387.138	103.75
387.363	109.75
387.588	105.75
387.813	109.75
388.038	106.75
388.263	107.75
388.488	111.75
388.713	100.75
388.938	105.75
389.163	96.75
389.387	96.75
389.612	99.75
389.837	109.75
390.062	94.75
390.287	94.75
390.512	101.75
390.736	100.75
390.961	110.75
391.186	106.75
391.411	111.75
391.636	117.75
391.86	120.75
392.085	127.75
392.31	121.75
392.534	149.75
392.759	172.75
392.984	280.75
393.208	543.75
393.433	880.75
393.658	653.75
393.882	250.75
394.107	165.75
394.331	168.75
394.556	172.75
394.78	144.75
395.005	116.75
395.229	112.75
395.454	128.75
395.678	140.75
395.903	167.75
396.127	211.75
396.352	251.75
396.576	315.75
396.801	570.75
397.025	677.75
397.249	310.75
397.474	193.75
397.698	133.75
397.922	110.75
398.147	103.75
398.371	92.75
398.595	99.75
398.82	102.75
399.044	96.75
399.268	92.75
399.492	99.75
399.717	85.75
399.941	95.75
400.165	93.75
400.389	104.75
400.613	101.75
400.837	106.75
401.062	104.75
401.286	104.75
401.51	91.75
401.734	98.75
401.958	91.75
402.182	93.75
402.406	84.75
402.63	101.75
402.854	95.75
403.078	92.75
403.302	89.75
403.526	106.75
403.75	79.75
403.974	92.75
404.198	107.75
404.422	114.75
404.645	139.75
404.869	121.75
405.093	103.75
405.317	84.75
405.541	98.75
405.765	93.75
405.988	84.75
406.212	105.75
406.436	99.75
406.66	101.75
406.883	104.75
407.107	98.75
407.331	115.75
407.555	129.75
407.778	145.75
408.002	153.75
408.226	109.75
408.449	112.75
408.673	104.75
408.896	108.75
409.12	97.75
409.344	119.75
409.567	111.75
409.791	115.75
410.014	117.75
410.238	116.75
410.461	111.75
410.685	103.75
410.908	103.75
411.132	101.75
411.355	91.75
411.578	89.75
411.802	86.75
412.025	90.75
412.249	88.75
412.472	98.75
412.695	107.75
412.919	95.75
413.142	103.75
413.365	102.75
413.589	99.75
413.812	108.75
414.035	104.75
414.258	86.75
414.482	93.75
414.705	88.75
414.928	90.75
415.151	96.75
415.374	99.75
415.597	95.75
415.821	103.75
416.044	85.75
416.267	89.75
416.49	80.75
416.713	96.75
416.936	85.75
417.159	105.75
417.382	87.75
417.605	96.75
417.828	95.75
418.051	87.75
418.274	95.75
418.497	99.75
418.72	107.75
418.943	96.75
419.166	98.75
419.389	101.75
419.611	96.75
419.834	89.75
420.057	117.75
420.28	105.75
420.503	94.75
420.726	100.75
420.948	116.75
421.171	119.75
421.394	143.75
421.617	179.75
421.839	168.75
422.062	177.75
422.285	255.75
422.507	500.75
422.73	827.75
422.953	753.75
423.175	329.75
423.398	183.75
423.621	141.75
423.843	119.75
424.066	113.75
424.288	110.75
424.511	105.75
424.733	97.75
424.956	95.75
425.178	97.75
425.401	91.75
425.623	95.75
425.846	96.75
426.068	89.75
426.291	113.75
426.513	95.75
426.735	96.75
426.958	97.75
427.18	100.75
427.402	93.75
427.625	111.75
427.847	100.75
428.069	129.75
428.292	199.75
428.514	242.75
428.736	161.75
428.958	201.75
429.181	195.75
429.403	121.75
429.625	120.75
429.847	163.75
430.069	268.75
430.292	335.75
430.514	295.75
430.736	204.75
430.958	235.75
431.18	139.75
431.402	112.75
431.624	135.75
431.846	182.75
432.068	216.75
432.29	120.75
432.512	108.75
432.734	98.75
432.956	87.75
433.178	77.75
433.4	90.75
433.622	91.75
433.844	86.75
434.066	85.75
434.287	104.75
434.509	90.75
434.731	93.75
434.953	87.75
435.175	85.75
435.397	100.75
435.618	120.75
435.84	109.75
436.062	100.75
436.284	96.75
436.505	87.75
436.727	87.75
436.949	99.75
437.17	102.75
437.392	99.75
437.614	89.75
437.835	67.75
438.057	84.75
438.278	92.75
438.5	91.75
438.721	97.75
438.943	91.75
439.165	94.75
439.386	101.75
439.608	90.75
439.829	82.75
440.05	100.75
440.272	103.75
440.493	99.75
440.715	93.75
440.936	93.75
441.158	89.75
441.379	101.75
441.6	106.75
441.822	91.75
442.043	104.75
442.264	132.75
442.486	215.75
442.707	308.75
442.928	189.75
443.149	160.75
443.371	263.75
443.592	513.75
443.813	407.75
444.034	159.75
444.255	115.75
444.476	108.75
444.698	118.75
444.919	117.75
445.14	252.75
445.361	365.75
445.582	616.75
445.803	493.75
446.024	192.75
446.245	99.75
446.466	90.75
446.687	92.75
446.908	83.75
447.129	101.75
447.35	83.75
447.571	88.75
447.792	91.75
448.013	89.75
448.234	92.75
448.455	89.75
448.675	91.75
448.896	92.75
449.117	83.75
449.338	95.75
449.559	97.75
449.779	99.75
450	81.75
450.221	89.75
450.442	87.75
450.662	78.75
450.883	80.75
451.104	98.75
451.324	96.75
451.545	91.75
451.766	105.75
451.986	74.75
452.207	91.75
452.428	108.75
452.648	115.75
452.869	120.75
453.089	106.75
453.31	91.75
453.53	91.75
453.751	89.75
453.971	91.75
454.192	80.75
454.412	106.75
454.633	101.75
454.853	106.75
455.073	98.75
455.294	90.75
455.514	105.75
455.734	86.75
455.955	93.75
456.175	97.75
456.395	99.75
456.616	100.75
456.836	95.75
457.056	98.75
457.276	99.75
457.497	92.75
457.717	100.75
457.937	152.75
458.157	191.75
458.377	195.75
458.598	175.75
458.818	182.75
459.038	123.75
459.258	98.75
459.478	89.75
459.698	98.75
459.918	91.75
460.138	96.75
460.358	111.75
460.578	106.75
460.798	161.75
461.018	170.75
461.238	108.75
461.458	77.75
461.678	97.75
461.898	91.75
462.118	87.75
462.338	94.75
462.558	87.75
462.777	92.75
462.997	88.75
463.217	65.75
463.437	86.75
463.657	89.75
463.876	100.75
464.096	86.75
464.316	83.75
464.536	77.75
464.755	82.75
464.975	88.75
465.195	114.75
465.414	89.75
465.634	91.75
465.854	77.75
466.073	78.75
466.293	90.75
466.512	82.75
466.732	82.75
466.951	76.75
467.171	72.75
467.391	93.75
467.61	94.75
467.829	92.75
468.049	96.75
468.268	78.75
468.488	93.75
468.707	85.75
468.927	85.75
469.146	87.75
469.365	88.75
469.585	93.75
469.804	86.75
470.023	89.75
470.243	84.75
470.462	87.75
470.681	100.75
470.901	97.75
471.12	78.75
471.339	98.75
471.558	96.75
471.777	90.75
471.997	92.75
472.216	88.75
472.435	89.75
472.654	98.75
472.873	82.75
473.092	88.75
473.311	78.75
473.53	90.75
473.749	94.75
473.968	84.75
474.187	96.75
474.406	82.75
474.625	94.75
474.844	81.75
475.063	102.75
475.282	87.75
475.501	94.75
475.72	91.75
475.939	96.75
476.158	96.75
476.377	82.75
476.596	84.75
476.814	90.75
477.033	81.75
477.252	76.75
477.471	91.75
477.69	77.75
477.908	99.75
478.127	92.75
478.346	101.75
478.564	90.75
478.783	98.75
479.002	78.75
479.22	81.75
479.439	88.75
479.658	83.75
479.876	72.75
480.095	93.75
480.313	89.75
480.532	102.75
480.751	101.75
480.969	91.75
481.188	88.75
481.406	95.75
481.624	90.75
481.843	91.75
482.061	102.75
482.28	90.75
482.498	104.75
482.717	97.75
482.935	84.75
483.153	113.75
483.372	93.75
483.59	82.75
483.808	93.75
484.027	100.75
484.245	95.75
484.463	87.75
484.681	90.75
484.9	100.75
485.118	92.75
485.336	95.75
485.554	91.75
485.772	87.75
485.99	97.75
486.209	113.75
486.427	101.75
486.645	99.75
486.863	83.75
487.081	112.75
487.299	104.75
487.517	109.75
487.735	172.75
487.953	304.75
488.171	234.75
488.389	98.75
488.607	93.75
488.825	97.75
489.043	94.75
489.261	98.75
489.479	95.75
489.696	89.75
489.914	85.75
490.132	87.75
490.35	100.75
490.568	95.75
490.786	73.75
491.003	103.75
491.221	95.75
491.439	100.75
491.657	87.75
491.874	89.75
492.092	90.75
492.31	79.75
492.527	87.75
492.745	91.75
492.963	95.75
493.18	95.75
493.398	88.75
493.615	109.75
493.833	100.75
494.05	91.75
494.268	85.75
494.485	99.75
494.703	103.75
494.92	100.75
495.138	83.75
495.355	87.75
495.573	91.75
495.79	93.75
496.008	97.75
496.225	96.75
496.442	101.75
496.66	93.75
496.877	93.75
497.094	89.75
497.312	85.75
497.529	80.75
497.746	93.75
497.963	105.75
498.181	101.75
498.398	92.75
498.615	105.75
498.832	89.75
499.049	88.75
499.267	84.75
499.484	100.75
499.701	95.75
499.918	87.75
500.135	99.75
500.352	87.75
500.569	91.75
500.786	104.75
501.003	96.75
501.22	103.75
501.437	83.75
501.654	100.75
501.871	89.75
502.088	87.75
502.305	86.75
502.522	95.75
502.739	88.75
502.956	95.75
503.172	98.75
503.389	89.75
503.606	104.75
503.823	103.75
504.04	134.75
504.256	206.75
504.473	224.75
504.69	121.75
504.907	95.75
505.123	102.75
505.34	89.75
505.557	97.75
505.773	110.75
505.99	89.75
506.207	93.75
506.423	85.75
506.64	95.75
506.856	93.75
507.073	95.75
507.289	81.75
507.506	86.75
507.722	83.75
507.939	95.75
508.155	88.75
508.372	85.75
508.588	97.75
508.805	78.75
509.021	86.75
509.238	97.75
509.454	89.75
509.67	89.75
509.887	98.75
510.103	99.75
510.319	88.75
510.536	91.75
510.752	86.75
510.968	92.75
511.184	92.75
511.401	90.75
511.617	100.75
511.833	90.75
512.049	81.75
512.265	92.75
512.481	98.75
512.698	89.75
512.914	97.75
513.13	83.75
513.346	83.75
513.562	92.75
513.778	86.75
513.994	91.75
514.21	79.75
514.426	98.75
514.642	92.75
514.858	75.75
515.074	95.75
