Data from 18505_1_HRD10591_00005.txt Node
Date: Mon Jan 19 13:58:33 EST 2026
User: Yrep
Spectrometer: HR+D1059
Trigger mode: 1
Integration Time (sec): 1.000000E-1
Scans to average: 1
Electric dark correction enabled: true
Nonlinearity correction enabled: false
Boxcar width: 0
XAxis mode: Wavelengths
Number of Pixels in Spectrum: 2048
>>>>>Begin Spectral Data<<<<<
223.165	-12.62
223.4	-12.62
223.635	-12.62
223.869	-14.62
224.104	-27.62
224.338	-9.62
224.573	-17.62
224.808	-18.62
225.042	-4.62
225.277	-5.62
225.511	-15.62
225.746	4.38
225.98	11.38
226.215	2.38
226.449	24.38
226.683	17.38
226.918	27.38
227.152	39.38
227.387	24.38
227.621	38.38
227.856	33.38
228.09	57.38
228.324	44.38
228.559	41.38
228.793	45.38
229.027	69.38
229.262	59.38
229.496	67.38
229.73	75.38
229.964	70.38
230.199	61.38
230.433	73.38
230.667	95.38
230.901	80.38
231.136	68.38
231.37	83.38
231.604	89.38
231.838	71.38
232.072	81.38
232.306	79.38
232.541	84.38
232.775	78.38
233.009	79.38
233.243	91.38
233.477	77.38
233.711	77.38
233.945	99.38
234.179	79.38
234.413	79.38
234.647	54.38
234.881	88.38
235.115	65.38
235.349	85.38
235.583	68.38
235.817	77.38
236.051	75.38
236.285	69.38
236.519	54.38
236.753	77.38
236.987	79.38
237.221	74.38
237.455	72.38
237.689	78.38
237.922	76.38
238.156	68.38
238.39	71.38
238.624	90.38
238.858	74.38
239.091	70.38
239.325	64.38
239.559	77.38
239.793	68.38
240.027	78.38
240.26	68.38
240.494	82.38
240.728	62.38
240.961	79.38
241.195	79.38
241.429	64.38
241.662	74.38
241.896	83.38
242.13	74.38
242.363	75.38
242.597	80.38
242.83	67.38
243.064	73.38
243.298	67.38
243.531	73.38
243.765	63.38
243.998	79.38
244.232	85.38
244.465	57.38
244.699	74.38
244.932	67.38
245.166	75.38
245.399	82.38
245.633	85.38
245.866	61.38
246.099	79.38
246.333	83.38
246.566	82.38
246.8	79.38
247.033	81.38
247.266	75.38
247.5	77.38
247.733	76.38
247.966	72.38
248.2	75.38
248.433	77.38
248.666	81.38
248.899	77.38
249.133	90.38
249.366	77.38
249.599	82.38
249.832	75.38
250.066	73.38
250.299	69.38
250.532	70.38
250.765	84.38
250.998	79.38
251.231	87.38
251.465	79.38
251.698	85.38
251.931	71.38
252.164	79.38
252.397	81.38
252.63	79.38
252.863	58.38
253.096	82.38
253.329	76.38
253.562	72.38
253.795	66.38
254.028	74.38
254.261	66.38
254.494	71.38
254.727	77.38
254.96	70.38
255.193	68.38
255.426	74.38
255.659	77.38
255.892	89.38
256.124	67.38
256.357	76.38
256.59	75.38
256.823	76.38
257.056	72.38
257.289	85.38
257.521	77.38
257.754	85.38
257.987	58.38
258.22	65.38
258.452	87.38
258.685	73.38
258.918	75.38
259.151	78.38
259.383	85.38
259.616	83.38
259.849	87.38
260.081	82.38
260.314	69.38
260.547	66.38
260.779	79.38
261.012	92.38
261.244	75.38
261.477	94.38
261.71	80.38
261.942	75.38
262.175	87.38
262.407	73.38
262.64	89.38
262.872	73.38
263.105	76.38
263.337	85.38
263.57	80.38
263.802	87.38
264.035	74.38
264.267	69.38
264.499	94.38
264.732	81.38
264.964	71.38
265.197	77.38
265.429	78.38
265.661	90.38
265.894	78.38
266.126	87.38
266.358	69.38
266.591	69.38
266.823	78.38
267.055	78.38
267.287	78.38
267.52	86.38
267.752	84.38
267.984	71.38
268.216	78.38
268.448	75.38
268.681	77.38
268.913	85.38
269.145	94.38
269.377	97.38
269.609	77.38
269.841	75.38
270.073	68.38
270.306	80.38
270.538	78.38
270.77	78.38
271.002	84.38
271.234	79.38
271.466	80.38
271.698	85.38
271.93	96.38
272.162	91.38
272.394	96.38
272.626	85.38
272.858	79.38
273.09	75.38
273.322	82.38
273.553	78.38
273.785	80.38
274.017	83.38
274.249	93.38
274.481	73.38
274.713	67.38
274.945	80.38
275.176	78.38
275.408	98.38
275.64	82.38
275.872	84.38
276.104	85.38
276.335	74.38
276.567	76.38
276.799	71.38
277.031	77.38
277.262	69.38
277.494	67.38
277.726	75.38
277.957	77.38
278.189	75.38
278.421	85.38
278.652	81.38
278.884	66.38
279.115	77.38
279.347	89.38
279.579	95.38
279.81	88.38
280.042	77.38
280.273	81.38
280.505	84.38
280.736	88.38
280.968	77.38
281.199	76.38
281.431	85.38
281.662	72.38
281.894	84.38
282.125	73.38
282.356	81.38
282.588	87.38
282.819	100.38
283.051	81.38
283.282	70.38
283.513	85.38
283.745	97.38
283.976	87.38
284.207	78.38
284.439	92.38
284.67	91.38
284.901	69.38
285.132	71.38
285.364	83.38
285.595	86.38
285.826	84.38
286.057	82.38
286.288	76.38
286.52	85.38
286.751	87.38
286.982	85.38
287.213	84.38
287.444	82.38
287.675	89.38
287.906	88.38
288.138	81.38
288.369	84.38
288.6	70.38
288.831	87.38
289.062	78.38
289.293	67.38
289.524	93.38
289.755	85.38
289.986	83.38
290.217	67.38
290.448	73.38
290.679	75.38
290.91	92.38
291.141	83.38
291.371	81.38
291.602	74.38
291.833	87.38
292.064	78.38
292.295	69.38
292.526	89.38
292.757	87.38
292.987	78.38
293.218	75.38
293.449	75.38
293.68	75.38
293.91	80.38
294.141	89.38
294.372	76.38
294.603	77.38
294.833	83.38
295.064	82.38
295.295	78.38
295.525	78.38
295.756	90.38
295.987	79.38
296.217	87.38
296.448	86.38
296.679	83.38
296.909	94.38
297.14	86.38
297.37	92.38
297.601	76.38
297.831	80.38
298.062	77.38
298.292	77.38
298.523	86.38
298.753	80.38
298.984	87.38
299.214	91.38
299.445	69.38
299.675	91.38
299.905	82.38
300.136	79.38
300.366	92.38
300.597	72.38
300.827	80.38
301.057	84.38
301.288	66.38
301.518	74.38
301.748	83.38
301.979	103.38
302.209	89.38
302.439	76.38
302.669	103.38
302.9	84.38
303.13	70.38
303.36	86.38
303.59	83.38
303.82	90.38
304.051	86.38
304.281	75.38
304.511	77.38
304.741	80.38
304.971	86.38
305.201	75.38
305.431	90.38
305.661	78.38
305.891	75.38
306.121	66.38
306.352	76.38
306.582	93.38
306.812	81.38
307.042	78.38
307.272	81.38
307.502	69.38
307.731	65.38
307.961	89.38
308.191	80.38
308.421	84.38
308.651	78.38
308.881	76.38
309.111	87.38
309.341	96.38
309.571	90.38
309.8	89.38
310.03	90.38
310.26	85.38
310.49	76.38
310.72	89.38
310.949	87.38
311.179	87.38
311.409	80.38
311.639	80.38
311.868	85.38
312.098	86.38
312.328	102.38
312.557	87.38
312.787	94.38
313.017	89.38
313.246	89.38
313.476	74.38
313.706	82.38
313.935	82.38
314.165	80.38
314.394	80.38
314.624	81.38
314.853	101.38
315.083	89.38
315.312	93.38
315.542	74.38
315.771	87.38
316.001	94.38
316.23	80.38
316.46	74.38
316.689	81.38
316.919	86.38
317.148	77.38
317.377	86.38
317.607	91.38
317.836	95.38
318.065	89.38
318.295	101.38
318.524	78.38
318.753	63.38
318.983	78.38
319.212	76.38
319.441	71.38
319.67	83.38
319.9	81.38
320.129	80.38
320.358	82.38
320.587	83.38
320.816	77.38
321.046	83.38
321.275	85.38
321.504	74.38
321.733	89.38
321.962	92.38
322.191	83.38
322.42	71.38
322.649	90.38
322.878	81.38
323.108	89.38
323.337	88.38
323.566	85.38
323.795	95.38
324.024	89.38
324.253	81.38
324.482	83.38
324.71	73.38
324.939	87.38
325.168	86.38
325.397	79.38
325.626	83.38
325.855	69.38
326.084	88.38
326.313	83.38
326.542	84.38
326.77	93.38
326.999	89.38
327.228	78.38
327.457	99.38
327.686	82.38
327.914	86.38
328.143	103.38
328.372	86.38
328.6	83.38
328.829	85.38
329.058	78.38
329.287	85.38
329.515	79.38
329.744	82.38
329.972	83.38
330.201	81.38
330.43	93.38
330.658	85.38
330.887	75.38
331.115	100.38
331.344	79.38
331.572	83.38
331.801	74.38
332.03	79.38
332.258	83.38
332.486	88.38
332.715	89.38
332.943	74.38
333.172	89.38
333.4	79.38
333.629	77.38
333.857	84.38
334.085	76.38
334.314	91.38
334.542	74.38
334.771	93.38
334.999	88.38
335.227	88.38
335.455	89.38
335.684	98.38
335.912	76.38
336.14	88.38
336.369	75.38
336.597	80.38
336.825	83.38
337.053	84.38
337.281	77.38
337.51	96.38
337.738	81.38
337.966	73.38
338.194	87.38
338.422	77.38
338.65	97.38
338.878	88.38
339.106	76.38
339.334	83.38
339.562	81.38
339.79	86.38
340.018	90.38
340.246	95.38
340.474	78.38
340.702	79.38
340.93	82.38
341.158	90.38
341.386	92.38
341.614	74.38
341.842	88.38
342.07	77.38
342.298	96.38
342.526	81.38
342.754	75.38
342.981	96.38
343.209	79.38
343.437	106.38
343.665	86.38
343.893	85.38
344.12	93.38
344.348	83.38
344.576	92.38
344.804	81.38
345.031	91.38
345.259	77.38
345.487	82.38
345.714	96.38
345.942	78.38
346.17	81.38
346.397	93.38
346.625	81.38
346.853	81.38
347.08	77.38
347.308	85.38
347.535	89.38
347.763	66.38
347.99	74.38
348.218	93.38
348.445	88.38
348.673	89.38
348.9	82.38
349.128	96.38
349.355	92.38
349.583	82.38
349.81	89.38
350.037	78.38
350.265	96.38
350.492	79.38
350.72	81.38
350.947	84.38
351.174	69.38
351.402	72.38
351.629	87.38
351.856	89.38
352.083	89.38
352.311	82.38
352.538	81.38
352.765	77.38
352.992	115.38
353.22	91.38
353.447	82.38
353.674	82.38
353.901	88.38
354.128	72.38
354.355	92.38
354.583	88.38
354.81	90.38
355.037	86.38
355.264	98.38
355.491	85.38
355.718	77.38
355.945	98.38
356.172	85.38
356.399	75.38
356.626	84.38
356.853	87.38
357.08	93.38
357.307	83.38
357.534	100.38
357.761	97.38
357.988	99.38
358.215	100.38
358.441	78.38
358.668	88.38
358.895	85.38
359.122	83.38
359.349	75.38
359.576	87.38
359.802	87.38
360.029	93.38
360.256	89.38
360.483	84.38
360.709	89.38
360.936	89.38
361.163	81.38
361.39	98.38
361.616	96.38
361.843	81.38
362.07	84.38
362.296	94.38
362.523	97.38
362.749	84.38
362.976	98.38
363.203	114.38
363.429	108.38
363.656	91.38
363.882	97.38
364.109	116.38
364.335	105.38
364.562	130.38
364.788	96.38
365.015	92.38
365.241	80.38
365.468	107.38
365.694	86.38
365.92	86.38
366.147	84.38
366.373	89.38
366.599	89.38
366.826	71.38
367.052	74.38
367.278	79.38
367.505	91.38
367.731	90.38
367.957	77.38
368.184	86.38
368.41	79.38
368.636	87.38
368.862	84.38
369.089	80.38
369.315	87.38
369.541	89.38
369.767	75.38
369.993	95.38
370.219	84.38
370.445	83.38
370.672	91.38
370.898	99.38
371.124	77.38
371.35	86.38
371.576	85.38
371.802	69.38
372.028	97.38
372.254	97.38
372.48	83.38
372.706	85.38
372.932	83.38
373.158	92.38
373.384	107.38
373.61	115.38
373.835	117.38
374.061	97.38
374.287	89.38
374.513	87.38
374.739	80.38
374.965	95.38
375.191	93.38
375.416	89.38
375.642	87.38
375.868	85.38
376.094	93.38
376.319	63.38
376.545	75.38
376.771	93.38
376.997	80.38
377.222	95.38
377.448	82.38
377.674	89.38
377.899	95.38
378.125	93.38
378.35	97.38
378.576	74.38
378.802	81.38
379.027	84.38
379.253	71.38
379.478	80.38
379.704	73.38
379.929	78.38
380.155	80.38
380.38	84.38
380.606	84.38
380.831	83.38
381.057	86.38
381.282	89.38
381.507	93.38
381.733	93.38
381.958	76.38
382.184	96.38
382.409	97.38
382.634	102.38
382.86	91.38
383.085	90.38
383.31	92.38
383.535	97.38
383.761	99.38
383.986	97.38
384.211	89.38
384.436	82.38
384.662	72.38
384.887	99.38
385.112	84.38
385.337	97.38
385.562	82.38
385.787	89.38
386.013	96.38
386.238	97.38
386.463	93.38
386.688	98.38
386.913	94.38
387.138	86.38
387.363	98.38
387.588	91.38
387.813	87.38
388.038	92.38
388.263	99.38
388.488	87.38
388.713	82.38
388.938	83.38
389.163	71.38
389.387	85.38
389.612	86.38
389.837	71.38
390.062	84.38
390.287	89.38
390.512	85.38
390.736	78.38
390.961	88.38
391.186	94.38
391.411	78.38
391.636	89.38
391.86	93.38
392.085	96.38
392.31	107.38
392.534	109.38
392.759	110.38
392.984	196.38
393.208	347.38
393.433	525.38
393.658	397.38
393.882	162.38
394.107	114.38
394.331	117.38
394.556	119.38
394.78	97.38
395.005	105.38
395.229	77.38
395.454	95.38
395.678	94.38
395.903	120.38
396.127	133.38
396.352	173.38
396.576	199.38
396.801	346.38
397.025	409.38
397.249	201.38
397.474	116.38
397.698	95.38
397.922	89.38
398.147	81.38
398.371	83.38
398.595	89.38
398.82	78.38
399.044	80.38
399.268	83.38
399.492	89.38
399.717	81.38
399.941	85.38
400.165	83.38
400.389	78.38
400.613	90.38
400.837	92.38
401.062	94.38
401.286	93.38
401.51	77.38
401.734	83.38
401.958	69.38
402.182	91.38
402.406	84.38
402.63	82.38
402.854	101.38
403.078	90.38
403.302	80.38
403.526	84.38
403.75	80.38
403.974	94.38
404.198	93.38
404.422	86.38
404.645	93.38
404.869	87.38
405.093	77.38
405.317	85.38
405.541	81.38
405.765	90.38
405.988	75.38
406.212	73.38
406.436	84.38
406.66	81.38
406.883	79.38
407.107	79.38
407.331	86.38
407.555	100.38
407.778	126.38
408.002	130.38
408.226	71.38
408.449	89.38
408.673	78.38
408.896	89.38
409.12	91.38
409.344	106.38
409.567	94.38
409.791	116.38
410.014	99.38
410.238	87.38
410.461	81.38
410.685	100.38
410.908	65.38
411.132	92.38
411.355	92.38
411.578	73.38
411.802	75.38
412.025	72.38
412.249	83.38
412.472	79.38
412.695	90.38
412.919	88.38
413.142	79.38
413.365	90.38
413.589	96.38
413.812	76.38
414.035	91.38
414.258	93.38
414.482	87.38
414.705	89.38
414.928	85.38
415.151	82.38
415.374	85.38
415.597	89.38
415.821	63.38
416.044	69.38
416.267	85.38
416.49	84.38
416.713	85.38
416.936	86.38
417.159	89.38
417.382	82.38
417.605	99.38
417.828	82.38
418.051	87.38
418.274	82.38
418.497	79.38
418.72	85.38
418.943	109.38
419.166	82.38
419.389	70.38
419.611	72.38
419.834	87.38
420.057	87.38
420.28	87.38
420.503	93.38
420.726	77.38
420.948	82.38
421.171	90.38
421.394	98.38
421.617	135.38
421.839	122.38
422.062	120.38
422.285	158.38
422.507	267.38
422.73	437.38
422.953	373.38
423.175	190.38
423.398	124.38
423.621	118.38
423.843	88.38
424.066	80.38
424.288	79.38
424.511	95.38
424.733	89.38
424.956	87.38
425.178	71.38
425.401	85.38
425.623	87.38
425.846	80.38
426.068	88.38
426.291	87.38
426.513	75.38
426.735	77.38
426.958	91.38
427.18	85.38
427.402	86.38
427.625	98.38
427.847	86.38
428.069	94.38
428.292	121.38
428.514	153.38
428.736	106.38
428.958	121.38
429.181	136.38
429.403	97.38
429.625	89.38
429.847	110.38
430.069	156.38
430.292	197.38
430.514	179.38
430.736	137.38
430.958	154.38
431.18	98.38
431.402	98.38
431.624	85.38
431.846	134.38
432.068	131.38
432.29	99.38
432.512	86.38
432.734	77.38
432.956	90.38
433.178	94.38
433.4	72.38
433.622	99.38
433.844	75.38
434.066	81.38
434.287	73.38
434.509	76.38
434.731	81.38
434.953	77.38
435.175	77.38
435.397	90.38
435.618	100.38
435.84	81.38
436.062	73.38
436.284	78.38
436.505	81.38
436.727	78.38
436.949	90.38
437.17	77.38
437.392	77.38
437.614	84.38
437.835	76.38
438.057	84.38
438.278	86.38
438.5	100.38
438.721	100.38
438.943	101.38
439.165	75.38
439.386	75.38
439.608	102.38
439.829	76.38
440.05	82.38
440.272	91.38
440.493	65.38
440.715	81.38
440.936	70.38
441.158	77.38
441.379	86.38
441.6	87.38
441.822	76.38
442.043	81.38
442.264	91.38
442.486	126.38
442.707	163.38
442.928	113.38
443.149	101.38
443.371	163.38
443.592	237.38
443.813	219.38
444.034	117.38
444.255	99.38
444.476	77.38
444.698	99.38
444.919	97.38
445.14	178.38
445.361	208.38
445.582	322.38
445.803	262.38
446.024	121.38
446.245	107.38
446.466	86.38
446.687	75.38
446.908	88.38
447.129	91.38
447.35	86.38
447.571	87.38
447.792	78.38
448.013	81.38
448.234	85.38
448.455	94.38
448.675	89.38
448.896	77.38
449.117	81.38
449.338	80.38
449.559	78.38
449.779	88.38
450	83.38
450.221	77.38
450.442	76.38
450.662	81.38
450.883	89.38
451.104	82.38
451.324	83.38
451.545	80.38
451.766	79.38
451.986	84.38
452.207	98.38
452.428	86.38
452.648	100.38
452.869	87.38
453.089	86.38
453.31	90.38
453.53	98.38
453.751	78.38
453.971	75.38
454.192	87.38
454.412	71.38
454.633	75.38
454.853	83.38
455.073	71.38
455.294	83.38
455.514	87.38
455.734	87.38
455.955	84.38
456.175	72.38
456.395	78.38
456.616	71.38
456.836	79.38
457.056	103.38
457.276	76.38
457.497	66.38
457.717	89.38
457.937	105.38
458.157	118.38
458.377	126.38
458.598	107.38
458.818	119.38
459.038	99.38
459.258	93.38
459.478	86.38
459.698	85.38
459.918	90.38
460.138	89.38
460.358	82.38
460.578	95.38
460.798	115.38
461.018	102.38
461.238	95.38
461.458	81.38
461.678	71.38
461.898	88.38
462.118	85.38
462.338	73.38
462.558	94.38
462.777	67.38
462.997	81.38
463.217	86.38
463.437	90.38
463.657	82.38
463.876	71.38
464.096	88.38
464.316	75.38
464.536	95.38
464.755	83.38
464.975	80.38
465.195	90.38
465.414	74.38
465.634	85.38
465.854	67.38
466.073	77.38
466.293	75.38
466.512	83.38
466.732	82.38
466.951	78.38
467.171	87.38
467.391	85.38
467.61	80.38
467.829	88.38
468.049	76.38
468.268	81.38
468.488	75.38
468.707	83.38
468.927	82.38
469.146	68.38
469.365	71.38
469.585	73.38
469.804	84.38
470.023	72.38
470.243	87.38
470.462	77.38
470.681	81.38
470.901	77.38
471.12	97.38
471.339	85.38
471.558	89.38
471.777	80.38
471.997	88.38
472.216	102.38
472.435	70.38
472.654	76.38
472.873	91.38
473.092	94.38
473.311	84.38
473.53	71.38
473.749	76.38
473.968	95.38
474.187	79.38
474.406	83.38
474.625	89.38
474.844	83.38
475.063	83.38
475.282	83.38
475.501	80.38
475.72	95.38
475.939	72.38
476.158	86.38
476.377	82.38
476.596	82.38
476.814	90.38
477.033	80.38
477.252	92.38
477.471	71.38
477.69	98.38
477.908	74.38
478.127	100.38
478.346	75.38
478.564	77.38
478.783	83.38
479.002	82.38
479.22	77.38
479.439	75.38
479.658	77.38
479.876	74.38
480.095	84.38
480.313	76.38
480.532	68.38
480.751	84.38
480.969	90.38
481.188	82.38
481.406	95.38
481.624	88.38
481.843	74.38
482.061	96.38
482.28	72.38
482.498	91.38
482.717	87.38
482.935	84.38
483.153	71.38
483.372	87.38
483.59	90.38
483.808	77.38
484.027	83.38
484.245	82.38
484.463	80.38
484.681	86.38
484.9	86.38
485.118	90.38
485.336	82.38
485.554	85.38
485.772	99.38
485.99	80.38
486.209	74.38
486.427	84.38
486.645	84.38
486.863	84.38
487.081	81.38
487.299	85.38
487.517	102.38
487.735	125.38
487.953	182.38
488.171	129.38
488.389	97.38
488.607	90.38
488.825	83.38
489.043	78.38
489.261	80.38
489.479	89.38
489.696	70.38
489.914	91.38
490.132	95.38
490.35	85.38
490.568	100.38
490.786	94.38
491.003	76.38
491.221	97.38
491.439	93.38
491.657	95.38
491.874	87.38
492.092	67.38
492.31	105.38
492.527	86.38
492.745	81.38
492.963	79.38
493.18	91.38
493.398	91.38
493.615	96.38
493.833	80.38
494.05	87.38
494.268	72.38
494.485	71.38
494.703	78.38
494.92	85.38
495.138	84.38
495.355	91.38
495.573	81.38
495.79	90.38
496.008	98.38
496.225	91.38
496.442	81.38
496.66	101.38
496.877	81.38
497.094	95.38
497.312	81.38
497.529	101.38
497.746	100.38
497.963	85.38
498.181	93.38
498.398	92.38
498.615	91.38
498.832	80.38
499.049	102.38
499.267	85.38
499.484	82.38
499.701	77.38
499.918	91.38
500.135	87.38
500.352	85.38
500.569	89.38
500.786	95.38
501.003	85.38
501.22	81.38
501.437	78.38
501.654	90.38
501.871	75.38
502.088	82.38
502.305	97.38
502.522	83.38
502.739	81.38
502.956	79.38
503.172	85.38
503.389	81.38
503.606	96.38
503.823	80.38
504.04	92.38
504.256	139.38
504.473	135.38
504.69	87.38
504.907	84.38
505.123	82.38
505.34	83.38
505.557	82.38
505.773	77.38
505.99	71.38
506.207	74.38
506.423	75.38
506.64	96.38
506.856	91.38
507.073	81.38
507.289	95.38
507.506	82.38
507.722	85.38
507.939	87.38
508.155	91.38
508.372	90.38
508.588	92.38
508.805	97.38
509.021	95.38
509.238	75.38
509.454	87.38
509.67	79.38
509.887	84.38
510.103	93.38
510.319	75.38
510.536	91.38
510.752	80.38
510.968	88.38
511.184	69.38
511.401	91.38
511.617	93.38
511.833	89.38
512.049	77.38
512.265	67.38
512.481	92.38
512.698	87.38
512.914	74.38
513.13	87.38
513.346	61.38
513.562	65.38
513.778	94.38
513.994	97.38
514.21	89.38
514.426	96.38
514.642	77.38
514.858	81.38
515.074	89.38
515.29	87.38
515.506	83.38
515.721	99.38
515.937	86.38
516.153	77.38
516.369	82.38
516.585	80.38
516.801	83.38
517.016	101.38
517.232	86.38
517.448	100.38
517.664	96.38
517.879	85.38
518.095	82.38
518.311	86.38
518.527	112.38
