Data from 18505_1_HRD10591_00011.txt Node
Date: Mon Jan 19 13:58:36 EST 2026
User: Yrep
Spectrometer: HR+D1059
Trigger mode: 1
Integration Time (sec): 1.000000E-1
Scans to average: 1
Electric dark correction enabled: true
Nonlinearity correction enabled: false
Boxcar width: 0
XAxis mode: Wavelengths
Number of Pixels in Spectrum: 2048
>>>>>Begin Spectral Data<<<<<
223.165	-21.31
223.4	-21.31
223.635	-21.31
223.869	-15.31
224.104	-7.31
224.338	-8.31
224.573	-19.31
224.808	-13.31
225.042	-9.31
225.277	1.69
225.511	-9.31
225.746	-6.31
225.98	8.69
226.215	12.69
226.449	25.69
226.683	20.69
226.918	21.69
227.152	18.69
227.387	21.69
227.621	43.69
227.856	30.69
228.09	47.69
228.324	54.69
228.559	44.69
228.793	38.69
229.027	52.69
229.262	75.69
229.496	48.69
229.73	69.69
229.964	77.69
230.199	90.69
230.433	79.69
230.667	67.69
230.901	66.69
231.136	76.69
231.37	74.69
231.604	73.69
231.838	83.69
232.072	75.69
232.306	85.69
232.541	85.69
232.775	80.69
233.009	78.69
233.243	74.69
233.477	83.69
233.711	64.69
233.945	76.69
234.179	78.69
234.413	68.69
234.647	66.69
234.881	68.69
235.115	71.69
235.349	66.69
235.583	63.69
235.817	58.69
236.051	67.69
236.285	74.69
236.519	64.69
236.753	83.69
236.987	80.69
237.221	73.69
237.455	62.69
237.689	82.69
237.922	83.69
238.156	69.69
238.39	80.69
238.624	69.69
238.858	73.69
239.091	77.69
239.325	66.69
239.559	96.69
239.793	76.69
240.027	87.69
240.26	79.69
240.494	88.69
240.728	71.69
240.961	71.69
241.195	82.69
241.429	64.69
241.662	80.69
241.896	72.69
242.13	73.69
242.363	76.69
242.597	82.69
242.83	78.69
243.064	86.69
243.298	67.69
243.531	71.69
243.765	63.69
243.998	67.69
244.232	70.69
244.465	67.69
244.699	72.69
244.932	70.69
245.166	82.69
245.399	75.69
245.633	68.69
245.866	80.69
246.099	71.69
246.333	82.69
246.566	72.69
246.8	68.69
247.033	84.69
247.266	72.69
247.5	80.69
247.733	67.69
247.966	68.69
248.2	81.69
248.433	83.69
248.666	76.69
248.899	68.69
249.133	84.69
249.366	70.69
249.599	89.69
249.832	82.69
250.066	81.69
250.299	72.69
250.532	80.69
250.765	71.69
250.998	64.69
251.231	62.69
251.465	71.69
251.698	79.69
251.931	90.69
252.164	76.69
252.397	76.69
252.63	83.69
252.863	76.69
253.096	67.69
253.329	71.69
253.562	83.69
253.795	65.69
254.028	76.69
254.261	78.69
254.494	88.69
254.727	82.69
254.96	74.69
255.193	74.69
255.426	69.69
255.659	80.69
255.892	67.69
256.124	79.69
256.357	93.69
256.59	75.69
256.823	77.69
257.056	80.69
257.289	71.69
257.521	93.69
257.754	72.69
257.987	76.69
258.22	82.69
258.452	84.69
258.685	83.69
258.918	83.69
259.151	87.69
259.383	72.69
259.616	70.69
259.849	58.69
260.081	64.69
260.314	83.69
260.547	81.69
260.779	88.69
261.012	79.69
261.244	78.69
261.477	85.69
261.71	84.69
261.942	70.69
262.175	78.69
262.407	61.69
262.64	77.69
262.872	89.69
263.105	71.69
263.337	83.69
263.57	75.69
263.802	82.69
264.035	76.69
264.267	72.69
264.499	77.69
264.732	97.69
264.964	62.69
265.197	69.69
265.429	84.69
265.661	92.69
265.894	66.69
266.126	79.69
266.358	81.69
266.591	87.69
266.823	84.69
267.055	84.69
267.287	84.69
267.52	77.69
267.752	84.69
267.984	70.69
268.216	88.69
268.448	73.69
268.681	72.69
268.913	73.69
269.145	98.69
269.377	81.69
269.609	62.69
269.841	69.69
270.073	87.69
270.306	76.69
270.538	87.69
270.77	81.69
271.002	89.69
271.234	81.69
271.466	79.69
271.698	69.69
271.93	71.69
272.162	77.69
272.394	84.69
272.626	76.69
272.858	84.69
273.09	75.69
273.322	75.69
273.553	71.69
273.785	77.69
274.017	80.69
274.249	79.69
274.481	100.69
274.713	69.69
274.945	87.69
275.176	73.69
275.408	80.69
275.64	84.69
275.872	101.69
276.104	84.69
276.335	87.69
276.567	74.69
276.799	80.69
277.031	61.69
277.262	88.69
277.494	77.69
277.726	89.69
277.957	73.69
278.189	81.69
278.421	75.69
278.652	80.69
278.884	81.69
279.115	68.69
279.347	79.69
279.579	98.69
279.81	93.69
280.042	88.69
280.273	84.69
280.505	79.69
280.736	67.69
280.968	81.69
281.199	90.69
281.431	86.69
281.662	77.69
281.894	82.69
282.125	65.69
282.356	71.69
282.588	83.69
282.819	90.69
283.051	66.69
283.282	81.69
283.513	102.69
283.745	70.69
283.976	86.69
284.207	69.69
284.439	80.69
284.67	71.69
284.901	76.69
285.132	80.69
285.364	95.69
285.595	88.69
285.826	83.69
286.057	91.69
286.288	82.69
286.52	93.69
286.751	83.69
286.982	83.69
287.213	74.69
287.444	83.69
287.675	93.69
287.906	85.69
288.138	86.69
288.369	84.69
288.6	88.69
288.831	83.69
289.062	84.69
289.293	86.69
289.524	79.69
289.755	82.69
289.986	86.69
290.217	86.69
290.448	85.69
290.679	96.69
290.91	70.69
291.141	77.69
291.371	78.69
291.602	87.69
291.833	81.69
292.064	76.69
292.295	82.69
292.526	95.69
292.757	81.69
292.987	78.69
293.218	76.69
293.449	83.69
293.68	79.69
293.91	63.69
294.141	84.69
294.372	70.69
294.603	87.69
294.833	75.69
295.064	65.69
295.295	77.69
295.525	76.69
295.756	63.69
295.987	76.69
296.217	81.69
296.448	79.69
296.679	94.69
296.909	90.69
297.14	95.69
297.37	91.69
297.601	76.69
297.831	82.69
298.062	90.69
298.292	80.69
298.523	76.69
298.753	77.69
298.984	91.69
299.214	80.69
299.445	74.69
299.675	83.69
299.905	103.69
300.136	98.69
300.366	87.69
300.597	84.69
300.827	95.69
301.057	84.69
301.288	95.69
301.518	91.69
301.748	100.69
301.979	93.69
302.209	82.69
302.439	86.69
302.669	85.69
302.9	82.69
303.13	73.69
303.36	77.69
303.59	72.69
303.82	94.69
304.051	84.69
304.281	90.69
304.511	87.69
304.741	78.69
304.971	86.69
305.201	98.69
305.431	73.69
305.661	73.69
305.891	83.69
306.121	82.69
306.352	85.69
306.582	81.69
306.812	79.69
307.042	76.69
307.272	103.69
307.502	82.69
307.731	68.69
307.961	92.69
308.191	78.69
308.421	102.69
308.651	85.69
308.881	92.69
309.111	90.69
309.341	100.69
309.571	84.69
309.8	79.69
310.03	72.69
310.26	81.69
310.49	76.69
310.72	98.69
310.949	82.69
311.179	87.69
311.409	85.69
311.639	78.69
311.868	79.69
312.098	93.69
312.328	97.69
312.557	82.69
312.787	77.69
313.017	87.69
313.246	91.69
313.476	88.69
313.706	82.69
313.935	81.69
314.165	87.69
314.394	92.69
314.624	76.69
314.853	87.69
315.083	76.69
315.312	82.69
315.542	94.69
315.771	86.69
316.001	94.69
316.23	84.69
316.46	88.69
316.689	77.69
316.919	87.69
317.148	82.69
317.377	75.69
317.607	98.69
317.836	100.69
318.065	109.69
318.295	90.69
318.524	78.69
318.753	76.69
318.983	68.69
319.212	88.69
319.441	91.69
319.67	99.69
319.9	84.69
320.129	100.69
320.358	82.69
320.587	72.69
320.816	84.69
321.046	81.69
321.275	88.69
321.504	93.69
321.733	92.69
321.962	80.69
322.191	71.69
322.42	67.69
322.649	88.69
322.878	90.69
323.108	78.69
323.337	90.69
323.566	93.69
323.795	81.69
324.024	82.69
324.253	72.69
324.482	69.69
324.71	74.69
324.939	81.69
325.168	80.69
325.397	88.69
325.626	80.69
325.855	77.69
326.084	73.69
326.313	78.69
326.542	75.69
326.77	72.69
326.999	82.69
327.228	82.69
327.457	76.69
327.686	80.69
327.914	79.69
328.143	96.69
328.372	72.69
328.6	91.69
328.829	82.69
329.058	87.69
329.287	87.69
329.515	76.69
329.744	72.69
329.972	93.69
330.201	75.69
330.43	84.69
330.658	79.69
330.887	80.69
331.115	80.69
331.344	79.69
331.572	92.69
331.801	71.69
332.03	87.69
332.258	81.69
332.486	91.69
332.715	76.69
332.943	71.69
333.172	84.69
333.4	90.69
333.629	81.69
333.857	83.69
334.085	103.69
334.314	88.69
334.542	90.69
334.771	72.69
334.999	74.69
335.227	89.69
335.455	78.69
335.684	95.69
335.912	92.69
336.14	98.69
336.369	86.69
336.597	90.69
336.825	87.69
337.053	82.69
337.281	85.69
337.51	86.69
337.738	76.69
337.966	85.69
338.194	92.69
338.422	86.69
338.65	83.69
338.878	78.69
339.106	78.69
339.334	90.69
339.562	84.69
339.79	78.69
340.018	82.69
340.246	86.69
340.474	84.69
340.702	78.69
340.93	78.69
341.158	78.69
341.386	85.69
341.614	71.69
341.842	75.69
342.07	82.69
342.298	82.69
342.526	90.69
342.754	81.69
342.981	76.69
343.209	80.69
343.437	87.69
343.665	78.69
343.893	79.69
344.12	82.69
344.348	96.69
344.576	91.69
344.804	86.69
345.031	75.69
345.259	85.69
345.487	93.69
345.714	65.69
345.942	71.69
346.17	88.69
346.397	84.69
346.625	80.69
346.853	85.69
347.08	90.69
347.308	91.69
347.535	68.69
347.763	84.69
347.99	99.69
348.218	83.69
348.445	87.69
348.673	73.69
348.9	76.69
349.128	98.69
349.355	101.69
349.583	84.69
349.81	90.69
350.037	87.69
350.265	74.69
350.492	90.69
350.72	82.69
350.947	89.69
351.174	76.69
351.402	90.69
351.629	96.69
351.856	77.69
352.083	75.69
352.311	90.69
352.538	88.69
352.765	92.69
352.992	80.69
353.22	71.69
353.447	68.69
353.674	91.69
353.901	84.69
354.128	90.69
354.355	81.69
354.583	88.69
354.81	78.69
355.037	95.69
355.264	84.69
355.491	74.69
355.718	86.69
355.945	97.69
356.172	87.69
356.399	83.69
356.626	82.69
356.853	82.69
357.08	91.69
357.307	85.69
357.534	80.69
357.761	79.69
357.988	84.69
358.215	96.69
358.441	90.69
358.668	95.69
358.895	80.69
359.122	84.69
359.349	83.69
359.576	80.69
359.802	85.69
360.029	63.69
360.256	79.69
360.483	87.69
360.709	76.69
360.936	84.69
361.163	75.69
361.39	86.69
361.616	80.69
361.843	86.69
362.07	84.69
362.296	101.69
362.523	93.69
362.749	113.69
362.976	122.69
363.203	123.69
363.429	94.69
363.656	98.69
363.882	99.69
364.109	98.69
364.335	121.69
364.562	142.69
364.788	102.69
365.015	97.69
365.241	91.69
365.468	94.69
365.694	84.69
365.92	82.69
366.147	69.69
366.373	81.69
366.599	90.69
366.826	87.69
367.052	84.69
367.278	82.69
367.505	91.69
367.731	86.69
367.957	85.69
368.184	87.69
368.41	86.69
368.636	89.69
368.862	67.69
369.089	85.69
369.315	74.69
369.541	83.69
369.767	86.69
369.993	78.69
370.219	76.69
370.445	87.69
370.672	95.69
370.898	96.69
371.124	94.69
371.35	76.69
371.576	83.69
371.802	90.69
372.028	103.69
372.254	85.69
372.48	79.69
372.706	76.69
372.932	81.69
373.158	96.69
373.384	100.69
373.61	106.69
373.835	116.69
374.061	91.69
374.287	93.69
374.513	77.69
374.739	94.69
374.965	92.69
375.191	89.69
375.416	95.69
375.642	86.69
375.868	82.69
376.094	85.69
376.319	94.69
376.545	83.69
376.771	92.69
376.997	90.69
377.222	81.69
377.448	90.69
377.674	76.69
377.899	85.69
378.125	80.69
378.35	85.69
378.576	92.69
378.802	73.69
379.027	71.69
379.253	90.69
379.478	74.69
379.704	84.69
379.929	84.69
380.155	86.69
380.38	92.69
380.606	76.69
380.831	82.69
381.057	78.69
381.282	84.69
381.507	84.69
381.733	80.69
381.958	97.69
382.184	85.69
382.409	75.69
382.634	90.69
382.86	94.69
383.085	92.69
383.31	105.69
383.535	108.69
383.761	113.69
383.986	106.69
384.211	81.69
384.436	91.69
384.662	86.69
384.887	78.69
385.112	83.69
385.337	102.69
385.562	84.69
385.787	81.69
386.013	109.69
386.238	100.69
386.463	88.69
386.688	106.69
386.913	76.69
387.138	84.69
387.363	100.69
387.588	88.69
387.813	90.69
388.038	85.69
388.263	88.69
388.488	90.69
388.713	103.69
388.938	93.69
389.163	84.69
389.387	93.69
389.612	90.69
389.837	72.69
390.062	87.69
390.287	90.69
390.512	84.69
390.736	79.69
390.961	98.69
391.186	90.69
391.411	87.69
391.636	92.69
391.86	97.69
392.085	95.69
392.31	91.69
392.534	113.69
392.759	132.69
392.984	213.69
393.208	380.69
393.433	578.69
393.658	421.69
393.882	177.69
394.107	129.69
394.331	133.69
394.556	141.69
394.78	127.69
395.005	108.69
395.229	96.69
395.454	98.69
395.678	110.69
395.903	126.69
396.127	156.69
396.352	185.69
396.576	240.69
396.801	374.69
397.025	464.69
397.249	237.69
397.474	143.69
397.698	110.69
397.922	83.69
398.147	80.69
398.371	98.69
398.595	68.69
398.82	90.69
399.044	70.69
399.268	87.69
399.492	80.69
399.717	99.69
399.941	98.69
400.165	86.69
400.389	90.69
400.613	77.69
400.837	86.69
401.062	70.69
401.286	78.69
401.51	84.69
401.734	78.69
401.958	84.69
402.182	94.69
402.406	92.69
402.63	75.69
402.854	71.69
403.078	84.69
403.302	77.69
403.526	76.69
403.75	81.69
403.974	88.69
404.198	82.69
404.422	99.69
404.645	108.69
404.869	89.69
405.093	82.69
405.317	71.69
405.541	82.69
405.765	70.69
405.988	80.69
406.212	92.69
406.436	86.69
406.66	80.69
406.883	86.69
407.107	86.69
407.331	91.69
407.555	99.69
407.778	123.69
408.002	128.69
408.226	94.69
408.449	93.69
408.673	90.69
408.896	79.69
409.12	83.69
409.344	96.69
409.567	91.69
409.791	103.69
410.014	101.69
410.238	98.69
410.461	77.69
410.685	87.69
410.908	69.69
411.132	84.69
411.355	84.69
411.578	93.69
411.802	88.69
412.025	85.69
412.249	80.69
412.472	76.69
412.695	73.69
412.919	94.69
413.142	70.69
413.365	82.69
413.589	86.69
413.812	84.69
414.035	76.69
414.258	99.69
414.482	87.69
414.705	80.69
414.928	96.69
415.151	87.69
415.374	80.69
415.597	86.69
415.821	72.69
416.044	86.69
416.267	99.69
416.49	86.69
416.713	101.69
416.936	84.69
417.159	84.69
417.382	83.69
417.605	86.69
417.828	69.69
418.051	96.69
418.274	90.69
418.497	81.69
418.72	92.69
418.943	77.69
419.166	82.69
419.389	81.69
419.611	103.69
419.834	86.69
420.057	86.69
420.28	90.69
420.503	88.69
420.726	99.69
420.948	84.69
421.171	91.69
421.394	99.69
421.617	150.69
421.839	134.69
422.062	128.69
422.285	176.69
422.507	322.69
422.73	546.69
422.953	498.69
423.175	235.69
423.398	122.69
423.621	98.69
423.843	79.69
424.066	94.69
424.288	102.69
424.511	89.69
424.733	83.69
424.956	84.69
425.178	79.69
425.401	93.69
425.623	78.69
425.846	84.69
426.068	84.69
426.291	94.69
426.513	79.69
426.735	90.69
426.958	78.69
427.18	85.69
427.402	86.69
427.625	90.69
427.847	100.69
428.069	116.69
428.292	151.69
428.514	159.69
428.736	134.69
428.958	140.69
429.181	141.69
429.403	98.69
429.625	104.69
429.847	126.69
430.069	192.69
430.292	213.69
430.514	206.69
430.736	152.69
430.958	159.69
431.18	110.69
431.402	83.69
431.624	92.69
431.846	137.69
432.068	153.69
432.29	108.69
432.512	87.69
432.734	85.69
432.956	89.69
433.178	82.69
433.4	78.69
433.622	59.69
433.844	72.69
434.066	79.69
434.287	83.69
434.509	81.69
434.731	78.69
434.953	77.69
435.175	79.69
435.397	88.69
435.618	87.69
435.84	87.69
436.062	102.69
436.284	85.69
436.505	86.69
436.727	78.69
436.949	88.69
437.17	83.69
437.392	75.69
437.614	80.69
437.835	79.69
438.057	73.69
438.278	82.69
438.5	96.69
438.721	90.69
438.943	92.69
439.165	87.69
439.386	89.69
439.608	77.69
439.829	91.69
440.05	92.69
440.272	72.69
440.493	89.69
440.715	95.69
440.936	85.69
441.158	90.69
441.379	83.69
441.6	90.69
441.822	97.69
442.043	96.69
442.264	97.69
442.486	136.69
442.707	215.69
442.928	145.69
443.149	129.69
443.371	194.69
443.592	318.69
443.813	265.69
444.034	109.69
444.255	99.69
444.476	96.69
444.698	98.69
444.919	79.69
445.14	179.69
445.361	243.69
445.582	375.69
445.803	313.69
446.024	134.69
446.245	90.69
446.466	85.69
446.687	86.69
446.908	78.69
447.129	95.69
447.35	82.69
447.571	68.69
447.792	72.69
448.013	90.69
448.234	83.69
448.455	74.69
448.675	78.69
448.896	84.69
449.117	67.69
449.338	76.69
449.559	80.69
449.779	77.69
450	70.69
450.221	76.69
450.442	78.69
450.662	82.69
450.883	88.69
451.104	77.69
451.324	79.69
451.545	99.69
451.766	82.69
451.986	80.69
452.207	92.69
452.428	77.69
452.648	83.69
452.869	97.69
453.089	98.69
453.31	75.69
453.53	86.69
453.751	79.69
453.971	90.69
454.192	85.69
454.412	82.69
454.633	88.69
454.853	88.69
455.073	86.69
455.294	94.69
455.514	78.69
455.734	79.69
455.955	90.69
456.175	70.69
456.395	72.69
456.616	80.69
456.836	82.69
457.056	95.69
457.276	82.69
457.497	83.69
457.717	98.69
457.937	105.69
458.157	133.69
458.377	143.69
458.598	128.69
458.818	152.69
459.038	102.69
459.258	90.69
459.478	86.69
459.698	87.69
459.918	78.69
460.138	84.69
460.358	83.69
460.578	93.69
460.798	119.69
461.018	129.69
461.238	93.69
461.458	87.69
461.678	75.69
461.898	95.69
462.118	80.69
462.338	75.69
462.558	92.69
462.777	76.69
462.997	80.69
463.217	78.69
463.437	78.69
463.657	69.69
463.876	80.69
464.096	81.69
464.316	75.69
464.536	73.69
464.755	77.69
464.975	86.69
465.195	89.69
465.414	82.69
465.634	84.69
465.854	75.69
466.073	70.69
466.293	89.69
466.512	78.69
466.732	84.69
466.951	79.69
467.171	84.69
467.391	86.69
467.61	91.69
467.829	72.69
468.049	79.69
468.268	82.69
468.488	69.69
468.707	79.69
468.927	94.69
469.146	81.69
469.365	82.69
469.585	95.69
469.804	80.69
470.023	82.69
470.243	65.69
470.462	92.69
470.681	81.69
470.901	89.69
471.12	80.69
471.339	83.69
471.558	86.69
471.777	80.69
471.997	89.69
472.216	82.69
472.435	79.69
472.654	71.69
472.873	74.69
473.092	79.69
473.311	88.69
473.53	78.69
473.749	77.69
473.968	82.69
474.187	67.69
474.406	83.69
474.625	79.69
474.844	88.69
475.063	78.69
475.282	79.69
475.501	77.69
475.72	80.69
475.939	88.69
476.158	78.69
476.377	90.69
476.596	67.69
476.814	70.69
477.033	87.69
477.252	82.69
477.471	91.69
477.69	61.69
477.908	85.69
478.127	84.69
478.346	79.69
478.564	89.69
478.783	73.69
479.002	94.69
479.22	82.69
479.439	86.69
479.658	90.69
479.876	95.69
480.095	87.69
480.313	76.69
480.532	90.69
480.751	72.69
480.969	90.69
481.188	87.69
481.406	79.69
481.624	79.69
481.843	82.69
482.061	74.69
482.28	88.69
482.498	100.69
482.717	79.69
482.935	88.69
483.153	85.69
483.372	85.69
483.59	99.69
483.808	76.69
484.027	82.69
484.245	87.69
484.463	84.69
484.681	88.69
484.9	86.69
485.118	90.69
485.336	82.69
485.554	72.69
485.772	84.69
485.99	92.69
486.209	102.69
486.427	95.69
486.645	81.69
486.863	82.69
487.081	72.69
487.299	76.69
487.517	95.69
487.735	116.69
487.953	204.69
488.171	159.69
488.389	106.69
488.607	81.69
488.825	83.69
489.043	80.69
489.261	102.69
489.479	76.69
489.696	92.69
489.914	81.69
490.132	89.69
490.35	98.69
490.568	82.69
490.786	70.69
491.003	76.69
491.221	76.69
491.439	68.69
491.657	81.69
491.874	70.69
492.092	76.69
492.31	90.69
492.527	87.69
492.745	85.69
492.963	70.69
493.18	75.69
493.398	84.69
493.615	100.69
493.833	84.69
494.05	71.69
494.268	82.69
494.485	75.69
494.703	84.69
494.92	77.69
495.138	78.69
495.355	90.69
495.573	69.69
495.79	67.69
496.008	86.69
496.225	83.69
496.442	79.69
496.66	98.69
496.877	85.69
497.094	79.69
497.312	87.69
497.529	87.69
497.746	94.69
497.963	91.69
498.181	93.69
498.398	86.69
498.615	77.69
498.832	77.69
499.049	96.69
499.267	91.69
499.484	86.69
499.701	91.69
499.918	94.69
500.135	84.69
500.352	70.69
500.569	98.69
500.786	87.69
501.003	82.69
501.22	70.69
501.437	86.69
501.654	76.69
501.871	88.69
502.088	92.69
502.305	90.69
502.522	93.69
502.739	85.69
502.956	92.69
503.172	78.69
503.389	83.69
503.606	82.69
503.823	97.69
504.04	95.69
504.256	159.69
504.473	159.69
504.69	99.69
504.907	99.69
505.123	95.69
505.34	72.69
505.557	87.69
505.773	83.69
505.99	88.69
506.207	76.69
506.423	94.69
506.64	80.69
506.856	93.69
507.073	69.69
507.289	90.69
507.506	94.69
507.722	91.69
507.939	70.69
508.155	77.69
508.372	93.69
508.588	85.69
508.805	82.69
509.021	90.69
509.238	79.69
509.454	74.69
509.67	73.69
509.887	96.69
510.103	74.69
510.319	94.69
510.536	84.69
510.752	92.69
510.968	94.69
511.184	82.69
511.401	66.69
511.617	110.69
511.833	79.69
512.049	87.69
512.265	82.69
512.481	82.69
512.698	80.69
512.914	81.69
513.13	86.69
513.346	67.69
513.562	92.69
513.778	85.69
513.994	94.69
514.21	82.69
514.426	84.69
514.642	84.69
514.858	83.69
515.074	91.69
515.29	75.69
515.506	94.69
515.721	90.69
515.937	76.69
516.153	79.69
516.369	71.69
516.585	86.69
516.801	81.69
517.016	95.69
517.232	83.69
517.448	112.69
517.664	78.69
517.879	95.69
518.095	78.69
518.311	96.69
518.527	122.69
