Data from 18505_1_HRD10591_00001.txt Node
Date: Mon Jan 19 13:58:31 EST 2026
User: Yrep
Spectrometer: HR+D1059
Trigger mode: 1
Integration Time (sec): 1.000000E-1
Scans to average: 1
Electric dark correction enabled: true
Nonlinearity correction enabled: false
Boxcar width: 0
XAxis mode: Wavelengths
Number of Pixels in Spectrum: 2048
>>>>>Begin Spectral Data<<<<<
223.165	-12.88
223.4	-12.88
223.635	-12.88
223.869	-20.88
224.104	-12.88
224.338	-6.88
224.573	-14.88
224.808	-27.88
225.042	0.12
225.277	-19.88
225.511	-2.88
225.746	8.12
225.98	1.12
226.215	23.12
226.449	7.12
226.683	20.12
226.918	29.12
227.152	30.12
227.387	27.12
227.621	37.12
227.856	51.12
228.09	42.12
228.324	55.12
228.559	53.12
228.793	68.12
229.027	60.12
229.262	47.12
229.496	63.12
229.73	75.12
229.964	79.12
230.199	73.12
230.433	72.12
230.667	73.12
230.901	77.12
231.136	67.12
231.37	91.12
231.604	88.12
231.838	68.12
232.072	84.12
232.306	93.12
232.541	80.12
232.775	79.12
233.009	82.12
233.243	73.12
233.477	52.12
233.711	87.12
233.945	59.12
234.179	73.12
234.413	81.12
234.647	73.12
234.881	72.12
235.115	96.12
235.349	71.12
235.583	91.12
235.817	81.12
236.051	76.12
236.285	71.12
236.519	75.12
236.753	73.12
236.987	81.12
237.221	67.12
237.455	72.12
237.689	73.12
237.922	63.12
238.156	73.12
238.39	81.12
238.624	71.12
238.858	79.12
239.091	74.12
239.325	68.12
239.559	74.12
239.793	80.12
240.027	95.12
240.26	65.12
240.494	81.12
240.728	75.12
240.961	85.12
241.195	58.12
241.429	63.12
241.662	62.12
241.896	82.12
242.13	83.12
242.363	77.12
242.597	73.12
242.83	79.12
243.064	77.12
243.298	64.12
243.531	73.12
243.765	72.12
243.998	86.12
244.232	93.12
244.465	65.12
244.699	78.12
244.932	75.12
245.166	65.12
245.399	79.12
245.633	75.12
245.866	74.12
246.099	62.12
246.333	74.12
246.566	72.12
246.8	84.12
247.033	74.12
247.266	65.12
247.5	69.12
247.733	82.12
247.966	65.12
248.2	89.12
248.433	83.12
248.666	79.12
248.899	73.12
249.133	84.12
249.366	76.12
249.599	76.12
249.832	78.12
250.066	76.12
250.299	71.12
250.532	92.12
250.765	78.12
250.998	95.12
251.231	81.12
251.465	77.12
251.698	72.12
251.931	78.12
252.164	88.12
252.397	77.12
252.63	84.12
252.863	68.12
253.096	79.12
253.329	85.12
253.562	81.12
253.795	85.12
254.028	84.12
254.261	87.12
254.494	81.12
254.727	90.12
254.96	91.12
255.193	86.12
255.426	71.12
255.659	69.12
255.892	72.12
256.124	84.12
256.357	89.12
256.59	92.12
256.823	70.12
257.056	68.12
257.289	92.12
257.521	94.12
257.754	62.12
257.987	80.12
258.22	96.12
258.452	79.12
258.685	72.12
258.918	75.12
259.151	81.12
259.383	90.12
259.616	83.12
259.849	83.12
260.081	92.12
260.314	77.12
260.547	87.12
260.779	76.12
261.012	64.12
261.244	69.12
261.477	93.12
261.71	91.12
261.942	96.12
262.175	77.12
262.407	74.12
262.64	75.12
262.872	77.12
263.105	77.12
263.337	74.12
263.57	80.12
263.802	74.12
264.035	69.12
264.267	63.12
264.499	88.12
264.732	83.12
264.964	85.12
265.197	78.12
265.429	87.12
265.661	74.12
265.894	75.12
266.126	71.12
266.358	73.12
266.591	73.12
266.823	81.12
267.055	81.12
267.287	73.12
267.52	74.12
267.752	73.12
267.984	81.12
268.216	76.12
268.448	79.12
268.681	89.12
268.913	67.12
269.145	70.12
269.377	74.12
269.609	92.12
269.841	84.12
270.073	80.12
270.306	78.12
270.538	87.12
270.77	83.12
271.002	62.12
271.234	95.12
271.466	101.12
271.698	86.12
271.93	83.12
272.162	76.12
272.394	80.12
272.626	75.12
272.858	93.12
273.09	73.12
273.322	79.12
273.553	81.12
273.785	72.12
274.017	80.12
274.249	80.12
274.481	72.12
274.713	83.12
274.945	73.12
275.176	82.12
275.408	90.12
275.64	93.12
275.872	76.12
276.104	73.12
276.335	85.12
276.567	78.12
276.799	67.12
277.031	74.12
277.262	84.12
277.494	76.12
277.726	79.12
277.957	75.12
278.189	63.12
278.421	83.12
278.652	73.12
278.884	82.12
279.115	83.12
279.347	79.12
279.579	95.12
279.81	82.12
280.042	87.12
280.273	95.12
280.505	94.12
280.736	87.12
280.968	88.12
281.199	85.12
281.431	86.12
281.662	81.12
281.894	83.12
282.125	97.12
282.356	108.12
282.588	78.12
282.819	85.12
283.051	89.12
283.282	70.12
283.513	88.12
283.745	82.12
283.976	82.12
284.207	81.12
284.439	84.12
284.67	77.12
284.901	79.12
285.132	98.12
285.364	100.12
285.595	88.12
285.826	86.12
286.057	79.12
286.288	95.12
286.52	74.12
286.751	82.12
286.982	82.12
287.213	92.12
287.444	83.12
287.675	87.12
287.906	82.12
288.138	79.12
288.369	83.12
288.6	85.12
288.831	100.12
289.062	83.12
289.293	80.12
289.524	87.12
289.755	89.12
289.986	96.12
290.217	89.12
290.448	81.12
290.679	79.12
290.91	74.12
291.141	85.12
291.371	84.12
291.602	99.12
291.833	81.12
292.064	79.12
292.295	88.12
292.526	79.12
292.757	94.12
292.987	92.12
293.218	82.12
293.449	84.12
293.68	100.12
293.91	73.12
294.141	92.12
294.372	79.12
294.603	77.12
294.833	74.12
295.064	83.12
295.295	88.12
295.525	85.12
295.756	90.12
295.987	76.12
296.217	84.12
296.448	91.12
296.679	89.12
296.909	83.12
297.14	86.12
297.37	93.12
297.601	84.12
297.831	89.12
298.062	97.12
298.292	95.12
298.523	94.12
298.753	70.12
298.984	75.12
299.214	97.12
299.445	83.12
299.675	98.12
299.905	96.12
300.136	86.12
300.366	95.12
300.597	103.12
300.827	90.12
301.057	88.12
301.288	81.12
301.518	90.12
301.748	79.12
301.979	93.12
302.209	93.12
302.439	91.12
302.669	81.12
302.9	91.12
303.13	78.12
303.36	65.12
303.59	87.12
303.82	73.12
304.051	81.12
304.281	80.12
304.511	86.12
304.741	84.12
304.971	88.12
305.201	84.12
305.431	82.12
305.661	81.12
305.891	93.12
306.121	96.12
306.352	89.12
306.582	94.12
306.812	81.12
307.042	86.12
307.272	81.12
307.502	83.12
307.731	96.12
307.961	89.12
308.191	87.12
308.421	90.12
308.651	101.12
308.881	93.12
309.111	98.12
309.341	112.12
309.571	92.12
309.8	79.12
310.03	79.12
310.26	83.12
310.49	97.12
310.72	78.12
310.949	80.12
311.179	80.12
311.409	85.12
311.639	79.12
311.868	77.12
312.098	77.12
312.328	76.12
312.557	82.12
312.787	76.12
313.017	85.12
313.246	88.12
313.476	85.12
313.706	67.12
313.935	84.12
314.165	86.12
314.394	79.12
314.624	87.12
314.853	87.12
315.083	88.12
315.312	94.12
315.542	96.12
315.771	106.12
316.001	123.12
316.23	91.12
316.46	83.12
316.689	79.12
316.919	86.12
317.148	95.12
317.377	87.12
317.607	84.12
317.836	87.12
318.065	99.12
318.295	100.12
318.524	100.12
318.753	94.12
318.983	87.12
319.212	91.12
319.441	91.12
319.67	91.12
319.9	90.12
320.129	83.12
320.358	89.12
320.587	80.12
320.816	87.12
321.046	84.12
321.275	85.12
321.504	84.12
321.733	98.12
321.962	91.12
322.191	92.12
322.42	85.12
322.649	87.12
322.878	113.12
323.108	88.12
323.337	73.12
323.566	80.12
323.795	87.12
324.024	84.12
324.253	91.12
324.482	93.12
324.71	84.12
324.939	85.12
325.168	93.12
325.397	82.12
325.626	100.12
325.855	87.12
326.084	95.12
326.313	87.12
326.542	83.12
326.77	87.12
326.999	79.12
327.228	86.12
327.457	82.12
327.686	81.12
327.914	59.12
328.143	86.12
328.372	89.12
328.6	80.12
328.829	81.12
329.058	104.12
329.287	89.12
329.515	79.12
329.744	97.12
329.972	98.12
330.201	98.12
330.43	88.12
330.658	80.12
330.887	84.12
331.115	83.12
331.344	81.12
331.572	84.12
331.801	85.12
332.03	93.12
332.258	81.12
332.486	84.12
332.715	87.12
332.943	87.12
333.172	83.12
333.4	81.12
333.629	93.12
333.857	93.12
334.085	95.12
334.314	105.12
334.542	95.12
334.771	88.12
334.999	105.12
335.227	104.12
335.455	79.12
335.684	92.12
335.912	115.12
336.14	115.12
336.369	108.12
336.597	94.12
336.825	86.12
337.053	77.12
337.281	101.12
337.51	69.12
337.738	84.12
337.966	102.12
338.194	82.12
338.422	95.12
338.65	80.12
338.878	84.12
339.106	91.12
339.334	93.12
339.562	84.12
339.79	75.12
340.018	91.12
340.246	81.12
340.474	90.12
340.702	86.12
340.93	80.12
341.158	85.12
341.386	85.12
341.614	87.12
341.842	79.12
342.07	74.12
342.298	87.12
342.526	95.12
342.754	94.12
342.981	84.12
343.209	84.12
343.437	90.12
343.665	83.12
343.893	83.12
344.12	96.12
344.348	94.12
344.576	90.12
344.804	79.12
345.031	76.12
345.259	87.12
345.487	85.12
345.714	82.12
345.942	95.12
346.17	96.12
346.397	79.12
346.625	94.12
346.853	92.12
347.08	98.12
347.308	93.12
347.535	90.12
347.763	89.12
347.99	82.12
348.218	89.12
348.445	82.12
348.673	96.12
348.9	96.12
349.128	95.12
349.355	88.12
349.583	82.12
349.81	85.12
350.037	93.12
350.265	91.12
350.492	99.12
350.72	80.12
350.947	72.12
351.174	97.12
351.402	75.12
351.629	71.12
351.856	83.12
352.083	89.12
352.311	93.12
352.538	89.12
352.765	86.12
352.992	97.12
353.22	81.12
353.447	85.12
353.674	71.12
353.901	86.12
354.128	88.12
354.355	98.12
354.583	93.12
354.81	95.12
355.037	96.12
355.264	89.12
355.491	89.12
355.718	96.12
355.945	81.12
356.172	100.12
356.399	104.12
356.626	77.12
356.853	93.12
357.08	86.12
357.307	76.12
357.534	90.12
357.761	102.12
357.988	103.12
358.215	108.12
358.441	111.12
358.668	87.12
358.895	85.12
359.122	107.12
359.349	96.12
359.576	107.12
359.802	101.12
360.029	86.12
360.256	96.12
360.483	103.12
360.709	92.12
360.936	91.12
361.163	96.12
361.39	79.12
361.616	101.12
361.843	88.12
362.07	103.12
362.296	107.12
362.523	136.12
362.749	139.12
362.976	166.12
363.203	185.12
363.429	122.12
363.656	113.12
363.882	105.12
364.109	142.12
364.335	185.12
364.562	212.12
364.788	150.12
365.015	109.12
365.241	100.12
365.468	107.12
365.694	89.12
365.92	90.12
366.147	109.12
366.373	86.12
366.599	97.12
366.826	87.12
367.052	102.12
367.278	73.12
367.505	79.12
367.731	104.12
367.957	99.12
368.184	103.12
368.41	102.12
368.636	88.12
368.862	94.12
369.089	83.12
369.315	75.12
369.541	95.12
369.767	85.12
369.993	92.12
370.219	90.12
370.445	107.12
370.672	103.12
370.898	103.12
371.124	102.12
371.35	80.12
371.576	92.12
371.802	95.12
372.028	97.12
372.254	112.12
372.48	86.12
372.706	75.12
372.932	71.12
373.158	101.12
373.384	103.12
373.61	129.12
373.835	148.12
374.061	103.12
374.287	98.12
374.513	103.12
374.739	112.12
374.965	123.12
375.191	93.12
375.416	103.12
375.642	95.12
375.868	108.12
376.094	99.12
376.319	83.12
376.545	90.12
376.771	95.12
376.997	95.12
377.222	83.12
377.448	81.12
377.674	95.12
377.899	95.12
378.125	83.12
378.35	89.12
378.576	89.12
378.802	81.12
379.027	94.12
379.253	102.12
379.478	109.12
379.704	95.12
379.929	89.12
380.155	100.12
380.38	93.12
380.606	86.12
380.831	92.12
381.057	83.12
381.282	90.12
381.507	99.12
381.733	108.12
381.958	116.12
382.184	111.12
382.409	108.12
382.634	117.12
382.86	101.12
383.085	104.12
383.31	107.12
383.535	96.12
383.761	107.12
383.986	131.12
384.211	100.12
384.436	97.12
384.662	98.12
384.887	101.12
385.112	81.12
385.337	110.12
385.562	92.12
385.787	100.12
386.013	102.12
386.238	103.12
386.463	103.12
386.688	113.12
386.913	100.12
387.138	95.12
387.363	112.12
387.588	109.12
387.813	123.12
388.038	112.12
388.263	96.12
388.488	107.12
388.713	105.12
388.938	114.12
389.163	103.12
389.387	86.12
389.612	105.12
389.837	107.12
390.062	97.12
390.287	90.12
390.512	88.12
390.736	97.12
390.961	91.12
391.186	99.12
391.411	91.12
391.636	86.12
391.86	111.12
392.085	112.12
392.31	121.12
392.534	119.12
392.759	157.12
392.984	256.12
393.208	480.12
393.433	688.12
393.658	509.12
393.882	219.12
394.107	151.12
394.331	147.12
394.556	149.12
394.78	129.12
395.005	114.12
395.229	109.12
395.454	113.12
395.678	139.12
395.903	164.12
396.127	198.12
396.352	213.12
396.576	291.12
396.801	466.12
397.025	535.12
397.249	290.12
397.474	171.12
397.698	143.12
397.922	120.12
398.147	113.12
398.371	103.12
398.595	98.12
398.82	93.12
399.044	93.12
399.268	100.12
399.492	92.12
399.717	88.12
399.941	92.12
400.165	85.12
400.389	80.12
400.613	93.12
400.837	93.12
401.062	95.12
401.286	92.12
401.51	84.12
401.734	81.12
401.958	86.12
402.182	80.12
402.406	89.12
402.63	88.12
402.854	87.12
403.078	90.12
403.302	75.12
403.526	108.12
403.75	88.12
403.974	79.12
404.198	96.12
404.422	93.12
404.645	102.12
404.869	93.12
405.093	99.12
405.317	94.12
405.541	86.12
405.765	82.12
405.988	100.12
406.212	97.12
406.436	101.12
406.66	92.12
406.883	90.12
407.107	101.12
407.331	96.12
407.555	112.12
407.778	150.12
408.002	150.12
408.226	96.12
408.449	86.12
408.673	84.12
408.896	92.12
409.12	91.12
409.344	117.12
409.567	125.12
409.791	138.12
410.014	125.12
410.238	118.12
410.461	99.12
410.685	115.12
410.908	103.12
411.132	92.12
411.355	106.12
411.578	109.12
411.802	89.12
412.025	91.12
412.249	87.12
412.472	83.12
412.695	81.12
412.919	79.12
413.142	101.12
413.365	91.12
413.589	96.12
413.812	81.12
414.035	101.12
414.258	84.12
414.482	88.12
414.705	94.12
414.928	101.12
415.151	71.12
415.374	88.12
415.597	86.12
415.821	93.12
416.044	89.12
416.267	85.12
416.49	95.12
416.713	102.12
416.936	104.12
417.159	83.12
417.382	87.12
417.605	95.12
417.828	90.12
418.051	85.12
418.274	100.12
418.497	98.12
418.72	82.12
418.943	85.12
419.166	89.12
419.389	91.12
419.611	96.12
419.834	106.12
420.057	95.12
420.28	113.12
420.503	92.12
420.726	100.12
420.948	115.12
421.171	131.12
421.394	153.12
421.617	182.12
421.839	182.12
422.062	222.12
422.285	335.12
422.507	653.12
422.73	985.12
422.953	861.12
423.175	441.12
423.398	237.12
423.621	177.12
423.843	134.12
424.066	128.12
424.288	130.12
424.511	107.12
424.733	97.12
424.956	103.12
425.178	105.12
425.401	102.12
425.623	87.12
425.846	104.12
426.068	118.12
426.291	100.12
426.513	111.12
426.735	89.12
426.958	102.12
427.18	99.12
427.402	108.12
427.625	95.12
427.847	110.12
428.069	137.12
428.292	199.12
428.514	224.12
428.736	164.12
428.958	213.12
429.181	217.12
429.403	117.12
429.625	126.12
429.847	189.12
430.069	294.12
430.292	323.12
430.514	304.12
430.736	217.12
430.958	253.12
431.18	144.12
431.402	106.12
431.624	130.12
431.846	191.12
432.068	214.12
432.29	121.12
432.512	90.12
432.734	87.12
432.956	100.12
433.178	97.12
433.4	83.12
433.622	106.12
433.844	95.12
434.066	90.12
434.287	98.12
434.509	92.12
434.731	84.12
434.953	71.12
435.175	96.12
435.397	104.12
435.618	117.12
435.84	124.12
436.062	101.12
436.284	83.12
436.505	89.12
436.727	80.12
436.949	86.12
437.17	96.12
437.392	97.12
437.614	88.12
437.835	87.12
438.057	95.12
438.278	104.12
438.5	102.12
438.721	88.12
438.943	74.12
439.165	77.12
439.386	85.12
439.608	101.12
439.829	99.12
440.05	97.12
440.272	65.12
440.493	99.12
440.715	101.12
440.936	97.12
441.158	114.12
441.379	92.12
441.6	93.12
441.822	95.12
442.043	100.12
442.264	132.12
442.486	213.12
442.707	319.12
442.928	186.12
443.149	137.12
443.371	270.12
443.592	514.12
443.813	432.12
444.034	161.12
444.255	99.12
444.476	109.12
444.698	112.12
444.919	122.12
445.14	221.12
445.361	330.12
445.582	637.12
445.803	545.12
446.024	199.12
446.245	117.12
446.466	107.12
446.687	110.12
446.908	91.12
447.129	93.12
447.35	97.12
447.571	95.12
447.792	100.12
448.013	99.12
448.234	85.12
448.455	96.12
448.675	85.12
448.896	109.12
449.117	93.12
449.338	80.12
449.559	94.12
449.779	98.12
450	95.12
450.221	89.12
450.442	92.12
450.662	92.12
450.883	88.12
451.104	95.12
451.324	95.12
451.545	102.12
451.766	108.12
451.986	85.12
452.207	83.12
452.428	81.12
452.648	127.12
452.869	129.12
453.089	124.12
453.31	97.12
453.53	98.12
453.751	103.12
453.971	91.12
454.192	85.12
454.412	92.12
454.633	85.12
454.853	77.12
455.073	88.12
455.294	69.12
455.514	85.12
455.734	84.12
455.955	87.12
456.175	79.12
456.395	89.12
456.616	103.12
456.836	91.12
457.056	82.12
457.276	79.12
457.497	95.12
457.717	128.12
457.937	172.12
458.157	209.12
458.377	211.12
458.598	200.12
458.818	230.12
459.038	125.12
459.258	95.12
459.478	109.12
459.698	91.12
459.918	88.12
460.138	93.12
460.358	100.12
460.578	126.12
460.798	175.12
461.018	175.12
461.238	110.12
461.458	86.12
461.678	91.12
461.898	89.12
462.118	97.12
462.338	90.12
462.558	85.12
462.777	85.12
462.997	90.12
463.217	91.12
463.437	100.12
463.657	99.12
463.876	93.12
464.096	85.12
464.316	78.12
464.536	93.12
464.755	89.12
464.975	89.12
465.195	96.12
465.414	83.12
465.634	84.12
465.854	84.12
466.073	94.12
466.293	87.12
466.512	89.12
466.732	88.12
466.951	92.12
467.171	78.12
467.391	93.12
467.61	99.12
467.829	102.12
468.049	74.12
468.268	96.12
468.488	86.12
468.707	95.12
468.927	101.12
469.146	91.12
469.365	103.12
469.585	96.12
469.804	85.12
470.023	99.12
470.243	98.12
470.462	97.12
470.681	99.12
470.901	93.12
471.12	85.12
471.339	98.12
471.558	96.12
471.777	91.12
471.997	95.12
472.216	95.12
472.435	101.12
472.654	96.12
472.873	95.12
473.092	91.12
473.311	101.12
473.53	87.12
473.749	87.12
473.968	92.12
474.187	82.12
474.406	101.12
474.625	104.12
474.844	92.12
475.063	78.12
475.282	87.12
475.501	95.12
475.72	95.12
475.939	107.12
476.158	92.12
476.377	103.12
476.596	87.12
476.814	85.12
477.033	77.12
477.252	87.12
477.471	95.12
477.69	79.12
477.908	73.12
478.127	102.12
478.346	107.12
478.564	96.12
478.783	99.12
479.002	92.12
479.22	85.12
479.439	115.12
479.658	106.12
479.876	109.12
480.095	93.12
480.313	73.12
480.532	102.12
480.751	96.12
480.969	100.12
481.188	88.12
481.406	113.12
481.624	88.12
481.843	86.12
482.061	90.12
482.28	87.12
482.498	100.12
482.717	101.12
482.935	95.12
483.153	119.12
483.372	98.12
483.59	94.12
483.808	103.12
484.027	91.12
484.245	98.12
484.463	102.12
484.681	121.12
484.9	103.12
485.118	109.12
485.336	85.12
485.554	107.12
485.772	96.12
485.99	109.12
486.209	119.12
486.427	89.12
486.645	83.12
486.863	92.12
487.081	98.12
487.299	110.12
487.517	113.12
487.735	182.12
487.953	355.12
488.171	264.12
488.389	146.12
488.607	85.12
488.825	100.12
489.043	94.12
489.261	110.12
489.479	120.12
489.696	97.12
489.914	96.12
490.132	102.12
490.35	120.12
490.568	95.12
490.786	95.12
491.003	109.12
491.221	104.12
491.439	95.12
491.657	99.12
491.874	103.12
492.092	107.12
492.31	94.12
492.527	97.12
492.745	102.12
492.963	109.12
493.18	100.12
493.398	117.12
493.615	108.12
493.833	87.12
494.05	96.12
494.268	94.12
494.485	113.12
494.703	91.12
494.92	89.12
495.138	93.12
495.355	119.12
495.573	93.12
495.79	99.12
496.008	93.12
496.225	97.12
496.442	108.12
496.66	86.12
496.877	103.12
497.094	115.12
497.312	104.12
497.529	98.12
497.746	108.12
497.963	96.12
498.181	106.12
498.398	113.12
498.615	100.12
498.832	107.12
499.049	109.12
499.267	87.12
499.484	103.12
499.701	97.12
499.918	103.12
500.135	89.12
500.352	95.12
500.569	107.12
500.786	105.12
501.003	92.12
501.22	96.12
501.437	96.12
501.654	113.12
501.871	93.12
502.088	93.12
502.305	97.12
502.522	86.12
502.739	98.12
502.956	98.12
503.172	98.12
503.389	95.12
503.606	101.12
503.823	128.12
504.04	158.12
504.256	238.12
504.473	239.12
504.69	127.12
504.907	87.12
505.123	89.12
505.34	109.12
505.557	96.12
505.773	103.12
505.99	93.12
506.207	93.12
506.423	102.12
506.64	111.12
506.856	86.12
507.073	87.12
507.289	94.12
507.506	93.12
507.722	90.12
507.939	103.12
508.155	87.12
508.372	89.12
508.588	93.12
508.805	108.12
509.021	91.12
509.238	105.12
509.454	91.12
509.67	91.12
509.887	113.12
510.103	93.12
510.319	91.12
510.536	99.12
510.752	98.12
510.968	88.12
511.184	85.12
511.401	115.12
511.617	117.12
511.833	110.12
512.049	87.12
512.265	90.12
512.481	87.12
512.698	87.12
512.914	86.12
513.13	100.12
513.346	85.12
513.562	101.12
513.778	92.12
513.994	103.12
514.21	95.12
514.426	83.12
514.642	104.12
514.858	101.12
515.074	107.12
515.29	112.12
