Data from 18505_1_HRD10591_00047.txt Node
Date: Mon Jan 19 13:58:54 EST 2026
User: Yrep
Spectrometer: HR+D1059
Trigger mode: 1
Integration Time (sec): 1.000000E-1
Scans to average: 1
Electric dark correction enabled: true
Nonlinearity correction enabled: false
Boxcar width: 0
XAxis mode: Wavelengths
Number of Pixels in Spectrum: 2048
>>>>>Begin Spectral Data<<<<<
223.165	-14.75
223.4	-14.75
223.635	-14.75
223.869	-11.75
224.104	-7.75
224.338	-7.75
224.573	-12.75
224.808	-15.75
225.042	-10.75
225.277	-9.75
225.511	-13.75
225.746	4.25
225.98	7.25
226.215	17.25
226.449	-1.75
226.683	23.25
226.918	20.25
227.152	34.25
227.387	31.25
227.621	40.25
227.856	37.25
228.09	28.25
228.324	55.25
228.559	64.25
228.793	70.25
229.027	58.25
229.262	62.25
229.496	71.25
229.73	61.25
229.964	78.25
230.199	66.25
230.433	64.25
230.667	71.25
230.901	81.25
231.136	84.25
231.37	70.25
231.604	64.25
231.838	83.25
232.072	69.25
232.306	73.25
232.541	76.25
232.775	86.25
233.009	72.25
233.243	85.25
233.477	80.25
233.711	77.25
233.945	85.25
234.179	71.25
234.413	76.25
234.647	58.25
234.881	62.25
235.115	82.25
235.349	81.25
235.583	72.25
235.817	78.25
236.051	90.25
236.285	72.25
236.519	81.25
236.753	65.25
236.987	67.25
237.221	75.25
237.455	76.25
237.689	71.25
237.922	66.25
238.156	72.25
238.39	79.25
238.624	80.25
238.858	62.25
239.091	67.25
239.325	67.25
239.559	80.25
239.793	76.25
240.027	71.25
240.26	76.25
240.494	60.25
240.728	84.25
240.961	82.25
241.195	76.25
241.429	76.25
241.662	71.25
241.896	80.25
242.13	85.25
242.363	65.25
242.597	80.25
242.83	67.25
243.064	66.25
243.298	74.25
243.531	61.25
243.765	62.25
243.998	65.25
244.232	73.25
244.465	71.25
244.699	72.25
244.932	74.25
245.166	75.25
245.399	83.25
245.633	67.25
245.866	76.25
246.099	66.25
246.333	66.25
246.566	76.25
246.8	64.25
247.033	71.25
247.266	64.25
247.5	76.25
247.733	73.25
247.966	86.25
248.2	85.25
248.433	72.25
248.666	87.25
248.899	82.25
249.133	67.25
249.366	77.25
249.599	75.25
249.832	70.25
250.066	83.25
250.299	80.25
250.532	80.25
250.765	79.25
250.998	73.25
251.231	66.25
251.465	61.25
251.698	71.25
251.931	85.25
252.164	93.25
252.397	80.25
252.63	78.25
252.863	74.25
253.096	78.25
253.329	85.25
253.562	74.25
253.795	66.25
254.028	84.25
254.261	86.25
254.494	83.25
254.727	61.25
254.96	80.25
255.193	74.25
255.426	64.25
255.659	81.25
255.892	74.25
256.124	82.25
256.357	86.25
256.59	82.25
256.823	79.25
257.056	83.25
257.289	73.25
257.521	70.25
257.754	73.25
257.987	76.25
258.22	73.25
258.452	71.25
258.685	62.25
258.918	68.25
259.151	70.25
259.383	82.25
259.616	62.25
259.849	74.25
260.081	80.25
260.314	82.25
260.547	78.25
260.779	78.25
261.012	85.25
261.244	96.25
261.477	90.25
261.71	71.25
261.942	79.25
262.175	78.25
262.407	85.25
262.64	89.25
262.872	89.25
263.105	73.25
263.337	75.25
263.57	78.25
263.802	82.25
264.035	85.25
264.267	70.25
264.499	74.25
264.732	80.25
264.964	73.25
265.197	86.25
265.429	73.25
265.661	94.25
265.894	73.25
266.126	84.25
266.358	108.25
266.591	80.25
266.823	87.25
267.055	69.25
267.287	86.25
267.52	82.25
267.752	72.25
267.984	86.25
268.216	77.25
268.448	86.25
268.681	83.25
268.913	78.25
269.145	86.25
269.377	78.25
269.609	91.25
269.841	92.25
270.073	81.25
270.306	81.25
270.538	80.25
270.77	85.25
271.002	84.25
271.234	80.25
271.466	72.25
271.698	94.25
271.93	90.25
272.162	93.25
272.394	99.25
272.626	72.25
272.858	72.25
273.09	77.25
273.322	76.25
273.553	93.25
273.785	91.25
274.017	74.25
274.249	87.25
274.481	97.25
274.713	87.25
274.945	73.25
275.176	84.25
275.408	79.25
275.64	75.25
275.872	87.25
276.104	91.25
276.335	72.25
276.567	82.25
276.799	66.25
277.031	94.25
277.262	86.25
277.494	95.25
277.726	82.25
277.957	108.25
278.189	83.25
278.421	76.25
278.652	81.25
278.884	76.25
279.115	78.25
279.347	82.25
279.579	94.25
279.81	98.25
280.042	91.25
280.273	70.25
280.505	95.25
280.736	93.25
280.968	79.25
281.199	79.25
281.431	98.25
281.662	85.25
281.894	77.25
282.125	76.25
282.356	77.25
282.588	74.25
282.819	84.25
283.051	76.25
283.282	70.25
283.513	89.25
283.745	75.25
283.976	86.25
284.207	86.25
284.439	91.25
284.67	108.25
284.901	80.25
285.132	90.25
285.364	98.25
285.595	80.25
285.826	100.25
286.057	87.25
286.288	86.25
286.52	88.25
286.751	81.25
286.982	82.25
287.213	65.25
287.444	72.25
287.675	86.25
287.906	95.25
288.138	78.25
288.369	99.25
288.6	82.25
288.831	92.25
289.062	83.25
289.293	80.25
289.524	84.25
289.755	75.25
289.986	84.25
290.217	78.25
290.448	82.25
290.679	76.25
290.91	79.25
291.141	85.25
291.371	83.25
291.602	88.25
291.833	95.25
292.064	82.25
292.295	97.25
292.526	85.25
292.757	76.25
292.987	90.25
293.218	99.25
293.449	81.25
293.68	92.25
293.91	92.25
294.141	91.25
294.372	81.25
294.603	91.25
294.833	75.25
295.064	72.25
295.295	82.25
295.525	85.25
295.756	85.25
295.987	80.25
296.217	59.25
296.448	65.25
296.679	76.25
296.909	73.25
297.14	72.25
297.37	83.25
297.601	81.25
297.831	78.25
298.062	91.25
298.292	82.25
298.523	88.25
298.753	91.25
298.984	70.25
299.214	87.25
299.445	83.25
299.675	83.25
299.905	93.25
300.136	88.25
300.366	83.25
300.597	87.25
300.827	103.25
301.057	82.25
301.288	83.25
301.518	88.25
301.748	99.25
301.979	109.25
302.209	83.25
302.439	82.25
302.669	88.25
302.9	74.25
303.13	76.25
303.36	85.25
303.59	93.25
303.82	85.25
304.051	82.25
304.281	86.25
304.511	76.25
304.741	82.25
304.971	76.25
305.201	77.25
305.431	83.25
305.661	88.25
305.891	82.25
306.121	81.25
306.352	78.25
306.582	87.25
306.812	71.25
307.042	81.25
307.272	88.25
307.502	98.25
307.731	86.25
307.961	82.25
308.191	91.25
308.421	90.25
308.651	88.25
308.881	97.25
309.111	108.25
309.341	99.25
309.571	107.25
309.8	81.25
310.03	92.25
310.26	88.25
310.49	94.25
310.72	77.25
310.949	72.25
311.179	88.25
311.409	97.25
311.639	78.25
311.868	83.25
312.098	75.25
312.328	78.25
312.557	94.25
312.787	87.25
313.017	95.25
313.246	92.25
313.476	81.25
313.706	93.25
313.935	72.25
314.165	83.25
314.394	82.25
314.624	94.25
314.853	83.25
315.083	85.25
315.312	93.25
315.542	104.25
315.771	102.25
316.001	102.25
316.23	98.25
316.46	78.25
316.689	86.25
316.919	72.25
317.148	87.25
317.377	83.25
317.607	93.25
317.836	110.25
318.065	131.25
318.295	95.25
318.524	97.25
318.753	89.25
318.983	89.25
319.212	99.25
319.441	72.25
319.67	83.25
319.9	69.25
320.129	87.25
320.358	85.25
320.587	78.25
320.816	77.25
321.046	73.25
321.275	106.25
321.504	91.25
321.733	76.25
321.962	82.25
322.191	82.25
322.42	78.25
322.649	88.25
322.878	66.25
323.108	76.25
323.337	89.25
323.566	101.25
323.795	90.25
324.024	87.25
324.253	101.25
324.482	84.25
324.71	83.25
324.939	91.25
325.168	96.25
325.397	91.25
325.626	78.25
325.855	87.25
326.084	83.25
326.313	79.25
326.542	86.25
326.77	92.25
326.999	73.25
327.228	77.25
327.457	86.25
327.686	86.25
327.914	80.25
328.143	76.25
328.372	79.25
328.6	91.25
328.829	86.25
329.058	71.25
329.287	78.25
329.515	94.25
329.744	79.25
329.972	97.25
330.201	96.25
330.43	100.25
330.658	90.25
330.887	76.25
331.115	76.25
331.344	88.25
331.572	96.25
331.801	96.25
332.03	81.25
332.258	78.25
332.486	99.25
332.715	92.25
332.943	88.25
333.172	80.25
333.4	92.25
333.629	73.25
333.857	73.25
334.085	93.25
334.314	86.25
334.542	103.25
334.771	91.25
334.999	100.25
335.227	87.25
335.455	93.25
335.684	95.25
335.912	108.25
336.14	92.25
336.369	99.25
336.597	83.25
336.825	88.25
337.053	79.25
337.281	83.25
337.51	82.25
337.738	82.25
337.966	73.25
338.194	73.25
338.422	83.25
338.65	91.25
338.878	78.25
339.106	87.25
339.334	92.25
339.562	75.25
339.79	85.25
340.018	84.25
340.246	82.25
340.474	84.25
340.702	103.25
340.93	83.25
341.158	86.25
341.386	82.25
341.614	97.25
341.842	97.25
342.07	72.25
342.298	82.25
342.526	80.25
342.754	88.25
342.981	84.25
343.209	87.25
343.437	95.25
343.665	84.25
343.893	84.25
344.12	92.25
344.348	89.25
344.576	77.25
344.804	86.25
345.031	91.25
345.259	87.25
345.487	91.25
345.714	77.25
345.942	84.25
346.17	88.25
346.397	82.25
346.625	87.25
346.853	85.25
347.08	97.25
347.308	83.25
347.535	99.25
347.763	86.25
347.99	76.25
348.218	80.25
348.445	94.25
348.673	80.25
348.9	93.25
349.128	88.25
349.355	86.25
349.583	92.25
349.81	95.25
350.037	73.25
350.265	86.25
350.492	71.25
350.72	96.25
350.947	91.25
351.174	84.25
351.402	85.25
351.629	67.25
351.856	84.25
352.083	82.25
352.311	78.25
352.538	76.25
352.765	86.25
352.992	88.25
353.22	98.25
353.447	96.25
353.674	96.25
353.901	83.25
354.128	75.25
354.355	76.25
354.583	87.25
354.81	82.25
355.037	69.25
355.264	98.25
355.491	86.25
355.718	80.25
355.945	86.25
356.172	80.25
356.399	91.25
356.626	84.25
356.853	84.25
357.08	93.25
357.307	91.25
357.534	82.25
357.761	88.25
357.988	84.25
358.215	101.25
358.441	97.25
358.668	91.25
358.895	80.25
359.122	86.25
359.349	90.25
359.576	86.25
359.802	82.25
360.029	85.25
360.256	72.25
360.483	74.25
360.709	90.25
360.936	104.25
361.163	77.25
361.39	92.25
361.616	102.25
361.843	77.25
362.07	100.25
362.296	116.25
362.523	111.25
362.749	126.25
362.976	122.25
363.203	150.25
363.429	110.25
363.656	88.25
363.882	95.25
364.109	123.25
364.335	157.25
364.562	170.25
364.788	122.25
365.015	92.25
365.241	80.25
365.468	93.25
365.694	80.25
365.92	82.25
366.147	84.25
366.373	73.25
366.599	96.25
366.826	76.25
367.052	95.25
367.278	84.25
367.505	85.25
367.731	92.25
367.957	85.25
368.184	88.25
368.41	93.25
368.636	88.25
368.862	93.25
369.089	87.25
369.315	91.25
369.541	78.25
369.767	85.25
369.993	80.25
370.219	80.25
370.445	91.25
370.672	108.25
370.898	106.25
371.124	84.25
371.35	85.25
371.576	110.25
371.802	91.25
372.028	102.25
372.254	97.25
372.48	86.25
372.706	81.25
372.932	100.25
373.158	110.25
373.384	115.25
373.61	137.25
373.835	142.25
374.061	103.25
374.287	97.25
374.513	99.25
374.739	96.25
374.965	100.25
375.191	101.25
375.416	90.25
375.642	92.25
375.868	112.25
376.094	91.25
376.319	82.25
376.545	67.25
376.771	82.25
376.997	86.25
377.222	92.25
377.448	97.25
377.674	110.25
377.899	91.25
378.125	92.25
378.35	84.25
378.576	99.25
378.802	83.25
379.027	78.25
379.253	89.25
379.478	75.25
379.704	86.25
379.929	88.25
380.155	91.25
380.38	92.25
380.606	90.25
380.831	87.25
381.057	99.25
381.282	84.25
381.507	98.25
381.733	95.25
381.958	98.25
382.184	108.25
382.409	90.25
382.634	108.25
382.86	101.25
383.085	106.25
383.31	108.25
383.535	110.25
383.761	112.25
383.986	116.25
384.211	83.25
384.436	102.25
384.662	96.25
384.887	101.25
385.112	91.25
385.337	91.25
385.562	104.25
385.787	104.25
386.013	104.25
386.238	98.25
386.463	94.25
386.688	98.25
386.913	98.25
387.138	90.25
387.363	107.25
387.588	103.25
387.813	107.25
388.038	83.25
388.263	99.25
388.488	111.25
388.713	104.25
388.938	98.25
389.163	88.25
389.387	88.25
389.612	90.25
389.837	91.25
390.062	83.25
390.287	90.25
390.512	93.25
390.736	94.25
390.961	81.25
391.186	81.25
391.411	85.25
391.636	85.25
391.86	102.25
392.085	108.25
392.31	101.25
392.534	128.25
392.759	176.25
392.984	300.25
393.208	614.25
393.433	949.25
393.658	698.25
393.882	252.25
394.107	151.25
394.331	155.25
394.556	173.25
394.78	130.25
395.005	109.25
395.229	91.25
395.454	113.25
395.678	117.25
395.903	147.25
396.127	191.25
396.352	246.25
396.576	328.25
396.801	633.25
397.025	752.25
397.249	325.25
397.474	168.25
397.698	123.25
397.922	108.25
398.147	83.25
398.371	76.25
398.595	76.25
398.82	89.25
399.044	90.25
399.268	98.25
399.492	84.25
399.717	80.25
399.941	88.25
400.165	94.25
400.389	95.25
400.613	94.25
400.837	96.25
401.062	86.25
401.286	65.25
401.51	77.25
401.734	85.25
401.958	90.25
402.182	78.25
402.406	86.25
402.63	98.25
402.854	87.25
403.078	95.25
403.302	81.25
403.526	74.25
403.75	77.25
403.974	76.25
404.198	90.25
404.422	100.25
404.645	123.25
404.869	99.25
405.093	92.25
405.317	86.25
405.541	91.25
405.765	83.25
405.988	88.25
406.212	89.25
406.436	82.25
406.66	89.25
406.883	89.25
407.107	92.25
407.331	98.25
407.555	131.25
407.778	181.25
408.002	173.25
408.226	98.25
408.449	108.25
408.673	87.25
408.896	110.25
409.12	94.25
409.344	98.25
409.567	106.25
409.791	136.25
410.014	107.25
410.238	94.25
410.461	85.25
410.685	81.25
410.908	107.25
411.132	100.25
411.355	94.25
411.578	93.25
411.802	82.25
412.025	86.25
412.249	80.25
412.472	104.25
412.695	95.25
412.919	75.25
413.142	74.25
413.365	81.25
413.589	87.25
413.812	82.25
414.035	91.25
414.258	92.25
414.482	67.25
414.705	93.25
414.928	97.25
415.151	82.25
415.374	91.25
415.597	81.25
415.821	79.25
416.044	72.25
416.267	101.25
416.49	90.25
416.713	84.25
416.936	76.25
417.159	75.25
417.382	73.25
417.605	95.25
417.828	67.25
418.051	81.25
418.274	86.25
418.497	91.25
418.72	85.25
418.943	88.25
419.166	85.25
419.389	84.25
419.611	91.25
419.834	84.25
420.057	94.25
420.28	87.25
420.503	87.25
420.726	83.25
420.948	92.25
421.171	115.25
421.394	139.25
421.617	188.25
421.839	174.25
422.062	156.25
422.285	236.25
422.507	434.25
422.73	735.25
422.953	678.25
423.175	281.25
423.398	159.25
423.621	115.25
423.843	102.25
424.066	102.25
424.288	101.25
424.511	109.25
424.733	76.25
424.956	81.25
425.178	85.25
425.401	101.25
425.623	92.25
425.846	93.25
426.068	86.25
426.291	93.25
426.513	87.25
426.735	73.25
426.958	91.25
427.18	99.25
427.402	83.25
427.625	88.25
427.847	94.25
428.069	128.25
428.292	166.25
428.514	203.25
428.736	149.25
428.958	180.25
429.181	187.25
429.403	115.25
429.625	114.25
429.847	162.25
430.069	246.25
430.292	290.25
430.514	281.25
430.736	199.25
430.958	204.25
431.18	119.25
431.402	103.25
431.624	113.25
431.846	169.25
432.068	201.25
432.29	122.25
432.512	82.25
432.734	85.25
432.956	100.25
433.178	98.25
433.4	88.25
433.622	86.25
433.844	84.25
434.066	91.25
434.287	87.25
434.509	85.25
434.731	83.25
434.953	91.25
435.175	85.25
435.397	114.25
435.618	110.25
435.84	107.25
436.062	90.25
436.284	88.25
436.505	78.25
436.727	76.25
436.949	90.25
437.17	92.25
437.392	87.25
437.614	81.25
437.835	87.25
438.057	73.25
438.278	93.25
438.5	98.25
438.721	95.25
438.943	82.25
439.165	86.25
439.386	83.25
439.608	84.25
439.829	80.25
440.05	76.25
440.272	78.25
440.493	87.25
440.715	91.25
440.936	86.25
441.158	90.25
441.379	102.25
441.6	92.25
441.822	84.25
442.043	101.25
442.264	115.25
442.486	204.25
442.707	264.25
442.928	186.25
443.149	143.25
443.371	213.25
443.592	440.25
443.813	366.25
444.034	147.25
444.255	114.25
444.476	97.25
444.698	95.25
444.919	113.25
445.14	225.25
445.361	300.25
445.582	539.25
445.803	458.25
446.024	150.25
446.245	120.25
446.466	96.25
446.687	90.25
446.908	93.25
447.129	96.25
447.35	97.25
447.571	81.25
447.792	79.25
448.013	74.25
448.234	78.25
448.455	86.25
448.675	86.25
448.896	93.25
449.117	92.25
449.338	103.25
449.559	87.25
449.779	95.25
450	94.25
450.221	82.25
450.442	82.25
450.662	93.25
450.883	94.25
451.104	107.25
451.324	96.25
451.545	84.25
451.766	70.25
451.986	75.25
452.207	82.25
452.428	90.25
452.648	110.25
452.869	115.25
453.089	101.25
453.31	89.25
453.53	92.25
453.751	79.25
453.971	97.25
454.192	80.25
454.412	74.25
454.633	89.25
454.853	94.25
455.073	95.25
455.294	95.25
455.514	107.25
455.734	91.25
455.955	88.25
456.175	80.25
456.395	72.25
456.616	84.25
456.836	80.25
457.056	82.25
457.276	95.25
457.497	87.25
457.717	103.25
457.937	140.25
458.157	156.25
458.377	176.25
458.598	162.25
458.818	176.25
459.038	117.25
459.258	88.25
459.478	78.25
459.698	88.25
459.918	92.25
460.138	98.25
460.358	93.25
460.578	111.25
460.798	157.25
461.018	137.25
461.238	88.25
461.458	88.25
461.678	71.25
461.898	82.25
462.118	83.25
462.338	87.25
462.558	67.25
462.777	85.25
462.997	85.25
463.217	82.25
463.437	89.25
463.657	80.25
463.876	76.25
464.096	84.25
464.316	76.25
464.536	73.25
464.755	77.25
464.975	75.25
465.195	98.25
465.414	82.25
465.634	84.25
465.854	82.25
466.073	102.25
466.293	86.25
466.512	77.25
466.732	86.25
466.951	94.25
467.171	77.25
467.391	73.25
467.61	94.25
467.829	76.25
468.049	71.25
468.268	84.25
468.488	83.25
468.707	90.25
468.927	86.25
469.146	77.25
469.365	77.25
469.585	85.25
469.804	103.25
470.023	90.25
470.243	79.25
470.462	83.25
470.681	86.25
470.901	99.25
471.12	93.25
471.339	78.25
471.558	83.25
471.777	85.25
471.997	88.25
472.216	89.25
472.435	91.25
472.654	89.25
472.873	90.25
473.092	83.25
473.311	85.25
473.53	95.25
473.749	101.25
473.968	91.25
474.187	100.25
474.406	94.25
474.625	79.25
474.844	85.25
475.063	92.25
475.282	90.25
475.501	69.25
475.72	87.25
475.939	83.25
476.158	84.25
476.377	83.25
476.596	85.25
476.814	90.25
477.033	87.25
477.252	83.25
477.471	79.25
477.69	88.25
477.908	81.25
478.127	91.25
478.346	86.25
478.564	80.25
478.783	87.25
479.002	86.25
479.22	68.25
479.439	86.25
479.658	88.25
479.876	87.25
480.095	95.25
480.313	91.25
480.532	99.25
480.751	81.25
480.969	72.25
481.188	91.25
481.406	100.25
481.624	89.25
481.843	91.25
482.061	86.25
482.28	94.25
482.498	105.25
482.717	88.25
482.935	78.25
483.153	98.25
483.372	92.25
483.59	94.25
483.808	95.25
484.027	84.25
484.245	92.25
484.463	99.25
484.681	98.25
484.9	96.25
485.118	82.25
485.336	91.25
485.554	91.25
485.772	111.25
485.99	93.25
486.209	88.25
486.427	86.25
486.645	87.25
486.863	93.25
487.081	91.25
487.299	95.25
487.517	103.25
487.735	152.25
487.953	280.25
488.171	185.25
488.389	109.25
488.607	94.25
488.825	95.25
489.043	93.25
489.261	99.25
489.479	87.25
489.696	80.25
489.914	82.25
490.132	80.25
490.35	77.25
490.568	98.25
490.786	73.25
491.003	80.25
491.221	95.25
491.439	95.25
491.657	77.25
491.874	96.25
492.092	78.25
492.31	85.25
492.527	93.25
492.745	90.25
492.963	88.25
493.18	86.25
493.398	93.25
493.615	103.25
493.833	91.25
494.05	79.25
494.268	82.25
494.485	89.25
494.703	83.25
494.92	91.25
495.138	90.25
495.355	97.25
495.573	97.25
495.79	92.25
496.008	91.25
496.225	100.25
496.442	86.25
496.66	90.25
496.877	94.25
497.094	90.25
497.312	86.25
497.529	88.25
497.746	99.25
497.963	83.25
498.181	94.25
498.398	82.25
498.615	95.25
498.832	89.25
499.049	82.25
499.267	82.25
499.484	86.25
499.701	75.25
499.918	85.25
500.135	95.25
500.352	95.25
500.569	108.25
500.786	80.25
501.003	90.25
501.22	108.25
501.437	92.25
501.654	95.25
501.871	99.25
502.088	102.25
502.305	84.25
502.522	96.25
502.739	88.25
502.956	77.25
503.172	90.25
503.389	92.25
503.606	88.25
503.823	88.25
504.04	102.25
504.256	198.25
504.473	186.25
504.69	114.25
504.907	98.25
505.123	90.25
505.34	95.25
505.557	89.25
505.773	90.25
505.99	93.25
506.207	85.25
506.423	78.25
506.64	82.25
506.856	93.25
507.073	88.25
507.289	87.25
507.506	98.25
507.722	78.25
507.939	80.25
508.155	68.25
508.372	84.25
508.588	87.25
508.805	94.25
509.021	86.25
509.238	101.25
509.454	99.25
509.67	62.25
509.887	108.25
510.103	106.25
510.319	93.25
510.536	76.25
510.752	73.25
510.968	80.25
511.184	71.25
511.401	84.25
511.617	81.25
511.833	76.25
512.049	92.25
512.265	78.25
512.481	86.25
512.698	97.25
512.914	88.25
513.13	82.25
513.346	70.25
513.562	87.25
513.778	93.25
513.994	82.25
514.21	72.25
514.426	98.25
514.642	84.25
514.858	99.25
515.074	77.25
515.29	84.25
515.506	72.25
515.721	100.25
515.937	100.25
516.153	88.25
516.369	92.25
516.585	89.25
516.801	99.25
517.016	105.25
517.232	108.25
