Data from 18505_1_HRD10591_00008.txt Node
Date: Mon Jan 19 13:58:35 EST 2026
User: Yrep
Spectrometer: HR+D1059
Trigger mode: 1
Integration Time (sec): 1.000000E-1
Scans to average: 1
Electric dark correction enabled: true
Nonlinearity correction enabled: false
Boxcar width: 0
XAxis mode: Wavelengths
Number of Pixels in Spectrum: 2048
>>>>>Begin Spectral Data<<<<<
223.165	-16.69
223.4	-16.69
223.635	-16.69
223.869	-12.69
224.104	-9.69
224.338	-27.69
224.573	-13.69
224.808	-18.69
225.042	-11.69
225.277	2.31
225.511	-0.69
225.746	6.31
225.98	7.31
226.215	15.31
226.449	19.31
226.683	6.31
226.918	10.31
227.152	44.31
227.387	46.31
227.621	29.31
227.856	37.31
228.09	45.31
228.324	41.31
228.559	58.31
228.793	48.31
229.027	60.31
229.262	74.31
229.496	50.31
229.73	62.31
229.964	58.31
230.199	84.31
230.433	80.31
230.667	76.31
230.901	62.31
231.136	70.31
231.37	74.31
231.604	74.31
231.838	90.31
232.072	72.31
232.306	68.31
232.541	91.31
232.775	79.31
233.009	78.31
233.243	78.31
233.477	85.31
233.711	83.31
233.945	82.31
234.179	80.31
234.413	68.31
234.647	85.31
234.881	80.31
235.115	76.31
235.349	87.31
235.583	77.31
235.817	79.31
236.051	83.31
236.285	68.31
236.519	76.31
236.753	58.31
236.987	66.31
237.221	77.31
237.455	66.31
237.689	90.31
237.922	69.31
238.156	66.31
238.39	71.31
238.624	66.31
238.858	70.31
239.091	79.31
239.325	74.31
239.559	77.31
239.793	71.31
240.027	82.31
240.26	78.31
240.494	84.31
240.728	75.31
240.961	69.31
241.195	70.31
241.429	66.31
241.662	80.31
241.896	74.31
242.13	76.31
242.363	72.31
242.597	70.31
242.83	71.31
243.064	66.31
243.298	87.31
243.531	81.31
243.765	70.31
243.998	74.31
244.232	82.31
244.465	79.31
244.699	76.31
244.932	74.31
245.166	68.31
245.399	86.31
245.633	79.31
245.866	80.31
246.099	67.31
246.333	71.31
246.566	92.31
246.8	82.31
247.033	82.31
247.266	63.31
247.5	82.31
247.733	65.31
247.966	76.31
248.2	86.31
248.433	76.31
248.666	82.31
248.899	70.31
249.133	69.31
249.366	80.31
249.599	76.31
249.832	79.31
250.066	90.31
250.299	74.31
250.532	80.31
250.765	72.31
250.998	83.31
251.231	79.31
251.465	76.31
251.698	63.31
251.931	74.31
252.164	80.31
252.397	76.31
252.63	70.31
252.863	75.31
253.096	73.31
253.329	87.31
253.562	80.31
253.795	71.31
254.028	87.31
254.261	78.31
254.494	76.31
254.727	61.31
254.96	82.31
255.193	71.31
255.426	72.31
255.659	73.31
255.892	85.31
256.124	70.31
256.357	80.31
256.59	83.31
256.823	74.31
257.056	78.31
257.289	79.31
257.521	68.31
257.754	69.31
257.987	74.31
258.22	75.31
258.452	81.31
258.685	72.31
258.918	90.31
259.151	96.31
259.383	78.31
259.616	71.31
259.849	72.31
260.081	77.31
260.314	71.31
260.547	80.31
260.779	72.31
261.012	78.31
261.244	71.31
261.477	72.31
261.71	91.31
261.942	78.31
262.175	70.31
262.407	64.31
262.64	68.31
262.872	87.31
263.105	69.31
263.337	79.31
263.57	73.31
263.802	74.31
264.035	86.31
264.267	79.31
264.499	68.31
264.732	79.31
264.964	79.31
265.197	77.31
265.429	76.31
265.661	83.31
265.894	68.31
266.126	84.31
266.358	83.31
266.591	76.31
266.823	69.31
267.055	69.31
267.287	80.31
267.52	79.31
267.752	89.31
267.984	76.31
268.216	71.31
268.448	93.31
268.681	69.31
268.913	91.31
269.145	79.31
269.377	76.31
269.609	71.31
269.841	84.31
270.073	91.31
270.306	76.31
270.538	83.31
270.77	77.31
271.002	73.31
271.234	81.31
271.466	77.31
271.698	75.31
271.93	70.31
272.162	73.31
272.394	75.31
272.626	70.31
272.858	72.31
273.09	75.31
273.322	82.31
273.553	81.31
273.785	87.31
274.017	92.31
274.249	83.31
274.481	80.31
274.713	68.31
274.945	79.31
275.176	77.31
275.408	80.31
275.64	80.31
275.872	84.31
276.104	67.31
276.335	94.31
276.567	69.31
276.799	76.31
277.031	93.31
277.262	85.31
277.494	71.31
277.726	77.31
277.957	94.31
278.189	91.31
278.421	94.31
278.652	76.31
278.884	62.31
279.115	91.31
279.347	85.31
279.579	94.31
279.81	79.31
280.042	86.31
280.273	81.31
280.505	88.31
280.736	85.31
280.968	88.31
281.199	77.31
281.431	80.31
281.662	69.31
281.894	63.31
282.125	86.31
282.356	80.31
282.588	91.31
282.819	78.31
283.051	81.31
283.282	81.31
283.513	83.31
283.745	85.31
283.976	90.31
284.207	75.31
284.439	88.31
284.67	85.31
284.901	85.31
285.132	96.31
285.364	96.31
285.595	80.31
285.826	86.31
286.057	89.31
286.288	94.31
286.52	87.31
286.751	97.31
286.982	75.31
287.213	82.31
287.444	87.31
287.675	87.31
287.906	95.31
288.138	83.31
288.369	95.31
288.6	85.31
288.831	82.31
289.062	87.31
289.293	80.31
289.524	90.31
289.755	84.31
289.986	68.31
290.217	77.31
290.448	86.31
290.679	76.31
290.91	93.31
291.141	94.31
291.371	91.31
291.602	80.31
291.833	92.31
292.064	92.31
292.295	77.31
292.526	83.31
292.757	86.31
292.987	88.31
293.218	94.31
293.449	72.31
293.68	84.31
293.91	72.31
294.141	79.31
294.372	82.31
294.603	86.31
294.833	82.31
295.064	78.31
295.295	69.31
295.525	66.31
295.756	78.31
295.987	83.31
296.217	79.31
296.448	75.31
296.679	74.31
296.909	83.31
297.14	87.31
297.37	75.31
297.601	101.31
297.831	92.31
298.062	82.31
298.292	76.31
298.523	75.31
298.753	82.31
298.984	83.31
299.214	81.31
299.445	79.31
299.675	78.31
299.905	88.31
300.136	78.31
300.366	79.31
300.597	78.31
300.827	85.31
301.057	99.31
301.288	85.31
301.518	82.31
301.748	91.31
301.979	90.31
302.209	92.31
302.439	80.31
302.669	91.31
302.9	78.31
303.13	83.31
303.36	80.31
303.59	71.31
303.82	87.31
304.051	76.31
304.281	80.31
304.511	85.31
304.741	80.31
304.971	80.31
305.201	89.31
305.431	86.31
305.661	86.31
305.891	78.31
306.121	81.31
306.352	86.31
306.582	80.31
306.812	72.31
307.042	91.31
307.272	74.31
307.502	86.31
307.731	68.31
307.961	78.31
308.191	74.31
308.421	88.31
308.651	86.31
308.881	77.31
309.111	84.31
309.341	85.31
309.571	87.31
309.8	85.31
310.03	79.31
310.26	78.31
310.49	67.31
310.72	74.31
310.949	92.31
311.179	75.31
311.409	70.31
311.639	85.31
311.868	95.31
312.098	92.31
312.328	69.31
312.557	85.31
312.787	88.31
313.017	81.31
313.246	73.31
313.476	87.31
313.706	86.31
313.935	90.31
314.165	78.31
314.394	88.31
314.624	72.31
314.853	98.31
315.083	82.31
315.312	73.31
315.542	81.31
315.771	99.31
316.001	113.31
316.23	93.31
316.46	82.31
316.689	87.31
316.919	84.31
317.148	79.31
317.377	95.31
317.607	84.31
317.836	111.31
318.065	106.31
318.295	109.31
318.524	89.31
318.753	66.31
318.983	68.31
319.212	76.31
319.441	75.31
319.67	78.31
319.9	88.31
320.129	82.31
320.358	97.31
320.587	77.31
320.816	86.31
321.046	74.31
321.275	90.31
321.504	103.31
321.733	83.31
321.962	76.31
322.191	82.31
322.42	96.31
322.649	78.31
322.878	84.31
323.108	107.31
323.337	86.31
323.566	77.31
323.795	100.31
324.024	80.31
324.253	76.31
324.482	80.31
324.71	65.31
324.939	87.31
325.168	100.31
325.397	79.31
325.626	87.31
325.855	89.31
326.084	86.31
326.313	84.31
326.542	92.31
326.77	94.31
326.999	83.31
327.228	80.31
327.457	90.31
327.686	85.31
327.914	77.31
328.143	88.31
328.372	77.31
328.6	78.31
328.829	80.31
329.058	73.31
329.287	94.31
329.515	80.31
329.744	90.31
329.972	93.31
330.201	86.31
330.43	80.31
330.658	88.31
330.887	87.31
331.115	74.31
331.344	78.31
331.572	72.31
331.801	90.31
332.03	89.31
332.258	79.31
332.486	86.31
332.715	93.31
332.943	94.31
333.172	82.31
333.4	86.31
333.629	84.31
333.857	82.31
334.085	76.31
334.314	81.31
334.542	91.31
334.771	82.31
334.999	87.31
335.227	66.31
335.455	83.31
335.684	83.31
335.912	85.31
336.14	101.31
336.369	91.31
336.597	80.31
336.825	82.31
337.053	80.31
337.281	86.31
337.51	91.31
337.738	93.31
337.966	73.31
338.194	67.31
338.422	88.31
338.65	101.31
338.878	82.31
339.106	85.31
339.334	93.31
339.562	83.31
339.79	73.31
340.018	78.31
340.246	77.31
340.474	92.31
340.702	79.31
340.93	88.31
341.158	95.31
341.386	93.31
341.614	86.31
341.842	75.31
342.07	82.31
342.298	80.31
342.526	71.31
342.754	76.31
342.981	76.31
343.209	78.31
343.437	93.31
343.665	100.31
343.893	88.31
344.12	98.31
344.348	79.31
344.576	78.31
344.804	80.31
345.031	73.31
345.259	82.31
345.487	86.31
345.714	82.31
345.942	78.31
346.17	83.31
346.397	85.31
346.625	87.31
346.853	85.31
347.08	93.31
347.308	82.31
347.535	91.31
347.763	74.31
347.99	84.31
348.218	72.31
348.445	86.31
348.673	91.31
348.9	83.31
349.128	82.31
349.355	79.31
349.583	77.31
349.81	91.31
350.037	64.31
350.265	78.31
350.492	70.31
350.72	82.31
350.947	79.31
351.174	87.31
351.402	87.31
351.629	78.31
351.856	72.31
352.083	76.31
352.311	91.31
352.538	90.31
352.765	97.31
352.992	90.31
353.22	83.31
353.447	80.31
353.674	84.31
353.901	90.31
354.128	62.31
354.355	92.31
354.583	80.31
354.81	81.31
355.037	77.31
355.264	86.31
355.491	78.31
355.718	87.31
355.945	74.31
356.172	66.31
356.399	87.31
356.626	85.31
356.853	84.31
357.08	92.31
357.307	99.31
357.534	90.31
357.761	81.31
357.988	94.31
358.215	82.31
358.441	80.31
358.668	58.31
358.895	91.31
359.122	88.31
359.349	87.31
359.576	70.31
359.802	79.31
360.029	88.31
360.256	80.31
360.483	72.31
360.709	91.31
360.936	82.31
361.163	91.31
361.39	95.31
361.616	84.31
361.843	84.31
362.07	85.31
362.296	80.31
362.523	95.31
362.749	92.31
362.976	87.31
363.203	98.31
363.429	93.31
363.656	78.31
363.882	100.31
364.109	110.31
364.335	99.31
364.562	115.31
364.788	107.31
365.015	92.31
365.241	94.31
365.468	83.31
365.694	74.31
365.92	79.31
366.147	100.31
366.373	75.31
366.599	80.31
366.826	94.31
367.052	82.31
367.278	83.31
367.505	93.31
367.731	96.31
367.957	102.31
368.184	85.31
368.41	73.31
368.636	72.31
368.862	79.31
369.089	84.31
369.315	87.31
369.541	85.31
369.767	83.31
369.993	81.31
370.219	85.31
370.445	89.31
370.672	94.31
370.898	80.31
371.124	84.31
371.35	80.31
371.576	86.31
371.802	94.31
372.028	94.31
372.254	95.31
372.48	77.31
372.706	96.31
372.932	81.31
373.158	79.31
373.384	88.31
373.61	110.31
373.835	107.31
374.061	91.31
374.287	86.31
374.513	103.31
374.739	86.31
374.965	95.31
375.191	89.31
375.416	91.31
375.642	92.31
375.868	82.31
376.094	90.31
376.319	90.31
376.545	84.31
376.771	83.31
376.997	89.31
377.222	73.31
377.448	87.31
377.674	91.31
377.899	84.31
378.125	80.31
378.35	97.31
378.576	82.31
378.802	84.31
379.027	89.31
379.253	71.31
379.478	86.31
379.704	86.31
379.929	91.31
380.155	94.31
380.38	80.31
380.606	79.31
380.831	90.31
381.057	84.31
381.282	85.31
381.507	86.31
381.733	88.31
381.958	110.31
382.184	94.31
382.409	88.31
382.634	101.31
382.86	108.31
383.085	97.31
383.31	96.31
383.535	90.31
383.761	98.31
383.986	94.31
384.211	106.31
384.436	91.31
384.662	88.31
384.887	78.31
385.112	85.31
385.337	82.31
385.562	80.31
385.787	80.31
386.013	100.31
386.238	95.31
386.463	90.31
386.688	96.31
386.913	92.31
387.138	83.31
387.363	83.31
387.588	91.31
387.813	77.31
388.038	82.31
388.263	88.31
388.488	96.31
388.713	100.31
388.938	94.31
389.163	71.31
389.387	79.31
389.612	91.31
389.837	76.31
390.062	99.31
390.287	86.31
390.512	88.31
390.736	93.31
390.961	81.31
391.186	72.31
391.411	101.31
391.636	90.31
391.86	97.31
392.085	85.31
392.31	91.31
392.534	110.31
392.759	126.31
392.984	202.31
393.208	349.31
393.433	558.31
393.658	417.31
393.882	160.31
394.107	115.31
394.331	111.31
394.556	112.31
394.78	104.31
395.005	80.31
395.229	92.31
395.454	91.31
395.678	104.31
395.903	104.31
396.127	120.31
396.352	155.31
396.576	219.31
396.801	369.31
397.025	462.31
397.249	207.31
397.474	128.31
397.698	95.31
397.922	96.31
398.147	91.31
398.371	87.31
398.595	86.31
398.82	78.31
399.044	93.31
399.268	87.31
399.492	78.31
399.717	86.31
399.941	82.31
400.165	83.31
400.389	83.31
400.613	78.31
400.837	90.31
401.062	88.31
401.286	80.31
401.51	79.31
401.734	69.31
401.958	70.31
402.182	85.31
402.406	91.31
402.63	81.31
402.854	86.31
403.078	84.31
403.302	85.31
403.526	94.31
403.75	100.31
403.974	91.31
404.198	87.31
404.422	85.31
404.645	95.31
404.869	88.31
405.093	78.31
405.317	87.31
405.541	80.31
405.765	90.31
405.988	77.31
406.212	80.31
406.436	101.31
406.66	72.31
406.883	82.31
407.107	86.31
407.331	76.31
407.555	103.31
407.778	138.31
408.002	127.31
408.226	91.31
408.449	78.31
408.673	78.31
408.896	85.31
409.12	81.31
409.344	74.31
409.567	83.31
409.791	92.31
410.014	101.31
410.238	93.31
410.461	85.31
410.685	84.31
410.908	95.31
411.132	90.31
411.355	89.31
411.578	88.31
411.802	81.31
412.025	74.31
412.249	94.31
412.472	85.31
412.695	88.31
412.919	68.31
413.142	79.31
413.365	83.31
413.589	98.31
413.812	92.31
414.035	82.31
414.258	100.31
414.482	78.31
414.705	71.31
414.928	85.31
415.151	86.31
415.374	83.31
415.597	98.31
415.821	91.31
416.044	90.31
416.267	92.31
416.49	83.31
416.713	92.31
416.936	76.31
417.159	85.31
417.382	82.31
417.605	78.31
417.828	82.31
418.051	78.31
418.274	84.31
418.497	92.31
418.72	84.31
418.943	75.31
419.166	84.31
419.389	84.31
419.611	87.31
419.834	86.31
420.057	84.31
420.28	84.31
420.503	91.31
420.726	99.31
420.948	96.31
421.171	92.31
421.394	100.31
421.617	118.31
421.839	123.31
422.062	112.31
422.285	154.31
422.507	300.31
422.73	474.31
422.953	439.31
423.175	171.31
423.398	113.31
423.621	103.31
423.843	100.31
424.066	87.31
424.288	83.31
424.511	99.31
424.733	92.31
424.956	80.31
425.178	87.31
425.401	86.31
425.623	78.31
425.846	72.31
426.068	73.31
426.291	79.31
426.513	79.31
426.735	70.31
426.958	83.31
427.18	76.31
427.402	102.31
427.625	97.31
427.847	77.31
428.069	104.31
428.292	129.31
428.514	150.31
428.736	110.31
428.958	123.31
429.181	126.31
429.403	98.31
429.625	96.31
429.847	111.31
430.069	160.31
430.292	205.31
430.514	178.31
430.736	129.31
430.958	142.31
431.18	82.31
431.402	90.31
431.624	97.31
431.846	115.31
432.068	139.31
432.29	82.31
432.512	83.31
432.734	80.31
432.956	97.31
433.178	93.31
433.4	97.31
433.622	74.31
433.844	71.31
434.066	85.31
434.287	80.31
434.509	86.31
434.731	83.31
434.953	70.31
435.175	66.31
435.397	81.31
435.618	83.31
435.84	86.31
436.062	76.31
436.284	74.31
436.505	75.31
436.727	78.31
436.949	83.31
437.17	82.31
437.392	80.31
437.614	79.31
437.835	91.31
438.057	80.31
438.278	78.31
438.5	90.31
438.721	82.31
438.943	78.31
439.165	81.31
439.386	103.31
439.608	94.31
439.829	71.31
440.05	69.31
440.272	69.31
440.493	79.31
440.715	91.31
440.936	87.31
441.158	87.31
441.379	86.31
441.6	89.31
441.822	83.31
442.043	92.31
442.264	92.31
442.486	133.31
442.707	158.31
442.928	114.31
443.149	102.31
443.371	136.31
443.592	222.31
443.813	200.31
444.034	116.31
444.255	80.31
444.476	95.31
444.698	92.31
444.919	91.31
445.14	154.31
445.361	180.31
445.582	286.31
445.803	249.31
446.024	112.31
446.245	85.31
446.466	90.31
446.687	83.31
446.908	70.31
447.129	87.31
447.35	96.31
447.571	88.31
447.792	96.31
448.013	74.31
448.234	73.31
448.455	81.31
448.675	81.31
448.896	79.31
449.117	80.31
449.338	84.31
449.559	70.31
449.779	68.31
450	82.31
450.221	82.31
450.442	75.31
450.662	73.31
450.883	84.31
451.104	68.31
451.324	81.31
451.545	82.31
451.766	83.31
451.986	71.31
452.207	81.31
452.428	87.31
452.648	88.31
452.869	96.31
453.089	86.31
453.31	70.31
453.53	84.31
453.751	82.31
453.971	68.31
454.192	72.31
454.412	88.31
454.633	81.31
454.853	88.31
455.073	89.31
455.294	86.31
455.514	98.31
455.734	91.31
455.955	82.31
456.175	83.31
456.395	82.31
456.616	102.31
456.836	88.31
457.056	78.31
457.276	79.31
457.497	73.31
457.717	81.31
457.937	94.31
458.157	103.31
458.377	100.31
458.598	101.31
458.818	119.31
459.038	98.31
459.258	87.31
459.478	78.31
459.698	86.31
459.918	79.31
460.138	81.31
460.358	87.31
460.578	105.31
460.798	115.31
461.018	112.31
461.238	82.31
461.458	86.31
461.678	69.31
461.898	81.31
462.118	92.31
462.338	86.31
462.558	72.31
462.777	79.31
462.997	76.31
463.217	79.31
463.437	67.31
463.657	85.31
463.876	67.31
464.096	78.31
464.316	96.31
464.536	78.31
464.755	86.31
464.975	78.31
465.195	88.31
465.414	87.31
465.634	87.31
465.854	86.31
466.073	60.31
466.293	72.31
466.512	62.31
466.732	88.31
466.951	76.31
467.171	78.31
467.391	76.31
467.61	82.31
467.829	75.31
468.049	88.31
468.268	78.31
468.488	84.31
468.707	86.31
468.927	68.31
469.146	78.31
469.365	82.31
469.585	64.31
469.804	89.31
470.023	78.31
470.243	72.31
470.462	80.31
470.681	84.31
470.901	96.31
471.12	86.31
471.339	79.31
471.558	90.31
471.777	82.31
471.997	78.31
472.216	90.31
472.435	80.31
472.654	73.31
472.873	87.31
473.092	76.31
473.311	87.31
473.53	75.31
473.749	94.31
473.968	62.31
474.187	68.31
474.406	66.31
474.625	79.31
474.844	70.31
475.063	79.31
475.282	83.31
475.501	74.31
475.72	90.31
475.939	85.31
476.158	89.31
476.377	87.31
476.596	76.31
476.814	84.31
477.033	101.31
477.252	90.31
477.471	82.31
477.69	85.31
477.908	90.31
478.127	78.31
478.346	94.31
478.564	88.31
478.783	78.31
479.002	71.31
479.22	80.31
479.439	83.31
479.658	77.31
479.876	87.31
480.095	83.31
480.313	80.31
480.532	80.31
480.751	85.31
480.969	76.31
481.188	87.31
481.406	96.31
481.624	80.31
481.843	69.31
482.061	81.31
482.28	77.31
482.498	76.31
482.717	91.31
482.935	97.31
483.153	90.31
483.372	82.31
483.59	79.31
483.808	81.31
484.027	87.31
484.245	76.31
484.463	86.31
484.681	84.31
484.9	81.31
485.118	92.31
485.336	97.31
485.554	92.31
485.772	80.31
485.99	86.31
486.209	86.31
486.427	75.31
486.645	85.31
486.863	95.31
487.081	86.31
487.299	96.31
487.517	107.31
487.735	102.31
487.953	143.31
488.171	118.31
488.389	74.31
488.607	87.31
488.825	84.31
489.043	90.31
489.261	78.31
489.479	76.31
489.696	70.31
489.914	90.31
490.132	80.31
490.35	83.31
490.568	88.31
490.786	72.31
491.003	88.31
491.221	69.31
491.439	84.31
491.657	78.31
491.874	82.31
492.092	81.31
492.31	91.31
492.527	94.31
492.745	94.31
492.963	90.31
493.18	69.31
493.398	84.31
493.615	107.31
493.833	80.31
494.05	78.31
494.268	90.31
494.485	80.31
494.703	87.31
494.92	84.31
495.138	86.31
495.355	86.31
495.573	90.31
495.79	86.31
496.008	79.31
496.225	86.31
496.442	88.31
496.66	83.31
496.877	88.31
497.094	81.31
497.312	92.31
497.529	83.31
497.746	89.31
497.963	94.31
498.181	82.31
498.398	80.31
498.615	80.31
498.832	78.31
499.049	89.31
499.267	80.31
499.484	98.31
499.701	86.31
499.918	84.31
500.135	92.31
500.352	98.31
500.569	91.31
500.786	90.31
501.003	101.31
501.22	93.31
501.437	88.31
501.654	89.31
501.871	72.31
502.088	84.31
502.305	92.31
502.522	87.31
502.739	97.31
502.956	87.31
503.172	92.31
503.389	91.31
503.606	82.31
503.823	76.31
504.04	95.31
504.256	109.31
504.473	112.31
504.69	95.31
504.907	84.31
505.123	76.31
505.34	70.31
505.557	95.31
505.773	87.31
505.99	87.31
506.207	75.31
506.423	62.31
506.64	81.31
506.856	91.31
507.073	76.31
507.289	82.31
507.506	79.31
507.722	86.31
507.939	80.31
508.155	74.31
508.372	86.31
508.588	83.31
508.805	84.31
509.021	75.31
509.238	85.31
509.454	74.31
509.67	75.31
509.887	72.31
510.103	91.31
510.319	88.31
510.536	89.31
510.752	79.31
510.968	84.31
511.184	78.31
511.401	82.31
511.617	67.31
511.833	91.31
512.049	75.31
512.265	88.31
512.481	91.31
512.698	88.31
512.914	87.31
513.13	80.31
513.346	85.31
513.562	96.31
513.778	84.31
513.994	85.31
514.21	76.31
514.426	98.31
514.642	85.31
514.858	81.31
515.074	82.31
515.29	88.31
515.506	78.31
515.721	86.31
515.937	99.31
516.153	74.31
516.369	90.31
516.585	88.31
516.801	68.31
517.016	88.31
517.232	84.31
517.448	100.31
517.664	95.31
517.879	81.31
518.095	88.31
518.311	92.31
518.527	95.31
518.742	90.31
