Data from 18505_1_HRD10591_00036.txt Node
Date: Mon Jan 19 13:58:49 EST 2026
User: Yrep
Spectrometer: HR+D1059
Trigger mode: 1
Integration Time (sec): 1.000000E-1
Scans to average: 1
Electric dark correction enabled: true
Nonlinearity correction enabled: false
Boxcar width: 0
XAxis mode: Wavelengths
Number of Pixels in Spectrum: 2048
>>>>>Begin Spectral Data<<<<<
223.165	-14.81
223.4	-14.81
223.635	-14.81
223.869	-16.81
224.104	-19.81
224.338	-15.81
224.573	-15.81
224.808	-10.81
225.042	-7.81
225.277	0.19
225.511	-7.81
225.746	4.19
225.98	0.19
226.215	14.19
226.449	25.19
226.683	21.19
226.918	19.19
227.152	25.19
227.387	39.19
227.621	30.19
227.856	32.19
228.09	49.19
228.324	48.19
228.559	57.19
228.793	53.19
229.027	70.19
229.262	56.19
229.496	52.19
229.73	63.19
229.964	69.19
230.199	64.19
230.433	69.19
230.667	82.19
230.901	65.19
231.136	78.19
231.37	86.19
231.604	84.19
231.838	90.19
232.072	72.19
232.306	94.19
232.541	72.19
232.775	78.19
233.009	71.19
233.243	84.19
233.477	90.19
233.711	88.19
233.945	73.19
234.179	81.19
234.413	78.19
234.647	82.19
234.881	78.19
235.115	82.19
235.349	78.19
235.583	74.19
235.817	96.19
236.051	87.19
236.285	86.19
236.519	80.19
236.753	68.19
236.987	78.19
237.221	69.19
237.455	80.19
237.689	69.19
237.922	62.19
238.156	67.19
238.39	78.19
238.624	75.19
238.858	74.19
239.091	82.19
239.325	82.19
239.559	73.19
239.793	81.19
240.027	81.19
240.26	73.19
240.494	77.19
240.728	81.19
240.961	66.19
241.195	69.19
241.429	77.19
241.662	67.19
241.896	72.19
242.13	69.19
242.363	69.19
242.597	80.19
242.83	66.19
243.064	70.19
243.298	69.19
243.531	80.19
243.765	85.19
243.998	88.19
244.232	81.19
244.465	86.19
244.699	74.19
244.932	67.19
245.166	77.19
245.399	77.19
245.633	73.19
245.866	89.19
246.099	89.19
246.333	78.19
246.566	83.19
246.8	86.19
247.033	61.19
247.266	87.19
247.5	81.19
247.733	66.19
247.966	74.19
248.2	80.19
248.433	60.19
248.666	84.19
248.899	62.19
249.133	77.19
249.366	71.19
249.599	79.19
249.832	85.19
250.066	81.19
250.299	80.19
250.532	80.19
250.765	80.19
250.998	81.19
251.231	72.19
251.465	76.19
251.698	87.19
251.931	89.19
252.164	88.19
252.397	71.19
252.63	74.19
252.863	87.19
253.096	69.19
253.329	65.19
253.562	89.19
253.795	88.19
254.028	74.19
254.261	80.19
254.494	70.19
254.727	80.19
254.96	79.19
255.193	78.19
255.426	82.19
255.659	84.19
255.892	100.19
256.124	88.19
256.357	86.19
256.59	78.19
256.823	72.19
257.056	84.19
257.289	71.19
257.521	84.19
257.754	69.19
257.987	97.19
258.22	92.19
258.452	89.19
258.685	83.19
258.918	81.19
259.151	81.19
259.383	80.19
259.616	72.19
259.849	76.19
260.081	77.19
260.314	86.19
260.547	79.19
260.779	74.19
261.012	81.19
261.244	94.19
261.477	72.19
261.71	74.19
261.942	68.19
262.175	86.19
262.407	79.19
262.64	70.19
262.872	86.19
263.105	83.19
263.337	78.19
263.57	78.19
263.802	89.19
264.035	80.19
264.267	69.19
264.499	82.19
264.732	66.19
264.964	74.19
265.197	77.19
265.429	79.19
265.661	73.19
265.894	88.19
266.126	86.19
266.358	78.19
266.591	69.19
266.823	79.19
267.055	78.19
267.287	68.19
267.52	88.19
267.752	87.19
267.984	84.19
268.216	92.19
268.448	85.19
268.681	96.19
268.913	81.19
269.145	84.19
269.377	89.19
269.609	65.19
269.841	73.19
270.073	70.19
270.306	78.19
270.538	82.19
270.77	70.19
271.002	78.19
271.234	90.19
271.466	92.19
271.698	87.19
271.93	84.19
272.162	84.19
272.394	73.19
272.626	81.19
272.858	81.19
273.09	86.19
273.322	79.19
273.553	80.19
273.785	93.19
274.017	82.19
274.249	80.19
274.481	85.19
274.713	77.19
274.945	91.19
275.176	82.19
275.408	85.19
275.64	95.19
275.872	82.19
276.104	78.19
276.335	67.19
276.567	87.19
276.799	79.19
277.031	76.19
277.262	85.19
277.494	79.19
277.726	83.19
277.957	89.19
278.189	87.19
278.421	81.19
278.652	93.19
278.884	94.19
279.115	101.19
279.347	80.19
279.579	94.19
279.81	88.19
280.042	98.19
280.273	87.19
280.505	102.19
280.736	82.19
280.968	88.19
281.199	93.19
281.431	68.19
281.662	84.19
281.894	99.19
282.125	95.19
282.356	83.19
282.588	90.19
282.819	88.19
283.051	90.19
283.282	85.19
283.513	86.19
283.745	88.19
283.976	90.19
284.207	77.19
284.439	95.19
284.67	91.19
284.901	93.19
285.132	82.19
285.364	84.19
285.595	81.19
285.826	87.19
286.057	73.19
286.288	92.19
286.52	90.19
286.751	84.19
286.982	76.19
287.213	71.19
287.444	80.19
287.675	84.19
287.906	92.19
288.138	87.19
288.369	78.19
288.6	91.19
288.831	92.19
289.062	85.19
289.293	86.19
289.524	73.19
289.755	84.19
289.986	88.19
290.217	83.19
290.448	85.19
290.679	77.19
290.91	96.19
291.141	92.19
291.371	68.19
291.602	77.19
291.833	74.19
292.064	76.19
292.295	91.19
292.526	84.19
292.757	89.19
292.987	97.19
293.218	77.19
293.449	85.19
293.68	78.19
293.91	93.19
294.141	88.19
294.372	86.19
294.603	88.19
294.833	90.19
295.064	80.19
295.295	96.19
295.525	85.19
295.756	89.19
295.987	90.19
296.217	81.19
296.448	76.19
296.679	87.19
296.909	101.19
297.14	95.19
297.37	75.19
297.601	95.19
297.831	89.19
298.062	76.19
298.292	88.19
298.523	79.19
298.753	92.19
298.984	79.19
299.214	106.19
299.445	96.19
299.675	89.19
299.905	100.19
300.136	80.19
300.366	86.19
300.597	89.19
300.827	81.19
301.057	79.19
301.288	88.19
301.518	78.19
301.748	89.19
301.979	103.19
302.209	79.19
302.439	78.19
302.669	85.19
302.9	90.19
303.13	73.19
303.36	87.19
303.59	87.19
303.82	92.19
304.051	88.19
304.281	60.19
304.511	69.19
304.741	82.19
304.971	90.19
305.201	92.19
305.431	84.19
305.661	86.19
305.891	73.19
306.121	76.19
306.352	75.19
306.582	83.19
306.812	94.19
307.042	73.19
307.272	87.19
307.502	88.19
307.731	90.19
307.961	108.19
308.191	84.19
308.421	84.19
308.651	97.19
308.881	80.19
309.111	93.19
309.341	92.19
309.571	90.19
309.8	88.19
310.03	96.19
310.26	86.19
310.49	89.19
310.72	89.19
310.949	83.19
311.179	86.19
311.409	93.19
311.639	93.19
311.868	84.19
312.098	83.19
312.328	88.19
312.557	80.19
312.787	61.19
313.017	92.19
313.246	72.19
313.476	80.19
313.706	86.19
313.935	78.19
314.165	82.19
314.394	81.19
314.624	88.19
314.853	86.19
315.083	92.19
315.312	89.19
315.542	91.19
315.771	98.19
316.001	106.19
316.23	99.19
316.46	84.19
316.689	78.19
316.919	91.19
317.148	80.19
317.377	78.19
317.607	103.19
317.836	93.19
318.065	80.19
318.295	98.19
318.524	95.19
318.753	74.19
318.983	88.19
319.212	82.19
319.441	88.19
319.67	83.19
319.9	84.19
320.129	86.19
320.358	81.19
320.587	80.19
320.816	85.19
321.046	79.19
321.275	78.19
321.504	77.19
321.733	90.19
321.962	80.19
322.191	83.19
322.42	74.19
322.649	83.19
322.878	92.19
323.108	96.19
323.337	83.19
323.566	87.19
323.795	97.19
324.024	78.19
324.253	81.19
324.482	88.19
324.71	75.19
324.939	90.19
325.168	81.19
325.397	78.19
325.626	80.19
325.855	92.19
326.084	71.19
326.313	97.19
326.542	86.19
326.77	76.19
326.999	92.19
327.228	83.19
327.457	82.19
327.686	84.19
327.914	82.19
328.143	96.19
328.372	99.19
328.6	86.19
328.829	100.19
329.058	90.19
329.287	79.19
329.515	81.19
329.744	71.19
329.972	83.19
330.201	77.19
330.43	88.19
330.658	76.19
330.887	84.19
331.115	74.19
331.344	76.19
331.572	77.19
331.801	89.19
332.03	82.19
332.258	78.19
332.486	95.19
332.715	90.19
332.943	72.19
333.172	84.19
333.4	86.19
333.629	90.19
333.857	84.19
334.085	93.19
334.314	82.19
334.542	80.19
334.771	89.19
334.999	88.19
335.227	77.19
335.455	87.19
335.684	80.19
335.912	79.19
336.14	82.19
336.369	88.19
336.597	98.19
336.825	83.19
337.053	87.19
337.281	98.19
337.51	92.19
337.738	84.19
337.966	71.19
338.194	101.19
338.422	75.19
338.65	96.19
338.878	92.19
339.106	84.19
339.334	80.19
339.562	86.19
339.79	85.19
340.018	80.19
340.246	82.19
340.474	87.19
340.702	73.19
340.93	93.19
341.158	92.19
341.386	86.19
341.614	83.19
341.842	91.19
342.07	80.19
342.298	85.19
342.526	90.19
342.754	75.19
342.981	88.19
343.209	73.19
343.437	99.19
343.665	85.19
343.893	64.19
344.12	94.19
344.348	85.19
344.576	80.19
344.804	75.19
345.031	94.19
345.259	98.19
345.487	88.19
345.714	92.19
345.942	85.19
346.17	88.19
346.397	96.19
346.625	84.19
346.853	78.19
347.08	87.19
347.308	72.19
347.535	88.19
347.763	80.19
347.99	84.19
348.218	88.19
348.445	76.19
348.673	85.19
348.9	83.19
349.128	92.19
349.355	90.19
349.583	87.19
349.81	67.19
350.037	73.19
350.265	88.19
350.492	85.19
350.72	90.19
350.947	96.19
351.174	90.19
351.402	85.19
351.629	73.19
351.856	72.19
352.083	73.19
352.311	95.19
352.538	76.19
352.765	86.19
352.992	92.19
353.22	87.19
353.447	76.19
353.674	94.19
353.901	95.19
354.128	78.19
354.355	85.19
354.583	75.19
354.81	86.19
355.037	82.19
355.264	86.19
355.491	98.19
355.718	89.19
355.945	98.19
356.172	79.19
356.399	71.19
356.626	76.19
356.853	84.19
357.08	96.19
357.307	70.19
357.534	88.19
357.761	85.19
357.988	89.19
358.215	77.19
358.441	87.19
358.668	82.19
358.895	72.19
359.122	85.19
359.349	92.19
359.576	79.19
359.802	85.19
360.029	68.19
360.256	83.19
360.483	86.19
360.709	85.19
360.936	88.19
361.163	92.19
361.39	82.19
361.616	95.19
361.843	74.19
362.07	87.19
362.296	75.19
362.523	81.19
362.749	81.19
362.976	97.19
363.203	101.19
363.429	96.19
363.656	86.19
363.882	86.19
364.109	101.19
364.335	109.19
364.562	96.19
364.788	80.19
365.015	83.19
365.241	83.19
365.468	84.19
365.694	86.19
365.92	88.19
366.147	82.19
366.373	84.19
366.599	90.19
366.826	84.19
367.052	74.19
367.278	73.19
367.505	94.19
367.731	108.19
367.957	88.19
368.184	76.19
368.41	83.19
368.636	86.19
368.862	76.19
369.089	77.19
369.315	82.19
369.541	89.19
369.767	93.19
369.993	92.19
370.219	85.19
370.445	92.19
370.672	78.19
370.898	72.19
371.124	99.19
371.35	82.19
371.576	80.19
371.802	87.19
372.028	90.19
372.254	84.19
372.48	84.19
372.706	85.19
372.932	81.19
373.158	96.19
373.384	89.19
373.61	88.19
373.835	82.19
374.061	91.19
374.287	94.19
374.513	83.19
374.739	72.19
374.965	78.19
375.191	88.19
375.416	80.19
375.642	74.19
375.868	86.19
376.094	90.19
376.319	72.19
376.545	87.19
376.771	71.19
376.997	70.19
377.222	74.19
377.448	72.19
377.674	82.19
377.899	90.19
378.125	84.19
378.35	89.19
378.576	86.19
378.802	84.19
379.027	73.19
379.253	75.19
379.478	77.19
379.704	80.19
379.929	88.19
380.155	104.19
380.38	81.19
380.606	73.19
380.831	90.19
381.057	92.19
381.282	75.19
381.507	90.19
381.733	96.19
381.958	78.19
382.184	85.19
382.409	85.19
382.634	92.19
382.86	85.19
383.085	73.19
383.31	87.19
383.535	88.19
383.761	88.19
383.986	90.19
384.211	90.19
384.436	79.19
384.662	101.19
384.887	83.19
385.112	80.19
385.337	84.19
385.562	97.19
385.787	102.19
386.013	95.19
386.238	94.19
386.463	97.19
386.688	104.19
386.913	93.19
387.138	80.19
387.363	83.19
387.588	93.19
387.813	90.19
388.038	85.19
388.263	82.19
388.488	93.19
388.713	82.19
388.938	87.19
389.163	92.19
389.387	80.19
389.612	72.19
389.837	88.19
390.062	99.19
390.287	94.19
390.512	88.19
390.736	90.19
390.961	84.19
391.186	75.19
391.411	87.19
391.636	87.19
391.86	82.19
392.085	96.19
392.31	94.19
392.534	93.19
392.759	105.19
392.984	136.19
393.208	214.19
393.433	283.19
393.658	215.19
393.882	114.19
394.107	86.19
394.331	89.19
394.556	109.19
394.78	91.19
395.005	90.19
395.229	80.19
395.454	90.19
395.678	89.19
395.903	98.19
396.127	114.19
396.352	115.19
396.576	136.19
396.801	206.19
397.025	236.19
397.249	128.19
397.474	106.19
397.698	88.19
397.922	80.19
398.147	86.19
398.371	86.19
398.595	80.19
398.82	72.19
399.044	70.19
399.268	88.19
399.492	93.19
399.717	86.19
399.941	71.19
400.165	75.19
400.389	86.19
400.613	80.19
400.837	88.19
401.062	88.19
401.286	70.19
401.51	93.19
401.734	86.19
401.958	86.19
402.182	96.19
402.406	88.19
402.63	86.19
402.854	81.19
403.078	75.19
403.302	77.19
403.526	86.19
403.75	83.19
403.974	96.19
404.198	104.19
404.422	110.19
404.645	124.19
404.869	102.19
405.093	95.19
405.317	81.19
405.541	94.19
405.765	83.19
405.988	81.19
406.212	85.19
406.436	80.19
406.66	86.19
406.883	77.19
407.107	83.19
407.331	86.19
407.555	88.19
407.778	104.19
408.002	99.19
408.226	86.19
408.449	103.19
408.673	80.19
408.896	82.19
409.12	85.19
409.344	80.19
409.567	97.19
409.791	73.19
410.014	84.19
410.238	94.19
410.461	89.19
410.685	79.19
410.908	85.19
411.132	76.19
411.355	81.19
411.578	86.19
411.802	80.19
412.025	71.19
412.249	82.19
412.472	64.19
412.695	76.19
412.919	87.19
413.142	92.19
413.365	90.19
413.589	82.19
413.812	80.19
414.035	70.19
414.258	74.19
414.482	84.19
414.705	88.19
414.928	81.19
415.151	62.19
415.374	84.19
415.597	88.19
415.821	87.19
416.044	85.19
416.267	83.19
416.49	81.19
416.713	85.19
416.936	92.19
417.159	68.19
417.382	56.19
417.605	79.19
417.828	80.19
418.051	85.19
418.274	88.19
418.497	82.19
418.72	89.19
418.943	80.19
419.166	70.19
419.389	90.19
419.611	77.19
419.834	69.19
420.057	82.19
420.28	84.19
420.503	80.19
420.726	94.19
420.948	68.19
421.171	93.19
421.394	85.19
421.617	105.19
421.839	95.19
422.062	117.19
422.285	121.19
422.507	203.19
422.73	293.19
422.953	257.19
423.175	147.19
423.398	98.19
423.621	92.19
423.843	89.19
424.066	87.19
424.288	94.19
424.511	74.19
424.733	78.19
424.956	86.19
425.178	81.19
425.401	92.19
425.623	85.19
425.846	68.19
426.068	80.19
426.291	81.19
426.513	70.19
426.735	84.19
426.958	70.19
427.18	92.19
427.402	84.19
427.625	91.19
427.847	77.19
428.069	80.19
428.292	100.19
428.514	116.19
428.736	97.19
428.958	112.19
429.181	112.19
429.403	94.19
429.625	82.19
429.847	93.19
430.069	108.19
430.292	146.19
430.514	133.19
430.736	123.19
430.958	113.19
431.18	85.19
431.402	89.19
431.624	78.19
431.846	101.19
432.068	118.19
432.29	82.19
432.512	72.19
432.734	94.19
432.956	87.19
433.178	83.19
433.4	97.19
433.622	78.19
433.844	82.19
434.066	85.19
434.287	82.19
434.509	106.19
434.731	78.19
434.953	80.19
435.175	74.19
435.397	81.19
435.618	86.19
435.84	74.19
436.062	81.19
436.284	78.19
436.505	84.19
436.727	83.19
436.949	86.19
437.17	71.19
437.392	75.19
437.614	80.19
437.835	77.19
438.057	69.19
438.278	87.19
438.5	96.19
438.721	87.19
438.943	67.19
439.165	69.19
439.386	89.19
439.608	85.19
439.829	80.19
440.05	90.19
440.272	69.19
440.493	94.19
440.715	90.19
440.936	80.19
441.158	83.19
441.379	75.19
441.6	74.19
441.822	80.19
442.043	88.19
442.264	92.19
442.486	118.19
442.707	129.19
442.928	103.19
443.149	96.19
443.371	122.19
443.592	174.19
443.813	161.19
444.034	80.19
444.255	96.19
444.476	86.19
444.698	82.19
444.919	88.19
445.14	173.19
445.361	192.19
445.582	204.19
445.803	165.19
446.024	100.19
446.245	83.19
446.466	83.19
446.687	79.19
446.908	85.19
447.129	72.19
447.35	87.19
447.571	91.19
447.792	98.19
448.013	80.19
448.234	84.19
448.455	87.19
448.675	71.19
448.896	90.19
449.117	99.19
449.338	101.19
449.559	88.19
449.779	80.19
450	72.19
450.221	80.19
450.442	82.19
450.662	93.19
450.883	94.19
451.104	87.19
451.324	92.19
451.545	73.19
451.766	90.19
451.986	81.19
452.207	87.19
452.428	84.19
452.648	80.19
452.869	97.19
453.089	87.19
453.31	86.19
453.53	86.19
453.751	79.19
453.971	89.19
454.192	76.19
454.412	74.19
454.633	72.19
454.853	92.19
455.073	92.19
455.294	74.19
455.514	78.19
455.734	74.19
455.955	80.19
456.175	85.19
456.395	84.19
456.616	68.19
456.836	79.19
457.056	75.19
457.276	89.19
457.497	98.19
457.717	87.19
457.937	87.19
458.157	100.19
458.377	109.19
458.598	90.19
458.818	93.19
459.038	87.19
459.258	72.19
459.478	98.19
459.698	83.19
459.918	86.19
460.138	74.19
460.358	71.19
460.578	85.19
460.798	104.19
461.018	94.19
461.238	87.19
461.458	84.19
461.678	72.19
461.898	89.19
462.118	93.19
462.338	96.19
462.558	93.19
462.777	94.19
462.997	82.19
463.217	85.19
463.437	83.19
463.657	74.19
463.876	81.19
464.096	83.19
464.316	71.19
464.536	74.19
464.755	86.19
464.975	88.19
465.195	84.19
465.414	69.19
465.634	75.19
465.854	80.19
466.073	77.19
466.293	90.19
466.512	76.19
466.732	85.19
466.951	87.19
467.171	82.19
467.391	84.19
467.61	79.19
467.829	58.19
468.049	67.19
468.268	75.19
468.488	93.19
468.707	92.19
468.927	83.19
469.146	73.19
469.365	84.19
469.585	84.19
469.804	81.19
470.023	75.19
470.243	80.19
470.462	79.19
470.681	87.19
470.901	80.19
471.12	81.19
471.339	77.19
471.558	69.19
471.777	78.19
471.997	58.19
472.216	77.19
472.435	72.19
472.654	69.19
472.873	81.19
473.092	84.19
473.311	86.19
473.53	95.19
473.749	89.19
473.968	86.19
474.187	77.19
474.406	82.19
474.625	84.19
474.844	92.19
475.063	74.19
475.282	79.19
475.501	64.19
475.72	80.19
475.939	83.19
476.158	80.19
476.377	75.19
476.596	81.19
476.814	82.19
477.033	79.19
477.252	75.19
477.471	81.19
477.69	90.19
477.908	69.19
478.127	70.19
478.346	89.19
478.564	81.19
478.783	89.19
479.002	88.19
479.22	80.19
479.439	75.19
479.658	88.19
479.876	69.19
480.095	68.19
480.313	79.19
480.532	82.19
480.751	88.19
480.969	79.19
481.188	92.19
481.406	82.19
481.624	68.19
481.843	72.19
482.061	96.19
482.28	85.19
482.498	88.19
482.717	74.19
482.935	75.19
483.153	72.19
483.372	89.19
483.59	88.19
483.808	67.19
484.027	85.19
484.245	72.19
484.463	79.19
484.681	87.19
484.9	89.19
485.118	86.19
485.336	94.19
485.554	75.19
485.772	81.19
485.99	83.19
486.209	74.19
486.427	82.19
486.645	77.19
486.863	88.19
487.081	78.19
487.299	85.19
487.517	79.19
487.735	100.19
487.953	103.19
488.171	100.19
488.389	86.19
488.607	105.19
488.825	80.19
489.043	72.19
489.261	82.19
489.479	94.19
489.696	80.19
489.914	92.19
490.132	96.19
490.35	89.19
490.568	87.19
490.786	95.19
491.003	80.19
491.221	88.19
491.439	77.19
491.657	84.19
491.874	85.19
492.092	88.19
492.31	74.19
492.527	80.19
492.745	81.19
492.963	80.19
493.18	94.19
493.398	97.19
493.615	87.19
493.833	83.19
494.05	88.19
494.268	86.19
494.485	96.19
494.703	81.19
494.92	99.19
495.138	84.19
495.355	90.19
495.573	89.19
495.79	74.19
496.008	89.19
496.225	85.19
496.442	88.19
496.66	86.19
496.877	94.19
497.094	83.19
497.312	75.19
497.529	82.19
497.746	99.19
497.963	79.19
498.181	92.19
498.398	84.19
498.615	98.19
498.832	84.19
499.049	84.19
499.267	83.19
499.484	82.19
499.701	102.19
499.918	73.19
500.135	73.19
500.352	78.19
500.569	94.19
500.786	82.19
501.003	103.19
501.22	69.19
501.437	77.19
501.654	100.19
501.871	78.19
502.088	66.19
502.305	81.19
502.522	81.19
502.739	80.19
502.956	74.19
503.172	81.19
503.389	86.19
503.606	90.19
503.823	85.19
504.04	104.19
504.256	101.19
504.473	95.19
504.69	86.19
504.907	99.19
505.123	81.19
505.34	90.19
505.557	82.19
505.773	81.19
505.99	68.19
506.207	84.19
506.423	87.19
506.64	70.19
506.856	81.19
507.073	100.19
507.289	114.19
507.506	86.19
507.722	87.19
507.939	74.19
508.155	80.19
508.372	67.19
508.588	97.19
508.805	90.19
509.021	72.19
509.238	89.19
509.454	92.19
509.67	68.19
509.887	84.19
510.103	87.19
510.319	90.19
510.536	82.19
510.752	79.19
510.968	78.19
511.184	78.19
511.401	90.19
511.617	87.19
511.833	87.19
512.049	83.19
512.265	92.19
512.481	94.19
512.698	95.19
512.914	99.19
513.13	81.19
513.346	86.19
513.562	87.19
513.778	83.19
513.994	72.19
514.21	87.19
514.426	94.19
514.642	72.19
514.858	78.19
515.074	88.19
515.29	74.19
515.506	84.19
515.721	90.19
515.937	90.19
516.153	80.19
516.369	81.19
516.585	81.19
516.801	83.19
517.016	98.19
517.232	69.19
517.448	82.19
517.664	90.19
517.879	78.19
518.095	75.19
518.311	80.19
518.527	87.19
518.742	89.19
518.958	112.19
