Data from 18505_1_HRD10591_00024.txt Node
Date: Mon Jan 19 13:58:43 EST 2026
User: Yrep
Spectrometer: HR+D1059
Trigger mode: 1
Integration Time (sec): 1.000000E-1
Scans to average: 1
Electric dark correction enabled: true
Nonlinearity correction enabled: false
Boxcar width: 0
XAxis mode: Wavelengths
Number of Pixels in Spectrum: 2048
>>>>>Begin Spectral Data<<<<<
223.165	-14.19
223.4	-14.19
223.635	-14.19
223.869	-13.19
224.104	-26.19
224.338	-12.19
224.573	-9.19
224.808	-9.19
225.042	-4.19
225.277	-14.19
225.511	-1.19
225.746	5.81
225.98	-2.19
226.215	13.81
226.449	20.81
226.683	5.81
226.918	31.81
227.152	27.81
227.387	28.81
227.621	42.81
227.856	49.81
228.09	43.81
228.324	60.81
228.559	55.81
228.793	64.81
229.027	69.81
229.262	54.81
229.496	64.81
229.73	68.81
229.964	65.81
230.199	63.81
230.433	83.81
230.667	75.81
230.901	63.81
231.136	76.81
231.37	77.81
231.604	78.81
231.838	71.81
232.072	66.81
232.306	80.81
232.541	83.81
232.775	78.81
233.009	79.81
233.243	90.81
233.477	76.81
233.711	79.81
233.945	87.81
234.179	68.81
234.413	68.81
234.647	71.81
234.881	65.81
235.115	85.81
235.349	71.81
235.583	78.81
235.817	67.81
236.051	75.81
236.285	65.81
236.519	64.81
236.753	80.81
236.987	86.81
237.221	64.81
237.455	76.81
237.689	68.81
237.922	60.81
238.156	78.81
238.39	72.81
238.624	76.81
238.858	62.81
239.091	68.81
239.325	74.81
239.559	87.81
239.793	69.81
240.027	74.81
240.26	78.81
240.494	73.81
240.728	76.81
240.961	86.81
241.195	71.81
241.429	76.81
241.662	84.81
241.896	64.81
242.13	63.81
242.363	72.81
242.597	74.81
242.83	84.81
243.064	73.81
243.298	76.81
243.531	70.81
243.765	78.81
243.998	72.81
244.232	79.81
244.465	82.81
244.699	72.81
244.932	78.81
245.166	74.81
245.399	67.81
245.633	90.81
245.866	99.81
246.099	86.81
246.333	70.81
246.566	68.81
246.8	80.81
247.033	68.81
247.266	66.81
247.5	76.81
247.733	82.81
247.966	76.81
248.2	82.81
248.433	75.81
248.666	76.81
248.899	69.81
249.133	71.81
249.366	67.81
249.599	88.81
249.832	66.81
250.066	78.81
250.299	55.81
250.532	86.81
250.765	68.81
250.998	74.81
251.231	69.81
251.465	82.81
251.698	72.81
251.931	61.81
252.164	85.81
252.397	85.81
252.63	78.81
252.863	68.81
253.096	74.81
253.329	80.81
253.562	77.81
253.795	78.81
254.028	82.81
254.261	73.81
254.494	76.81
254.727	90.81
254.96	83.81
255.193	76.81
255.426	80.81
255.659	91.81
255.892	78.81
256.124	75.81
256.357	78.81
256.59	88.81
256.823	88.81
257.056	86.81
257.289	75.81
257.521	78.81
257.754	88.81
257.987	70.81
258.22	77.81
258.452	68.81
258.685	71.81
258.918	80.81
259.151	86.81
259.383	86.81
259.616	80.81
259.849	62.81
260.081	82.81
260.314	76.81
260.547	78.81
260.779	73.81
261.012	78.81
261.244	85.81
261.477	83.81
261.71	65.81
261.942	64.81
262.175	78.81
262.407	72.81
262.64	88.81
262.872	77.81
263.105	69.81
263.337	77.81
263.57	77.81
263.802	80.81
264.035	81.81
264.267	75.81
264.499	78.81
264.732	78.81
264.964	89.81
265.197	67.81
265.429	90.81
265.661	76.81
265.894	74.81
266.126	88.81
266.358	86.81
266.591	91.81
266.823	73.81
267.055	84.81
267.287	70.81
267.52	76.81
267.752	71.81
267.984	78.81
268.216	82.81
268.448	73.81
268.681	90.81
268.913	74.81
269.145	78.81
269.377	81.81
269.609	76.81
269.841	66.81
270.073	71.81
270.306	78.81
270.538	82.81
270.77	70.81
271.002	84.81
271.234	76.81
271.466	84.81
271.698	85.81
271.93	86.81
272.162	81.81
272.394	87.81
272.626	90.81
272.858	84.81
273.09	82.81
273.322	77.81
273.553	82.81
273.785	92.81
274.017	87.81
274.249	85.81
274.481	94.81
274.713	88.81
274.945	96.81
275.176	77.81
275.408	69.81
275.64	88.81
275.872	87.81
276.104	69.81
276.335	82.81
276.567	78.81
276.799	88.81
277.031	76.81
277.262	82.81
277.494	78.81
277.726	83.81
277.957	76.81
278.189	72.81
278.421	76.81
278.652	86.81
278.884	82.81
279.115	76.81
279.347	89.81
279.579	87.81
279.81	72.81
280.042	74.81
280.273	86.81
280.505	77.81
280.736	97.81
280.968	77.81
281.199	88.81
281.431	90.81
281.662	80.81
281.894	77.81
282.125	91.81
282.356	88.81
282.588	89.81
282.819	77.81
283.051	94.81
283.282	87.81
283.513	82.81
283.745	79.81
283.976	86.81
284.207	85.81
284.439	79.81
284.67	88.81
284.901	85.81
285.132	88.81
285.364	92.81
285.595	96.81
285.826	89.81
286.057	95.81
286.288	73.81
286.52	66.81
286.751	68.81
286.982	85.81
287.213	69.81
287.444	75.81
287.675	79.81
287.906	82.81
288.138	90.81
288.369	83.81
288.6	93.81
288.831	80.81
289.062	75.81
289.293	83.81
289.524	82.81
289.755	82.81
289.986	65.81
290.217	82.81
290.448	85.81
290.679	66.81
290.91	71.81
291.141	72.81
291.371	74.81
291.602	78.81
291.833	90.81
292.064	85.81
292.295	92.81
292.526	85.81
292.757	84.81
292.987	90.81
293.218	79.81
293.449	76.81
293.68	79.81
293.91	80.81
294.141	82.81
294.372	84.81
294.603	96.81
294.833	77.81
295.064	80.81
295.295	86.81
295.525	76.81
295.756	85.81
295.987	88.81
296.217	70.81
296.448	95.81
296.679	84.81
296.909	94.81
297.14	80.81
297.37	73.81
297.601	76.81
297.831	82.81
298.062	99.81
298.292	93.81
298.523	74.81
298.753	79.81
298.984	87.81
299.214	88.81
299.445	77.81
299.675	76.81
299.905	80.81
300.136	88.81
300.366	85.81
300.597	103.81
300.827	86.81
301.057	99.81
301.288	94.81
301.518	70.81
301.748	91.81
301.979	92.81
302.209	88.81
302.439	94.81
302.669	88.81
302.9	74.81
303.13	92.81
303.36	80.81
303.59	92.81
303.82	78.81
304.051	87.81
304.281	88.81
304.511	84.81
304.741	82.81
304.971	82.81
305.201	82.81
305.431	89.81
305.661	90.81
305.891	83.81
306.121	76.81
306.352	85.81
306.582	90.81
306.812	84.81
307.042	78.81
307.272	92.81
307.502	89.81
307.731	91.81
307.961	88.81
308.191	94.81
308.421	91.81
308.651	95.81
308.881	95.81
309.111	86.81
309.341	108.81
309.571	110.81
309.8	84.81
310.03	88.81
310.26	71.81
310.49	87.81
310.72	84.81
310.949	88.81
311.179	82.81
311.409	73.81
311.639	60.81
311.868	79.81
312.098	83.81
312.328	98.81
312.557	76.81
312.787	78.81
313.017	74.81
313.246	75.81
313.476	92.81
313.706	77.81
313.935	111.81
314.165	94.81
314.394	72.81
314.624	96.81
314.853	93.81
315.083	92.81
315.312	88.81
315.542	99.81
315.771	86.81
316.001	116.81
316.23	94.81
316.46	86.81
316.689	85.81
316.919	83.81
317.148	92.81
317.377	91.81
317.607	79.81
317.836	98.81
318.065	113.81
318.295	90.81
318.524	90.81
318.753	85.81
318.983	85.81
319.212	78.81
319.441	83.81
319.67	84.81
319.9	88.81
320.129	79.81
320.358	82.81
320.587	80.81
320.816	86.81
321.046	71.81
321.275	88.81
321.504	82.81
321.733	95.81
321.962	86.81
322.191	69.81
322.42	103.81
322.649	93.81
322.878	74.81
323.108	81.81
323.337	90.81
323.566	68.81
323.795	92.81
324.024	79.81
324.253	78.81
324.482	80.81
324.71	83.81
324.939	88.81
325.168	95.81
325.397	76.81
325.626	93.81
325.855	91.81
326.084	87.81
326.313	85.81
326.542	70.81
326.77	74.81
326.999	72.81
327.228	83.81
327.457	82.81
327.686	87.81
327.914	110.81
328.143	76.81
328.372	83.81
328.6	88.81
328.829	70.81
329.058	74.81
329.287	62.81
329.515	78.81
329.744	83.81
329.972	76.81
330.201	71.81
330.43	83.81
330.658	78.81
330.887	82.81
331.115	94.81
331.344	92.81
331.572	95.81
331.801	78.81
332.03	62.81
332.258	85.81
332.486	86.81
332.715	70.81
332.943	73.81
333.172	90.81
333.4	77.81
333.629	80.81
333.857	79.81
334.085	75.81
334.314	93.81
334.542	85.81
334.771	86.81
334.999	72.81
335.227	87.81
335.455	88.81
335.684	87.81
335.912	91.81
336.14	91.81
336.369	108.81
336.597	91.81
336.825	93.81
337.053	74.81
337.281	87.81
337.51	86.81
337.738	97.81
337.966	85.81
338.194	87.81
338.422	82.81
338.65	82.81
338.878	83.81
339.106	87.81
339.334	83.81
339.562	84.81
339.79	69.81
340.018	78.81
340.246	87.81
340.474	76.81
340.702	95.81
340.93	96.81
341.158	80.81
341.386	91.81
341.614	82.81
341.842	85.81
342.07	86.81
342.298	81.81
342.526	80.81
342.754	86.81
342.981	84.81
343.209	83.81
343.437	94.81
343.665	84.81
343.893	96.81
344.12	92.81
344.348	93.81
344.576	75.81
344.804	83.81
345.031	80.81
345.259	78.81
345.487	87.81
345.714	84.81
345.942	88.81
346.17	83.81
346.397	79.81
346.625	82.81
346.853	91.81
347.08	79.81
347.308	79.81
347.535	98.81
347.763	88.81
347.99	92.81
348.218	86.81
348.445	92.81
348.673	104.81
348.9	91.81
349.128	86.81
349.355	73.81
349.583	81.81
349.81	83.81
350.037	82.81
350.265	87.81
350.492	92.81
350.72	83.81
350.947	74.81
351.174	84.81
351.402	76.81
351.629	83.81
351.856	96.81
352.083	75.81
352.311	87.81
352.538	78.81
352.765	96.81
352.992	98.81
353.22	72.81
353.447	70.81
353.674	79.81
353.901	87.81
354.128	84.81
354.355	85.81
354.583	98.81
354.81	92.81
355.037	91.81
355.264	88.81
355.491	80.81
355.718	85.81
355.945	88.81
356.172	93.81
356.399	83.81
356.626	80.81
356.853	87.81
357.08	96.81
357.307	89.81
357.534	85.81
357.761	90.81
357.988	86.81
358.215	88.81
358.441	86.81
358.668	77.81
358.895	79.81
359.122	91.81
359.349	91.81
359.576	86.81
359.802	74.81
360.029	86.81
360.256	87.81
360.483	80.81
360.709	94.81
360.936	95.81
361.163	90.81
361.39	83.81
361.616	95.81
361.843	99.81
362.07	98.81
362.296	102.81
362.523	112.81
362.749	127.81
362.976	124.81
363.203	147.81
363.429	106.81
363.656	94.81
363.882	106.81
364.109	118.81
364.335	144.81
364.562	163.81
364.788	135.81
365.015	106.81
365.241	82.81
365.468	93.81
365.694	73.81
365.92	87.81
366.147	87.81
366.373	87.81
366.599	91.81
366.826	94.81
367.052	75.81
367.278	92.81
367.505	87.81
367.731	72.81
367.957	79.81
368.184	90.81
368.41	70.81
368.636	90.81
368.862	97.81
369.089	83.81
369.315	89.81
369.541	96.81
369.767	90.81
369.993	81.81
370.219	78.81
370.445	98.81
370.672	103.81
370.898	96.81
371.124	91.81
371.35	92.81
371.576	79.81
371.802	85.81
372.028	71.81
372.254	94.81
372.48	89.81
372.706	87.81
372.932	93.81
373.158	93.81
373.384	113.81
373.61	113.81
373.835	132.81
374.061	106.81
374.287	76.81
374.513	82.81
374.739	108.81
374.965	100.81
375.191	93.81
375.416	83.81
375.642	79.81
375.868	99.81
376.094	101.81
376.319	68.81
376.545	73.81
376.771	65.81
376.997	98.81
377.222	100.81
377.448	85.81
377.674	75.81
377.899	76.81
378.125	87.81
378.35	86.81
378.576	79.81
378.802	92.81
379.027	83.81
379.253	87.81
379.478	101.81
379.704	77.81
379.929	94.81
380.155	74.81
380.38	62.81
380.606	78.81
380.831	88.81
381.057	88.81
381.282	78.81
381.507	75.81
381.733	104.81
381.958	93.81
382.184	101.81
382.409	100.81
382.634	96.81
382.86	92.81
383.085	92.81
383.31	97.81
383.535	95.81
383.761	108.81
383.986	106.81
384.211	105.81
384.436	94.81
384.662	88.81
384.887	90.81
385.112	92.81
385.337	86.81
385.562	80.81
385.787	90.81
386.013	96.81
386.238	95.81
386.463	98.81
386.688	93.81
386.913	92.81
387.138	81.81
387.363	118.81
387.588	94.81
387.813	106.81
388.038	110.81
388.263	106.81
388.488	79.81
388.713	88.81
388.938	99.81
389.163	70.81
389.387	86.81
389.612	94.81
389.837	100.81
390.062	94.81
390.287	91.81
390.512	80.81
390.736	87.81
390.961	87.81
391.186	101.81
391.411	89.81
391.636	94.81
391.86	100.81
392.085	118.81
392.31	114.81
392.534	119.81
392.759	154.81
392.984	222.81
393.208	412.81
393.433	624.81
393.658	474.81
393.882	202.81
394.107	136.81
394.331	145.81
394.556	142.81
394.78	118.81
395.005	98.81
395.229	93.81
395.454	117.81
395.678	108.81
395.903	140.81
396.127	167.81
396.352	208.81
396.576	252.81
396.801	421.81
397.025	484.81
397.249	266.81
397.474	162.81
397.698	110.81
397.922	96.81
398.147	92.81
398.371	87.81
398.595	94.81
398.82	91.81
399.044	92.81
399.268	94.81
399.492	86.81
399.717	73.81
399.941	84.81
400.165	88.81
400.389	86.81
400.613	71.81
400.837	86.81
401.062	80.81
401.286	84.81
401.51	77.81
401.734	86.81
401.958	76.81
402.182	75.81
402.406	79.81
402.63	82.81
402.854	96.81
403.078	93.81
403.302	86.81
403.526	82.81
403.75	82.81
403.974	89.81
404.198	102.81
404.422	138.81
404.645	127.81
404.869	108.81
405.093	98.81
405.317	72.81
405.541	76.81
405.765	80.81
405.988	88.81
406.212	94.81
406.436	99.81
406.66	90.81
406.883	80.81
407.107	76.81
407.331	79.81
407.555	104.81
407.778	130.81
408.002	141.81
408.226	103.81
408.449	76.81
408.673	76.81
408.896	92.81
409.12	103.81
409.344	100.81
409.567	107.81
409.791	122.81
410.014	119.81
410.238	96.81
410.461	92.81
410.685	91.81
410.908	99.81
411.132	91.81
411.355	87.81
411.578	93.81
411.802	85.81
412.025	79.81
412.249	79.81
412.472	96.81
412.695	90.81
412.919	85.81
413.142	72.81
413.365	79.81
413.589	87.81
413.812	86.81
414.035	85.81
414.258	78.81
414.482	94.81
414.705	83.81
414.928	78.81
415.151	84.81
415.374	82.81
415.597	82.81
415.821	85.81
416.044	81.81
416.267	79.81
416.49	85.81
416.713	80.81
416.936	71.81
417.159	80.81
417.382	94.81
417.605	80.81
417.828	76.81
418.051	96.81
418.274	88.81
418.497	79.81
418.72	86.81
418.943	76.81
419.166	78.81
419.389	79.81
419.611	84.81
419.834	83.81
420.057	83.81
420.28	85.81
420.503	101.81
420.726	90.81
420.948	91.81
421.171	94.81
421.394	129.81
421.617	152.81
421.839	152.81
422.062	149.81
422.285	191.81
422.507	383.81
422.73	595.81
422.953	527.81
423.175	255.81
423.398	148.81
423.621	123.81
423.843	98.81
424.066	110.81
424.288	112.81
424.511	83.81
424.733	101.81
424.956	78.81
425.178	70.81
425.401	76.81
425.623	86.81
425.846	87.81
426.068	85.81
426.291	92.81
426.513	88.81
426.735	96.81
426.958	80.81
427.18	75.81
427.402	94.81
427.625	83.81
427.847	102.81
428.069	112.81
428.292	159.81
428.514	193.81
428.736	141.81
428.958	171.81
429.181	167.81
429.403	113.81
429.625	122.81
429.847	157.81
430.069	236.81
430.292	279.81
430.514	263.81
430.736	175.81
430.958	186.81
431.18	108.81
431.402	91.81
431.624	105.81
431.846	158.81
432.068	172.81
432.29	110.81
432.512	94.81
432.734	87.81
432.956	83.81
433.178	82.81
433.4	71.81
433.622	92.81
433.844	92.81
434.066	82.81
434.287	103.81
434.509	89.81
434.731	87.81
434.953	101.81
435.175	87.81
435.397	80.81
435.618	99.81
435.84	114.81
436.062	106.81
436.284	67.81
436.505	77.81
436.727	80.81
436.949	79.81
437.17	84.81
437.392	94.81
437.614	90.81
437.835	80.81
438.057	71.81
438.278	90.81
438.5	104.81
438.721	101.81
438.943	83.81
439.165	78.81
439.386	84.81
439.608	86.81
439.829	87.81
440.05	97.81
440.272	93.81
440.493	82.81
440.715	88.81
440.936	86.81
441.158	80.81
441.379	90.81
441.6	70.81
441.822	103.81
442.043	85.81
442.264	115.81
442.486	175.81
442.707	250.81
442.928	149.81
443.149	133.81
443.371	216.81
443.592	406.81
443.813	347.81
444.034	140.81
444.255	96.81
444.476	99.81
444.698	91.81
444.919	108.81
445.14	190.81
445.361	281.81
445.582	492.81
445.803	412.81
446.024	148.81
446.245	100.81
446.466	81.81
446.687	88.81
446.908	83.81
447.129	91.81
447.35	69.81
447.571	76.81
447.792	84.81
448.013	79.81
448.234	74.81
448.455	83.81
448.675	82.81
448.896	70.81
449.117	93.81
449.338	82.81
449.559	84.81
449.779	77.81
450	78.81
450.221	78.81
450.442	92.81
450.662	71.81
450.883	84.81
451.104	77.81
451.324	86.81
451.545	85.81
451.766	109.81
451.986	89.81
452.207	91.81
452.428	98.81
452.648	94.81
452.869	116.81
453.089	93.81
453.31	90.81
453.53	73.81
453.751	81.81
453.971	75.81
454.192	73.81
454.412	78.81
454.633	80.81
454.853	85.81
455.073	86.81
455.294	84.81
455.514	90.81
455.734	94.81
455.955	85.81
456.175	84.81
456.395	82.81
456.616	64.81
456.836	86.81
457.056	82.81
457.276	78.81
457.497	90.81
457.717	99.81
457.937	130.81
458.157	147.81
458.377	162.81
458.598	149.81
458.818	163.81
459.038	114.81
459.258	101.81
459.478	84.81
459.698	86.81
459.918	69.81
460.138	81.81
460.358	94.81
460.578	99.81
460.798	142.81
461.018	131.81
461.238	86.81
461.458	82.81
461.678	85.81
461.898	74.81
462.118	79.81
462.338	75.81
462.558	73.81
462.777	63.81
462.997	84.81
463.217	92.81
463.437	84.81
463.657	82.81
463.876	73.81
464.096	80.81
464.316	89.81
464.536	63.81
464.755	91.81
464.975	85.81
465.195	84.81
465.414	76.81
465.634	77.81
465.854	86.81
466.073	87.81
466.293	82.81
466.512	72.81
466.732	74.81
466.951	90.81
467.171	69.81
467.391	91.81
467.61	99.81
467.829	73.81
468.049	88.81
468.268	69.81
468.488	88.81
468.707	78.81
468.927	88.81
469.146	94.81
469.365	80.81
469.585	78.81
469.804	79.81
470.023	80.81
470.243	74.81
470.462	84.81
470.681	98.81
470.901	70.81
471.12	71.81
471.339	83.81
471.558	80.81
471.777	78.81
471.997	90.81
472.216	95.81
472.435	84.81
472.654	93.81
472.873	97.81
473.092	80.81
473.311	82.81
473.53	74.81
473.749	78.81
473.968	88.81
474.187	91.81
474.406	86.81
474.625	83.81
474.844	92.81
475.063	90.81
475.282	78.81
475.501	85.81
475.72	97.81
475.939	78.81
476.158	106.81
476.377	95.81
476.596	74.81
476.814	80.81
477.033	78.81
477.252	78.81
477.471	84.81
477.69	93.81
477.908	97.81
478.127	80.81
478.346	80.81
478.564	75.81
478.783	78.81
479.002	84.81
479.22	87.81
479.439	84.81
479.658	68.81
479.876	86.81
480.095	66.81
480.313	99.81
480.532	80.81
480.751	71.81
480.969	86.81
481.188	80.81
481.406	84.81
481.624	96.81
481.843	89.81
482.061	99.81
482.28	90.81
482.498	74.81
482.717	85.81
482.935	88.81
483.153	87.81
483.372	99.81
483.59	89.81
483.808	78.81
484.027	91.81
484.245	96.81
484.463	89.81
484.681	96.81
484.9	80.81
485.118	89.81
485.336	86.81
485.554	86.81
485.772	85.81
485.99	73.81
486.209	73.81
486.427	72.81
486.645	82.81
486.863	95.81
487.081	83.81
487.299	85.81
487.517	88.81
487.735	141.81
487.953	230.81
488.171	190.81
488.389	115.81
488.607	101.81
488.825	85.81
489.043	96.81
489.261	78.81
489.479	88.81
489.696	93.81
489.914	92.81
490.132	77.81
490.35	84.81
490.568	88.81
490.786	90.81
491.003	76.81
491.221	80.81
491.439	82.81
491.657	79.81
491.874	87.81
492.092	79.81
492.31	83.81
492.527	96.81
492.745	91.81
492.963	82.81
493.18	100.81
493.398	98.81
493.615	111.81
493.833	74.81
494.05	81.81
494.268	106.81
494.485	78.81
494.703	74.81
494.92	81.81
495.138	84.81
495.355	76.81
495.573	79.81
495.79	81.81
496.008	93.81
496.225	97.81
496.442	87.81
496.66	97.81
496.877	107.81
497.094	91.81
497.312	80.81
497.529	92.81
497.746	90.81
497.963	88.81
498.181	89.81
498.398	91.81
498.615	95.81
498.832	83.81
499.049	98.81
499.267	96.81
499.484	101.81
499.701	82.81
499.918	82.81
500.135	85.81
500.352	97.81
500.569	79.81
500.786	91.81
501.003	90.81
501.22	80.81
501.437	90.81
501.654	95.81
501.871	80.81
502.088	84.81
502.305	78.81
502.522	72.81
502.739	88.81
502.956	93.81
503.172	80.81
503.389	96.81
503.606	86.81
503.823	96.81
504.04	119.81
504.256	168.81
504.473	166.81
504.69	129.81
504.907	88.81
505.123	92.81
505.34	82.81
505.557	78.81
505.773	102.81
505.99	72.81
506.207	76.81
506.423	97.81
506.64	98.81
506.856	78.81
507.073	94.81
507.289	96.81
507.506	86.81
507.722	86.81
507.939	94.81
508.155	80.81
508.372	80.81
508.588	88.81
508.805	92.81
509.021	78.81
509.238	100.81
509.454	77.81
509.67	68.81
509.887	80.81
510.103	89.81
510.319	88.81
510.536	87.81
510.752	94.81
510.968	83.81
511.184	86.81
511.401	91.81
511.617	90.81
511.833	86.81
512.049	94.81
512.265	77.81
512.481	82.81
512.698	81.81
512.914	80.81
513.13	86.81
513.346	73.81
513.562	86.81
513.778	93.81
513.994	98.81
514.21	88.81
514.426	96.81
514.642	102.81
514.858	69.81
515.074	77.81
515.29	89.81
515.506	80.81
515.721	81.81
515.937	71.81
516.153	90.81
516.369	72.81
516.585	86.81
516.801	84.81
517.016	102.81
517.232	94.81
517.448	120.81
517.664	97.81
517.879	90.81
