Data from 18505_1_HRD10591_00009.txt Node
Date: Mon Jan 19 13:58:35 EST 2026
User: Yrep
Spectrometer: HR+D1059
Trigger mode: 1
Integration Time (sec): 1.000000E-1
Scans to average: 1
Electric dark correction enabled: true
Nonlinearity correction enabled: false
Boxcar width: 0
XAxis mode: Wavelengths
Number of Pixels in Spectrum: 2048
>>>>>Begin Spectral Data<<<<<
223.165	-12.88
223.4	-12.88
223.635	-12.88
223.869	-12.88
224.104	-16.88
224.338	-11.88
224.573	-13.88
224.808	-15.88
225.042	-21.88
225.277	-3.88
225.511	-2.88
225.746	13.12
225.98	9.12
226.215	18.12
226.449	16.12
226.683	7.12
226.918	21.12
227.152	28.12
227.387	27.12
227.621	34.12
227.856	40.12
228.09	38.12
228.324	50.12
228.559	54.12
228.793	45.12
229.027	43.12
229.262	70.12
229.496	60.12
229.73	67.12
229.964	86.12
230.199	83.12
230.433	74.12
230.667	86.12
230.901	83.12
231.136	71.12
231.37	69.12
231.604	70.12
231.838	76.12
232.072	72.12
232.306	77.12
232.541	83.12
232.775	79.12
233.009	80.12
233.243	69.12
233.477	75.12
233.711	75.12
233.945	73.12
234.179	68.12
234.413	70.12
234.647	88.12
234.881	81.12
235.115	75.12
235.349	78.12
235.583	71.12
235.817	76.12
236.051	69.12
236.285	72.12
236.519	86.12
236.753	72.12
236.987	67.12
237.221	75.12
237.455	52.12
237.689	71.12
237.922	71.12
238.156	85.12
238.39	84.12
238.624	69.12
238.858	71.12
239.091	82.12
239.325	74.12
239.559	72.12
239.793	68.12
240.027	78.12
240.26	74.12
240.494	75.12
240.728	75.12
240.961	69.12
241.195	67.12
241.429	67.12
241.662	65.12
241.896	75.12
242.13	66.12
242.363	75.12
242.597	72.12
242.83	70.12
243.064	67.12
243.298	54.12
243.531	63.12
243.765	79.12
243.998	64.12
244.232	71.12
244.465	79.12
244.699	79.12
244.932	75.12
245.166	73.12
245.399	69.12
245.633	82.12
245.866	73.12
246.099	66.12
246.333	77.12
246.566	72.12
246.8	65.12
247.033	78.12
247.266	74.12
247.5	80.12
247.733	77.12
247.966	59.12
248.2	81.12
248.433	72.12
248.666	76.12
248.899	82.12
249.133	65.12
249.366	80.12
249.599	62.12
249.832	76.12
250.066	78.12
250.299	76.12
250.532	67.12
250.765	74.12
250.998	76.12
251.231	77.12
251.465	85.12
251.698	74.12
251.931	70.12
252.164	80.12
252.397	61.12
252.63	82.12
252.863	80.12
253.096	73.12
253.329	78.12
253.562	66.12
253.795	67.12
254.028	69.12
254.261	73.12
254.494	68.12
254.727	96.12
254.96	80.12
255.193	76.12
255.426	63.12
255.659	80.12
255.892	79.12
256.124	54.12
256.357	76.12
256.59	66.12
256.823	64.12
257.056	91.12
257.289	80.12
257.521	72.12
257.754	88.12
257.987	74.12
258.22	76.12
258.452	76.12
258.685	67.12
258.918	74.12
259.151	71.12
259.383	74.12
259.616	76.12
259.849	75.12
260.081	71.12
260.314	75.12
260.547	79.12
260.779	72.12
261.012	81.12
261.244	68.12
261.477	91.12
261.71	80.12
261.942	83.12
262.175	84.12
262.407	71.12
262.64	67.12
262.872	85.12
263.105	72.12
263.337	63.12
263.57	81.12
263.802	93.12
264.035	70.12
264.267	57.12
264.499	80.12
264.732	75.12
264.964	84.12
265.197	90.12
265.429	80.12
265.661	73.12
265.894	69.12
266.126	83.12
266.358	71.12
266.591	83.12
266.823	77.12
267.055	80.12
267.287	72.12
267.52	67.12
267.752	76.12
267.984	89.12
268.216	73.12
268.448	82.12
268.681	81.12
268.913	69.12
269.145	74.12
269.377	66.12
269.609	72.12
269.841	68.12
270.073	78.12
270.306	77.12
270.538	88.12
270.77	74.12
271.002	68.12
271.234	68.12
271.466	86.12
271.698	65.12
271.93	71.12
272.162	79.12
272.394	80.12
272.626	77.12
272.858	84.12
273.09	82.12
273.322	78.12
273.553	69.12
273.785	74.12
274.017	81.12
274.249	83.12
274.481	74.12
274.713	76.12
274.945	71.12
275.176	81.12
275.408	75.12
275.64	77.12
275.872	70.12
276.104	83.12
276.335	82.12
276.567	71.12
276.799	76.12
277.031	87.12
277.262	79.12
277.494	81.12
277.726	67.12
277.957	69.12
278.189	85.12
278.421	69.12
278.652	82.12
278.884	82.12
279.115	89.12
279.347	90.12
279.579	80.12
279.81	89.12
280.042	82.12
280.273	88.12
280.505	77.12
280.736	80.12
280.968	92.12
281.199	70.12
281.431	83.12
281.662	78.12
281.894	60.12
282.125	72.12
282.356	84.12
282.588	70.12
282.819	80.12
283.051	75.12
283.282	71.12
283.513	86.12
283.745	86.12
283.976	82.12
284.207	77.12
284.439	82.12
284.67	78.12
284.901	76.12
285.132	88.12
285.364	82.12
285.595	78.12
285.826	73.12
286.057	70.12
286.288	79.12
286.52	73.12
286.751	84.12
286.982	84.12
287.213	84.12
287.444	72.12
287.675	78.12
287.906	93.12
288.138	82.12
288.369	80.12
288.6	76.12
288.831	67.12
289.062	69.12
289.293	87.12
289.524	94.12
289.755	72.12
289.986	75.12
290.217	83.12
290.448	70.12
290.679	84.12
290.91	70.12
291.141	74.12
291.371	67.12
291.602	93.12
291.833	73.12
292.064	81.12
292.295	82.12
292.526	76.12
292.757	82.12
292.987	72.12
293.218	75.12
293.449	76.12
293.68	84.12
293.91	82.12
294.141	80.12
294.372	64.12
294.603	82.12
294.833	83.12
295.064	69.12
295.295	75.12
295.525	90.12
295.756	69.12
295.987	82.12
296.217	89.12
296.448	87.12
296.679	76.12
296.909	74.12
297.14	80.12
297.37	90.12
297.601	80.12
297.831	70.12
298.062	76.12
298.292	89.12
298.523	83.12
298.753	78.12
298.984	71.12
299.214	89.12
299.445	79.12
299.675	85.12
299.905	80.12
300.136	81.12
300.366	85.12
300.597	73.12
300.827	91.12
301.057	81.12
301.288	72.12
301.518	82.12
301.748	63.12
301.979	82.12
302.209	84.12
302.439	84.12
302.669	67.12
302.9	74.12
303.13	92.12
303.36	81.12
303.59	82.12
303.82	85.12
304.051	75.12
304.281	88.12
304.511	88.12
304.741	72.12
304.971	76.12
305.201	81.12
305.431	82.12
305.661	76.12
305.891	78.12
306.121	85.12
306.352	76.12
306.582	94.12
306.812	84.12
307.042	76.12
307.272	89.12
307.502	84.12
307.731	78.12
307.961	91.12
308.191	80.12
308.421	88.12
308.651	76.12
308.881	82.12
309.111	76.12
309.341	84.12
309.571	89.12
309.8	78.12
310.03	73.12
310.26	78.12
310.49	78.12
310.72	86.12
310.949	84.12
311.179	86.12
311.409	86.12
311.639	83.12
311.868	87.12
312.098	95.12
312.328	86.12
312.557	97.12
312.787	80.12
313.017	72.12
313.246	82.12
313.476	81.12
313.706	74.12
313.935	82.12
314.165	80.12
314.394	70.12
314.624	88.12
314.853	74.12
315.083	87.12
315.312	75.12
315.542	85.12
315.771	79.12
316.001	72.12
316.23	89.12
316.46	93.12
316.689	85.12
316.919	75.12
317.148	76.12
317.377	86.12
317.607	88.12
317.836	86.12
318.065	85.12
318.295	85.12
318.524	82.12
318.753	76.12
318.983	91.12
319.212	84.12
319.441	83.12
319.67	81.12
319.9	69.12
320.129	71.12
320.358	83.12
320.587	74.12
320.816	76.12
321.046	77.12
321.275	80.12
321.504	87.12
321.733	83.12
321.962	82.12
322.191	80.12
322.42	94.12
322.649	79.12
322.878	87.12
323.108	95.12
323.337	94.12
323.566	69.12
323.795	73.12
324.024	78.12
324.253	85.12
324.482	78.12
324.71	84.12
324.939	88.12
325.168	76.12
325.397	78.12
325.626	77.12
325.855	83.12
326.084	83.12
326.313	79.12
326.542	87.12
326.77	70.12
326.999	83.12
327.228	93.12
327.457	84.12
327.686	82.12
327.914	92.12
328.143	73.12
328.372	79.12
328.6	77.12
328.829	86.12
329.058	74.12
329.287	91.12
329.515	76.12
329.744	84.12
329.972	73.12
330.201	80.12
330.43	74.12
330.658	83.12
330.887	81.12
331.115	78.12
331.344	90.12
331.572	93.12
331.801	82.12
332.03	91.12
332.258	85.12
332.486	74.12
332.715	66.12
332.943	76.12
333.172	68.12
333.4	87.12
333.629	84.12
333.857	71.12
334.085	66.12
334.314	68.12
334.542	70.12
334.771	86.12
334.999	99.12
335.227	97.12
335.455	88.12
335.684	74.12
335.912	74.12
336.14	86.12
336.369	76.12
336.597	83.12
336.825	81.12
337.053	85.12
337.281	89.12
337.51	78.12
337.738	78.12
337.966	77.12
338.194	83.12
338.422	80.12
338.65	86.12
338.878	89.12
339.106	82.12
339.334	83.12
339.562	62.12
339.79	87.12
340.018	76.12
340.246	76.12
340.474	77.12
340.702	79.12
340.93	74.12
341.158	81.12
341.386	89.12
341.614	73.12
341.842	71.12
342.07	78.12
342.298	85.12
342.526	70.12
342.754	89.12
342.981	79.12
343.209	84.12
343.437	93.12
343.665	94.12
343.893	79.12
344.12	78.12
344.348	79.12
344.576	83.12
344.804	72.12
345.031	63.12
345.259	78.12
345.487	81.12
345.714	80.12
345.942	72.12
346.17	87.12
346.397	89.12
346.625	70.12
346.853	75.12
347.08	89.12
347.308	90.12
347.535	80.12
347.763	81.12
347.99	71.12
348.218	89.12
348.445	80.12
348.673	64.12
348.9	77.12
349.128	92.12
349.355	79.12
349.583	69.12
349.81	82.12
350.037	80.12
350.265	84.12
350.492	85.12
350.72	71.12
350.947	81.12
351.174	90.12
351.402	74.12
351.629	85.12
351.856	80.12
352.083	80.12
352.311	82.12
352.538	81.12
352.765	79.12
352.992	86.12
353.22	77.12
353.447	78.12
353.674	66.12
353.901	82.12
354.128	91.12
354.355	87.12
354.583	71.12
354.81	70.12
355.037	65.12
355.264	81.12
355.491	75.12
355.718	76.12
355.945	89.12
356.172	70.12
356.399	88.12
356.626	60.12
356.853	91.12
357.08	86.12
357.307	90.12
357.534	92.12
357.761	85.12
357.988	90.12
358.215	85.12
358.441	83.12
358.668	84.12
358.895	78.12
359.122	86.12
359.349	65.12
359.576	74.12
359.802	76.12
360.029	93.12
360.256	96.12
360.483	89.12
360.709	79.12
360.936	83.12
361.163	85.12
361.39	91.12
361.616	82.12
361.843	78.12
362.07	85.12
362.296	81.12
362.523	75.12
362.749	77.12
362.976	72.12
363.203	85.12
363.429	68.12
363.656	72.12
363.882	93.12
364.109	88.12
364.335	87.12
364.562	92.12
364.788	84.12
365.015	78.12
365.241	74.12
365.468	86.12
365.694	65.12
365.92	80.12
366.147	82.12
366.373	89.12
366.599	88.12
366.826	67.12
367.052	75.12
367.278	85.12
367.505	75.12
367.731	73.12
367.957	76.12
368.184	84.12
368.41	93.12
368.636	88.12
368.862	75.12
369.089	74.12
369.315	80.12
369.541	69.12
369.767	84.12
369.993	86.12
370.219	78.12
370.445	87.12
370.672	77.12
370.898	86.12
371.124	78.12
371.35	81.12
371.576	72.12
371.802	82.12
372.028	81.12
372.254	76.12
372.48	94.12
372.706	86.12
372.932	84.12
373.158	86.12
373.384	83.12
373.61	97.12
373.835	93.12
374.061	81.12
374.287	84.12
374.513	87.12
374.739	90.12
374.965	80.12
375.191	83.12
375.416	82.12
375.642	79.12
375.868	91.12
376.094	72.12
376.319	80.12
376.545	85.12
376.771	99.12
376.997	86.12
377.222	76.12
377.448	75.12
377.674	80.12
377.899	77.12
378.125	60.12
378.35	76.12
378.576	69.12
378.802	88.12
379.027	86.12
379.253	87.12
379.478	77.12
379.704	80.12
379.929	74.12
380.155	78.12
380.38	82.12
380.606	77.12
380.831	69.12
381.057	86.12
381.282	86.12
381.507	74.12
381.733	76.12
381.958	77.12
382.184	77.12
382.409	76.12
382.634	81.12
382.86	86.12
383.085	85.12
383.31	91.12
383.535	83.12
383.761	93.12
383.986	77.12
384.211	80.12
384.436	76.12
384.662	70.12
384.887	69.12
385.112	89.12
385.337	75.12
385.562	71.12
385.787	81.12
386.013	86.12
386.238	81.12
386.463	83.12
386.688	96.12
386.913	72.12
387.138	79.12
387.363	81.12
387.588	86.12
387.813	81.12
388.038	77.12
388.263	90.12
388.488	76.12
388.713	77.12
388.938	80.12
389.163	90.12
389.387	81.12
389.612	72.12
389.837	75.12
390.062	71.12
390.287	93.12
390.512	70.12
390.736	77.12
390.961	82.12
391.186	78.12
391.411	89.12
391.636	81.12
391.86	70.12
392.085	69.12
392.31	66.12
392.534	106.12
392.759	116.12
392.984	122.12
393.208	207.12
393.433	300.12
393.658	227.12
393.882	111.12
394.107	96.12
394.331	79.12
394.556	90.12
394.78	87.12
395.005	76.12
395.229	66.12
395.454	88.12
395.678	75.12
395.903	95.12
396.127	99.12
396.352	110.12
396.576	140.12
396.801	225.12
397.025	264.12
397.249	122.12
397.474	99.12
397.698	80.12
397.922	76.12
398.147	84.12
398.371	74.12
398.595	93.12
398.82	80.12
399.044	78.12
399.268	83.12
399.492	77.12
399.717	76.12
399.941	63.12
400.165	78.12
400.389	74.12
400.613	78.12
400.837	66.12
401.062	74.12
401.286	95.12
401.51	84.12
401.734	66.12
401.958	79.12
402.182	80.12
402.406	60.12
402.63	70.12
402.854	73.12
403.078	74.12
403.302	76.12
403.526	85.12
403.75	65.12
403.974	70.12
404.198	74.12
404.422	82.12
404.645	66.12
404.869	72.12
405.093	76.12
405.317	85.12
405.541	80.12
405.765	76.12
405.988	84.12
406.212	92.12
406.436	75.12
406.66	94.12
406.883	80.12
407.107	71.12
407.331	92.12
407.555	97.12
407.778	89.12
408.002	111.12
408.226	80.12
408.449	67.12
408.673	68.12
408.896	85.12
409.12	67.12
409.344	85.12
409.567	84.12
409.791	95.12
410.014	83.12
410.238	79.12
410.461	83.12
410.685	68.12
410.908	91.12
411.132	85.12
411.355	66.12
411.578	83.12
411.802	68.12
412.025	100.12
412.249	89.12
412.472	78.12
412.695	68.12
412.919	77.12
413.142	88.12
413.365	74.12
413.589	92.12
413.812	77.12
414.035	89.12
414.258	69.12
414.482	85.12
414.705	75.12
414.928	66.12
415.151	84.12
415.374	74.12
415.597	74.12
415.821	84.12
416.044	85.12
416.267	83.12
416.49	86.12
416.713	84.12
416.936	82.12
417.159	61.12
417.382	69.12
417.605	73.12
417.828	77.12
418.051	67.12
418.274	73.12
418.497	86.12
418.72	79.12
418.943	77.12
419.166	79.12
419.389	73.12
419.611	81.12
419.834	60.12
420.057	78.12
420.28	79.12
420.503	78.12
420.726	85.12
420.948	66.12
421.171	96.12
421.394	95.12
421.617	108.12
421.839	115.12
422.062	93.12
422.285	98.12
422.507	165.12
422.73	259.12
422.953	212.12
423.175	118.12
423.398	94.12
423.621	88.12
423.843	75.12
424.066	65.12
424.288	88.12
424.511	67.12
424.733	66.12
424.956	88.12
425.178	73.12
425.401	83.12
425.623	70.12
425.846	72.12
426.068	74.12
426.291	69.12
426.513	64.12
426.735	80.12
426.958	78.12
427.18	75.12
427.402	89.12
427.625	83.12
427.847	52.12
428.069	80.12
428.292	101.12
428.514	112.12
428.736	97.12
428.958	99.12
429.181	91.12
429.403	84.12
429.625	81.12
429.847	88.12
430.069	108.12
430.292	117.12
430.514	124.12
430.736	98.12
430.958	100.12
431.18	92.12
431.402	91.12
431.624	66.12
431.846	90.12
432.068	105.12
432.29	90.12
432.512	88.12
432.734	86.12
432.956	75.12
433.178	84.12
433.4	94.12
433.622	82.12
433.844	76.12
434.066	76.12
434.287	66.12
434.509	69.12
434.731	72.12
434.953	69.12
435.175	76.12
435.397	84.12
435.618	78.12
435.84	77.12
436.062	77.12
436.284	70.12
436.505	75.12
436.727	64.12
436.949	76.12
437.17	70.12
437.392	71.12
437.614	76.12
437.835	73.12
438.057	75.12
438.278	63.12
438.5	80.12
438.721	76.12
438.943	74.12
439.165	76.12
439.386	72.12
439.608	71.12
439.829	76.12
440.05	94.12
440.272	77.12
440.493	83.12
440.715	78.12
440.936	71.12
441.158	70.12
441.379	78.12
441.6	63.12
441.822	66.12
442.043	86.12
442.264	80.12
442.486	101.12
442.707	97.12
442.928	93.12
443.149	73.12
443.371	101.12
443.592	144.12
443.813	127.12
444.034	94.12
444.255	86.12
444.476	74.12
444.698	80.12
444.919	90.12
445.14	142.12
445.361	138.12
445.582	168.12
445.803	144.12
446.024	90.12
446.245	76.12
446.466	79.12
446.687	78.12
446.908	80.12
447.129	77.12
447.35	79.12
447.571	72.12
447.792	83.12
448.013	87.12
448.234	75.12
448.455	80.12
448.675	68.12
448.896	73.12
449.117	76.12
449.338	74.12
449.559	78.12
449.779	98.12
450	72.12
450.221	81.12
450.442	67.12
450.662	75.12
450.883	78.12
451.104	92.12
451.324	79.12
451.545	74.12
451.766	77.12
451.986	77.12
452.207	77.12
452.428	97.12
452.648	68.12
452.869	76.12
453.089	70.12
453.31	76.12
453.53	76.12
453.751	81.12
453.971	77.12
454.192	62.12
454.412	75.12
454.633	78.12
454.853	69.12
455.073	74.12
455.294	83.12
455.514	67.12
455.734	77.12
455.955	76.12
456.175	86.12
456.395	63.12
456.616	88.12
456.836	74.12
457.056	76.12
457.276	63.12
457.497	68.12
457.717	86.12
457.937	95.12
458.157	86.12
458.377	99.12
458.598	84.12
458.818	90.12
459.038	80.12
459.258	78.12
459.478	86.12
459.698	82.12
459.918	89.12
460.138	87.12
460.358	86.12
460.578	102.12
460.798	93.12
461.018	101.12
461.238	83.12
461.458	82.12
461.678	72.12
461.898	80.12
462.118	66.12
462.338	80.12
462.558	69.12
462.777	71.12
462.997	76.12
463.217	57.12
463.437	70.12
463.657	72.12
463.876	70.12
464.096	84.12
464.316	79.12
464.536	76.12
464.755	82.12
464.975	72.12
465.195	77.12
465.414	77.12
465.634	74.12
465.854	77.12
466.073	81.12
466.293	80.12
466.512	72.12
466.732	83.12
466.951	82.12
467.171	65.12
467.391	88.12
467.61	61.12
467.829	79.12
468.049	84.12
468.268	78.12
468.488	94.12
468.707	79.12
468.927	91.12
469.146	64.12
469.365	83.12
469.585	94.12
469.804	68.12
470.023	75.12
470.243	92.12
470.462	82.12
470.681	75.12
470.901	90.12
471.12	74.12
471.339	88.12
471.558	75.12
471.777	85.12
471.997	78.12
472.216	82.12
472.435	77.12
472.654	95.12
472.873	82.12
473.092	74.12
473.311	76.12
473.53	87.12
473.749	82.12
473.968	92.12
474.187	86.12
474.406	84.12
474.625	85.12
474.844	84.12
475.063	66.12
475.282	87.12
475.501	69.12
475.72	78.12
475.939	76.12
476.158	78.12
476.377	79.12
476.596	70.12
476.814	76.12
477.033	92.12
477.252	82.12
477.471	72.12
477.69	74.12
477.908	85.12
478.127	86.12
478.346	71.12
478.564	70.12
478.783	68.12
479.002	82.12
479.22	66.12
479.439	68.12
479.658	85.12
479.876	77.12
480.095	90.12
480.313	83.12
480.532	70.12
480.751	68.12
480.969	66.12
481.188	69.12
481.406	84.12
481.624	68.12
481.843	83.12
482.061	69.12
482.28	75.12
482.498	82.12
482.717	69.12
482.935	76.12
483.153	80.12
483.372	69.12
483.59	82.12
483.808	77.12
484.027	99.12
484.245	78.12
484.463	93.12
484.681	85.12
484.9	83.12
485.118	82.12
485.336	70.12
485.554	80.12
485.772	84.12
485.99	85.12
486.209	85.12
486.427	84.12
486.645	65.12
486.863	67.12
487.081	77.12
487.299	70.12
487.517	94.12
487.735	84.12
487.953	118.12
488.171	105.12
488.389	93.12
488.607	76.12
488.825	82.12
489.043	63.12
489.261	76.12
489.479	70.12
489.696	81.12
489.914	78.12
490.132	82.12
490.35	96.12
490.568	89.12
490.786	81.12
491.003	76.12
491.221	75.12
491.439	84.12
491.657	78.12
491.874	79.12
492.092	86.12
492.31	87.12
492.527	78.12
492.745	71.12
492.963	78.12
493.18	82.12
493.398	67.12
493.615	98.12
493.833	78.12
494.05	85.12
494.268	87.12
494.485	54.12
494.703	84.12
494.92	87.12
495.138	83.12
495.355	85.12
495.573	76.12
495.79	88.12
496.008	86.12
496.225	73.12
496.442	76.12
496.66	72.12
496.877	83.12
497.094	70.12
497.312	67.12
497.529	88.12
497.746	90.12
497.963	83.12
498.181	74.12
498.398	64.12
498.615	80.12
498.832	74.12
499.049	87.12
499.267	80.12
499.484	80.12
499.701	85.12
499.918	76.12
500.135	71.12
500.352	81.12
500.569	71.12
500.786	76.12
501.003	72.12
501.22	71.12
501.437	74.12
501.654	87.12
501.871	84.12
502.088	72.12
502.305	74.12
502.522	82.12
502.739	81.12
502.956	82.12
503.172	82.12
503.389	79.12
503.606	76.12
503.823	85.12
504.04	89.12
504.256	91.12
504.473	96.12
504.69	82.12
504.907	88.12
505.123	80.12
505.34	84.12
505.557	77.12
505.773	90.12
505.99	82.12
506.207	85.12
506.423	72.12
506.64	74.12
506.856	91.12
507.073	80.12
507.289	90.12
507.506	95.12
507.722	85.12
507.939	86.12
508.155	90.12
508.372	79.12
508.588	76.12
508.805	66.12
509.021	63.12
509.238	64.12
509.454	71.12
509.67	82.12
509.887	80.12
510.103	82.12
510.319	89.12
510.536	82.12
510.752	82.12
510.968	67.12
511.184	79.12
511.401	83.12
511.617	85.12
511.833	91.12
512.049	90.12
512.265	77.12
512.481	91.12
512.698	76.12
512.914	78.12
513.13	96.12
513.346	79.12
513.562	76.12
513.778	86.12
513.994	69.12
514.21	90.12
514.426	96.12
514.642	72.12
514.858	85.12
515.074	83.12
515.29	88.12
515.506	77.12
515.721	80.12
515.937	102.12
516.153	80.12
516.369	68.12
516.585	95.12
516.801	77.12
517.016	82.12
517.232	92.12
517.448	91.12
517.664	80.12
517.879	83.12
518.095	77.12
518.311	100.12
518.527	91.12
518.742	84.12
518.958	94.12
519.173	110.12
519.389	88.12
519.605	94.12
