Data from 18505_1_HRD10591_00048.txt Node
Date: Mon Jan 19 13:58:55 EST 2026
User: Yrep
Spectrometer: HR+D1059
Trigger mode: 1
Integration Time (sec): 1.000000E-1
Scans to average: 1
Electric dark correction enabled: true
Nonlinearity correction enabled: false
Boxcar width: 0
XAxis mode: Wavelengths
Number of Pixels in Spectrum: 2048
>>>>>Begin Spectral Data<<<<<
223.165	-18.69
223.4	-18.69
223.635	-18.69
223.869	-23.69
224.104	-21.69
224.338	-10.69
224.573	-13.69
224.808	-18.69
225.042	-0.69
225.277	2.31
225.511	-4.69
225.746	-0.69
225.98	-2.69
226.215	19.31
226.449	14.31
226.683	19.31
226.918	30.31
227.152	30.31
227.387	26.31
227.621	23.31
227.856	30.31
228.09	41.31
228.324	69.31
228.559	53.31
228.793	66.31
229.027	57.31
229.262	91.31
229.496	67.31
229.73	70.31
229.964	67.31
230.199	75.31
230.433	78.31
230.667	88.31
230.901	90.31
231.136	77.31
231.37	82.31
231.604	76.31
231.838	76.31
232.072	75.31
232.306	78.31
232.541	73.31
232.775	79.31
233.009	81.31
233.243	66.31
233.477	81.31
233.711	75.31
233.945	83.31
234.179	82.31
234.413	85.31
234.647	71.31
234.881	79.31
235.115	68.31
235.349	93.31
235.583	73.31
235.817	70.31
236.051	82.31
236.285	74.31
236.519	77.31
236.753	73.31
236.987	76.31
237.221	73.31
237.455	85.31
237.689	89.31
237.922	78.31
238.156	83.31
238.39	64.31
238.624	75.31
238.858	88.31
239.091	64.31
239.325	75.31
239.559	75.31
239.793	73.31
240.027	69.31
240.26	63.31
240.494	96.31
240.728	85.31
240.961	84.31
241.195	91.31
241.429	80.31
241.662	71.31
241.896	79.31
242.13	79.31
242.363	65.31
242.597	77.31
242.83	70.31
243.064	77.31
243.298	87.31
243.531	84.31
243.765	81.31
243.998	67.31
244.232	76.31
244.465	67.31
244.699	75.31
244.932	83.31
245.166	64.31
245.399	64.31
245.633	90.31
245.866	70.31
246.099	65.31
246.333	59.31
246.566	81.31
246.8	75.31
247.033	83.31
247.266	83.31
247.5	73.31
247.733	75.31
247.966	70.31
248.2	63.31
248.433	65.31
248.666	79.31
248.899	79.31
249.133	72.31
249.366	84.31
249.599	85.31
249.832	75.31
250.066	87.31
250.299	96.31
250.532	80.31
250.765	74.31
250.998	82.31
251.231	96.31
251.465	99.31
251.698	71.31
251.931	72.31
252.164	86.31
252.397	85.31
252.63	96.31
252.863	74.31
253.096	86.31
253.329	73.31
253.562	84.31
253.795	96.31
254.028	79.31
254.261	82.31
254.494	73.31
254.727	75.31
254.96	75.31
255.193	73.31
255.426	78.31
255.659	87.31
255.892	81.31
256.124	82.31
256.357	77.31
256.59	87.31
256.823	89.31
257.056	73.31
257.289	86.31
257.521	79.31
257.754	83.31
257.987	87.31
258.22	81.31
258.452	73.31
258.685	86.31
258.918	78.31
259.151	97.31
259.383	94.31
259.616	82.31
259.849	78.31
260.081	77.31
260.314	75.31
260.547	80.31
260.779	75.31
261.012	65.31
261.244	81.31
261.477	91.31
261.71	80.31
261.942	92.31
262.175	83.31
262.407	62.31
262.64	65.31
262.872	80.31
263.105	86.31
263.337	88.31
263.57	82.31
263.802	90.31
264.035	91.31
264.267	75.31
264.499	67.31
264.732	75.31
264.964	87.31
265.197	73.31
265.429	76.31
265.661	85.31
265.894	68.31
266.126	93.31
266.358	74.31
266.591	88.31
266.823	86.31
267.055	73.31
267.287	84.31
267.52	81.31
267.752	76.31
267.984	60.31
268.216	81.31
268.448	90.31
268.681	90.31
268.913	91.31
269.145	81.31
269.377	77.31
269.609	78.31
269.841	72.31
270.073	71.31
270.306	69.31
270.538	90.31
270.77	90.31
271.002	82.31
271.234	82.31
271.466	99.31
271.698	80.31
271.93	85.31
272.162	78.31
272.394	69.31
272.626	77.31
272.858	83.31
273.09	79.31
273.322	88.31
273.553	69.31
273.785	86.31
274.017	87.31
274.249	77.31
274.481	81.31
274.713	77.31
274.945	80.31
275.176	81.31
275.408	82.31
275.64	89.31
275.872	83.31
276.104	86.31
276.335	87.31
276.567	95.31
276.799	81.31
277.031	72.31
277.262	86.31
277.494	95.31
277.726	87.31
277.957	90.31
278.189	85.31
278.421	92.31
278.652	85.31
278.884	92.31
279.115	75.31
279.347	73.31
279.579	88.31
279.81	87.31
280.042	83.31
280.273	101.31
280.505	89.31
280.736	83.31
280.968	83.31
281.199	77.31
281.431	80.31
281.662	97.31
281.894	99.31
282.125	84.31
282.356	80.31
282.588	90.31
282.819	79.31
283.051	74.31
283.282	90.31
283.513	75.31
283.745	85.31
283.976	87.31
284.207	84.31
284.439	90.31
284.67	82.31
284.901	84.31
285.132	77.31
285.364	86.31
285.595	85.31
285.826	84.31
286.057	83.31
286.288	87.31
286.52	78.31
286.751	87.31
286.982	78.31
287.213	81.31
287.444	71.31
287.675	86.31
287.906	81.31
288.138	91.31
288.369	92.31
288.6	108.31
288.831	91.31
289.062	95.31
289.293	84.31
289.524	86.31
289.755	82.31
289.986	80.31
290.217	70.31
290.448	74.31
290.679	82.31
290.91	90.31
291.141	86.31
291.371	65.31
291.602	75.31
291.833	72.31
292.064	74.31
292.295	86.31
292.526	84.31
292.757	93.31
292.987	90.31
293.218	95.31
293.449	86.31
293.68	76.31
293.91	83.31
294.141	97.31
294.372	82.31
294.603	85.31
294.833	91.31
295.064	78.31
295.295	83.31
295.525	77.31
295.756	81.31
295.987	94.31
296.217	87.31
296.448	86.31
296.679	90.31
296.909	89.31
297.14	86.31
297.37	72.31
297.601	88.31
297.831	89.31
298.062	92.31
298.292	75.31
298.523	90.31
298.753	82.31
298.984	87.31
299.214	71.31
299.445	79.31
299.675	65.31
299.905	79.31
300.136	75.31
300.366	78.31
300.597	90.31
300.827	81.31
301.057	80.31
301.288	93.31
301.518	83.31
301.748	81.31
301.979	96.31
302.209	91.31
302.439	76.31
302.669	82.31
302.9	87.31
303.13	103.31
303.36	97.31
303.59	86.31
303.82	82.31
304.051	70.31
304.281	82.31
304.511	97.31
304.741	79.31
304.971	80.31
305.201	78.31
305.431	88.31
305.661	83.31
305.891	90.31
306.121	91.31
306.352	91.31
306.582	86.31
306.812	83.31
307.042	84.31
307.272	81.31
307.502	77.31
307.731	82.31
307.961	84.31
308.191	87.31
308.421	80.31
308.651	81.31
308.881	89.31
309.111	81.31
309.341	87.31
309.571	99.31
309.8	89.31
310.03	82.31
310.26	74.31
310.49	93.31
310.72	79.31
310.949	91.31
311.179	101.31
311.409	69.31
311.639	74.31
311.868	76.31
312.098	89.31
312.328	86.31
312.557	87.31
312.787	87.31
313.017	95.31
313.246	72.31
313.476	75.31
313.706	86.31
313.935	87.31
314.165	79.31
314.394	83.31
314.624	85.31
314.853	89.31
315.083	98.31
315.312	89.31
315.542	107.31
315.771	91.31
316.001	98.31
316.23	84.31
316.46	87.31
316.689	85.31
316.919	91.31
317.148	86.31
317.377	94.31
317.607	85.31
317.836	102.31
318.065	118.31
318.295	95.31
318.524	73.31
318.753	86.31
318.983	81.31
319.212	81.31
319.441	62.31
319.67	72.31
319.9	81.31
320.129	68.31
320.358	88.31
320.587	86.31
320.816	81.31
321.046	85.31
321.275	88.31
321.504	88.31
321.733	81.31
321.962	97.31
322.191	80.31
322.42	91.31
322.649	86.31
322.878	72.31
323.108	88.31
323.337	87.31
323.566	78.31
323.795	78.31
324.024	84.31
324.253	81.31
324.482	81.31
324.71	86.31
324.939	81.31
325.168	78.31
325.397	72.31
325.626	86.31
325.855	77.31
326.084	81.31
326.313	93.31
326.542	84.31
326.77	87.31
326.999	71.31
327.228	91.31
327.457	72.31
327.686	91.31
327.914	76.31
328.143	96.31
328.372	95.31
328.6	89.31
328.829	88.31
329.058	79.31
329.287	79.31
329.515	87.31
329.744	84.31
329.972	94.31
330.201	83.31
330.43	101.31
330.658	83.31
330.887	98.31
331.115	70.31
331.344	90.31
331.572	80.31
331.801	87.31
332.03	84.31
332.258	95.31
332.486	76.31
332.715	74.31
332.943	85.31
333.172	98.31
333.4	87.31
333.629	88.31
333.857	81.31
334.085	94.31
334.314	87.31
334.542	94.31
334.771	83.31
334.999	78.31
335.227	75.31
335.455	84.31
335.684	89.31
335.912	81.31
336.14	62.31
336.369	95.31
336.597	83.31
336.825	97.31
337.053	80.31
337.281	82.31
337.51	86.31
337.738	91.31
337.966	79.31
338.194	91.31
338.422	94.31
338.65	83.31
338.878	77.31
339.106	80.31
339.334	74.31
339.562	73.31
339.79	72.31
340.018	84.31
340.246	87.31
340.474	84.31
340.702	74.31
340.93	75.31
341.158	88.31
341.386	88.31
341.614	89.31
341.842	88.31
342.07	81.31
342.298	101.31
342.526	89.31
342.754	92.31
342.981	98.31
343.209	100.31
343.437	103.31
343.665	92.31
343.893	82.31
344.12	88.31
344.348	87.31
344.576	70.31
344.804	91.31
345.031	83.31
345.259	78.31
345.487	81.31
345.714	85.31
345.942	84.31
346.17	88.31
346.397	85.31
346.625	69.31
346.853	94.31
347.08	84.31
347.308	78.31
347.535	93.31
347.763	93.31
347.99	76.31
348.218	98.31
348.445	89.31
348.673	88.31
348.9	74.31
349.128	93.31
349.355	83.31
349.583	85.31
349.81	95.31
350.037	84.31
350.265	87.31
350.492	83.31
350.72	90.31
350.947	89.31
351.174	89.31
351.402	84.31
351.629	79.31
351.856	74.31
352.083	95.31
352.311	90.31
352.538	83.31
352.765	93.31
352.992	87.31
353.22	85.31
353.447	86.31
353.674	83.31
353.901	83.31
354.128	71.31
354.355	92.31
354.583	81.31
354.81	81.31
355.037	78.31
355.264	79.31
355.491	66.31
355.718	71.31
355.945	86.31
356.172	77.31
356.399	83.31
356.626	78.31
356.853	81.31
357.08	81.31
357.307	97.31
357.534	90.31
357.761	86.31
357.988	82.31
358.215	87.31
358.441	87.31
358.668	83.31
358.895	83.31
359.122	93.31
359.349	93.31
359.576	90.31
359.802	69.31
360.029	84.31
360.256	80.31
360.483	75.31
360.709	87.31
360.936	82.31
361.163	77.31
361.39	83.31
361.616	87.31
361.843	81.31
362.07	83.31
362.296	90.31
362.523	105.31
362.749	84.31
362.976	101.31
363.203	83.31
363.429	101.31
363.656	77.31
363.882	83.31
364.109	89.31
364.335	89.31
364.562	105.31
364.788	92.31
365.015	85.31
365.241	96.31
365.468	81.31
365.694	86.31
365.92	81.31
366.147	87.31
366.373	77.31
366.599	72.31
366.826	65.31
367.052	79.31
367.278	91.31
367.505	89.31
367.731	89.31
367.957	88.31
368.184	76.31
368.41	83.31
368.636	89.31
368.862	93.31
369.089	81.31
369.315	81.31
369.541	98.31
369.767	83.31
369.993	75.31
370.219	76.31
370.445	89.31
370.672	92.31
370.898	90.31
371.124	81.31
371.35	81.31
371.576	61.31
371.802	94.31
372.028	90.31
372.254	86.31
372.48	71.31
372.706	73.31
372.932	83.31
373.158	88.31
373.384	91.31
373.61	115.31
373.835	111.31
374.061	94.31
374.287	93.31
374.513	63.31
374.739	91.31
374.965	65.31
375.191	83.31
375.416	85.31
375.642	83.31
375.868	73.31
376.094	79.31
376.319	90.31
376.545	86.31
376.771	89.31
376.997	93.31
377.222	79.31
377.448	77.31
377.674	80.31
377.899	88.31
378.125	91.31
378.35	76.31
378.576	73.31
378.802	87.31
379.027	82.31
379.253	85.31
379.478	83.31
379.704	85.31
379.929	81.31
380.155	81.31
380.38	90.31
380.606	86.31
380.831	93.31
381.057	97.31
381.282	78.31
381.507	81.31
381.733	85.31
381.958	100.31
382.184	76.31
382.409	68.31
382.634	79.31
382.86	82.31
383.085	85.31
383.31	93.31
383.535	86.31
383.761	88.31
383.986	93.31
384.211	89.31
384.436	82.31
384.662	76.31
384.887	92.31
385.112	85.31
385.337	78.31
385.562	85.31
385.787	90.31
386.013	84.31
386.238	87.31
386.463	99.31
386.688	99.31
386.913	85.31
387.138	94.31
387.363	97.31
387.588	93.31
387.813	91.31
388.038	93.31
388.263	91.31
388.488	89.31
388.713	91.31
388.938	98.31
389.163	89.31
389.387	91.31
389.612	74.31
389.837	85.31
390.062	90.31
390.287	91.31
390.512	92.31
390.736	73.31
390.961	81.31
391.186	103.31
391.411	97.31
391.636	89.31
391.86	72.31
392.085	85.31
392.31	89.31
392.534	101.31
392.759	121.31
392.984	155.31
393.208	269.31
393.433	411.31
393.658	310.31
393.882	131.31
394.107	104.31
394.331	107.31
394.556	99.31
394.78	86.31
395.005	87.31
395.229	85.31
395.454	87.31
395.678	105.31
395.903	106.31
396.127	98.31
396.352	124.31
396.576	143.31
396.801	284.31
397.025	319.31
397.249	169.31
397.474	102.31
397.698	90.31
397.922	89.31
398.147	87.31
398.371	97.31
398.595	79.31
398.82	78.31
399.044	83.31
399.268	74.31
399.492	75.31
399.717	95.31
399.941	87.31
400.165	102.31
400.389	98.31
400.613	77.31
400.837	87.31
401.062	85.31
401.286	93.31
401.51	74.31
401.734	83.31
401.958	89.31
402.182	69.31
402.406	101.31
402.63	76.31
402.854	78.31
403.078	87.31
403.302	69.31
403.526	73.31
403.75	75.31
403.974	75.31
404.198	87.31
404.422	96.31
404.645	86.31
404.869	85.31
405.093	96.31
405.317	83.31
405.541	82.31
405.765	101.31
405.988	83.31
406.212	91.31
406.436	68.31
406.66	83.31
406.883	87.31
407.107	88.31
407.331	82.31
407.555	100.31
407.778	111.31
408.002	109.31
408.226	86.31
408.449	87.31
408.673	97.31
408.896	86.31
409.12	79.31
409.344	83.31
409.567	86.31
409.791	91.31
410.014	88.31
410.238	81.31
410.461	87.31
410.685	88.31
410.908	75.31
411.132	88.31
411.355	81.31
411.578	84.31
411.802	87.31
412.025	69.31
412.249	71.31
412.472	82.31
412.695	79.31
412.919	83.31
413.142	69.31
413.365	69.31
413.589	79.31
413.812	79.31
414.035	78.31
414.258	80.31
414.482	76.31
414.705	83.31
414.928	82.31
415.151	74.31
415.374	80.31
415.597	96.31
415.821	93.31
416.044	83.31
416.267	88.31
416.49	72.31
416.713	88.31
416.936	90.31
417.159	90.31
417.382	78.31
417.605	74.31
417.828	67.31
418.051	83.31
418.274	85.31
418.497	86.31
418.72	66.31
418.943	90.31
419.166	82.31
419.389	74.31
419.611	83.31
419.834	84.31
420.057	81.31
420.28	87.31
420.503	87.31
420.726	82.31
420.948	86.31
421.171	89.31
421.394	80.31
421.617	92.31
421.839	97.31
422.062	105.31
422.285	113.31
422.507	135.31
422.73	200.31
422.953	191.31
423.175	101.31
423.398	79.31
423.621	95.31
423.843	89.31
424.066	90.31
424.288	93.31
424.511	101.31
424.733	90.31
424.956	87.31
425.178	71.31
425.401	82.31
425.623	83.31
425.846	74.31
426.068	77.31
426.291	79.31
426.513	81.31
426.735	81.31
426.958	71.31
427.18	77.31
427.402	89.31
427.625	88.31
427.847	95.31
428.069	78.31
428.292	102.31
428.514	84.31
428.736	96.31
428.958	86.31
429.181	103.31
429.403	91.31
429.625	88.31
429.847	74.31
430.069	108.31
430.292	121.31
430.514	118.31
430.736	89.31
430.958	111.31
431.18	94.31
431.402	83.31
431.624	85.31
431.846	105.31
432.068	98.31
432.29	89.31
432.512	90.31
432.734	97.31
432.956	87.31
433.178	75.31
433.4	86.31
433.622	97.31
433.844	83.31
434.066	81.31
434.287	75.31
434.509	74.31
434.731	81.31
434.953	93.31
435.175	94.31
435.397	83.31
435.618	88.31
435.84	73.31
436.062	81.31
436.284	83.31
436.505	90.31
436.727	98.31
436.949	84.31
437.17	87.31
437.392	83.31
437.614	75.31
437.835	81.31
438.057	70.31
438.278	84.31
438.5	83.31
438.721	79.31
438.943	96.31
439.165	85.31
439.386	81.31
439.608	86.31
439.829	75.31
440.05	79.31
440.272	85.31
440.493	78.31
440.715	63.31
440.936	69.31
441.158	76.31
441.379	81.31
441.6	71.31
441.822	80.31
442.043	90.31
442.264	79.31
442.486	90.31
442.707	81.31
442.928	104.31
443.149	85.31
443.371	105.31
443.592	130.31
443.813	111.31
444.034	78.31
444.255	83.31
444.476	89.31
444.698	80.31
444.919	87.31
445.14	178.31
445.361	144.31
445.582	139.31
445.803	145.31
446.024	93.31
446.245	82.31
446.466	87.31
446.687	76.31
446.908	85.31
447.129	94.31
447.35	81.31
447.571	81.31
447.792	79.31
448.013	79.31
448.234	74.31
448.455	78.31
448.675	65.31
448.896	83.31
449.117	76.31
449.338	79.31
449.559	88.31
449.779	81.31
450	83.31
450.221	82.31
450.442	73.31
450.662	85.31
450.883	79.31
451.104	88.31
451.324	86.31
451.545	83.31
451.766	75.31
451.986	85.31
452.207	87.31
452.428	79.31
452.648	90.31
452.869	103.31
453.089	79.31
453.31	96.31
453.53	80.31
453.751	86.31
453.971	86.31
454.192	72.31
454.412	85.31
454.633	88.31
454.853	96.31
455.073	83.31
455.294	97.31
455.514	79.31
455.734	66.31
455.955	85.31
456.175	84.31
456.395	75.31
456.616	85.31
456.836	79.31
457.056	94.31
457.276	72.31
457.497	79.31
457.717	76.31
457.937	78.31
458.157	89.31
458.377	91.31
458.598	91.31
458.818	97.31
459.038	80.31
459.258	81.31
459.478	95.31
459.698	85.31
459.918	82.31
460.138	79.31
460.358	81.31
460.578	81.31
460.798	109.31
461.018	77.31
461.238	86.31
461.458	86.31
461.678	90.31
461.898	92.31
462.118	92.31
462.338	83.31
462.558	104.31
462.777	79.31
462.997	86.31
463.217	77.31
463.437	76.31
463.657	78.31
463.876	93.31
464.096	79.31
464.316	74.31
464.536	83.31
464.755	80.31
464.975	90.31
465.195	82.31
465.414	74.31
465.634	96.31
465.854	91.31
466.073	87.31
466.293	85.31
466.512	79.31
466.732	92.31
466.951	81.31
467.171	76.31
467.391	95.31
467.61	67.31
467.829	75.31
468.049	77.31
468.268	88.31
468.488	85.31
468.707	77.31
468.927	75.31
469.146	77.31
469.365	85.31
469.585	89.31
469.804	88.31
470.023	74.31
470.243	91.31
470.462	74.31
470.681	91.31
470.901	76.31
471.12	93.31
471.339	96.31
471.558	87.31
471.777	88.31
471.997	85.31
472.216	78.31
472.435	85.31
472.654	81.31
472.873	82.31
473.092	71.31
473.311	85.31
473.53	68.31
473.749	84.31
473.968	80.31
474.187	81.31
474.406	80.31
474.625	72.31
474.844	86.31
475.063	81.31
475.282	82.31
475.501	75.31
475.72	81.31
475.939	77.31
476.158	82.31
476.377	77.31
476.596	76.31
476.814	88.31
477.033	85.31
477.252	77.31
477.471	89.31
477.69	86.31
477.908	92.31
478.127	78.31
478.346	93.31
478.564	84.31
478.783	90.31
479.002	86.31
479.22	70.31
479.439	79.31
479.658	83.31
479.876	87.31
480.095	89.31
480.313	83.31
480.532	84.31
480.751	75.31
480.969	83.31
481.188	74.31
481.406	87.31
481.624	70.31
481.843	82.31
482.061	73.31
482.28	87.31
482.498	73.31
482.717	83.31
482.935	76.31
483.153	83.31
483.372	91.31
483.59	84.31
483.808	82.31
484.027	88.31
484.245	84.31
484.463	80.31
484.681	94.31
484.9	86.31
485.118	80.31
485.336	82.31
485.554	89.31
485.772	92.31
485.99	75.31
486.209	76.31
486.427	93.31
486.645	79.31
486.863	75.31
487.081	81.31
487.299	85.31
487.517	88.31
487.735	94.31
487.953	96.31
488.171	111.31
488.389	72.31
488.607	71.31
488.825	62.31
489.043	72.31
489.261	93.31
489.479	80.31
489.696	79.31
489.914	74.31
490.132	84.31
490.35	76.31
490.568	72.31
490.786	85.31
491.003	80.31
491.221	84.31
491.439	88.31
491.657	98.31
491.874	87.31
492.092	91.31
492.31	96.31
492.527	92.31
492.745	85.31
492.963	86.31
493.18	68.31
493.398	87.31
493.615	78.31
493.833	86.31
494.05	80.31
494.268	81.31
494.485	91.31
494.703	76.31
494.92	87.31
495.138	66.31
495.355	82.31
495.573	87.31
495.79	88.31
496.008	82.31
496.225	59.31
496.442	81.31
496.66	79.31
496.877	94.31
497.094	81.31
497.312	81.31
497.529	73.31
497.746	82.31
497.963	73.31
498.181	82.31
498.398	83.31
498.615	81.31
498.832	70.31
499.049	85.31
499.267	96.31
499.484	93.31
499.701	68.31
499.918	89.31
500.135	86.31
500.352	80.31
500.569	95.31
500.786	78.31
501.003	80.31
501.22	94.31
501.437	89.31
501.654	97.31
501.871	87.31
502.088	84.31
502.305	78.31
502.522	79.31
502.739	84.31
502.956	85.31
503.172	83.31
503.389	70.31
503.606	75.31
503.823	73.31
504.04	87.31
504.256	83.31
504.473	86.31
504.69	93.31
504.907	84.31
505.123	87.31
505.34	81.31
505.557	80.31
505.773	78.31
505.99	76.31
506.207	87.31
506.423	85.31
506.64	81.31
506.856	79.31
507.073	103.31
507.289	78.31
507.506	81.31
507.722	85.31
507.939	82.31
508.155	90.31
508.372	78.31
508.588	89.31
508.805	92.31
509.021	78.31
509.238	82.31
509.454	76.31
509.67	88.31
509.887	74.31
510.103	93.31
510.319	87.31
510.536	75.31
510.752	83.31
510.968	81.31
511.184	85.31
511.401	93.31
511.617	94.31
511.833	88.31
512.049	90.31
512.265	87.31
512.481	78.31
512.698	88.31
512.914	75.31
513.13	81.31
513.346	65.31
513.562	99.31
513.778	84.31
513.994	79.31
514.21	95.31
514.426	86.31
514.642	78.31
514.858	76.31
515.074	87.31
515.29	86.31
515.506	93.31
515.721	76.31
515.937	81.31
516.153	73.31
516.369	75.31
516.585	78.31
516.801	81.31
517.016	104.31
517.232	97.31
517.448	96.31
517.664	85.31
517.879	95.31
518.095	73.31
518.311	84.31
518.527	76.31
518.742	76.31
518.958	99.31
519.173	97.31
