Data from 18505_1_HRD10591_00030.txt Node
Date: Mon Jan 19 13:58:46 EST 2026
User: Yrep
Spectrometer: HR+D1059
Trigger mode: 1
Integration Time (sec): 1.000000E-1
Scans to average: 1
Electric dark correction enabled: true
Nonlinearity correction enabled: false
Boxcar width: 0
XAxis mode: Wavelengths
Number of Pixels in Spectrum: 2048
>>>>>Begin Spectral Data<<<<<
223.165	-20.62
223.4	-20.62
223.635	-20.62
223.869	-13.62
224.104	-18.62
224.338	-21.62
224.573	-8.62
224.808	-14.62
225.042	-8.62
225.277	-10.62
225.511	-3.62
225.746	-6.62
225.98	5.38
226.215	19.38
226.449	19.38
226.683	22.38
226.918	33.38
227.152	27.38
227.387	18.38
227.621	40.38
227.856	45.38
228.09	52.38
228.324	44.38
228.559	55.38
228.793	52.38
229.027	44.38
229.262	45.38
229.496	60.38
229.73	76.38
229.964	62.38
230.199	66.38
230.433	72.38
230.667	69.38
230.901	67.38
231.136	70.38
231.37	67.38
231.604	73.38
231.838	65.38
232.072	73.38
232.306	78.38
232.541	74.38
232.775	79.38
233.009	83.38
233.243	70.38
233.477	63.38
233.711	87.38
233.945	66.38
234.179	80.38
234.413	85.38
234.647	75.38
234.881	77.38
235.115	82.38
235.349	85.38
235.583	68.38
235.817	64.38
236.051	61.38
236.285	73.38
236.519	78.38
236.753	62.38
236.987	69.38
237.221	73.38
237.455	71.38
237.689	62.38
237.922	79.38
238.156	66.38
238.39	67.38
238.624	65.38
238.858	67.38
239.091	55.38
239.325	72.38
239.559	76.38
239.793	76.38
240.027	86.38
240.26	77.38
240.494	68.38
240.728	51.38
240.961	64.38
241.195	60.38
241.429	64.38
241.662	59.38
241.896	61.38
242.13	61.38
242.363	72.38
242.597	63.38
242.83	65.38
243.064	57.38
243.298	63.38
243.531	68.38
243.765	75.38
243.998	73.38
244.232	67.38
244.465	76.38
244.699	78.38
244.932	75.38
245.166	80.38
245.399	79.38
245.633	83.38
245.866	67.38
246.099	75.38
246.333	61.38
246.566	64.38
246.8	80.38
247.033	77.38
247.266	66.38
247.5	68.38
247.733	75.38
247.966	79.38
248.2	69.38
248.433	73.38
248.666	69.38
248.899	62.38
249.133	68.38
249.366	70.38
249.599	72.38
249.832	75.38
250.066	82.38
250.299	83.38
250.532	67.38
250.765	83.38
250.998	65.38
251.231	73.38
251.465	83.38
251.698	69.38
251.931	73.38
252.164	75.38
252.397	69.38
252.63	77.38
252.863	87.38
253.096	65.38
253.329	87.38
253.562	74.38
253.795	69.38
254.028	62.38
254.261	75.38
254.494	67.38
254.727	73.38
254.96	75.38
255.193	74.38
255.426	82.38
255.659	76.38
255.892	89.38
256.124	77.38
256.357	83.38
256.59	63.38
256.823	76.38
257.056	59.38
257.289	81.38
257.521	79.38
257.754	80.38
257.987	65.38
258.22	74.38
258.452	76.38
258.685	73.38
258.918	70.38
259.151	75.38
259.383	67.38
259.616	74.38
259.849	55.38
260.081	83.38
260.314	91.38
260.547	72.38
260.779	71.38
261.012	87.38
261.244	75.38
261.477	66.38
261.71	74.38
261.942	72.38
262.175	79.38
262.407	75.38
262.64	77.38
262.872	70.38
263.105	88.38
263.337	82.38
263.57	62.38
263.802	80.38
264.035	71.38
264.267	67.38
264.499	75.38
264.732	90.38
264.964	73.38
265.197	77.38
265.429	76.38
265.661	73.38
265.894	63.38
266.126	74.38
266.358	76.38
266.591	76.38
266.823	91.38
267.055	71.38
267.287	79.38
267.52	76.38
267.752	50.38
267.984	74.38
268.216	64.38
268.448	68.38
268.681	76.38
268.913	70.38
269.145	69.38
269.377	78.38
269.609	83.38
269.841	62.38
270.073	77.38
270.306	77.38
270.538	81.38
270.77	82.38
271.002	72.38
271.234	79.38
271.466	70.38
271.698	77.38
271.93	75.38
272.162	80.38
272.394	77.38
272.626	84.38
272.858	72.38
273.09	95.38
273.322	80.38
273.553	75.38
273.785	77.38
274.017	78.38
274.249	79.38
274.481	66.38
274.713	80.38
274.945	83.38
275.176	79.38
275.408	72.38
275.64	86.38
275.872	68.38
276.104	61.38
276.335	79.38
276.567	73.38
276.799	68.38
277.031	82.38
277.262	91.38
277.494	75.38
277.726	73.38
277.957	78.38
278.189	82.38
278.421	78.38
278.652	84.38
278.884	84.38
279.115	85.38
279.347	72.38
279.579	82.38
279.81	75.38
280.042	87.38
280.273	67.38
280.505	72.38
280.736	67.38
280.968	80.38
281.199	79.38
281.431	75.38
281.662	90.38
281.894	77.38
282.125	65.38
282.356	69.38
282.588	67.38
282.819	75.38
283.051	75.38
283.282	60.38
283.513	77.38
283.745	81.38
283.976	74.38
284.207	71.38
284.439	73.38
284.67	85.38
284.901	77.38
285.132	74.38
285.364	91.38
285.595	82.38
285.826	81.38
286.057	88.38
286.288	72.38
286.52	80.38
286.751	76.38
286.982	71.38
287.213	59.38
287.444	79.38
287.675	73.38
287.906	72.38
288.138	72.38
288.369	74.38
288.6	73.38
288.831	75.38
289.062	75.38
289.293	85.38
289.524	67.38
289.755	75.38
289.986	65.38
290.217	72.38
290.448	79.38
290.679	77.38
290.91	69.38
291.141	63.38
291.371	65.38
291.602	84.38
291.833	85.38
292.064	83.38
292.295	77.38
292.526	74.38
292.757	66.38
292.987	71.38
293.218	71.38
293.449	83.38
293.68	87.38
293.91	80.38
294.141	70.38
294.372	84.38
294.603	79.38
294.833	75.38
295.064	81.38
295.295	75.38
295.525	74.38
295.756	92.38
295.987	89.38
296.217	70.38
296.448	81.38
296.679	68.38
296.909	82.38
297.14	78.38
297.37	75.38
297.601	67.38
297.831	87.38
298.062	71.38
298.292	73.38
298.523	67.38
298.753	83.38
298.984	87.38
299.214	86.38
299.445	70.38
299.675	74.38
299.905	86.38
300.136	83.38
300.366	77.38
300.597	73.38
300.827	87.38
301.057	79.38
301.288	88.38
301.518	71.38
301.748	68.38
301.979	89.38
302.209	78.38
302.439	73.38
302.669	95.38
302.9	83.38
303.13	87.38
303.36	92.38
303.59	75.38
303.82	79.38
304.051	63.38
304.281	84.38
304.511	73.38
304.741	81.38
304.971	80.38
305.201	76.38
305.431	77.38
305.661	72.38
305.891	68.38
306.121	78.38
306.352	68.38
306.582	80.38
306.812	79.38
307.042	66.38
307.272	76.38
307.502	91.38
307.731	77.38
307.961	78.38
308.191	85.38
308.421	82.38
308.651	74.38
308.881	81.38
309.111	81.38
309.341	82.38
309.571	75.38
309.8	94.38
310.03	88.38
310.26	80.38
310.49	79.38
310.72	72.38
310.949	90.38
311.179	70.38
311.409	77.38
311.639	84.38
311.868	89.38
312.098	69.38
312.328	78.38
312.557	74.38
312.787	65.38
313.017	68.38
313.246	66.38
313.476	83.38
313.706	80.38
313.935	84.38
314.165	89.38
314.394	67.38
314.624	78.38
314.853	83.38
315.083	81.38
315.312	91.38
315.542	78.38
315.771	67.38
316.001	73.38
316.23	79.38
316.46	89.38
316.689	83.38
316.919	83.38
317.148	86.38
317.377	80.38
317.607	76.38
317.836	92.38
318.065	88.38
318.295	78.38
318.524	79.38
318.753	91.38
318.983	71.38
319.212	81.38
319.441	79.38
319.67	81.38
319.9	76.38
320.129	75.38
320.358	79.38
320.587	76.38
320.816	70.38
321.046	88.38
321.275	75.38
321.504	73.38
321.733	75.38
321.962	81.38
322.191	77.38
322.42	89.38
322.649	74.38
322.878	80.38
323.108	81.38
323.337	86.38
323.566	92.38
323.795	78.38
324.024	80.38
324.253	64.38
324.482	75.38
324.71	76.38
324.939	75.38
325.168	75.38
325.397	74.38
325.626	79.38
325.855	95.38
326.084	77.38
326.313	65.38
326.542	81.38
326.77	88.38
326.999	79.38
327.228	70.38
327.457	70.38
327.686	77.38
327.914	80.38
328.143	88.38
328.372	78.38
328.6	80.38
328.829	70.38
329.058	65.38
329.287	71.38
329.515	70.38
329.744	76.38
329.972	92.38
330.201	91.38
330.43	67.38
330.658	85.38
330.887	86.38
331.115	73.38
331.344	73.38
331.572	68.38
331.801	81.38
332.03	90.38
332.258	86.38
332.486	76.38
332.715	65.38
332.943	62.38
333.172	77.38
333.4	75.38
333.629	85.38
333.857	51.38
334.085	80.38
334.314	85.38
334.542	70.38
334.771	81.38
334.999	66.38
335.227	69.38
335.455	75.38
335.684	86.38
335.912	87.38
336.14	82.38
336.369	77.38
336.597	84.38
336.825	89.38
337.053	76.38
337.281	80.38
337.51	73.38
337.738	73.38
337.966	95.38
338.194	68.38
338.422	83.38
338.65	70.38
338.878	69.38
339.106	56.38
339.334	80.38
339.562	79.38
339.79	85.38
340.018	63.38
340.246	49.38
340.474	66.38
340.702	66.38
340.93	89.38
341.158	92.38
341.386	73.38
341.614	87.38
341.842	77.38
342.07	60.38
342.298	83.38
342.526	81.38
342.754	66.38
342.981	95.38
343.209	75.38
343.437	81.38
343.665	70.38
343.893	93.38
344.12	88.38
344.348	74.38
344.576	85.38
344.804	78.38
345.031	75.38
345.259	70.38
345.487	80.38
345.714	84.38
345.942	75.38
346.17	87.38
346.397	76.38
346.625	69.38
346.853	71.38
347.08	69.38
347.308	81.38
347.535	93.38
347.763	55.38
347.99	65.38
348.218	77.38
348.445	87.38
348.673	77.38
348.9	77.38
349.128	75.38
349.355	65.38
349.583	73.38
349.81	79.38
350.037	81.38
350.265	92.38
350.492	90.38
350.72	84.38
350.947	86.38
351.174	87.38
351.402	70.38
351.629	75.38
351.856	73.38
352.083	92.38
352.311	88.38
352.538	82.38
352.765	71.38
352.992	78.38
353.22	79.38
353.447	65.38
353.674	67.38
353.901	79.38
354.128	75.38
354.355	69.38
354.583	76.38
354.81	78.38
355.037	74.38
355.264	74.38
355.491	67.38
355.718	78.38
355.945	69.38
356.172	79.38
356.399	74.38
356.626	73.38
356.853	67.38
357.08	82.38
357.307	81.38
357.534	63.38
357.761	70.38
357.988	83.38
358.215	82.38
358.441	76.38
358.668	79.38
358.895	83.38
359.122	73.38
359.349	76.38
359.576	72.38
359.802	78.38
360.029	75.38
360.256	70.38
360.483	83.38
360.709	84.38
360.936	71.38
361.163	68.38
361.39	79.38
361.616	79.38
361.843	81.38
362.07	65.38
362.296	63.38
362.523	78.38
362.749	89.38
362.976	72.38
363.203	82.38
363.429	80.38
363.656	90.38
363.882	82.38
364.109	77.38
364.335	90.38
364.562	80.38
364.788	81.38
365.015	77.38
365.241	68.38
365.468	81.38
365.694	80.38
365.92	76.38
366.147	75.38
366.373	72.38
366.599	80.38
366.826	87.38
367.052	77.38
367.278	59.38
367.505	88.38
367.731	79.38
367.957	75.38
368.184	81.38
368.41	83.38
368.636	73.38
368.862	75.38
369.089	82.38
369.315	73.38
369.541	81.38
369.767	80.38
369.993	75.38
370.219	52.38
370.445	76.38
370.672	82.38
370.898	74.38
371.124	88.38
371.35	90.38
371.576	74.38
371.802	67.38
372.028	72.38
372.254	85.38
372.48	69.38
372.706	87.38
372.932	84.38
373.158	80.38
373.384	77.38
373.61	80.38
373.835	82.38
374.061	75.38
374.287	74.38
374.513	79.38
374.739	79.38
374.965	63.38
375.191	78.38
375.416	80.38
375.642	67.38
375.868	67.38
376.094	76.38
376.319	75.38
376.545	65.38
376.771	73.38
376.997	63.38
377.222	70.38
377.448	74.38
377.674	80.38
377.899	72.38
378.125	80.38
378.35	77.38
378.576	63.38
378.802	68.38
379.027	68.38
379.253	73.38
379.478	97.38
379.704	73.38
379.929	80.38
380.155	78.38
380.38	73.38
380.606	76.38
380.831	77.38
381.057	83.38
381.282	77.38
381.507	90.38
381.733	75.38
381.958	76.38
382.184	77.38
382.409	56.38
382.634	81.38
382.86	75.38
383.085	84.38
383.31	90.38
383.535	79.38
383.761	75.38
383.986	80.38
384.211	70.38
384.436	77.38
384.662	73.38
384.887	80.38
385.112	76.38
385.337	73.38
385.562	67.38
385.787	85.38
386.013	74.38
386.238	83.38
386.463	75.38
386.688	112.38
386.913	81.38
387.138	90.38
387.363	73.38
387.588	98.38
387.813	79.38
388.038	81.38
388.263	76.38
388.488	80.38
388.713	87.38
388.938	75.38
389.163	61.38
389.387	76.38
389.612	86.38
389.837	79.38
390.062	94.38
390.287	66.38
390.512	83.38
390.736	77.38
390.961	92.38
391.186	78.38
391.411	84.38
391.636	94.38
391.86	74.38
392.085	81.38
392.31	84.38
392.534	73.38
392.759	81.38
392.984	96.38
393.208	157.38
393.433	222.38
393.658	157.38
393.882	85.38
394.107	83.38
394.331	73.38
394.556	78.38
394.78	77.38
395.005	77.38
395.229	75.38
395.454	83.38
395.678	70.38
395.903	88.38
396.127	95.38
396.352	93.38
396.576	113.38
396.801	156.38
397.025	188.38
397.249	116.38
397.474	83.38
397.698	82.38
397.922	80.38
398.147	72.38
398.371	68.38
398.595	91.38
398.82	70.38
399.044	67.38
399.268	67.38
399.492	83.38
399.717	92.38
399.941	67.38
400.165	73.38
400.389	75.38
400.613	79.38
400.837	83.38
401.062	80.38
401.286	81.38
401.51	88.38
401.734	66.38
401.958	73.38
402.182	70.38
402.406	65.38
402.63	79.38
402.854	71.38
403.078	75.38
403.302	89.38
403.526	76.38
403.75	80.38
403.974	77.38
404.198	89.38
404.422	84.38
404.645	94.38
404.869	87.38
405.093	74.38
405.317	81.38
405.541	76.38
405.765	75.38
405.988	77.38
406.212	82.38
406.436	61.38
406.66	75.38
406.883	91.38
407.107	73.38
407.331	75.38
407.555	84.38
407.778	82.38
408.002	84.38
408.226	89.38
408.449	77.38
408.673	67.38
408.896	88.38
409.12	85.38
409.344	75.38
409.567	87.38
409.791	74.38
410.014	82.38
410.238	78.38
410.461	69.38
410.685	83.38
410.908	61.38
411.132	90.38
411.355	99.38
411.578	72.38
411.802	65.38
412.025	79.38
412.249	77.38
412.472	69.38
412.695	73.38
412.919	87.38
413.142	79.38
413.365	83.38
413.589	68.38
413.812	82.38
414.035	67.38
414.258	83.38
414.482	76.38
414.705	72.38
414.928	88.38
415.151	75.38
415.374	72.38
415.597	91.38
415.821	79.38
416.044	77.38
416.267	91.38
416.49	61.38
416.713	73.38
416.936	77.38
417.159	72.38
417.382	85.38
417.605	72.38
417.828	76.38
418.051	84.38
418.274	66.38
418.497	76.38
418.72	79.38
418.943	74.38
419.166	76.38
419.389	70.38
419.611	75.38
419.834	80.38
420.057	75.38
420.28	77.38
420.503	73.38
420.726	86.38
420.948	85.38
421.171	71.38
421.394	80.38
421.617	88.38
421.839	98.38
422.062	79.38
422.285	107.38
422.507	125.38
422.73	195.38
422.953	143.38
423.175	105.38
423.398	86.38
423.621	79.38
423.843	83.38
424.066	65.38
424.288	71.38
424.511	73.38
424.733	78.38
424.956	75.38
425.178	66.38
425.401	84.38
425.623	76.38
425.846	64.38
426.068	88.38
426.291	76.38
426.513	77.38
426.735	81.38
426.958	74.38
427.18	85.38
427.402	67.38
427.625	74.38
427.847	81.38
428.069	85.38
428.292	85.38
428.514	87.38
428.736	83.38
428.958	84.38
429.181	88.38
429.403	77.38
429.625	84.38
429.847	95.38
430.069	100.38
430.292	115.38
430.514	108.38
430.736	77.38
430.958	103.38
431.18	82.38
431.402	84.38
431.624	87.38
431.846	69.38
432.068	95.38
432.29	80.38
432.512	79.38
432.734	72.38
432.956	80.38
433.178	81.38
433.4	77.38
433.622	56.38
433.844	76.38
434.066	71.38
434.287	83.38
434.509	71.38
434.731	88.38
434.953	72.38
435.175	67.38
435.397	71.38
435.618	76.38
435.84	73.38
436.062	94.38
436.284	91.38
436.505	77.38
436.727	73.38
436.949	77.38
437.17	71.38
437.392	72.38
437.614	79.38
437.835	68.38
438.057	69.38
438.278	79.38
438.5	73.38
438.721	77.38
438.943	76.38
439.165	61.38
439.386	75.38
439.608	79.38
439.829	81.38
440.05	76.38
440.272	72.38
440.493	76.38
440.715	72.38
440.936	75.38
441.158	65.38
441.379	81.38
441.6	86.38
441.822	71.38
442.043	78.38
442.264	77.38
442.486	88.38
442.707	97.38
442.928	90.38
443.149	79.38
443.371	103.38
443.592	110.38
443.813	107.38
444.034	85.38
444.255	95.38
444.476	82.38
444.698	65.38
444.919	83.38
445.14	151.38
445.361	141.38
445.582	130.38
445.803	111.38
446.024	80.38
446.245	74.38
446.466	79.38
446.687	79.38
446.908	69.38
447.129	73.38
447.35	79.38
447.571	61.38
447.792	72.38
448.013	77.38
448.234	79.38
448.455	60.38
448.675	77.38
448.896	72.38
449.117	70.38
449.338	68.38
449.559	69.38
449.779	89.38
450	85.38
450.221	84.38
450.442	79.38
450.662	67.38
450.883	73.38
451.104	87.38
451.324	71.38
451.545	76.38
451.766	86.38
451.986	77.38
452.207	69.38
452.428	79.38
452.648	91.38
452.869	78.38
453.089	76.38
453.31	78.38
453.53	67.38
453.751	80.38
453.971	62.38
454.192	67.38
454.412	71.38
454.633	74.38
454.853	71.38
455.073	58.38
455.294	87.38
455.514	72.38
455.734	69.38
455.955	72.38
456.175	77.38
456.395	65.38
456.616	76.38
456.836	63.38
457.056	84.38
457.276	84.38
457.497	78.38
457.717	80.38
457.937	79.38
458.157	78.38
458.377	86.38
458.598	73.38
458.818	93.38
459.038	82.38
459.258	77.38
459.478	69.38
459.698	86.38
459.918	80.38
460.138	83.38
460.358	98.38
460.578	96.38
460.798	89.38
461.018	83.38
461.238	81.38
461.458	73.38
461.678	79.38
461.898	83.38
462.118	80.38
462.338	69.38
462.558	75.38
462.777	79.38
462.997	75.38
463.217	87.38
463.437	74.38
463.657	74.38
463.876	75.38
464.096	72.38
464.316	81.38
464.536	78.38
464.755	80.38
464.975	76.38
465.195	73.38
465.414	70.38
465.634	85.38
465.854	73.38
466.073	85.38
466.293	76.38
466.512	67.38
466.732	77.38
466.951	86.38
467.171	71.38
467.391	68.38
467.61	71.38
467.829	79.38
468.049	73.38
468.268	87.38
468.488	86.38
468.707	68.38
468.927	78.38
469.146	73.38
469.365	59.38
469.585	79.38
469.804	87.38
470.023	73.38
470.243	66.38
470.462	72.38
470.681	77.38
470.901	67.38
471.12	70.38
471.339	70.38
471.558	74.38
471.777	64.38
471.997	75.38
472.216	81.38
472.435	73.38
472.654	62.38
472.873	87.38
473.092	65.38
473.311	70.38
473.53	76.38
473.749	76.38
473.968	90.38
474.187	93.38
474.406	84.38
474.625	84.38
474.844	74.38
475.063	66.38
475.282	85.38
475.501	72.38
475.72	81.38
475.939	82.38
476.158	79.38
476.377	72.38
476.596	84.38
476.814	65.38
477.033	68.38
477.252	71.38
477.471	73.38
477.69	80.38
477.908	78.38
478.127	89.38
478.346	86.38
478.564	82.38
478.783	68.38
479.002	68.38
479.22	72.38
479.439	78.38
479.658	83.38
479.876	79.38
480.095	78.38
480.313	82.38
480.532	84.38
480.751	83.38
480.969	73.38
481.188	79.38
481.406	83.38
481.624	78.38
481.843	91.38
482.061	66.38
482.28	74.38
482.498	74.38
482.717	95.38
482.935	81.38
483.153	82.38
483.372	70.38
483.59	67.38
483.808	76.38
484.027	84.38
484.245	82.38
484.463	71.38
484.681	87.38
484.9	74.38
485.118	85.38
485.336	64.38
485.554	71.38
485.772	73.38
485.99	78.38
486.209	81.38
486.427	79.38
486.645	78.38
486.863	83.38
487.081	84.38
487.299	72.38
487.517	81.38
487.735	95.38
487.953	96.38
488.171	90.38
488.389	84.38
488.607	83.38
488.825	85.38
489.043	76.38
489.261	85.38
489.479	78.38
489.696	81.38
489.914	69.38
490.132	82.38
490.35	78.38
490.568	91.38
490.786	78.38
491.003	85.38
491.221	81.38
491.439	67.38
491.657	73.38
491.874	87.38
492.092	61.38
492.31	70.38
492.527	91.38
492.745	82.38
492.963	75.38
493.18	76.38
493.398	65.38
493.615	87.38
493.833	79.38
494.05	68.38
494.268	83.38
494.485	76.38
494.703	89.38
494.92	86.38
495.138	70.38
495.355	61.38
495.573	65.38
495.79	75.38
496.008	76.38
496.225	91.38
496.442	78.38
496.66	77.38
496.877	81.38
497.094	82.38
497.312	73.38
497.529	66.38
497.746	73.38
497.963	71.38
498.181	83.38
498.398	83.38
498.615	68.38
498.832	66.38
499.049	81.38
499.267	76.38
499.484	75.38
499.701	77.38
499.918	81.38
500.135	82.38
500.352	87.38
500.569	58.38
500.786	91.38
501.003	85.38
501.22	75.38
501.437	70.38
501.654	75.38
501.871	81.38
502.088	66.38
502.305	79.38
502.522	84.38
502.739	87.38
502.956	80.38
503.172	79.38
503.389	70.38
503.606	85.38
503.823	84.38
504.04	88.38
504.256	85.38
504.473	77.38
504.69	87.38
504.907	77.38
505.123	62.38
505.34	90.38
505.557	81.38
505.773	84.38
505.99	79.38
506.207	78.38
506.423	94.38
506.64	84.38
506.856	79.38
507.073	81.38
507.289	77.38
507.506	73.38
507.722	88.38
507.939	74.38
508.155	67.38
508.372	73.38
508.588	85.38
508.805	83.38
509.021	74.38
509.238	79.38
509.454	67.38
509.67	84.38
509.887	81.38
510.103	84.38
510.319	79.38
510.536	69.38
510.752	81.38
510.968	75.38
511.184	74.38
511.401	75.38
511.617	77.38
511.833	79.38
512.049	72.38
512.265	81.38
512.481	72.38
512.698	73.38
512.914	69.38
513.13	79.38
513.346	71.38
513.562	88.38
513.778	94.38
513.994	65.38
514.21	71.38
514.426	77.38
514.642	83.38
514.858	79.38
515.074	85.38
515.29	70.38
515.506	58.38
515.721	79.38
515.937	88.38
516.153	90.38
516.369	78.38
516.585	82.38
516.801	84.38
517.016	81.38
517.232	78.38
517.448	73.38
517.664	88.38
517.879	89.38
518.095	58.38
518.311	59.38
518.527	98.38
518.742	80.38
518.958	86.38
519.173	77.38
519.389	73.38
519.605	68.38
519.82	85.38
520.036	95.38
