Data from 18505_1_HRD10591_00038.txt Node
Date: Mon Jan 19 13:58:50 EST 2026
User: Yrep
Spectrometer: HR+D1059
Trigger mode: 1
Integration Time (sec): 1.000000E-1
Scans to average: 1
Electric dark correction enabled: true
Nonlinearity correction enabled: false
Boxcar width: 0
XAxis mode: Wavelengths
Number of Pixels in Spectrum: 2048
>>>>>Begin Spectral Data<<<<<
223.165	-14.69
223.4	-14.69
223.635	-14.69
223.869	-11.69
224.104	-15.69
224.338	-3.69
224.573	-16.69
224.808	-25.69
225.042	-14.69
225.277	6.31
225.511	-12.69
225.746	2.31
225.98	7.31
226.215	3.31
226.449	15.31
226.683	15.31
226.918	35.31
227.152	30.31
227.387	37.31
227.621	41.31
227.856	55.31
228.09	49.31
228.324	39.31
228.559	55.31
228.793	57.31
229.027	67.31
229.262	57.31
229.496	73.31
229.73	74.31
229.964	75.31
230.199	65.31
230.433	73.31
230.667	75.31
230.901	77.31
231.136	76.31
231.37	77.31
231.604	81.31
231.838	73.31
232.072	80.31
232.306	79.31
232.541	76.31
232.775	79.31
233.009	85.31
233.243	86.31
233.477	65.31
233.711	83.31
233.945	91.31
234.179	83.31
234.413	80.31
234.647	77.31
234.881	71.31
235.115	65.31
235.349	78.31
235.583	79.31
235.817	67.31
236.051	71.31
236.285	67.31
236.519	85.31
236.753	74.31
236.987	69.31
237.221	75.31
237.455	75.31
237.689	83.31
237.922	74.31
238.156	83.31
238.39	84.31
238.624	66.31
238.858	93.31
239.091	70.31
239.325	72.31
239.559	54.31
239.793	63.31
240.027	83.31
240.26	81.31
240.494	69.31
240.728	68.31
240.961	65.31
241.195	67.31
241.429	58.31
241.662	72.31
241.896	71.31
242.13	74.31
242.363	76.31
242.597	77.31
242.83	69.31
243.064	66.31
243.298	90.31
243.531	80.31
243.765	72.31
243.998	74.31
244.232	77.31
244.465	72.31
244.699	79.31
244.932	83.31
245.166	68.31
245.399	92.31
245.633	69.31
245.866	63.31
246.099	83.31
246.333	71.31
246.566	69.31
246.8	65.31
247.033	88.31
247.266	85.31
247.5	84.31
247.733	68.31
247.966	71.31
248.2	80.31
248.433	67.31
248.666	70.31
248.899	67.31
249.133	76.31
249.366	76.31
249.599	76.31
249.832	88.31
250.066	82.31
250.299	73.31
250.532	61.31
250.765	74.31
250.998	63.31
251.231	78.31
251.465	71.31
251.698	88.31
251.931	64.31
252.164	82.31
252.397	77.31
252.63	86.31
252.863	63.31
253.096	73.31
253.329	84.31
253.562	89.31
253.795	83.31
254.028	77.31
254.261	78.31
254.494	81.31
254.727	82.31
254.96	83.31
255.193	85.31
255.426	81.31
255.659	78.31
255.892	84.31
256.124	76.31
256.357	80.31
256.59	84.31
256.823	79.31
257.056	75.31
257.289	73.31
257.521	75.31
257.754	85.31
257.987	76.31
258.22	84.31
258.452	82.31
258.685	83.31
258.918	82.31
259.151	72.31
259.383	87.31
259.616	77.31
259.849	76.31
260.081	79.31
260.314	71.31
260.547	79.31
260.779	89.31
261.012	92.31
261.244	78.31
261.477	81.31
261.71	71.31
261.942	73.31
262.175	86.31
262.407	71.31
262.64	84.31
262.872	86.31
263.105	90.31
263.337	81.31
263.57	67.31
263.802	85.31
264.035	79.31
264.267	80.31
264.499	81.31
264.732	71.31
264.964	79.31
265.197	83.31
265.429	72.31
265.661	71.31
265.894	92.31
266.126	71.31
266.358	88.31
266.591	81.31
266.823	82.31
267.055	90.31
267.287	103.31
267.52	75.31
267.752	82.31
267.984	78.31
268.216	95.31
268.448	75.31
268.681	80.31
268.913	85.31
269.145	82.31
269.377	76.31
269.609	81.31
269.841	84.31
270.073	64.31
270.306	89.31
270.538	90.31
270.77	88.31
271.002	76.31
271.234	70.31
271.466	65.31
271.698	78.31
271.93	81.31
272.162	81.31
272.394	86.31
272.626	83.31
272.858	72.31
273.09	95.31
273.322	90.31
273.553	71.31
273.785	83.31
274.017	81.31
274.249	78.31
274.481	79.31
274.713	84.31
274.945	87.31
275.176	73.31
275.408	84.31
275.64	71.31
275.872	78.31
276.104	83.31
276.335	79.31
276.567	75.31
276.799	73.31
277.031	66.31
277.262	86.31
277.494	82.31
277.726	76.31
277.957	71.31
278.189	86.31
278.421	92.31
278.652	80.31
278.884	85.31
279.115	64.31
279.347	76.31
279.579	93.31
279.81	77.31
280.042	91.31
280.273	71.31
280.505	73.31
280.736	81.31
280.968	80.31
281.199	72.31
281.431	76.31
281.662	83.31
281.894	89.31
282.125	74.31
282.356	84.31
282.588	81.31
282.819	90.31
283.051	78.31
283.282	73.31
283.513	69.31
283.745	80.31
283.976	79.31
284.207	88.31
284.439	84.31
284.67	92.31
284.901	72.31
285.132	94.31
285.364	79.31
285.595	83.31
285.826	77.31
286.057	71.31
286.288	70.31
286.52	92.31
286.751	71.31
286.982	80.31
287.213	75.31
287.444	68.31
287.675	84.31
287.906	91.31
288.138	87.31
288.369	70.31
288.6	84.31
288.831	87.31
289.062	84.31
289.293	84.31
289.524	74.31
289.755	83.31
289.986	82.31
290.217	77.31
290.448	97.31
290.679	96.31
290.91	83.31
291.141	80.31
291.371	81.31
291.602	63.31
291.833	80.31
292.064	83.31
292.295	93.31
292.526	104.31
292.757	72.31
292.987	76.31
293.218	87.31
293.449	77.31
293.68	81.31
293.91	96.31
294.141	86.31
294.372	88.31
294.603	97.31
294.833	84.31
295.064	81.31
295.295	67.31
295.525	84.31
295.756	79.31
295.987	83.31
296.217	91.31
296.448	81.31
296.679	89.31
296.909	80.31
297.14	91.31
297.37	90.31
297.601	82.31
297.831	72.31
298.062	77.31
298.292	87.31
298.523	80.31
298.753	89.31
298.984	83.31
299.214	77.31
299.445	103.31
299.675	80.31
299.905	82.31
300.136	76.31
300.366	80.31
300.597	95.31
300.827	97.31
301.057	84.31
301.288	83.31
301.518	84.31
301.748	89.31
301.979	105.31
302.209	94.31
302.439	85.31
302.669	96.31
302.9	100.31
303.13	109.31
303.36	87.31
303.59	87.31
303.82	81.31
304.051	84.31
304.281	95.31
304.511	69.31
304.741	92.31
304.971	88.31
305.201	71.31
305.431	84.31
305.661	74.31
305.891	80.31
306.121	82.31
306.352	94.31
306.582	86.31
306.812	83.31
307.042	67.31
307.272	85.31
307.502	73.31
307.731	88.31
307.961	79.31
308.191	66.31
308.421	85.31
308.651	86.31
308.881	83.31
309.111	79.31
309.341	91.31
309.571	78.31
309.8	83.31
310.03	78.31
310.26	78.31
310.49	82.31
310.72	76.31
310.949	75.31
311.179	77.31
311.409	86.31
311.639	73.31
311.868	85.31
312.098	68.31
312.328	81.31
312.557	74.31
312.787	67.31
313.017	80.31
313.246	88.31
313.476	78.31
313.706	97.31
313.935	76.31
314.165	81.31
314.394	85.31
314.624	84.31
314.853	71.31
315.083	85.31
315.312	80.31
315.542	85.31
315.771	88.31
316.001	84.31
316.23	91.31
316.46	73.31
316.689	77.31
316.919	64.31
317.148	86.31
317.377	98.31
317.607	103.31
317.836	80.31
318.065	102.31
318.295	100.31
318.524	79.31
318.753	95.31
318.983	92.31
319.212	79.31
319.441	75.31
319.67	77.31
319.9	84.31
320.129	92.31
320.358	77.31
320.587	87.31
320.816	91.31
321.046	69.31
321.275	76.31
321.504	89.31
321.733	67.31
321.962	84.31
322.191	77.31
322.42	83.31
322.649	84.31
322.878	84.31
323.108	87.31
323.337	81.31
323.566	92.31
323.795	80.31
324.024	95.31
324.253	79.31
324.482	76.31
324.71	93.31
324.939	82.31
325.168	77.31
325.397	91.31
325.626	93.31
325.855	74.31
326.084	79.31
326.313	81.31
326.542	90.31
326.77	87.31
326.999	84.31
327.228	70.31
327.457	80.31
327.686	88.31
327.914	87.31
328.143	65.31
328.372	72.31
328.6	84.31
328.829	97.31
329.058	80.31
329.287	67.31
329.515	87.31
329.744	83.31
329.972	89.31
330.201	81.31
330.43	82.31
330.658	81.31
330.887	72.31
331.115	83.31
331.344	72.31
331.572	82.31
331.801	85.31
332.03	84.31
332.258	104.31
332.486	91.31
332.715	80.31
332.943	96.31
333.172	82.31
333.4	97.31
333.629	82.31
333.857	85.31
334.085	74.31
334.314	84.31
334.542	81.31
334.771	74.31
334.999	79.31
335.227	104.31
335.455	93.31
335.684	88.31
335.912	94.31
336.14	79.31
336.369	89.31
336.597	71.31
336.825	70.31
337.053	70.31
337.281	85.31
337.51	78.31
337.738	83.31
337.966	89.31
338.194	73.31
338.422	88.31
338.65	77.31
338.878	94.31
339.106	92.31
339.334	78.31
339.562	77.31
339.79	78.31
340.018	82.31
340.246	80.31
340.474	84.31
340.702	85.31
340.93	77.31
341.158	85.31
341.386	74.31
341.614	76.31
341.842	84.31
342.07	95.31
342.298	81.31
342.526	88.31
342.754	80.31
342.981	86.31
343.209	95.31
343.437	87.31
343.665	78.31
343.893	92.31
344.12	89.31
344.348	70.31
344.576	76.31
344.804	93.31
345.031	84.31
345.259	69.31
345.487	83.31
345.714	71.31
345.942	69.31
346.17	85.31
346.397	85.31
346.625	85.31
346.853	73.31
347.08	88.31
347.308	96.31
347.535	93.31
347.763	88.31
347.99	76.31
348.218	92.31
348.445	79.31
348.673	69.31
348.9	77.31
349.128	99.31
349.355	71.31
349.583	71.31
349.81	79.31
350.037	93.31
350.265	92.31
350.492	66.31
350.72	79.31
350.947	83.31
351.174	89.31
351.402	95.31
351.629	79.31
351.856	77.31
352.083	73.31
352.311	68.31
352.538	75.31
352.765	95.31
352.992	81.31
353.22	73.31
353.447	101.31
353.674	82.31
353.901	91.31
354.128	81.31
354.355	82.31
354.583	91.31
354.81	84.31
355.037	90.31
355.264	91.31
355.491	79.31
355.718	76.31
355.945	78.31
356.172	81.31
356.399	81.31
356.626	76.31
356.853	89.31
357.08	95.31
357.307	91.31
357.534	83.31
357.761	86.31
357.988	79.31
358.215	69.31
358.441	83.31
358.668	77.31
358.895	79.31
359.122	98.31
359.349	79.31
359.576	73.31
359.802	74.31
360.029	71.31
360.256	87.31
360.483	76.31
360.709	79.31
360.936	94.31
361.163	78.31
361.39	74.31
361.616	79.31
361.843	73.31
362.07	75.31
362.296	83.31
362.523	88.31
362.749	75.31
362.976	81.31
363.203	96.31
363.429	79.31
363.656	93.31
363.882	77.31
364.109	90.31
364.335	88.31
364.562	84.31
364.788	97.31
365.015	93.31
365.241	90.31
365.468	81.31
365.694	77.31
365.92	92.31
366.147	86.31
366.373	86.31
366.599	77.31
366.826	85.31
367.052	96.31
367.278	79.31
367.505	85.31
367.731	101.31
367.957	80.31
368.184	88.31
368.41	74.31
368.636	89.31
368.862	63.31
369.089	88.31
369.315	84.31
369.541	82.31
369.767	87.31
369.993	85.31
370.219	87.31
370.445	75.31
370.672	80.31
370.898	83.31
371.124	88.31
371.35	72.31
371.576	82.31
371.802	91.31
372.028	77.31
372.254	98.31
372.48	86.31
372.706	104.31
372.932	84.31
373.158	85.31
373.384	72.31
373.61	93.31
373.835	99.31
374.061	81.31
374.287	82.31
374.513	79.31
374.739	83.31
374.965	86.31
375.191	73.31
375.416	86.31
375.642	88.31
375.868	84.31
376.094	71.31
376.319	77.31
376.545	95.31
376.771	85.31
376.997	75.31
377.222	84.31
377.448	81.31
377.674	78.31
377.899	82.31
378.125	81.31
378.35	81.31
378.576	85.31
378.802	77.31
379.027	71.31
379.253	87.31
379.478	72.31
379.704	91.31
379.929	82.31
380.155	82.31
380.38	78.31
380.606	72.31
380.831	81.31
381.057	93.31
381.282	79.31
381.507	71.31
381.733	86.31
381.958	76.31
382.184	80.31
382.409	85.31
382.634	85.31
382.86	82.31
383.085	76.31
383.31	80.31
383.535	86.31
383.761	82.31
383.986	78.31
384.211	90.31
384.436	73.31
384.662	83.31
384.887	76.31
385.112	83.31
385.337	83.31
385.562	82.31
385.787	90.31
386.013	83.31
386.238	88.31
386.463	92.31
386.688	85.31
386.913	79.31
387.138	78.31
387.363	72.31
387.588	83.31
387.813	92.31
388.038	92.31
388.263	95.31
388.488	93.31
388.713	91.31
388.938	77.31
389.163	82.31
389.387	80.31
389.612	78.31
389.837	74.31
390.062	70.31
390.287	77.31
390.512	80.31
390.736	81.31
390.961	74.31
391.186	83.31
391.411	78.31
391.636	91.31
391.86	95.31
392.085	77.31
392.31	69.31
392.534	87.31
392.759	83.31
392.984	117.31
393.208	180.31
393.433	232.31
393.658	210.31
393.882	112.31
394.107	97.31
394.331	91.31
394.556	78.31
394.78	77.31
395.005	55.31
395.229	71.31
395.454	74.31
395.678	79.31
395.903	96.31
396.127	101.31
396.352	109.31
396.576	140.31
396.801	197.31
397.025	221.31
397.249	134.31
397.474	79.31
397.698	89.31
397.922	72.31
398.147	84.31
398.371	79.31
398.595	79.31
398.82	76.31
399.044	82.31
399.268	81.31
399.492	69.31
399.717	66.31
399.941	86.31
400.165	89.31
400.389	83.31
400.613	93.31
400.837	74.31
401.062	91.31
401.286	88.31
401.51	71.31
401.734	79.31
401.958	68.31
402.182	83.31
402.406	99.31
402.63	89.31
402.854	78.31
403.078	95.31
403.302	83.31
403.526	73.31
403.75	76.31
403.974	79.31
404.198	66.31
404.422	79.31
404.645	95.31
404.869	91.31
405.093	97.31
405.317	77.31
405.541	76.31
405.765	70.31
405.988	74.31
406.212	76.31
406.436	96.31
406.66	88.31
406.883	81.31
407.107	85.31
407.331	90.31
407.555	86.31
407.778	92.31
408.002	85.31
408.226	88.31
408.449	83.31
408.673	66.31
408.896	79.31
409.12	73.31
409.344	87.31
409.567	58.31
409.791	73.31
410.014	75.31
410.238	68.31
410.461	83.31
410.685	77.31
410.908	57.31
411.132	83.31
411.355	88.31
411.578	81.31
411.802	80.31
412.025	74.31
412.249	78.31
412.472	88.31
412.695	83.31
412.919	78.31
413.142	83.31
413.365	83.31
413.589	72.31
413.812	83.31
414.035	88.31
414.258	80.31
414.482	81.31
414.705	69.31
414.928	87.31
415.151	84.31
415.374	93.31
415.597	78.31
415.821	67.31
416.044	85.31
416.267	87.31
416.49	84.31
416.713	80.31
416.936	67.31
417.159	87.31
417.382	93.31
417.605	68.31
417.828	87.31
418.051	77.31
418.274	61.31
418.497	67.31
418.72	70.31
418.943	84.31
419.166	83.31
419.389	81.31
419.611	87.31
419.834	72.31
420.057	84.31
420.28	73.31
420.503	84.31
420.726	71.31
420.948	71.31
421.171	91.31
421.394	73.31
421.617	101.31
421.839	95.31
422.062	102.31
422.285	92.31
422.507	136.31
422.73	192.31
422.953	182.31
423.175	99.31
423.398	79.31
423.621	86.31
423.843	81.31
424.066	76.31
424.288	85.31
424.511	75.31
424.733	80.31
424.956	80.31
425.178	79.31
425.401	79.31
425.623	78.31
425.846	87.31
426.068	90.31
426.291	89.31
426.513	97.31
426.735	91.31
426.958	71.31
427.18	101.31
427.402	77.31
427.625	72.31
427.847	77.31
428.069	83.31
428.292	78.31
428.514	93.31
428.736	89.31
428.958	85.31
429.181	88.31
429.403	88.31
429.625	93.31
429.847	81.31
430.069	100.31
430.292	106.31
430.514	90.31
430.736	91.31
430.958	90.31
431.18	97.31
431.402	77.31
431.624	78.31
431.846	93.31
432.068	88.31
432.29	73.31
432.512	89.31
432.734	88.31
432.956	77.31
433.178	79.31
433.4	80.31
433.622	85.31
433.844	90.31
434.066	84.31
434.287	88.31
434.509	73.31
434.731	92.31
434.953	91.31
435.175	93.31
435.397	86.31
435.618	81.31
435.84	80.31
436.062	80.31
436.284	83.31
436.505	70.31
436.727	86.31
436.949	89.31
437.17	90.31
437.392	83.31
437.614	84.31
437.835	80.31
438.057	78.31
438.278	88.31
438.5	74.31
438.721	69.31
438.943	92.31
439.165	73.31
439.386	81.31
439.608	73.31
439.829	69.31
440.05	72.31
440.272	78.31
440.493	59.31
440.715	83.31
440.936	84.31
441.158	84.31
441.379	85.31
441.6	95.31
441.822	79.31
442.043	69.31
442.264	85.31
442.486	99.31
442.707	101.31
442.928	87.31
443.149	79.31
443.371	93.31
443.592	105.31
443.813	109.31
444.034	79.31
444.255	83.31
444.476	80.31
444.698	78.31
444.919	86.31
445.14	154.31
445.361	121.31
445.582	133.31
445.803	104.31
446.024	87.31
446.245	85.31
446.466	80.31
446.687	76.31
446.908	84.31
447.129	71.31
447.35	72.31
447.571	84.31
447.792	78.31
448.013	77.31
448.234	75.31
448.455	92.31
448.675	88.31
448.896	82.31
449.117	69.31
449.338	81.31
449.559	84.31
449.779	84.31
450	67.31
450.221	73.31
450.442	88.31
450.662	76.31
450.883	92.31
451.104	86.31
451.324	84.31
451.545	79.31
451.766	71.31
451.986	91.31
452.207	82.31
452.428	88.31
452.648	63.31
452.869	83.31
453.089	92.31
453.31	81.31
453.53	77.31
453.751	86.31
453.971	77.31
454.192	83.31
454.412	71.31
454.633	85.31
454.853	73.31
455.073	71.31
455.294	91.31
455.514	80.31
455.734	72.31
455.955	77.31
456.175	80.31
456.395	78.31
456.616	72.31
456.836	71.31
457.056	81.31
457.276	78.31
457.497	80.31
457.717	94.31
457.937	88.31
458.157	83.31
458.377	66.31
458.598	81.31
458.818	81.31
459.038	76.31
459.258	71.31
459.478	75.31
459.698	89.31
459.918	83.31
460.138	82.31
460.358	87.31
460.578	72.31
460.798	81.31
461.018	103.31
461.238	77.31
461.458	76.31
461.678	87.31
461.898	75.31
462.118	82.31
462.338	83.31
462.558	83.31
462.777	65.31
462.997	63.31
463.217	69.31
463.437	89.31
463.657	79.31
463.876	85.31
464.096	91.31
464.316	86.31
464.536	79.31
464.755	92.31
464.975	77.31
465.195	83.31
465.414	84.31
465.634	86.31
465.854	84.31
466.073	74.31
466.293	72.31
466.512	80.31
466.732	80.31
466.951	89.31
467.171	84.31
467.391	83.31
467.61	69.31
467.829	79.31
468.049	91.31
468.268	64.31
468.488	96.31
468.707	78.31
468.927	84.31
469.146	83.31
469.365	93.31
469.585	96.31
469.804	81.31
470.023	82.31
470.243	74.31
470.462	80.31
470.681	83.31
470.901	82.31
471.12	79.31
471.339	72.31
471.558	76.31
471.777	79.31
471.997	68.31
472.216	94.31
472.435	95.31
472.654	78.31
472.873	86.31
473.092	84.31
473.311	81.31
473.53	63.31
473.749	87.31
473.968	99.31
474.187	79.31
474.406	68.31
474.625	76.31
474.844	88.31
475.063	87.31
475.282	72.31
475.501	96.31
475.72	89.31
475.939	87.31
476.158	91.31
476.377	76.31
476.596	89.31
476.814	91.31
477.033	88.31
477.252	98.31
477.471	79.31
477.69	77.31
477.908	88.31
478.127	78.31
478.346	75.31
478.564	75.31
478.783	86.31
479.002	88.31
479.22	70.31
479.439	93.31
479.658	79.31
479.876	94.31
480.095	77.31
480.313	77.31
480.532	67.31
480.751	73.31
480.969	64.31
481.188	76.31
481.406	86.31
481.624	96.31
481.843	80.31
482.061	73.31
482.28	76.31
482.498	78.31
482.717	81.31
482.935	81.31
483.153	83.31
483.372	79.31
483.59	93.31
483.808	81.31
484.027	83.31
484.245	89.31
484.463	68.31
484.681	63.31
484.9	89.31
485.118	86.31
485.336	76.31
485.554	93.31
485.772	83.31
485.99	82.31
486.209	72.31
486.427	76.31
486.645	76.31
486.863	74.31
487.081	72.31
487.299	79.31
487.517	91.31
487.735	81.31
487.953	97.31
488.171	91.31
488.389	79.31
488.607	71.31
488.825	80.31
489.043	89.31
489.261	85.31
489.479	84.31
489.696	81.31
489.914	81.31
490.132	81.31
490.35	89.31
490.568	74.31
490.786	87.31
491.003	84.31
491.221	77.31
491.439	84.31
491.657	84.31
491.874	74.31
492.092	73.31
492.31	89.31
492.527	79.31
492.745	88.31
492.963	82.31
493.18	89.31
493.398	69.31
493.615	82.31
493.833	79.31
494.05	88.31
494.268	79.31
494.485	76.31
494.703	103.31
494.92	80.31
495.138	75.31
495.355	93.31
495.573	81.31
495.79	78.31
496.008	80.31
496.225	92.31
496.442	74.31
496.66	94.31
496.877	98.31
497.094	81.31
497.312	88.31
497.529	79.31
497.746	80.31
497.963	74.31
498.181	81.31
498.398	91.31
498.615	79.31
498.832	68.31
499.049	80.31
499.267	76.31
499.484	88.31
499.701	68.31
499.918	86.31
500.135	81.31
500.352	67.31
500.569	53.31
500.786	89.31
501.003	88.31
501.22	72.31
501.437	76.31
501.654	91.31
501.871	86.31
502.088	81.31
502.305	76.31
502.522	68.31
502.739	91.31
502.956	78.31
503.172	92.31
503.389	91.31
503.606	76.31
503.823	81.31
504.04	84.31
504.256	92.31
504.473	84.31
504.69	78.31
504.907	76.31
505.123	101.31
505.34	74.31
505.557	67.31
505.773	71.31
505.99	75.31
506.207	73.31
506.423	73.31
506.64	86.31
506.856	74.31
507.073	103.31
507.289	68.31
507.506	77.31
507.722	77.31
507.939	82.31
508.155	81.31
508.372	92.31
508.588	82.31
508.805	86.31
509.021	91.31
509.238	87.31
509.454	76.31
509.67	83.31
509.887	83.31
510.103	88.31
510.319	90.31
510.536	87.31
510.752	85.31
510.968	78.31
511.184	80.31
511.401	72.31
511.617	77.31
511.833	77.31
512.049	89.31
512.265	77.31
512.481	93.31
512.698	88.31
512.914	76.31
513.13	79.31
513.346	91.31
513.562	93.31
513.778	94.31
513.994	78.31
514.21	89.31
514.426	85.31
514.642	86.31
514.858	81.31
515.074	92.31
515.29	88.31
515.506	96.31
515.721	85.31
515.937	84.31
516.153	83.31
516.369	77.31
516.585	92.31
516.801	91.31
517.016	80.31
517.232	108.31
517.448	89.31
517.664	77.31
517.879	71.31
518.095	81.31
518.311	83.31
518.527	83.31
518.742	83.31
518.958	87.31
519.173	85.31
519.389	88.31
519.605	71.31
