Data from 18505_1_HRD10591_00013.txt Node
Date: Mon Jan 19 13:58:37 EST 2026
User: Yrep
Spectrometer: HR+D1059
Trigger mode: 1
Integration Time (sec): 1.000000E-1
Scans to average: 1
Electric dark correction enabled: true
Nonlinearity correction enabled: false
Boxcar width: 0
XAxis mode: Wavelengths
Number of Pixels in Spectrum: 2048
>>>>>Begin Spectral Data<<<<<
223.165	-10.31
223.4	-10.31
223.635	-10.31
223.869	-31.31
224.104	-23.31
224.338	-14.31
224.573	-9.31
224.808	-14.31
225.042	0.69
225.277	-11.31
225.511	5.69
225.746	-0.31
225.98	14.69
226.215	17.69
226.449	5.69
226.683	26.69
226.918	11.69
227.152	31.69
227.387	34.69
227.621	34.69
227.856	46.69
228.09	52.69
228.324	54.69
228.559	58.69
228.793	59.69
229.027	57.69
229.262	72.69
229.496	54.69
229.73	79.69
229.964	75.69
230.199	77.69
230.433	89.69
230.667	86.69
230.901	88.69
231.136	88.69
231.37	72.69
231.604	66.69
231.838	74.69
232.072	74.69
232.306	90.69
232.541	94.69
232.775	92.69
233.009	87.69
233.243	99.69
233.477	94.69
233.711	88.69
233.945	81.69
234.179	75.69
234.413	84.69
234.647	80.69
234.881	65.69
235.115	82.69
235.349	94.69
235.583	75.69
235.817	86.69
236.051	85.69
236.285	79.69
236.519	74.69
236.753	88.69
236.987	86.69
237.221	94.69
237.455	75.69
237.689	71.69
237.922	71.69
238.156	73.69
238.39	70.69
238.624	75.69
238.858	75.69
239.091	73.69
239.325	61.69
239.559	88.69
239.793	63.69
240.027	72.69
240.26	75.69
240.494	79.69
240.728	78.69
240.961	82.69
241.195	86.69
241.429	62.69
241.662	76.69
241.896	76.69
242.13	78.69
242.363	80.69
242.597	69.69
242.83	66.69
243.064	75.69
243.298	63.69
243.531	74.69
243.765	77.69
243.998	83.69
244.232	84.69
244.465	70.69
244.699	70.69
244.932	78.69
245.166	74.69
245.399	67.69
245.633	83.69
245.866	89.69
246.099	69.69
246.333	90.69
246.566	74.69
246.8	71.69
247.033	68.69
247.266	82.69
247.5	69.69
247.733	75.69
247.966	86.69
248.2	83.69
248.433	80.69
248.666	80.69
248.899	68.69
249.133	79.69
249.366	76.69
249.599	75.69
249.832	83.69
250.066	92.69
250.299	73.69
250.532	76.69
250.765	85.69
250.998	90.69
251.231	80.69
251.465	78.69
251.698	87.69
251.931	75.69
252.164	80.69
252.397	72.69
252.63	96.69
252.863	92.69
253.096	85.69
253.329	99.69
253.562	79.69
253.795	100.69
254.028	95.69
254.261	65.69
254.494	66.69
254.727	87.69
254.96	69.69
255.193	85.69
255.426	82.69
255.659	78.69
255.892	92.69
256.124	88.69
256.357	88.69
256.59	87.69
256.823	81.69
257.056	89.69
257.289	81.69
257.521	88.69
257.754	98.69
257.987	80.69
258.22	95.69
258.452	82.69
258.685	68.69
258.918	79.69
259.151	87.69
259.383	86.69
259.616	79.69
259.849	79.69
260.081	79.69
260.314	81.69
260.547	80.69
260.779	83.69
261.012	71.69
261.244	70.69
261.477	95.69
261.71	91.69
261.942	84.69
262.175	93.69
262.407	84.69
262.64	81.69
262.872	80.69
263.105	70.69
263.337	74.69
263.57	87.69
263.802	89.69
264.035	85.69
264.267	73.69
264.499	84.69
264.732	95.69
264.964	76.69
265.197	84.69
265.429	70.69
265.661	75.69
265.894	76.69
266.126	98.69
266.358	91.69
266.591	89.69
266.823	86.69
267.055	84.69
267.287	99.69
267.52	77.69
267.752	79.69
267.984	83.69
268.216	98.69
268.448	86.69
268.681	89.69
268.913	89.69
269.145	82.69
269.377	84.69
269.609	71.69
269.841	66.69
270.073	96.69
270.306	90.69
270.538	95.69
270.77	79.69
271.002	77.69
271.234	82.69
271.466	90.69
271.698	89.69
271.93	76.69
272.162	89.69
272.394	78.69
272.626	82.69
272.858	86.69
273.09	81.69
273.322	83.69
273.553	79.69
273.785	64.69
274.017	81.69
274.249	83.69
274.481	95.69
274.713	89.69
274.945	89.69
275.176	74.69
275.408	84.69
275.64	85.69
275.872	96.69
276.104	79.69
276.335	79.69
276.567	72.69
276.799	95.69
277.031	88.69
277.262	94.69
277.494	93.69
277.726	92.69
277.957	86.69
278.189	86.69
278.421	76.69
278.652	87.69
278.884	99.69
279.115	103.69
279.347	92.69
279.579	85.69
279.81	88.69
280.042	80.69
280.273	85.69
280.505	93.69
280.736	81.69
280.968	90.69
281.199	73.69
281.431	93.69
281.662	89.69
281.894	84.69
282.125	80.69
282.356	84.69
282.588	77.69
282.819	80.69
283.051	89.69
283.282	100.69
283.513	79.69
283.745	91.69
283.976	75.69
284.207	96.69
284.439	90.69
284.67	85.69
284.901	85.69
285.132	74.69
285.364	87.69
285.595	102.69
285.826	82.69
286.057	91.69
286.288	72.69
286.52	81.69
286.751	82.69
286.982	85.69
287.213	86.69
287.444	82.69
287.675	100.69
287.906	91.69
288.138	87.69
288.369	81.69
288.6	83.69
288.831	92.69
289.062	89.69
289.293	81.69
289.524	67.69
289.755	84.69
289.986	85.69
290.217	88.69
290.448	69.69
290.679	98.69
290.91	87.69
291.141	83.69
291.371	98.69
291.602	88.69
291.833	86.69
292.064	93.69
292.295	94.69
292.526	81.69
292.757	89.69
292.987	79.69
293.218	86.69
293.449	87.69
293.68	91.69
293.91	85.69
294.141	105.69
294.372	89.69
294.603	87.69
294.833	79.69
295.064	75.69
295.295	78.69
295.525	81.69
295.756	80.69
295.987	98.69
296.217	102.69
296.448	88.69
296.679	77.69
296.909	89.69
297.14	88.69
297.37	98.69
297.601	91.69
297.831	89.69
298.062	90.69
298.292	91.69
298.523	96.69
298.753	87.69
298.984	100.69
299.214	81.69
299.445	91.69
299.675	93.69
299.905	84.69
300.136	97.69
300.366	85.69
300.597	75.69
300.827	94.69
301.057	94.69
301.288	89.69
301.518	81.69
301.748	88.69
301.979	102.69
302.209	97.69
302.439	97.69
302.669	103.69
302.9	75.69
303.13	83.69
303.36	79.69
303.59	96.69
303.82	101.69
304.051	84.69
304.281	88.69
304.511	88.69
304.741	83.69
304.971	83.69
305.201	91.69
305.431	95.69
305.661	89.69
305.891	89.69
306.121	97.69
306.352	81.69
306.582	76.69
306.812	84.69
307.042	97.69
307.272	83.69
307.502	82.69
307.731	77.69
307.961	74.69
308.191	77.69
308.421	93.69
308.651	103.69
308.881	79.69
309.111	109.69
309.341	86.69
309.571	89.69
309.8	69.69
310.03	81.69
310.26	85.69
310.49	76.69
310.72	89.69
310.949	93.69
311.179	88.69
311.409	103.69
311.639	86.69
311.868	87.69
312.098	95.69
312.328	82.69
312.557	89.69
312.787	77.69
313.017	89.69
313.246	81.69
313.476	85.69
313.706	70.69
313.935	86.69
314.165	85.69
314.394	96.69
314.624	93.69
314.853	81.69
315.083	75.69
315.312	80.69
315.542	97.69
315.771	102.69
316.001	114.69
316.23	109.69
316.46	101.69
316.689	86.69
316.919	92.69
317.148	96.69
317.377	94.69
317.607	102.69
317.836	89.69
318.065	113.69
318.295	99.69
318.524	87.69
318.753	102.69
318.983	100.69
319.212	96.69
319.441	74.69
319.67	90.69
319.9	75.69
320.129	91.69
320.358	89.69
320.587	98.69
320.816	96.69
321.046	91.69
321.275	91.69
321.504	84.69
321.733	92.69
321.962	89.69
322.191	97.69
322.42	86.69
322.649	88.69
322.878	95.69
323.108	87.69
323.337	73.69
323.566	102.69
323.795	96.69
324.024	103.69
324.253	93.69
324.482	85.69
324.71	85.69
324.939	102.69
325.168	80.69
325.397	91.69
325.626	85.69
325.855	91.69
326.084	82.69
326.313	85.69
326.542	95.69
326.77	78.69
326.999	93.69
327.228	81.69
327.457	79.69
327.686	102.69
327.914	93.69
328.143	93.69
328.372	90.69
328.6	82.69
328.829	90.69
329.058	78.69
329.287	90.69
329.515	96.69
329.744	83.69
329.972	89.69
330.201	84.69
330.43	86.69
330.658	95.69
330.887	99.69
331.115	96.69
331.344	94.69
331.572	89.69
331.801	88.69
332.03	103.69
332.258	95.69
332.486	85.69
332.715	81.69
332.943	90.69
333.172	90.69
333.4	79.69
333.629	87.69
333.857	89.69
334.085	99.69
334.314	83.69
334.542	88.69
334.771	88.69
334.999	104.69
335.227	99.69
335.455	93.69
335.684	93.69
335.912	97.69
336.14	95.69
336.369	102.69
336.597	82.69
336.825	83.69
337.053	79.69
337.281	92.69
337.51	97.69
337.738	87.69
337.966	92.69
338.194	83.69
338.422	98.69
338.65	91.69
338.878	101.69
339.106	72.69
339.334	95.69
339.562	82.69
339.79	90.69
340.018	80.69
340.246	85.69
340.474	80.69
340.702	83.69
340.93	71.69
341.158	97.69
341.386	101.69
341.614	84.69
341.842	81.69
342.07	76.69
342.298	81.69
342.526	93.69
342.754	73.69
342.981	93.69
343.209	81.69
343.437	98.69
343.665	93.69
343.893	93.69
344.12	100.69
344.348	99.69
344.576	74.69
344.804	101.69
345.031	74.69
345.259	89.69
345.487	95.69
345.714	70.69
345.942	82.69
346.17	86.69
346.397	83.69
346.625	88.69
346.853	84.69
347.08	85.69
347.308	70.69
347.535	82.69
347.763	82.69
347.99	88.69
348.218	94.69
348.445	85.69
348.673	97.69
348.9	99.69
349.128	96.69
349.355	72.69
349.583	83.69
349.81	90.69
350.037	72.69
350.265	102.69
350.492	85.69
350.72	83.69
350.947	83.69
351.174	74.69
351.402	76.69
351.629	83.69
351.856	91.69
352.083	76.69
352.311	92.69
352.538	104.69
352.765	81.69
352.992	90.69
353.22	86.69
353.447	77.69
353.674	87.69
353.901	102.69
354.128	81.69
354.355	81.69
354.583	92.69
354.81	93.69
355.037	84.69
355.264	95.69
355.491	87.69
355.718	85.69
355.945	74.69
356.172	101.69
356.399	91.69
356.626	87.69
356.853	78.69
357.08	83.69
357.307	68.69
357.534	92.69
357.761	92.69
357.988	89.69
358.215	106.69
358.441	88.69
358.668	80.69
358.895	94.69
359.122	81.69
359.349	73.69
359.576	74.69
359.802	75.69
360.029	76.69
360.256	90.69
360.483	74.69
360.709	85.69
360.936	85.69
361.163	86.69
361.39	90.69
361.616	88.69
361.843	103.69
362.07	102.69
362.296	98.69
362.523	109.69
362.749	113.69
362.976	96.69
363.203	127.69
363.429	110.69
363.656	88.69
363.882	105.69
364.109	109.69
364.335	123.69
364.562	125.69
364.788	107.69
365.015	93.69
365.241	74.69
365.468	81.69
365.694	91.69
365.92	98.69
366.147	85.69
366.373	93.69
366.599	74.69
366.826	101.69
367.052	86.69
367.278	88.69
367.505	79.69
367.731	86.69
367.957	81.69
368.184	86.69
368.41	72.69
368.636	102.69
368.862	97.69
369.089	83.69
369.315	81.69
369.541	96.69
369.767	83.69
369.993	85.69
370.219	95.69
370.445	103.69
370.672	111.69
370.898	89.69
371.124	81.69
371.35	84.69
371.576	79.69
371.802	87.69
372.028	93.69
372.254	95.69
372.48	82.69
372.706	95.69
372.932	98.69
373.158	97.69
373.384	109.69
373.61	115.69
373.835	118.69
374.061	94.69
374.287	94.69
374.513	95.69
374.739	95.69
374.965	91.69
375.191	97.69
375.416	87.69
375.642	85.69
375.868	80.69
376.094	81.69
376.319	82.69
376.545	95.69
376.771	73.69
376.997	74.69
377.222	88.69
377.448	75.69
377.674	62.69
377.899	94.69
378.125	86.69
378.35	71.69
378.576	85.69
378.802	80.69
379.027	80.69
379.253	89.69
379.478	83.69
379.704	84.69
379.929	100.69
380.155	98.69
380.38	94.69
380.606	82.69
380.831	103.69
381.057	106.69
381.282	89.69
381.507	90.69
381.733	81.69
381.958	84.69
382.184	82.69
382.409	102.69
382.634	97.69
382.86	96.69
383.085	102.69
383.31	117.69
383.535	91.69
383.761	97.69
383.986	102.69
384.211	98.69
384.436	98.69
384.662	72.69
384.887	86.69
385.112	98.69
385.337	99.69
385.562	87.69
385.787	99.69
386.013	104.69
386.238	105.69
386.463	90.69
386.688	100.69
386.913	98.69
387.138	91.69
387.363	97.69
387.588	100.69
387.813	93.69
388.038	101.69
388.263	107.69
388.488	96.69
388.713	90.69
388.938	93.69
389.163	93.69
389.387	95.69
389.612	96.69
389.837	87.69
390.062	98.69
390.287	90.69
390.512	97.69
390.736	77.69
390.961	102.69
391.186	85.69
391.411	96.69
391.636	88.69
391.86	96.69
392.085	102.69
392.31	93.69
392.534	112.69
392.759	132.69
392.984	200.69
393.208	372.69
393.433	558.69
393.658	420.69
393.882	177.69
394.107	121.69
394.331	110.69
394.556	130.69
394.78	98.69
395.005	88.69
395.229	92.69
395.454	93.69
395.678	113.69
395.903	116.69
396.127	139.69
396.352	167.69
396.576	221.69
396.801	373.69
397.025	469.69
397.249	226.69
397.474	141.69
397.698	101.69
397.922	95.69
398.147	102.69
398.371	105.69
398.595	89.69
398.82	95.69
399.044	89.69
399.268	86.69
399.492	101.69
399.717	93.69
399.941	82.69
400.165	73.69
400.389	83.69
400.613	71.69
400.837	86.69
401.062	87.69
401.286	95.69
401.51	83.69
401.734	92.69
401.958	94.69
402.182	81.69
402.406	76.69
402.63	89.69
402.854	75.69
403.078	82.69
403.302	87.69
403.526	84.69
403.75	91.69
403.974	79.69
404.198	103.69
404.422	87.69
404.645	104.69
404.869	105.69
405.093	93.69
405.317	97.69
405.541	79.69
405.765	80.69
405.988	96.69
406.212	79.69
406.436	97.69
406.66	97.69
406.883	88.69
407.107	87.69
407.331	89.69
407.555	106.69
407.778	130.69
408.002	138.69
408.226	110.69
408.449	81.69
408.673	73.69
408.896	88.69
409.12	98.69
409.344	104.69
409.567	94.69
409.791	100.69
410.014	102.69
410.238	82.69
410.461	86.69
410.685	83.69
410.908	100.69
411.132	96.69
411.355	99.69
411.578	81.69
411.802	90.69
412.025	96.69
412.249	94.69
412.472	82.69
412.695	81.69
412.919	85.69
413.142	97.69
413.365	90.69
413.589	82.69
413.812	79.69
414.035	86.69
414.258	88.69
414.482	93.69
414.705	79.69
414.928	95.69
415.151	79.69
415.374	86.69
415.597	101.69
415.821	95.69
416.044	82.69
416.267	86.69
416.49	88.69
416.713	79.69
416.936	86.69
417.159	68.69
417.382	85.69
417.605	75.69
417.828	89.69
418.051	98.69
418.274	82.69
418.497	98.69
418.72	91.69
418.943	99.69
419.166	87.69
419.389	73.69
419.611	88.69
419.834	94.69
420.057	94.69
420.28	88.69
420.503	81.69
420.726	99.69
420.948	95.69
421.171	98.69
421.394	111.69
421.617	152.69
421.839	138.69
422.062	136.69
422.285	185.69
422.507	311.69
422.73	540.69
422.953	471.69
423.175	211.69
423.398	115.69
423.621	109.69
423.843	106.69
424.066	106.69
424.288	95.69
424.511	106.69
424.733	97.69
424.956	89.69
425.178	87.69
425.401	105.69
425.623	84.69
425.846	83.69
426.068	102.69
426.291	80.69
426.513	90.69
426.735	77.69
426.958	86.69
427.18	93.69
427.402	80.69
427.625	104.69
427.847	99.69
428.069	94.69
428.292	153.69
428.514	164.69
428.736	127.69
428.958	152.69
429.181	143.69
429.403	116.69
429.625	95.69
429.847	145.69
430.069	186.69
430.292	206.69
430.514	209.69
430.736	154.69
430.958	159.69
431.18	117.69
431.402	97.69
431.624	105.69
431.846	134.69
432.068	145.69
432.29	104.69
432.512	95.69
432.734	80.69
432.956	86.69
433.178	93.69
433.4	105.69
433.622	87.69
433.844	71.69
434.066	80.69
434.287	87.69
434.509	70.69
434.731	83.69
434.953	73.69
435.175	80.69
435.397	95.69
435.618	92.69
435.84	90.69
436.062	99.69
436.284	78.69
436.505	91.69
436.727	83.69
436.949	80.69
437.17	89.69
437.392	92.69
437.614	101.69
437.835	87.69
438.057	83.69
438.278	86.69
438.5	90.69
438.721	90.69
438.943	75.69
439.165	84.69
439.386	65.69
439.608	86.69
439.829	69.69
440.05	84.69
440.272	94.69
440.493	85.69
440.715	95.69
440.936	86.69
441.158	97.69
441.379	81.69
441.6	82.69
441.822	95.69
442.043	92.69
442.264	93.69
442.486	129.69
442.707	193.69
442.928	117.69
443.149	99.69
443.371	164.69
443.592	303.69
443.813	253.69
444.034	131.69
444.255	96.69
444.476	93.69
444.698	95.69
444.919	96.69
445.14	178.69
445.361	239.69
445.582	342.69
445.803	284.69
446.024	143.69
446.245	93.69
446.466	81.69
446.687	95.69
446.908	79.69
447.129	76.69
447.35	93.69
447.571	79.69
447.792	93.69
448.013	94.69
448.234	87.69
448.455	97.69
448.675	95.69
448.896	93.69
449.117	66.69
449.338	102.69
449.559	85.69
449.779	90.69
450	84.69
450.221	81.69
450.442	85.69
450.662	93.69
450.883	90.69
451.104	88.69
451.324	87.69
451.545	92.69
451.766	89.69
451.986	95.69
452.207	81.69
452.428	100.69
452.648	99.69
452.869	102.69
453.089	98.69
453.31	74.69
453.53	97.69
453.751	88.69
453.971	87.69
454.192	82.69
454.412	94.69
454.633	75.69
454.853	81.69
455.073	80.69
455.294	93.69
455.514	90.69
455.734	82.69
455.955	87.69
456.175	84.69
456.395	91.69
456.616	98.69
456.836	88.69
457.056	85.69
457.276	78.69
457.497	92.69
457.717	90.69
457.937	113.69
458.157	132.69
458.377	130.69
458.598	123.69
458.818	127.69
459.038	105.69
459.258	89.69
459.478	83.69
459.698	81.69
459.918	92.69
460.138	91.69
460.358	84.69
460.578	106.69
460.798	121.69
461.018	143.69
461.238	95.69
461.458	93.69
461.678	78.69
461.898	93.69
462.118	69.69
462.338	86.69
462.558	66.69
462.777	77.69
462.997	75.69
463.217	87.69
463.437	95.69
463.657	91.69
463.876	76.69
464.096	93.69
464.316	88.69
464.536	82.69
464.755	83.69
464.975	84.69
465.195	85.69
465.414	78.69
465.634	76.69
465.854	88.69
466.073	98.69
466.293	92.69
466.512	88.69
466.732	89.69
466.951	92.69
467.171	102.69
467.391	85.69
467.61	87.69
467.829	84.69
468.049	81.69
468.268	91.69
468.488	90.69
468.707	98.69
468.927	94.69
469.146	92.69
469.365	94.69
469.585	86.69
469.804	79.69
470.023	81.69
470.243	83.69
470.462	74.69
470.681	98.69
470.901	80.69
471.12	70.69
471.339	95.69
471.558	97.69
471.777	87.69
471.997	76.69
472.216	97.69
472.435	85.69
472.654	81.69
472.873	91.69
473.092	80.69
473.311	85.69
473.53	94.69
473.749	85.69
473.968	99.69
474.187	93.69
474.406	99.69
474.625	93.69
474.844	83.69
475.063	86.69
475.282	99.69
475.501	97.69
475.72	86.69
475.939	72.69
476.158	74.69
476.377	82.69
476.596	94.69
476.814	96.69
477.033	78.69
477.252	93.69
477.471	67.69
477.69	90.69
477.908	90.69
478.127	96.69
478.346	98.69
478.564	79.69
478.783	85.69
479.002	76.69
479.22	96.69
479.439	79.69
479.658	86.69
479.876	86.69
480.095	89.69
480.313	97.69
480.532	86.69
480.751	84.69
480.969	75.69
481.188	88.69
481.406	77.69
481.624	85.69
481.843	96.69
482.061	81.69
482.28	98.69
482.498	93.69
482.717	79.69
482.935	88.69
483.153	87.69
483.372	85.69
483.59	83.69
483.808	76.69
484.027	98.69
484.245	95.69
484.463	96.69
484.681	101.69
484.9	85.69
485.118	83.69
485.336	86.69
485.554	88.69
485.772	85.69
485.99	74.69
486.209	96.69
486.427	86.69
486.645	91.69
486.863	114.69
487.081	102.69
487.299	93.69
487.517	103.69
487.735	132.69
487.953	178.69
488.171	151.69
488.389	107.69
488.607	106.69
488.825	87.69
489.043	91.69
489.261	97.69
489.479	89.69
489.696	96.69
489.914	86.69
490.132	81.69
490.35	109.69
490.568	82.69
490.786	86.69
491.003	93.69
491.221	95.69
491.439	85.69
491.657	87.69
491.874	94.69
492.092	102.69
492.31	90.69
492.527	99.69
492.745	81.69
492.963	109.69
493.18	91.69
493.398	80.69
493.615	94.69
493.833	84.69
494.05	85.69
494.268	87.69
494.485	94.69
494.703	82.69
494.92	88.69
495.138	78.69
495.355	85.69
495.573	93.69
495.79	93.69
496.008	96.69
496.225	85.69
496.442	102.69
496.66	84.69
496.877	83.69
497.094	87.69
497.312	92.69
497.529	92.69
497.746	65.69
497.963	88.69
498.181	92.69
498.398	82.69
498.615	97.69
498.832	89.69
499.049	91.69
499.267	103.69
499.484	83.69
499.701	72.69
499.918	95.69
500.135	85.69
500.352	86.69
500.569	83.69
500.786	87.69
501.003	92.69
501.22	94.69
501.437	75.69
501.654	90.69
501.871	82.69
502.088	90.69
502.305	84.69
502.522	86.69
502.739	89.69
502.956	95.69
503.172	89.69
503.389	98.69
503.606	83.69
503.823	83.69
504.04	96.69
504.256	137.69
504.473	142.69
504.69	85.69
504.907	91.69
505.123	98.69
505.34	90.69
505.557	85.69
505.773	90.69
505.99	85.69
506.207	95.69
506.423	88.69
506.64	102.69
506.856	94.69
507.073	85.69
507.289	85.69
507.506	88.69
507.722	76.69
507.939	89.69
508.155	92.69
508.372	95.69
508.588	81.69
508.805	97.69
509.021	98.69
509.238	78.69
509.454	81.69
509.67	88.69
509.887	76.69
510.103	91.69
510.319	79.69
510.536	96.69
510.752	75.69
510.968	97.69
511.184	92.69
511.401	79.69
511.617	97.69
511.833	101.69
512.049	73.69
512.265	88.69
512.481	83.69
512.698	91.69
512.914	88.69
513.13	87.69
513.346	90.69
513.562	92.69
513.778	88.69
513.994	85.69
514.21	79.69
514.426	88.69
514.642	89.69
514.858	87.69
515.074	95.69
515.29	92.69
515.506	85.69
515.721	109.69
515.937	99.69
516.153	76.69
516.369	90.69
516.585	91.69
516.801	78.69
517.016	87.69
517.232	92.69
517.448	102.69
517.664	94.69
