Data from 18505_1_HRD10591_00023.txt Node
Date: Mon Jan 19 13:58:42 EST 2026
User: Yrep
Spectrometer: HR+D1059
Trigger mode: 1
Integration Time (sec): 1.000000E-1
Scans to average: 1
Electric dark correction enabled: true
Nonlinearity correction enabled: false
Boxcar width: 0
XAxis mode: Wavelengths
Number of Pixels in Spectrum: 2048
>>>>>Begin Spectral Data<<<<<
223.165	-11.44
223.4	-11.44
223.635	-11.44
223.869	-24.44
224.104	-28.44
224.338	-17.44
224.573	-13.44
224.808	-6.44
225.042	-7.44
225.277	-1.44
225.511	2.56
225.746	6.56
225.98	5.56
226.215	-3.44
226.449	19.56
226.683	21.56
226.918	26.56
227.152	31.56
227.387	31.56
227.621	30.56
227.856	36.56
228.09	36.56
228.324	45.56
228.559	61.56
228.793	64.56
229.027	44.56
229.262	67.56
229.496	72.56
229.73	69.56
229.964	60.56
230.199	73.56
230.433	79.56
230.667	76.56
230.901	72.56
231.136	70.56
231.37	67.56
231.604	72.56
231.838	67.56
232.072	86.56
232.306	85.56
232.541	77.56
232.775	75.56
233.009	73.56
233.243	81.56
233.477	67.56
233.711	89.56
233.945	81.56
234.179	70.56
234.413	70.56
234.647	78.56
234.881	70.56
235.115	82.56
235.349	80.56
235.583	87.56
235.817	81.56
236.051	89.56
236.285	80.56
236.519	77.56
236.753	76.56
236.987	80.56
237.221	73.56
237.455	65.56
237.689	76.56
237.922	68.56
238.156	74.56
238.39	73.56
238.624	64.56
238.858	72.56
239.091	62.56
239.325	69.56
239.559	80.56
239.793	75.56
240.027	82.56
240.26	72.56
240.494	74.56
240.728	72.56
240.961	50.56
241.195	69.56
241.429	93.56
241.662	76.56
241.896	77.56
242.13	77.56
242.363	67.56
242.597	67.56
242.83	80.56
243.064	77.56
243.298	70.56
243.531	81.56
243.765	75.56
243.998	54.56
244.232	81.56
244.465	89.56
244.699	72.56
244.932	68.56
245.166	84.56
245.399	76.56
245.633	76.56
245.866	65.56
246.099	77.56
246.333	68.56
246.566	81.56
246.8	73.56
247.033	79.56
247.266	69.56
247.5	76.56
247.733	76.56
247.966	79.56
248.2	76.56
248.433	80.56
248.666	68.56
248.899	73.56
249.133	86.56
249.366	69.56
249.599	77.56
249.832	85.56
250.066	80.56
250.299	79.56
250.532	82.56
250.765	64.56
250.998	68.56
251.231	90.56
251.465	70.56
251.698	71.56
251.931	81.56
252.164	89.56
252.397	84.56
252.63	93.56
252.863	69.56
253.096	78.56
253.329	78.56
253.562	82.56
253.795	68.56
254.028	80.56
254.261	75.56
254.494	64.56
254.727	81.56
254.96	80.56
255.193	77.56
255.426	78.56
255.659	74.56
255.892	61.56
256.124	61.56
256.357	84.56
256.59	82.56
256.823	84.56
257.056	87.56
257.289	72.56
257.521	81.56
257.754	79.56
257.987	73.56
258.22	82.56
258.452	74.56
258.685	77.56
258.918	59.56
259.151	71.56
259.383	82.56
259.616	78.56
259.849	82.56
260.081	88.56
260.314	69.56
260.547	69.56
260.779	70.56
261.012	85.56
261.244	79.56
261.477	86.56
261.71	83.56
261.942	77.56
262.175	64.56
262.407	79.56
262.64	65.56
262.872	82.56
263.105	79.56
263.337	79.56
263.57	89.56
263.802	85.56
264.035	78.56
264.267	79.56
264.499	89.56
264.732	78.56
264.964	85.56
265.197	83.56
265.429	85.56
265.661	71.56
265.894	83.56
266.126	79.56
266.358	72.56
266.591	85.56
266.823	67.56
267.055	81.56
267.287	81.56
267.52	76.56
267.752	86.56
267.984	86.56
268.216	72.56
268.448	71.56
268.681	94.56
268.913	76.56
269.145	61.56
269.377	80.56
269.609	91.56
269.841	80.56
270.073	86.56
270.306	77.56
270.538	81.56
270.77	76.56
271.002	80.56
271.234	76.56
271.466	107.56
271.698	80.56
271.93	87.56
272.162	97.56
272.394	87.56
272.626	68.56
272.858	80.56
273.09	70.56
273.322	89.56
273.553	85.56
273.785	77.56
274.017	69.56
274.249	65.56
274.481	85.56
274.713	84.56
274.945	77.56
275.176	65.56
275.408	83.56
275.64	72.56
275.872	78.56
276.104	71.56
276.335	77.56
276.567	82.56
276.799	71.56
277.031	73.56
277.262	69.56
277.494	70.56
277.726	81.56
277.957	78.56
278.189	78.56
278.421	80.56
278.652	80.56
278.884	81.56
279.115	94.56
279.347	86.56
279.579	75.56
279.81	90.56
280.042	90.56
280.273	89.56
280.505	89.56
280.736	89.56
280.968	76.56
281.199	89.56
281.431	68.56
281.662	72.56
281.894	77.56
282.125	84.56
282.356	96.56
282.588	87.56
282.819	79.56
283.051	81.56
283.282	64.56
283.513	67.56
283.745	84.56
283.976	71.56
284.207	90.56
284.439	81.56
284.67	95.56
284.901	85.56
285.132	85.56
285.364	93.56
285.595	76.56
285.826	85.56
286.057	85.56
286.288	86.56
286.52	78.56
286.751	68.56
286.982	77.56
287.213	74.56
287.444	83.56
287.675	84.56
287.906	82.56
288.138	88.56
288.369	98.56
288.6	101.56
288.831	79.56
289.062	76.56
289.293	78.56
289.524	62.56
289.755	96.56
289.986	68.56
290.217	85.56
290.448	93.56
290.679	82.56
290.91	85.56
291.141	71.56
291.371	76.56
291.602	79.56
291.833	75.56
292.064	96.56
292.295	79.56
292.526	87.56
292.757	95.56
292.987	76.56
293.218	77.56
293.449	73.56
293.68	81.56
293.91	83.56
294.141	82.56
294.372	84.56
294.603	65.56
294.833	74.56
295.064	84.56
295.295	76.56
295.525	75.56
295.756	78.56
295.987	85.56
296.217	68.56
296.448	80.56
296.679	77.56
296.909	77.56
297.14	64.56
297.37	86.56
297.601	82.56
297.831	82.56
298.062	69.56
298.292	83.56
298.523	72.56
298.753	88.56
298.984	83.56
299.214	89.56
299.445	78.56
299.675	83.56
299.905	100.56
300.136	73.56
300.366	87.56
300.597	94.56
300.827	93.56
301.057	87.56
301.288	82.56
301.518	77.56
301.748	77.56
301.979	95.56
302.209	92.56
302.439	84.56
302.669	92.56
302.9	63.56
303.13	83.56
303.36	84.56
303.59	88.56
303.82	89.56
304.051	89.56
304.281	83.56
304.511	84.56
304.741	69.56
304.971	84.56
305.201	91.56
305.431	90.56
305.661	87.56
305.891	81.56
306.121	98.56
306.352	88.56
306.582	81.56
306.812	86.56
307.042	89.56
307.272	92.56
307.502	92.56
307.731	87.56
307.961	95.56
308.191	86.56
308.421	91.56
308.651	98.56
308.881	70.56
309.111	91.56
309.341	95.56
309.571	96.56
309.8	89.56
310.03	88.56
310.26	71.56
310.49	91.56
310.72	83.56
310.949	71.56
311.179	78.56
311.409	87.56
311.639	79.56
311.868	74.56
312.098	86.56
312.328	74.56
312.557	89.56
312.787	82.56
313.017	85.56
313.246	72.56
313.476	72.56
313.706	84.56
313.935	88.56
314.165	79.56
314.394	69.56
314.624	92.56
314.853	74.56
315.083	74.56
315.312	80.56
315.542	96.56
315.771	93.56
316.001	90.56
316.23	93.56
316.46	93.56
316.689	71.56
316.919	82.56
317.148	83.56
317.377	97.56
317.607	87.56
317.836	105.56
318.065	123.56
318.295	101.56
318.524	86.56
318.753	86.56
318.983	87.56
319.212	88.56
319.441	76.56
319.67	70.56
319.9	82.56
320.129	102.56
320.358	81.56
320.587	79.56
320.816	77.56
321.046	82.56
321.275	76.56
321.504	79.56
321.733	87.56
321.962	79.56
322.191	86.56
322.42	74.56
322.649	93.56
322.878	93.56
323.108	89.56
323.337	77.56
323.566	75.56
323.795	92.56
324.024	94.56
324.253	85.56
324.482	88.56
324.71	84.56
324.939	99.56
325.168	73.56
325.397	92.56
325.626	86.56
325.855	75.56
326.084	84.56
326.313	89.56
326.542	77.56
326.77	72.56
326.999	81.56
327.228	82.56
327.457	70.56
327.686	77.56
327.914	86.56
328.143	76.56
328.372	87.56
328.6	89.56
328.829	77.56
329.058	81.56
329.287	69.56
329.515	66.56
329.744	75.56
329.972	73.56
330.201	75.56
330.43	86.56
330.658	79.56
330.887	85.56
331.115	84.56
331.344	78.56
331.572	84.56
331.801	61.56
332.03	80.56
332.258	79.56
332.486	81.56
332.715	95.56
332.943	81.56
333.172	65.56
333.4	82.56
333.629	73.56
333.857	70.56
334.085	87.56
334.314	81.56
334.542	101.56
334.771	93.56
334.999	87.56
335.227	93.56
335.455	89.56
335.684	83.56
335.912	96.56
336.14	96.56
336.369	95.56
336.597	90.56
336.825	95.56
337.053	86.56
337.281	87.56
337.51	77.56
337.738	71.56
337.966	74.56
338.194	81.56
338.422	71.56
338.65	89.56
338.878	71.56
339.106	86.56
339.334	82.56
339.562	80.56
339.79	63.56
340.018	85.56
340.246	81.56
340.474	90.56
340.702	85.56
340.93	89.56
341.158	66.56
341.386	95.56
341.614	79.56
341.842	70.56
342.07	79.56
342.298	71.56
342.526	75.56
342.754	71.56
342.981	79.56
343.209	90.56
343.437	95.56
343.665	89.56
343.893	81.56
344.12	83.56
344.348	93.56
344.576	76.56
344.804	82.56
345.031	75.56
345.259	81.56
345.487	86.56
345.714	72.56
345.942	77.56
346.17	83.56
346.397	71.56
346.625	92.56
346.853	79.56
347.08	86.56
347.308	81.56
347.535	83.56
347.763	72.56
347.99	74.56
348.218	89.56
348.445	80.56
348.673	92.56
348.9	93.56
349.128	95.56
349.355	77.56
349.583	71.56
349.81	85.56
350.037	83.56
350.265	90.56
350.492	83.56
350.72	85.56
350.947	94.56
351.174	75.56
351.402	76.56
351.629	98.56
351.856	76.56
352.083	77.56
352.311	85.56
352.538	82.56
352.765	87.56
352.992	92.56
353.22	80.56
353.447	91.56
353.674	81.56
353.901	90.56
354.128	82.56
354.355	83.56
354.583	84.56
354.81	88.56
355.037	85.56
355.264	74.56
355.491	77.56
355.718	76.56
355.945	83.56
356.172	82.56
356.399	77.56
356.626	71.56
356.853	90.56
357.08	76.56
357.307	84.56
357.534	100.56
357.761	90.56
357.988	76.56
358.215	91.56
358.441	96.56
358.668	95.56
358.895	90.56
359.122	76.56
359.349	76.56
359.576	81.56
359.802	84.56
360.029	70.56
360.256	77.56
360.483	91.56
360.709	67.56
360.936	88.56
361.163	84.56
361.39	88.56
361.616	77.56
361.843	99.56
362.07	93.56
362.296	89.56
362.523	100.56
362.749	113.56
362.976	117.56
363.203	132.56
363.429	92.56
363.656	81.56
363.882	87.56
364.109	101.56
364.335	146.56
364.562	148.56
364.788	118.56
365.015	89.56
365.241	68.56
365.468	83.56
365.694	68.56
365.92	89.56
366.147	83.56
366.373	77.56
366.599	81.56
366.826	77.56
367.052	81.56
367.278	82.56
367.505	82.56
367.731	95.56
367.957	87.56
368.184	85.56
368.41	94.56
368.636	70.56
368.862	61.56
369.089	88.56
369.315	64.56
369.541	86.56
369.767	84.56
369.993	82.56
370.219	82.56
370.445	84.56
370.672	92.56
370.898	99.56
371.124	91.56
371.35	85.56
371.576	87.56
371.802	92.56
372.028	101.56
372.254	94.56
372.48	89.56
372.706	84.56
372.932	93.56
373.158	97.56
373.384	102.56
373.61	123.56
373.835	122.56
374.061	95.56
374.287	96.56
374.513	97.56
374.739	108.56
374.965	93.56
375.191	97.56
375.416	89.56
375.642	98.56
375.868	84.56
376.094	81.56
376.319	77.56
376.545	90.56
376.771	90.56
376.997	92.56
377.222	89.56
377.448	102.56
377.674	71.56
377.899	58.56
378.125	70.56
378.35	66.56
378.576	90.56
378.802	70.56
379.027	80.56
379.253	81.56
379.478	76.56
379.704	87.56
379.929	83.56
380.155	77.56
380.38	93.56
380.606	92.56
380.831	81.56
381.057	86.56
381.282	87.56
381.507	81.56
381.733	78.56
381.958	93.56
382.184	94.56
382.409	88.56
382.634	97.56
382.86	100.56
383.085	111.56
383.31	117.56
383.535	88.56
383.761	107.56
383.986	112.56
384.211	84.56
384.436	86.56
384.662	101.56
384.887	78.56
385.112	90.56
385.337	90.56
385.562	92.56
385.787	95.56
386.013	110.56
386.238	96.56
386.463	85.56
386.688	98.56
386.913	100.56
387.138	99.56
387.363	99.56
387.588	98.56
387.813	84.56
388.038	86.56
388.263	96.56
388.488	91.56
388.713	99.56
388.938	86.56
389.163	76.56
389.387	99.56
389.612	102.56
389.837	97.56
390.062	101.56
390.287	76.56
390.512	78.56
390.736	97.56
390.961	99.56
391.186	86.56
391.411	92.56
391.636	94.56
391.86	102.56
392.085	100.56
392.31	118.56
392.534	116.56
392.759	154.56
392.984	243.56
393.208	505.56
393.433	729.56
393.658	543.56
393.882	202.56
394.107	124.56
394.331	128.56
394.556	135.56
394.78	115.56
395.005	102.56
395.229	69.56
395.454	113.56
395.678	120.56
395.903	139.56
396.127	175.56
396.352	215.56
396.576	282.56
396.801	489.56
397.025	577.56
397.249	271.56
397.474	141.56
397.698	91.56
397.922	94.56
398.147	86.56
398.371	85.56
398.595	87.56
398.82	83.56
399.044	82.56
399.268	70.56
399.492	75.56
399.717	85.56
399.941	73.56
400.165	90.56
400.389	86.56
400.613	85.56
400.837	87.56
401.062	82.56
401.286	78.56
401.51	82.56
401.734	74.56
401.958	83.56
402.182	79.56
402.406	80.56
402.63	73.56
402.854	78.56
403.078	81.56
403.302	85.56
403.526	78.56
403.75	89.56
403.974	73.56
404.198	89.56
404.422	98.56
404.645	106.56
404.869	82.56
405.093	87.56
405.317	87.56
405.541	85.56
405.765	73.56
405.988	84.56
406.212	81.56
406.436	83.56
406.66	86.56
406.883	79.56
407.107	106.56
407.331	88.56
407.555	99.56
407.778	132.56
408.002	129.56
408.226	93.56
408.449	88.56
408.673	87.56
408.896	75.56
409.12	82.56
409.344	91.56
409.567	118.56
409.791	111.56
410.014	113.56
410.238	81.56
410.461	82.56
410.685	92.56
410.908	105.56
411.132	96.56
411.355	78.56
411.578	85.56
411.802	69.56
412.025	85.56
412.249	85.56
412.472	86.56
412.695	100.56
412.919	92.56
413.142	83.56
413.365	97.56
413.589	76.56
413.812	97.56
414.035	91.56
414.258	80.56
414.482	87.56
414.705	89.56
414.928	75.56
415.151	84.56
415.374	70.56
415.597	91.56
415.821	67.56
416.044	93.56
416.267	93.56
416.49	68.56
416.713	77.56
416.936	84.56
417.159	81.56
417.382	88.56
417.605	92.56
417.828	94.56
418.051	92.56
418.274	89.56
418.497	76.56
418.72	59.56
418.943	86.56
419.166	103.56
419.389	90.56
419.611	70.56
419.834	77.56
420.057	82.56
420.28	80.56
420.503	99.56
420.726	86.56
420.948	87.56
421.171	95.56
421.394	113.56
421.617	146.56
421.839	146.56
422.062	132.56
422.285	177.56
422.507	381.56
422.73	637.56
422.953	546.56
423.175	237.56
423.398	135.56
423.621	111.56
423.843	92.56
424.066	89.56
424.288	82.56
424.511	84.56
424.733	98.56
424.956	97.56
425.178	87.56
425.401	91.56
425.623	72.56
425.846	87.56
426.068	82.56
426.291	77.56
426.513	79.56
426.735	77.56
426.958	96.56
427.18	96.56
427.402	81.56
427.625	85.56
427.847	97.56
428.069	110.56
428.292	153.56
428.514	171.56
428.736	122.56
428.958	166.56
429.181	177.56
429.403	95.56
429.625	113.56
429.847	155.56
430.069	206.56
430.292	262.56
430.514	230.56
430.736	156.56
430.958	178.56
431.18	129.56
431.402	90.56
431.624	95.56
431.846	141.56
432.068	178.56
432.29	113.56
432.512	92.56
432.734	80.56
432.956	83.56
433.178	86.56
433.4	84.56
433.622	89.56
433.844	81.56
434.066	83.56
434.287	92.56
434.509	71.56
434.731	68.56
434.953	70.56
435.175	82.56
435.397	101.56
435.618	97.56
435.84	97.56
436.062	81.56
436.284	75.56
436.505	84.56
436.727	89.56
436.949	89.56
437.17	73.56
437.392	70.56
437.614	81.56
437.835	76.56
438.057	76.56
438.278	80.56
438.5	94.56
438.721	75.56
438.943	83.56
439.165	84.56
439.386	86.56
439.608	77.56
439.829	78.56
440.05	79.56
440.272	100.56
440.493	85.56
440.715	74.56
440.936	84.56
441.158	87.56
441.379	95.56
441.6	78.56
441.822	99.56
442.043	105.56
442.264	93.56
442.486	171.56
442.707	241.56
442.928	144.56
443.149	115.56
443.371	193.56
443.592	375.56
443.813	337.56
444.034	123.56
444.255	91.56
444.476	70.56
444.698	96.56
444.919	89.56
445.14	188.56
445.361	259.56
445.582	443.56
445.803	369.56
446.024	149.56
446.245	99.56
446.466	91.56
446.687	72.56
446.908	83.56
447.129	71.56
447.35	82.56
447.571	78.56
447.792	80.56
448.013	77.56
448.234	90.56
448.455	76.56
448.675	75.56
448.896	90.56
449.117	80.56
449.338	66.56
449.559	82.56
449.779	85.56
450	70.56
450.221	79.56
450.442	99.56
450.662	71.56
450.883	74.56
451.104	91.56
451.324	87.56
451.545	86.56
451.766	82.56
451.986	91.56
452.207	77.56
452.428	84.56
452.648	100.56
452.869	105.56
453.089	89.56
453.31	85.56
453.53	78.56
453.751	77.56
453.971	64.56
454.192	65.56
454.412	77.56
454.633	82.56
454.853	83.56
455.073	91.56
455.294	91.56
455.514	79.56
455.734	87.56
455.955	88.56
456.175	85.56
456.395	89.56
456.616	66.56
456.836	89.56
457.056	72.56
457.276	79.56
457.497	84.56
457.717	87.56
457.937	126.56
458.157	142.56
458.377	141.56
458.598	147.56
458.818	147.56
459.038	89.56
459.258	77.56
459.478	81.56
459.698	89.56
459.918	94.56
460.138	97.56
460.358	84.56
460.578	94.56
460.798	136.56
461.018	129.56
461.238	84.56
461.458	94.56
461.678	85.56
461.898	85.56
462.118	81.56
462.338	82.56
462.558	67.56
462.777	73.56
462.997	93.56
463.217	92.56
463.437	78.56
463.657	86.56
463.876	77.56
464.096	81.56
464.316	79.56
464.536	72.56
464.755	65.56
464.975	82.56
465.195	83.56
465.414	79.56
465.634	80.56
465.854	87.56
466.073	87.56
466.293	75.56
466.512	87.56
466.732	79.56
466.951	76.56
467.171	82.56
467.391	76.56
467.61	83.56
467.829	92.56
468.049	71.56
468.268	77.56
468.488	66.56
468.707	75.56
468.927	84.56
469.146	77.56
469.365	80.56
469.585	74.56
469.804	85.56
470.023	74.56
470.243	72.56
470.462	91.56
470.681	86.56
470.901	76.56
471.12	78.56
471.339	79.56
471.558	85.56
471.777	98.56
471.997	83.56
472.216	76.56
472.435	71.56
472.654	69.56
472.873	87.56
473.092	85.56
473.311	83.56
473.53	90.56
473.749	80.56
473.968	101.56
474.187	94.56
474.406	91.56
474.625	84.56
474.844	67.56
475.063	95.56
475.282	94.56
475.501	80.56
475.72	83.56
475.939	83.56
476.158	78.56
476.377	66.56
476.596	97.56
476.814	71.56
477.033	92.56
477.252	71.56
477.471	80.56
477.69	82.56
477.908	83.56
478.127	92.56
478.346	82.56
478.564	93.56
478.783	72.56
479.002	83.56
479.22	85.56
479.439	83.56
479.658	88.56
479.876	99.56
480.095	96.56
480.313	89.56
480.532	91.56
480.751	82.56
480.969	85.56
481.188	85.56
481.406	78.56
481.624	73.56
481.843	71.56
482.061	80.56
482.28	98.56
482.498	93.56
482.717	82.56
482.935	94.56
483.153	81.56
483.372	86.56
483.59	85.56
483.808	81.56
484.027	85.56
484.245	83.56
484.463	94.56
484.681	93.56
484.9	86.56
485.118	90.56
485.336	82.56
485.554	83.56
485.772	68.56
485.99	90.56
486.209	88.56
486.427	72.56
486.645	87.56
486.863	85.56
487.081	90.56
487.299	91.56
487.517	107.56
487.735	131.56
487.953	229.56
488.171	189.56
488.389	96.56
488.607	95.56
488.825	81.56
489.043	77.56
489.261	94.56
489.479	85.56
489.696	89.56
489.914	88.56
490.132	91.56
490.35	88.56
490.568	69.56
490.786	93.56
491.003	82.56
491.221	75.56
491.439	82.56
491.657	86.56
491.874	91.56
492.092	89.56
492.31	85.56
492.527	101.56
492.745	77.56
492.963	85.56
493.18	96.56
493.398	77.56
493.615	93.56
493.833	92.56
494.05	87.56
494.268	72.56
494.485	69.56
494.703	76.56
494.92	82.56
495.138	81.56
495.355	75.56
495.573	94.56
495.79	82.56
496.008	86.56
496.225	84.56
496.442	94.56
496.66	85.56
496.877	81.56
497.094	88.56
497.312	79.56
497.529	81.56
497.746	97.56
497.963	84.56
498.181	68.56
498.398	93.56
498.615	71.56
498.832	86.56
499.049	85.56
499.267	93.56
499.484	85.56
499.701	77.56
499.918	91.56
500.135	93.56
500.352	82.56
500.569	85.56
500.786	81.56
501.003	85.56
501.22	84.56
501.437	77.56
501.654	87.56
501.871	72.56
502.088	82.56
502.305	84.56
502.522	82.56
502.739	89.56
502.956	82.56
503.172	82.56
503.389	82.56
503.606	81.56
503.823	87.56
504.04	111.56
504.256	164.56
504.473	157.56
504.69	96.56
504.907	115.56
505.123	73.56
505.34	77.56
505.557	67.56
505.773	81.56
505.99	75.56
506.207	67.56
506.423	81.56
506.64	80.56
506.856	80.56
507.073	69.56
507.289	93.56
507.506	85.56
507.722	90.56
507.939	83.56
508.155	93.56
508.372	87.56
508.588	78.56
508.805	71.56
509.021	75.56
509.238	84.56
509.454	79.56
509.67	68.56
509.887	97.56
510.103	81.56
510.319	86.56
510.536	86.56
510.752	94.56
510.968	94.56
511.184	77.56
511.401	73.56
511.617	91.56
511.833	85.56
512.049	85.56
512.265	74.56
512.481	85.56
512.698	101.56
512.914	79.56
513.13	83.56
513.346	91.56
513.562	80.56
513.778	62.56
513.994	64.56
514.21	94.56
514.426	80.56
514.642	102.56
514.858	83.56
515.074	81.56
515.29	75.56
515.506	91.56
515.721	79.56
515.937	91.56
516.153	80.56
516.369	75.56
516.585	79.56
516.801	93.56
517.016	95.56
517.232	97.56
517.448	102.56
517.664	83.56
517.879	77.56
518.095	95.56
518.311	101.56
