Data from 18505_1_HRD10591_00035.txt Node
Date: Mon Jan 19 13:58:48 EST 2026
User: Yrep
Spectrometer: HR+D1059
Trigger mode: 1
Integration Time (sec): 1.000000E-1
Scans to average: 1
Electric dark correction enabled: true
Nonlinearity correction enabled: false
Boxcar width: 0
XAxis mode: Wavelengths
Number of Pixels in Spectrum: 2048
>>>>>Begin Spectral Data<<<<<
223.165	-13.12
223.4	-13.12
223.635	-13.12
223.869	-9.12
224.104	-15.12
224.338	-22.12
224.573	-18.12
224.808	-23.12
225.042	-0.12
225.277	-8.12
225.511	-7.12
225.746	-0.12
225.98	5.88
226.215	11.88
226.449	21.88
226.683	18.88
226.918	24.88
227.152	32.88
227.387	43.88
227.621	34.88
227.856	38.88
228.09	32.88
228.324	56.88
228.559	62.88
228.793	67.88
229.027	55.88
229.262	70.88
229.496	70.88
229.73	73.88
229.964	80.88
230.199	84.88
230.433	57.88
230.667	62.88
230.901	86.88
231.136	85.88
231.37	71.88
231.604	78.88
231.838	75.88
232.072	82.88
232.306	88.88
232.541	82.88
232.775	85.88
233.009	75.88
233.243	77.88
233.477	68.88
233.711	72.88
233.945	82.88
234.179	66.88
234.413	88.88
234.647	72.88
234.881	88.88
235.115	92.88
235.349	77.88
235.583	77.88
235.817	81.88
236.051	69.88
236.285	87.88
236.519	86.88
236.753	76.88
236.987	74.88
237.221	72.88
237.455	78.88
237.689	84.88
237.922	84.88
238.156	79.88
238.39	68.88
238.624	77.88
238.858	68.88
239.091	82.88
239.325	78.88
239.559	77.88
239.793	85.88
240.027	64.88
240.26	65.88
240.494	81.88
240.728	65.88
240.961	88.88
241.195	73.88
241.429	80.88
241.662	67.88
241.896	70.88
242.13	65.88
242.363	83.88
242.597	73.88
242.83	83.88
243.064	72.88
243.298	76.88
243.531	60.88
243.765	71.88
243.998	76.88
244.232	77.88
244.465	75.88
244.699	74.88
244.932	86.88
245.166	74.88
245.399	63.88
245.633	76.88
245.866	69.88
246.099	91.88
246.333	82.88
246.566	72.88
246.8	82.88
247.033	73.88
247.266	85.88
247.5	72.88
247.733	84.88
247.966	77.88
248.2	68.88
248.433	76.88
248.666	63.88
248.899	80.88
249.133	80.88
249.366	88.88
249.599	90.88
249.832	75.88
250.066	87.88
250.299	78.88
250.532	69.88
250.765	84.88
250.998	86.88
251.231	80.88
251.465	84.88
251.698	91.88
251.931	80.88
252.164	78.88
252.397	74.88
252.63	82.88
252.863	77.88
253.096	88.88
253.329	95.88
253.562	68.88
253.795	90.88
254.028	72.88
254.261	66.88
254.494	72.88
254.727	92.88
254.96	77.88
255.193	82.88
255.426	73.88
255.659	80.88
255.892	72.88
256.124	81.88
256.357	80.88
256.59	89.88
256.823	84.88
257.056	75.88
257.289	81.88
257.521	93.88
257.754	78.88
257.987	74.88
258.22	79.88
258.452	75.88
258.685	81.88
258.918	77.88
259.151	84.88
259.383	80.88
259.616	79.88
259.849	71.88
260.081	74.88
260.314	69.88
260.547	74.88
260.779	73.88
261.012	79.88
261.244	89.88
261.477	84.88
261.71	72.88
261.942	86.88
262.175	73.88
262.407	73.88
262.64	82.88
262.872	91.88
263.105	98.88
263.337	94.88
263.57	92.88
263.802	79.88
264.035	78.88
264.267	67.88
264.499	80.88
264.732	85.88
264.964	86.88
265.197	87.88
265.429	89.88
265.661	88.88
265.894	85.88
266.126	86.88
266.358	83.88
266.591	87.88
266.823	80.88
267.055	78.88
267.287	84.88
267.52	81.88
267.752	78.88
267.984	74.88
268.216	88.88
268.448	77.88
268.681	82.88
268.913	83.88
269.145	78.88
269.377	82.88
269.609	77.88
269.841	70.88
270.073	77.88
270.306	86.88
270.538	81.88
270.77	81.88
271.002	77.88
271.234	81.88
271.466	79.88
271.698	88.88
271.93	87.88
272.162	78.88
272.394	73.88
272.626	73.88
272.858	90.88
273.09	77.88
273.322	84.88
273.553	89.88
273.785	101.88
274.017	84.88
274.249	90.88
274.481	79.88
274.713	80.88
274.945	85.88
275.176	102.88
275.408	85.88
275.64	82.88
275.872	92.88
276.104	76.88
276.335	79.88
276.567	73.88
276.799	83.88
277.031	76.88
277.262	84.88
277.494	85.88
277.726	94.88
277.957	93.88
278.189	95.88
278.421	80.88
278.652	90.88
278.884	89.88
279.115	92.88
279.347	87.88
279.579	92.88
279.81	95.88
280.042	100.88
280.273	102.88
280.505	96.88
280.736	78.88
280.968	74.88
281.199	78.88
281.431	79.88
281.662	80.88
281.894	98.88
282.125	78.88
282.356	81.88
282.588	83.88
282.819	98.88
283.051	98.88
283.282	83.88
283.513	82.88
283.745	83.88
283.976	73.88
284.207	90.88
284.439	88.88
284.67	87.88
284.901	94.88
285.132	80.88
285.364	86.88
285.595	111.88
285.826	88.88
286.057	89.88
286.288	86.88
286.52	84.88
286.751	93.88
286.982	97.88
287.213	74.88
287.444	82.88
287.675	84.88
287.906	90.88
288.138	83.88
288.369	80.88
288.6	78.88
288.831	87.88
289.062	78.88
289.293	92.88
289.524	91.88
289.755	90.88
289.986	95.88
290.217	84.88
290.448	76.88
290.679	86.88
290.91	90.88
291.141	81.88
291.371	86.88
291.602	78.88
291.833	78.88
292.064	80.88
292.295	80.88
292.526	79.88
292.757	75.88
292.987	87.88
293.218	84.88
293.449	75.88
293.68	70.88
293.91	82.88
294.141	92.88
294.372	80.88
294.603	94.88
294.833	84.88
295.064	79.88
295.295	89.88
295.525	80.88
295.756	83.88
295.987	81.88
296.217	83.88
296.448	95.88
296.679	79.88
296.909	101.88
297.14	81.88
297.37	96.88
297.601	80.88
297.831	88.88
298.062	66.88
298.292	69.88
298.523	81.88
298.753	79.88
298.984	88.88
299.214	67.88
299.445	101.88
299.675	72.88
299.905	93.88
300.136	86.88
300.366	89.88
300.597	111.88
300.827	101.88
301.057	84.88
301.288	90.88
301.518	99.88
301.748	87.88
301.979	85.88
302.209	97.88
302.439	85.88
302.669	73.88
302.9	70.88
303.13	98.88
303.36	78.88
303.59	90.88
303.82	82.88
304.051	77.88
304.281	86.88
304.511	97.88
304.741	97.88
304.971	68.88
305.201	100.88
305.431	94.88
305.661	80.88
305.891	85.88
306.121	86.88
306.352	96.88
306.582	95.88
306.812	80.88
307.042	84.88
307.272	81.88
307.502	84.88
307.731	80.88
307.961	78.88
308.191	108.88
308.421	97.88
308.651	89.88
308.881	83.88
309.111	102.88
309.341	101.88
309.571	103.88
309.8	88.88
310.03	91.88
310.26	78.88
310.49	73.88
310.72	93.88
310.949	91.88
311.179	80.88
311.409	95.88
311.639	82.88
311.868	89.88
312.098	85.88
312.328	80.88
312.557	93.88
312.787	87.88
313.017	96.88
313.246	98.88
313.476	88.88
313.706	88.88
313.935	92.88
314.165	96.88
314.394	92.88
314.624	91.88
314.853	79.88
315.083	81.88
315.312	94.88
315.542	110.88
315.771	112.88
316.001	112.88
316.23	102.88
316.46	80.88
316.689	87.88
316.919	88.88
317.148	85.88
317.377	92.88
317.607	101.88
317.836	128.88
318.065	149.88
318.295	130.88
318.524	102.88
318.753	83.88
318.983	84.88
319.212	89.88
319.441	90.88
319.67	96.88
319.9	90.88
320.129	79.88
320.358	75.88
320.587	82.88
320.816	92.88
321.046	96.88
321.275	76.88
321.504	89.88
321.733	85.88
321.962	89.88
322.191	87.88
322.42	85.88
322.649	82.88
322.878	88.88
323.108	97.88
323.337	94.88
323.566	74.88
323.795	93.88
324.024	82.88
324.253	94.88
324.482	93.88
324.71	89.88
324.939	76.88
325.168	88.88
325.397	85.88
325.626	85.88
325.855	85.88
326.084	110.88
326.313	77.88
326.542	85.88
326.77	90.88
326.999	82.88
327.228	85.88
327.457	94.88
327.686	79.88
327.914	86.88
328.143	100.88
328.372	90.88
328.6	71.88
328.829	94.88
329.058	97.88
329.287	81.88
329.515	88.88
329.744	84.88
329.972	81.88
330.201	89.88
330.43	88.88
330.658	93.88
330.887	90.88
331.115	72.88
331.344	84.88
331.572	93.88
331.801	96.88
332.03	85.88
332.258	96.88
332.486	82.88
332.715	84.88
332.943	79.88
333.172	84.88
333.4	83.88
333.629	66.88
333.857	81.88
334.085	102.88
334.314	82.88
334.542	84.88
334.771	100.88
334.999	94.88
335.227	104.88
335.455	82.88
335.684	78.88
335.912	92.88
336.14	104.88
336.369	104.88
336.597	82.88
336.825	82.88
337.053	87.88
337.281	87.88
337.51	86.88
337.738	100.88
337.966	80.88
338.194	82.88
338.422	86.88
338.65	98.88
338.878	78.88
339.106	85.88
339.334	92.88
339.562	75.88
339.79	88.88
340.018	90.88
340.246	94.88
340.474	86.88
340.702	81.88
340.93	99.88
341.158	90.88
341.386	86.88
341.614	99.88
341.842	89.88
342.07	88.88
342.298	74.88
342.526	89.88
342.754	90.88
342.981	80.88
343.209	78.88
343.437	92.88
343.665	82.88
343.893	89.88
344.12	96.88
344.348	82.88
344.576	77.88
344.804	81.88
345.031	87.88
345.259	85.88
345.487	84.88
345.714	101.88
345.942	83.88
346.17	86.88
346.397	88.88
346.625	82.88
346.853	83.88
347.08	98.88
347.308	85.88
347.535	90.88
347.763	78.88
347.99	91.88
348.218	82.88
348.445	85.88
348.673	82.88
348.9	84.88
349.128	95.88
349.355	81.88
349.583	73.88
349.81	94.88
350.037	96.88
350.265	87.88
350.492	81.88
350.72	80.88
350.947	80.88
351.174	91.88
351.402	92.88
351.629	94.88
351.856	89.88
352.083	96.88
352.311	92.88
352.538	85.88
352.765	85.88
352.992	88.88
353.22	81.88
353.447	72.88
353.674	88.88
353.901	83.88
354.128	98.88
354.355	93.88
354.583	93.88
354.81	89.88
355.037	95.88
355.264	95.88
355.491	79.88
355.718	88.88
355.945	85.88
356.172	85.88
356.399	97.88
356.626	103.88
356.853	97.88
357.08	80.88
357.307	109.88
357.534	105.88
357.761	100.88
357.988	114.88
358.215	113.88
358.441	96.88
358.668	80.88
358.895	86.88
359.122	104.88
359.349	78.88
359.576	90.88
359.802	84.88
360.029	78.88
360.256	89.88
360.483	95.88
360.709	100.88
360.936	88.88
361.163	88.88
361.39	100.88
361.616	85.88
361.843	89.88
362.07	83.88
362.296	110.88
362.523	112.88
362.749	108.88
362.976	116.88
363.203	136.88
363.429	109.88
363.656	108.88
363.882	92.88
364.109	115.88
364.335	148.88
364.562	150.88
364.788	122.88
365.015	123.88
365.241	101.88
365.468	92.88
365.694	92.88
365.92	90.88
366.147	84.88
366.373	85.88
366.599	81.88
366.826	85.88
367.052	69.88
367.278	96.88
367.505	96.88
367.731	100.88
367.957	81.88
368.184	94.88
368.41	97.88
368.636	91.88
368.862	94.88
369.089	86.88
369.315	87.88
369.541	83.88
369.767	100.88
369.993	82.88
370.219	94.88
370.445	98.88
370.672	109.88
370.898	104.88
371.124	96.88
371.35	94.88
371.576	85.88
371.802	109.88
372.028	99.88
372.254	100.88
372.48	94.88
372.706	79.88
372.932	88.88
373.158	106.88
373.384	124.88
373.61	144.88
373.835	156.88
374.061	114.88
374.287	102.88
374.513	100.88
374.739	100.88
374.965	119.88
375.191	102.88
375.416	86.88
375.642	96.88
375.868	86.88
376.094	98.88
376.319	92.88
376.545	89.88
376.771	108.88
376.997	97.88
377.222	83.88
377.448	84.88
377.674	100.88
377.899	92.88
378.125	82.88
378.35	82.88
378.576	88.88
378.802	83.88
379.027	85.88
379.253	95.88
379.478	94.88
379.704	94.88
379.929	89.88
380.155	80.88
380.38	89.88
380.606	89.88
380.831	100.88
381.057	92.88
381.282	88.88
381.507	94.88
381.733	103.88
381.958	106.88
382.184	91.88
382.409	107.88
382.634	86.88
382.86	102.88
383.085	113.88
383.31	86.88
383.535	106.88
383.761	119.88
383.986	125.88
384.211	111.88
384.436	111.88
384.662	90.88
384.887	80.88
385.112	96.88
385.337	95.88
385.562	92.88
385.787	96.88
386.013	113.88
386.238	117.88
386.463	99.88
386.688	109.88
386.913	103.88
387.138	88.88
387.363	108.88
387.588	101.88
387.813	100.88
388.038	108.88
388.263	102.88
388.488	93.88
388.713	89.88
388.938	92.88
389.163	98.88
389.387	90.88
389.612	83.88
389.837	94.88
390.062	97.88
390.287	106.88
390.512	97.88
390.736	81.88
390.961	92.88
391.186	102.88
391.411	95.88
391.636	106.88
391.86	103.88
392.085	125.88
392.31	120.88
392.534	136.88
392.759	175.88
392.984	324.88
393.208	720.88
393.433	1142.88
393.658	811.88
393.882	267.88
394.107	159.88
394.331	148.88
394.556	159.88
394.78	115.88
395.005	116.88
395.229	100.88
395.454	118.88
395.678	124.88
395.903	159.88
396.127	206.88
396.352	276.88
396.576	370.88
396.801	710.88
397.025	862.88
397.249	361.88
397.474	165.88
397.698	120.88
397.922	119.88
398.147	108.88
398.371	98.88
398.595	97.88
398.82	85.88
399.044	93.88
399.268	79.88
399.492	94.88
399.717	101.88
399.941	94.88
400.165	92.88
400.389	109.88
400.613	102.88
400.837	87.88
401.062	86.88
401.286	79.88
401.51	74.88
401.734	89.88
401.958	89.88
402.182	95.88
402.406	89.88
402.63	100.88
402.854	94.88
403.078	90.88
403.302	94.88
403.526	82.88
403.75	77.88
403.974	80.88
404.198	96.88
404.422	108.88
404.645	130.88
404.869	103.88
405.093	93.88
405.317	92.88
405.541	83.88
405.765	99.88
405.988	93.88
406.212	94.88
406.436	89.88
406.66	93.88
406.883	86.88
407.107	92.88
407.331	124.88
407.555	123.88
407.778	175.88
408.002	188.88
408.226	97.88
408.449	88.88
408.673	85.88
408.896	85.88
409.12	88.88
409.344	95.88
409.567	106.88
409.791	118.88
410.014	101.88
410.238	101.88
410.461	95.88
410.685	84.88
410.908	103.88
411.132	78.88
411.355	83.88
411.578	75.88
411.802	97.88
412.025	80.88
412.249	93.88
412.472	93.88
412.695	90.88
412.919	81.88
413.142	82.88
413.365	83.88
413.589	71.88
413.812	94.88
414.035	92.88
414.258	89.88
414.482	95.88
414.705	93.88
414.928	89.88
415.151	104.88
415.374	71.88
415.597	70.88
415.821	94.88
416.044	85.88
416.267	95.88
416.49	73.88
416.713	74.88
416.936	78.88
417.159	81.88
417.382	73.88
417.605	76.88
417.828	84.88
418.051	90.88
418.274	90.88
418.497	87.88
418.72	84.88
418.943	73.88
419.166	98.88
419.389	77.88
419.611	100.88
419.834	96.88
420.057	96.88
420.28	88.88
420.503	81.88
420.726	83.88
420.948	85.88
421.171	110.88
421.394	112.88
421.617	180.88
421.839	166.88
422.062	139.88
422.285	215.88
422.507	424.88
422.73	737.88
422.953	661.88
423.175	262.88
423.398	141.88
423.621	122.88
423.843	91.88
424.066	97.88
424.288	102.88
424.511	103.88
424.733	100.88
424.956	94.88
425.178	98.88
425.401	83.88
425.623	87.88
425.846	82.88
426.068	82.88
426.291	104.88
426.513	93.88
426.735	88.88
426.958	94.88
427.18	90.88
427.402	92.88
427.625	92.88
427.847	114.88
428.069	117.88
428.292	174.88
428.514	201.88
428.736	134.88
428.958	197.88
429.181	189.88
429.403	112.88
429.625	114.88
429.847	175.88
430.069	249.88
430.292	291.88
430.514	269.88
430.736	199.88
430.958	215.88
431.18	128.88
431.402	96.88
431.624	113.88
431.846	156.88
432.068	201.88
432.29	114.88
432.512	80.88
432.734	82.88
432.956	102.88
433.178	72.88
433.4	80.88
433.622	78.88
433.844	86.88
434.066	76.88
434.287	81.88
434.509	80.88
434.731	81.88
434.953	86.88
435.175	84.88
435.397	93.88
435.618	105.88
435.84	106.88
436.062	79.88
436.284	90.88
436.505	96.88
436.727	84.88
436.949	96.88
437.17	82.88
437.392	85.88
437.614	90.88
437.835	80.88
438.057	84.88
438.278	84.88
438.5	78.88
438.721	93.88
438.943	97.88
439.165	93.88
439.386	76.88
439.608	88.88
439.829	73.88
440.05	88.88
440.272	89.88
440.493	102.88
440.715	90.88
440.936	87.88
441.158	98.88
441.379	82.88
441.6	84.88
441.822	101.88
442.043	101.88
442.264	104.88
442.486	170.88
442.707	242.88
442.928	157.88
443.149	137.88
443.371	227.88
443.592	420.88
443.813	346.88
444.034	144.88
444.255	100.88
444.476	104.88
444.698	103.88
444.919	104.88
445.14	221.88
445.361	295.88
445.582	513.88
445.803	422.88
446.024	164.88
446.245	115.88
446.466	108.88
446.687	87.88
446.908	92.88
447.129	99.88
447.35	83.88
447.571	88.88
447.792	78.88
448.013	92.88
448.234	65.88
448.455	92.88
448.675	87.88
448.896	97.88
449.117	93.88
449.338	90.88
449.559	88.88
449.779	74.88
450	85.88
450.221	79.88
450.442	76.88
450.662	90.88
450.883	105.88
451.104	98.88
451.324	86.88
451.545	78.88
451.766	73.88
451.986	86.88
452.207	77.88
452.428	100.88
452.648	99.88
452.869	104.88
453.089	92.88
453.31	88.88
453.53	98.88
453.751	97.88
453.971	79.88
454.192	112.88
454.412	84.88
454.633	64.88
454.853	91.88
455.073	83.88
455.294	84.88
455.514	104.88
455.734	89.88
455.955	90.88
456.175	74.88
456.395	78.88
456.616	82.88
456.836	79.88
457.056	94.88
457.276	90.88
457.497	93.88
457.717	93.88
457.937	139.88
458.157	155.88
458.377	157.88
458.598	144.88
458.818	170.88
459.038	103.88
459.258	87.88
459.478	109.88
459.698	76.88
459.918	87.88
460.138	81.88
460.358	77.88
460.578	106.88
460.798	134.88
461.018	136.88
461.238	101.88
461.458	90.88
461.678	74.88
461.898	69.88
462.118	85.88
462.338	95.88
462.558	100.88
462.777	81.88
462.997	100.88
463.217	96.88
463.437	88.88
463.657	85.88
463.876	92.88
464.096	87.88
464.316	88.88
464.536	103.88
464.755	85.88
464.975	87.88
465.195	88.88
465.414	83.88
465.634	90.88
465.854	71.88
466.073	105.88
466.293	80.88
466.512	77.88
466.732	89.88
466.951	96.88
467.171	86.88
467.391	80.88
467.61	80.88
467.829	67.88
468.049	70.88
468.268	82.88
468.488	75.88
468.707	95.88
468.927	84.88
469.146	78.88
469.365	93.88
469.585	85.88
469.804	83.88
470.023	80.88
470.243	97.88
470.462	97.88
470.681	85.88
470.901	80.88
471.12	92.88
471.339	96.88
471.558	87.88
471.777	92.88
471.997	68.88
472.216	94.88
472.435	77.88
472.654	86.88
472.873	85.88
473.092	104.88
473.311	88.88
473.53	107.88
473.749	80.88
473.968	89.88
474.187	89.88
474.406	86.88
474.625	97.88
474.844	96.88
475.063	79.88
475.282	84.88
475.501	90.88
475.72	82.88
475.939	86.88
476.158	82.88
476.377	80.88
476.596	83.88
476.814	71.88
477.033	97.88
477.252	68.88
477.471	87.88
477.69	96.88
477.908	81.88
478.127	80.88
478.346	76.88
478.564	92.88
478.783	74.88
479.002	80.88
479.22	89.88
479.439	88.88
479.658	80.88
479.876	75.88
480.095	97.88
480.313	91.88
480.532	88.88
480.751	84.88
480.969	84.88
481.188	84.88
481.406	84.88
481.624	85.88
481.843	86.88
482.061	99.88
482.28	90.88
482.498	86.88
482.717	96.88
482.935	102.88
483.153	92.88
483.372	78.88
483.59	94.88
483.808	92.88
484.027	97.88
484.245	94.88
484.463	98.88
484.681	80.88
484.9	101.88
485.118	84.88
485.336	83.88
485.554	88.88
485.772	94.88
485.99	96.88
486.209	96.88
486.427	88.88
486.645	84.88
486.863	101.88
487.081	88.88
487.299	103.88
487.517	104.88
487.735	147.88
487.953	233.88
488.171	187.88
488.389	102.88
488.607	89.88
488.825	82.88
489.043	92.88
489.261	96.88
489.479	81.88
489.696	89.88
489.914	96.88
490.132	85.88
490.35	92.88
490.568	84.88
490.786	80.88
491.003	82.88
491.221	87.88
491.439	86.88
491.657	108.88
491.874	91.88
492.092	89.88
492.31	85.88
492.527	91.88
492.745	84.88
492.963	86.88
493.18	94.88
493.398	89.88
493.615	86.88
493.833	92.88
494.05	76.88
494.268	79.88
494.485	84.88
494.703	88.88
494.92	88.88
495.138	95.88
495.355	90.88
495.573	74.88
495.79	95.88
496.008	88.88
496.225	90.88
496.442	93.88
496.66	92.88
496.877	91.88
497.094	98.88
497.312	91.88
497.529	68.88
497.746	78.88
497.963	89.88
498.181	93.88
498.398	88.88
498.615	100.88
498.832	69.88
499.049	100.88
499.267	97.88
499.484	93.88
499.701	85.88
499.918	82.88
500.135	86.88
500.352	89.88
500.569	90.88
500.786	88.88
501.003	104.88
501.22	89.88
501.437	70.88
501.654	81.88
501.871	92.88
502.088	82.88
502.305	93.88
502.522	78.88
502.739	93.88
502.956	100.88
503.172	94.88
503.389	76.88
503.606	101.88
503.823	96.88
504.04	102.88
504.256	184.88
504.473	166.88
504.69	92.88
504.907	93.88
505.123	84.88
505.34	80.88
505.557	97.88
505.773	81.88
505.99	87.88
506.207	72.88
506.423	82.88
506.64	86.88
506.856	101.88
507.073	97.88
507.289	97.88
507.506	80.88
507.722	94.88
507.939	91.88
508.155	99.88
508.372	84.88
508.588	70.88
508.805	79.88
509.021	88.88
509.238	89.88
509.454	89.88
509.67	88.88
509.887	82.88
510.103	91.88
510.319	94.88
510.536	94.88
510.752	95.88
510.968	97.88
511.184	89.88
511.401	84.88
511.617	86.88
511.833	88.88
512.049	92.88
512.265	86.88
512.481	99.88
512.698	81.88
512.914	91.88
513.13	81.88
513.346	84.88
513.562	89.88
513.778	98.88
513.994	90.88
514.21	84.88
514.426	89.88
514.642	90.88
514.858	94.88
515.074	88.88
515.29	84.88
515.506	88.88
515.721	83.88
515.937	100.88
516.153	88.88
516.369	93.88
516.585	81.88
516.801	98.88
