Data from 18505_1_HRD10591_00027.txt Node
Date: Mon Jan 19 13:58:44 EST 2026
User: Yrep
Spectrometer: HR+D1059
Trigger mode: 1
Integration Time (sec): 1.000000E-1
Scans to average: 1
Electric dark correction enabled: true
Nonlinearity correction enabled: false
Boxcar width: 0
XAxis mode: Wavelengths
Number of Pixels in Spectrum: 2048
>>>>>Begin Spectral Data<<<<<
223.165	-8.19
223.4	-8.19
223.635	-8.19
223.869	-21.19
224.104	-18.19
224.338	-13.19
224.573	-18.19
224.808	-7.19
225.042	-2.19
225.277	-15.19
225.511	-3.19
225.746	-9.19
225.98	4.81
226.215	8.81
226.449	6.81
226.683	17.81
226.918	36.81
227.152	40.81
227.387	45.81
227.621	35.81
227.856	48.81
228.09	47.81
228.324	31.81
228.559	59.81
228.793	43.81
229.027	60.81
229.262	60.81
229.496	71.81
229.73	55.81
229.964	65.81
230.199	66.81
230.433	73.81
230.667	66.81
230.901	59.81
231.136	64.81
231.37	73.81
231.604	72.81
231.838	73.81
232.072	76.81
232.306	76.81
232.541	70.81
232.775	70.81
233.009	83.81
233.243	76.81
233.477	75.81
233.711	74.81
233.945	78.81
234.179	95.81
234.413	78.81
234.647	68.81
234.881	81.81
235.115	69.81
235.349	56.81
235.583	59.81
235.817	85.81
236.051	73.81
236.285	67.81
236.519	72.81
236.753	61.81
236.987	65.81
237.221	69.81
237.455	70.81
237.689	72.81
237.922	71.81
238.156	81.81
238.39	60.81
238.624	63.81
238.858	63.81
239.091	76.81
239.325	74.81
239.559	66.81
239.793	83.81
240.027	76.81
240.26	63.81
240.494	64.81
240.728	73.81
240.961	52.81
241.195	72.81
241.429	76.81
241.662	66.81
241.896	67.81
242.13	57.81
242.363	81.81
242.597	62.81
242.83	62.81
243.064	63.81
243.298	63.81
243.531	72.81
243.765	62.81
243.998	74.81
244.232	78.81
244.465	70.81
244.699	74.81
244.932	75.81
245.166	69.81
245.399	61.81
245.633	80.81
245.866	74.81
246.099	65.81
246.333	72.81
246.566	58.81
246.8	60.81
247.033	80.81
247.266	65.81
247.5	68.81
247.733	73.81
247.966	66.81
248.2	66.81
248.433	72.81
248.666	58.81
248.899	70.81
249.133	72.81
249.366	74.81
249.599	57.81
249.832	71.81
250.066	75.81
250.299	63.81
250.532	72.81
250.765	71.81
250.998	75.81
251.231	71.81
251.465	75.81
251.698	67.81
251.931	75.81
252.164	86.81
252.397	73.81
252.63	74.81
252.863	81.81
253.096	79.81
253.329	86.81
253.562	74.81
253.795	60.81
254.028	71.81
254.261	77.81
254.494	93.81
254.727	79.81
254.96	81.81
255.193	64.81
255.426	76.81
255.659	68.81
255.892	80.81
256.124	80.81
256.357	74.81
256.59	76.81
256.823	89.81
257.056	68.81
257.289	73.81
257.521	80.81
257.754	72.81
257.987	65.81
258.22	64.81
258.452	80.81
258.685	78.81
258.918	76.81
259.151	63.81
259.383	75.81
259.616	82.81
259.849	89.81
260.081	75.81
260.314	78.81
260.547	71.81
260.779	81.81
261.012	76.81
261.244	60.81
261.477	84.81
261.71	77.81
261.942	83.81
262.175	68.81
262.407	79.81
262.64	67.81
262.872	81.81
263.105	80.81
263.337	82.81
263.57	71.81
263.802	81.81
264.035	94.81
264.267	63.81
264.499	91.81
264.732	91.81
264.964	89.81
265.197	79.81
265.429	74.81
265.661	79.81
265.894	91.81
266.126	70.81
266.358	70.81
266.591	69.81
266.823	82.81
267.055	75.81
267.287	97.81
267.52	76.81
267.752	79.81
267.984	64.81
268.216	63.81
268.448	86.81
268.681	83.81
268.913	73.81
269.145	80.81
269.377	67.81
269.609	60.81
269.841	74.81
270.073	76.81
270.306	77.81
270.538	67.81
270.77	68.81
271.002	78.81
271.234	81.81
271.466	76.81
271.698	69.81
271.93	80.81
272.162	90.81
272.394	93.81
272.626	86.81
272.858	82.81
273.09	80.81
273.322	72.81
273.553	69.81
273.785	73.81
274.017	75.81
274.249	80.81
274.481	70.81
274.713	68.81
274.945	89.81
275.176	71.81
275.408	83.81
275.64	80.81
275.872	79.81
276.104	83.81
276.335	84.81
276.567	73.81
276.799	85.81
277.031	87.81
277.262	83.81
277.494	82.81
277.726	82.81
277.957	65.81
278.189	77.81
278.421	67.81
278.652	66.81
278.884	66.81
279.115	88.81
279.347	77.81
279.579	72.81
279.81	71.81
280.042	78.81
280.273	82.81
280.505	87.81
280.736	91.81
280.968	65.81
281.199	68.81
281.431	90.81
281.662	91.81
281.894	74.81
282.125	72.81
282.356	69.81
282.588	80.81
282.819	67.81
283.051	79.81
283.282	73.81
283.513	79.81
283.745	80.81
283.976	72.81
284.207	64.81
284.439	80.81
284.67	91.81
284.901	79.81
285.132	83.81
285.364	86.81
285.595	69.81
285.826	88.81
286.057	78.81
286.288	75.81
286.52	73.81
286.751	75.81
286.982	67.81
287.213	81.81
287.444	82.81
287.675	78.81
287.906	81.81
288.138	84.81
288.369	74.81
288.6	70.81
288.831	73.81
289.062	89.81
289.293	81.81
289.524	80.81
289.755	68.81
289.986	75.81
290.217	92.81
290.448	83.81
290.679	72.81
290.91	82.81
291.141	70.81
291.371	73.81
291.602	76.81
291.833	89.81
292.064	90.81
292.295	86.81
292.526	62.81
292.757	66.81
292.987	82.81
293.218	72.81
293.449	78.81
293.68	74.81
293.91	78.81
294.141	68.81
294.372	81.81
294.603	76.81
294.833	87.81
295.064	74.81
295.295	77.81
295.525	83.81
295.756	79.81
295.987	71.81
296.217	78.81
296.448	64.81
296.679	82.81
296.909	70.81
297.14	87.81
297.37	74.81
297.601	92.81
297.831	82.81
298.062	78.81
298.292	86.81
298.523	76.81
298.753	62.81
298.984	64.81
299.214	82.81
299.445	84.81
299.675	92.81
299.905	61.81
300.136	78.81
300.366	74.81
300.597	91.81
300.827	87.81
301.057	87.81
301.288	76.81
301.518	84.81
301.748	64.81
301.979	91.81
302.209	79.81
302.439	83.81
302.669	78.81
302.9	66.81
303.13	98.81
303.36	77.81
303.59	75.81
303.82	89.81
304.051	91.81
304.281	91.81
304.511	81.81
304.741	75.81
304.971	85.81
305.201	80.81
305.431	89.81
305.661	74.81
305.891	83.81
306.121	78.81
306.352	96.81
306.582	83.81
306.812	90.81
307.042	69.81
307.272	71.81
307.502	75.81
307.731	75.81
307.961	78.81
308.191	87.81
308.421	97.81
308.651	72.81
308.881	74.81
309.111	80.81
309.341	83.81
309.571	75.81
309.8	91.81
310.03	71.81
310.26	80.81
310.49	76.81
310.72	85.81
310.949	81.81
311.179	79.81
311.409	82.81
311.639	84.81
311.868	65.81
312.098	83.81
312.328	87.81
312.557	80.81
312.787	83.81
313.017	83.81
313.246	74.81
313.476	68.81
313.706	74.81
313.935	82.81
314.165	89.81
314.394	80.81
314.624	68.81
314.853	83.81
315.083	86.81
315.312	71.81
315.542	83.81
315.771	86.81
316.001	87.81
316.23	89.81
316.46	70.81
316.689	68.81
316.919	67.81
317.148	67.81
317.377	82.81
317.607	82.81
317.836	77.81
318.065	62.81
318.295	91.81
318.524	75.81
318.753	66.81
318.983	76.81
319.212	70.81
319.441	69.81
319.67	80.81
319.9	70.81
320.129	77.81
320.358	83.81
320.587	81.81
320.816	85.81
321.046	79.81
321.275	82.81
321.504	86.81
321.733	75.81
321.962	74.81
322.191	63.81
322.42	89.81
322.649	82.81
322.878	75.81
323.108	89.81
323.337	75.81
323.566	86.81
323.795	79.81
324.024	82.81
324.253	68.81
324.482	62.81
324.71	72.81
324.939	78.81
325.168	94.81
325.397	75.81
325.626	78.81
325.855	86.81
326.084	75.81
326.313	88.81
326.542	84.81
326.77	77.81
326.999	79.81
327.228	81.81
327.457	77.81
327.686	74.81
327.914	77.81
328.143	73.81
328.372	76.81
328.6	99.81
328.829	81.81
329.058	68.81
329.287	90.81
329.515	72.81
329.744	63.81
329.972	82.81
330.201	72.81
330.43	80.81
330.658	79.81
330.887	82.81
331.115	65.81
331.344	78.81
331.572	79.81
331.801	59.81
332.03	90.81
332.258	85.81
332.486	75.81
332.715	87.81
332.943	72.81
333.172	81.81
333.4	77.81
333.629	75.81
333.857	86.81
334.085	71.81
334.314	79.81
334.542	82.81
334.771	75.81
334.999	82.81
335.227	66.81
335.455	92.81
335.684	89.81
335.912	88.81
336.14	96.81
336.369	91.81
336.597	82.81
336.825	82.81
337.053	80.81
337.281	90.81
337.51	76.81
337.738	78.81
337.966	75.81
338.194	67.81
338.422	68.81
338.65	80.81
338.878	72.81
339.106	62.81
339.334	90.81
339.562	78.81
339.79	80.81
340.018	71.81
340.246	74.81
340.474	76.81
340.702	86.81
340.93	84.81
341.158	86.81
341.386	86.81
341.614	68.81
341.842	72.81
342.07	85.81
342.298	75.81
342.526	82.81
342.754	61.81
342.981	66.81
343.209	70.81
343.437	88.81
343.665	58.81
343.893	76.81
344.12	82.81
344.348	79.81
344.576	82.81
344.804	97.81
345.031	90.81
345.259	79.81
345.487	78.81
345.714	90.81
345.942	74.81
346.17	86.81
346.397	82.81
346.625	79.81
346.853	75.81
347.08	80.81
347.308	77.81
347.535	85.81
347.763	84.81
347.99	63.81
348.218	85.81
348.445	83.81
348.673	88.81
348.9	85.81
349.128	94.81
349.355	85.81
349.583	73.81
349.81	74.81
350.037	76.81
350.265	61.81
350.492	74.81
350.72	77.81
350.947	76.81
351.174	90.81
351.402	80.81
351.629	86.81
351.856	69.81
352.083	73.81
352.311	79.81
352.538	75.81
352.765	79.81
352.992	88.81
353.22	84.81
353.447	82.81
353.674	82.81
353.901	77.81
354.128	66.81
354.355	64.81
354.583	78.81
354.81	82.81
355.037	82.81
355.264	83.81
355.491	73.81
355.718	81.81
355.945	79.81
356.172	77.81
356.399	84.81
356.626	79.81
356.853	87.81
357.08	79.81
357.307	72.81
357.534	90.81
357.761	89.81
357.988	83.81
358.215	71.81
358.441	88.81
358.668	78.81
358.895	88.81
359.122	83.81
359.349	76.81
359.576	86.81
359.802	102.81
360.029	80.81
360.256	54.81
360.483	75.81
360.709	75.81
360.936	72.81
361.163	95.81
361.39	86.81
361.616	75.81
361.843	82.81
362.07	85.81
362.296	81.81
362.523	109.81
362.749	88.81
362.976	96.81
363.203	107.81
363.429	86.81
363.656	76.81
363.882	79.81
364.109	86.81
364.335	114.81
364.562	103.81
364.788	89.81
365.015	78.81
365.241	83.81
365.468	89.81
365.694	80.81
365.92	77.81
366.147	68.81
366.373	73.81
366.599	94.81
366.826	72.81
367.052	72.81
367.278	83.81
367.505	68.81
367.731	98.81
367.957	93.81
368.184	81.81
368.41	90.81
368.636	86.81
368.862	68.81
369.089	81.81
369.315	75.81
369.541	89.81
369.767	67.81
369.993	81.81
370.219	78.81
370.445	89.81
370.672	95.81
370.898	86.81
371.124	80.81
371.35	74.81
371.576	80.81
371.802	72.81
372.028	82.81
372.254	88.81
372.48	87.81
372.706	89.81
372.932	69.81
373.158	77.81
373.384	74.81
373.61	107.81
373.835	96.81
374.061	87.81
374.287	88.81
374.513	83.81
374.739	79.81
374.965	80.81
375.191	70.81
375.416	77.81
375.642	79.81
375.868	74.81
376.094	75.81
376.319	68.81
376.545	73.81
376.771	78.81
376.997	71.81
377.222	75.81
377.448	76.81
377.674	92.81
377.899	92.81
378.125	86.81
378.35	72.81
378.576	68.81
378.802	73.81
379.027	86.81
379.253	83.81
379.478	74.81
379.704	84.81
379.929	95.81
380.155	79.81
380.38	75.81
380.606	82.81
380.831	70.81
381.057	68.81
381.282	86.81
381.507	74.81
381.733	91.81
381.958	87.81
382.184	78.81
382.409	86.81
382.634	85.81
382.86	86.81
383.085	91.81
383.31	94.81
383.535	93.81
383.761	88.81
383.986	110.81
384.211	87.81
384.436	87.81
384.662	82.81
384.887	85.81
385.112	86.81
385.337	77.81
385.562	76.81
385.787	88.81
386.013	94.81
386.238	74.81
386.463	64.81
386.688	106.81
386.913	74.81
387.138	85.81
387.363	83.81
387.588	94.81
387.813	100.81
388.038	87.81
388.263	82.81
388.488	82.81
388.713	75.81
388.938	90.81
389.163	75.81
389.387	94.81
389.612	67.81
389.837	84.81
390.062	80.81
390.287	74.81
390.512	82.81
390.736	85.81
390.961	87.81
391.186	79.81
391.411	82.81
391.636	77.81
391.86	85.81
392.085	84.81
392.31	90.81
392.534	103.81
392.759	125.81
392.984	173.81
393.208	297.81
393.433	398.81
393.658	333.81
393.882	140.81
394.107	102.81
394.331	99.81
394.556	114.81
394.78	90.81
395.005	98.81
395.229	81.81
395.454	82.81
395.678	97.81
395.903	108.81
396.127	137.81
396.352	140.81
396.576	177.81
396.801	290.81
397.025	322.81
397.249	169.81
397.474	112.81
397.698	85.81
397.922	70.81
398.147	84.81
398.371	75.81
398.595	92.81
398.82	87.81
399.044	93.81
399.268	81.81
399.492	74.81
399.717	90.81
399.941	78.81
400.165	85.81
400.389	79.81
400.613	72.81
400.837	70.81
401.062	52.81
401.286	78.81
401.51	76.81
401.734	71.81
401.958	68.81
402.182	82.81
402.406	78.81
402.63	78.81
402.854	83.81
403.078	75.81
403.302	79.81
403.526	86.81
403.75	83.81
403.974	69.81
404.198	94.81
404.422	110.81
404.645	126.81
404.869	107.81
405.093	95.81
405.317	97.81
405.541	86.81
405.765	75.81
405.988	86.81
406.212	73.81
406.436	82.81
406.66	74.81
406.883	83.81
407.107	79.81
407.331	78.81
407.555	84.81
407.778	99.81
408.002	103.81
408.226	86.81
408.449	81.81
408.673	74.81
408.896	78.81
409.12	88.81
409.344	94.81
409.567	96.81
409.791	93.81
410.014	90.81
410.238	83.81
410.461	86.81
410.685	100.81
410.908	85.81
411.132	78.81
411.355	83.81
411.578	84.81
411.802	63.81
412.025	87.81
412.249	56.81
412.472	77.81
412.695	91.81
412.919	104.81
413.142	86.81
413.365	90.81
413.589	78.81
413.812	78.81
414.035	83.81
414.258	84.81
414.482	87.81
414.705	78.81
414.928	89.81
415.151	72.81
415.374	74.81
415.597	76.81
415.821	72.81
416.044	84.81
416.267	75.81
416.49	69.81
416.713	88.81
416.936	91.81
417.159	87.81
417.382	68.81
417.605	86.81
417.828	86.81
418.051	88.81
418.274	78.81
418.497	93.81
418.72	82.81
418.943	94.81
419.166	81.81
419.389	89.81
419.611	74.81
419.834	64.81
420.057	77.81
420.28	85.81
420.503	80.81
420.726	87.81
420.948	73.81
421.171	74.81
421.394	94.81
421.617	107.81
421.839	121.81
422.062	108.81
422.285	160.81
422.507	264.81
422.73	422.81
422.953	346.81
423.175	188.81
423.398	114.81
423.621	95.81
423.843	88.81
424.066	86.81
424.288	79.81
424.511	68.81
424.733	87.81
424.956	81.81
425.178	78.81
425.401	90.81
425.623	67.81
425.846	78.81
426.068	73.81
426.291	98.81
426.513	80.81
426.735	86.81
426.958	87.81
427.18	93.81
427.402	86.81
427.625	89.81
427.847	74.81
428.069	96.81
428.292	128.81
428.514	140.81
428.736	110.81
428.958	132.81
429.181	123.81
429.403	95.81
429.625	88.81
429.847	110.81
430.069	162.81
430.292	208.81
430.514	182.81
430.736	146.81
430.958	148.81
431.18	102.81
431.402	90.81
431.624	106.81
431.846	130.81
432.068	152.81
432.29	99.81
432.512	80.81
432.734	69.81
432.956	73.81
433.178	89.81
433.4	83.81
433.622	68.81
433.844	70.81
434.066	66.81
434.287	74.81
434.509	79.81
434.731	97.81
434.953	87.81
435.175	80.81
435.397	100.81
435.618	83.81
435.84	96.81
436.062	79.81
436.284	79.81
436.505	66.81
436.727	70.81
436.949	85.81
437.17	70.81
437.392	86.81
437.614	76.81
437.835	69.81
438.057	79.81
438.278	75.81
438.5	80.81
438.721	99.81
438.943	95.81
439.165	75.81
439.386	87.81
439.608	83.81
439.829	68.81
440.05	75.81
440.272	82.81
440.493	83.81
440.715	73.81
440.936	87.81
441.158	79.81
441.379	77.81
441.6	97.81
441.822	87.81
442.043	84.81
442.264	99.81
442.486	135.81
442.707	161.81
442.928	120.81
443.149	100.81
443.371	154.81
443.592	280.81
443.813	232.81
444.034	121.81
444.255	82.81
444.476	92.81
444.698	88.81
444.919	107.81
445.14	190.81
445.361	228.81
445.582	328.81
445.803	260.81
446.024	120.81
446.245	99.81
446.466	88.81
446.687	82.81
446.908	76.81
447.129	82.81
447.35	82.81
447.571	91.81
447.792	93.81
448.013	81.81
448.234	91.81
448.455	76.81
448.675	79.81
448.896	82.81
449.117	74.81
449.338	83.81
449.559	77.81
449.779	72.81
450	81.81
450.221	90.81
450.442	66.81
450.662	86.81
450.883	73.81
451.104	92.81
451.324	83.81
451.545	69.81
451.766	76.81
451.986	80.81
452.207	88.81
452.428	92.81
452.648	93.81
452.869	108.81
453.089	87.81
453.31	81.81
453.53	81.81
453.751	75.81
453.971	72.81
454.192	84.81
454.412	65.81
454.633	78.81
454.853	67.81
455.073	79.81
455.294	72.81
455.514	68.81
455.734	84.81
455.955	71.81
456.175	82.81
456.395	91.81
456.616	78.81
456.836	80.81
457.056	81.81
457.276	66.81
457.497	84.81
457.717	91.81
457.937	89.81
458.157	110.81
458.377	107.81
458.598	114.81
458.818	115.81
459.038	100.81
459.258	86.81
459.478	82.81
459.698	74.81
459.918	80.81
460.138	81.81
460.358	85.81
460.578	97.81
460.798	106.81
461.018	110.81
461.238	90.81
461.458	77.81
461.678	86.81
461.898	76.81
462.118	72.81
462.338	71.81
462.558	78.81
462.777	64.81
462.997	74.81
463.217	70.81
463.437	66.81
463.657	63.81
463.876	69.81
464.096	88.81
464.316	78.81
464.536	82.81
464.755	84.81
464.975	76.81
465.195	79.81
465.414	72.81
465.634	65.81
465.854	77.81
466.073	82.81
466.293	88.81
466.512	81.81
466.732	80.81
466.951	62.81
467.171	89.81
467.391	68.81
467.61	67.81
467.829	71.81
468.049	83.81
468.268	88.81
468.488	62.81
468.707	75.81
468.927	78.81
469.146	72.81
469.365	78.81
469.585	88.81
469.804	81.81
470.023	76.81
470.243	71.81
470.462	82.81
470.681	79.81
470.901	77.81
471.12	71.81
471.339	83.81
471.558	94.81
471.777	92.81
471.997	79.81
472.216	58.81
472.435	75.81
472.654	78.81
472.873	81.81
473.092	83.81
473.311	79.81
473.53	87.81
473.749	81.81
473.968	90.81
474.187	74.81
474.406	80.81
474.625	73.81
474.844	74.81
475.063	83.81
475.282	76.81
475.501	80.81
475.72	90.81
475.939	81.81
476.158	81.81
476.377	74.81
476.596	86.81
476.814	79.81
477.033	93.81
477.252	80.81
477.471	86.81
477.69	70.81
477.908	75.81
478.127	78.81
478.346	82.81
478.564	83.81
478.783	76.81
479.002	78.81
479.22	83.81
479.439	75.81
479.658	66.81
479.876	80.81
480.095	86.81
480.313	71.81
480.532	88.81
480.751	75.81
480.969	79.81
481.188	87.81
481.406	81.81
481.624	86.81
481.843	71.81
482.061	81.81
482.28	66.81
482.498	82.81
482.717	91.81
482.935	86.81
483.153	78.81
483.372	88.81
483.59	68.81
483.808	82.81
484.027	76.81
484.245	88.81
484.463	84.81
484.681	94.81
484.9	81.81
485.118	83.81
485.336	88.81
485.554	88.81
485.772	80.81
485.99	75.81
486.209	65.81
486.427	65.81
486.645	79.81
486.863	92.81
487.081	69.81
487.299	79.81
487.517	93.81
487.735	111.81
487.953	171.81
488.171	145.81
488.389	84.81
488.607	85.81
488.825	73.81
489.043	85.81
489.261	80.81
489.479	81.81
489.696	72.81
489.914	76.81
490.132	76.81
490.35	73.81
490.568	67.81
490.786	84.81
491.003	77.81
491.221	83.81
491.439	79.81
491.657	71.81
491.874	95.81
492.092	81.81
492.31	77.81
492.527	88.81
492.745	81.81
492.963	93.81
493.18	88.81
493.398	76.81
493.615	65.81
493.833	91.81
494.05	80.81
494.268	74.81
494.485	100.81
494.703	75.81
494.92	84.81
495.138	82.81
495.355	99.81
495.573	85.81
495.79	78.81
496.008	66.81
496.225	83.81
496.442	94.81
496.66	89.81
496.877	82.81
497.094	93.81
497.312	87.81
497.529	80.81
497.746	81.81
497.963	69.81
498.181	80.81
498.398	86.81
498.615	80.81
498.832	85.81
499.049	86.81
499.267	77.81
499.484	91.81
499.701	79.81
499.918	95.81
500.135	90.81
500.352	90.81
500.569	84.81
500.786	86.81
501.003	77.81
501.22	79.81
501.437	77.81
501.654	96.81
501.871	74.81
502.088	82.81
502.305	78.81
502.522	87.81
502.739	87.81
502.956	83.81
503.172	86.81
503.389	78.81
503.606	93.81
503.823	91.81
504.04	96.81
504.256	119.81
504.473	131.81
504.69	86.81
504.907	74.81
505.123	89.81
505.34	91.81
505.557	76.81
505.773	87.81
505.99	72.81
506.207	64.81
506.423	64.81
506.64	64.81
506.856	82.81
507.073	92.81
507.289	80.81
507.506	80.81
507.722	83.81
507.939	86.81
508.155	78.81
508.372	90.81
508.588	101.81
508.805	74.81
509.021	82.81
509.238	83.81
509.454	80.81
509.67	76.81
509.887	69.81
510.103	90.81
510.319	76.81
510.536	86.81
510.752	73.81
510.968	80.81
511.184	72.81
511.401	86.81
511.617	76.81
511.833	86.81
512.049	80.81
512.265	89.81
512.481	80.81
512.698	84.81
512.914	83.81
513.13	74.81
513.346	70.81
513.562	63.81
513.778	75.81
513.994	63.81
514.21	75.81
514.426	82.81
514.642	86.81
514.858	71.81
515.074	70.81
515.29	73.81
515.506	79.81
515.721	74.81
515.937	80.81
516.153	79.81
516.369	78.81
516.585	77.81
516.801	84.81
517.016	83.81
517.232	89.81
517.448	99.81
517.664	72.81
517.879	70.81
518.095	83.81
518.311	89.81
518.527	98.81
518.742	110.81
518.958	147.81
519.173	136.81
