Data from 18505_1_HRD10591_00012.txt Node
Date: Mon Jan 19 13:58:37 EST 2026
User: Yrep
Spectrometer: HR+D1059
Trigger mode: 1
Integration Time (sec): 1.000000E-1
Scans to average: 1
Electric dark correction enabled: true
Nonlinearity correction enabled: false
Boxcar width: 0
XAxis mode: Wavelengths
Number of Pixels in Spectrum: 2048
>>>>>Begin Spectral Data<<<<<
223.165	-10
223.4	-10
223.635	-10
223.869	-18
224.104	-28
224.338	-20
224.573	-23
224.808	-14
225.042	-4
225.277	-11
225.511	-8
225.746	4
225.98	14
226.215	10
226.449	28
226.683	28
226.918	19
227.152	33
227.387	36
227.621	35
227.856	37
228.09	42
228.324	53
228.559	61
228.793	61
229.027	65
229.262	62
229.496	65
229.73	72
229.964	60
230.199	65
230.433	85
230.667	80
230.901	74
231.136	70
231.37	87
231.604	69
231.838	81
232.072	72
232.306	66
232.541	88
232.775	83
233.009	80
233.243	74
233.477	80
233.711	86
233.945	87
234.179	86
234.413	67
234.647	96
234.881	73
235.115	82
235.349	73
235.583	73
235.817	84
236.051	80
236.285	84
236.519	70
236.753	82
236.987	79
237.221	65
237.455	82
237.689	83
237.922	74
238.156	83
238.39	88
238.624	77
238.858	66
239.091	75
239.325	78
239.559	69
239.793	73
240.027	78
240.26	74
240.494	65
240.728	68
240.961	77
241.195	74
241.429	80
241.662	77
241.896	72
242.13	68
242.363	78
242.597	85
242.83	70
243.064	74
243.298	68
243.531	66
243.765	68
243.998	69
244.232	85
244.465	80
244.699	80
244.932	75
245.166	72
245.399	68
245.633	85
245.866	96
246.099	83
246.333	75
246.566	81
246.8	75
247.033	92
247.266	92
247.5	78
247.733	88
247.966	77
248.2	81
248.433	79
248.666	74
248.899	84
249.133	69
249.366	75
249.599	73
249.832	72
250.066	68
250.299	75
250.532	84
250.765	88
250.998	84
251.231	80
251.465	81
251.698	77
251.931	78
252.164	82
252.397	78
252.63	91
252.863	64
253.096	79
253.329	89
253.562	83
253.795	78
254.028	80
254.261	85
254.494	72
254.727	72
254.96	67
255.193	71
255.426	71
255.659	74
255.892	73
256.124	66
256.357	89
256.59	82
256.823	82
257.056	87
257.289	88
257.521	71
257.754	72
257.987	79
258.22	69
258.452	71
258.685	67
258.918	79
259.151	76
259.383	74
259.616	78
259.849	77
260.081	66
260.314	71
260.547	81
260.779	91
261.012	96
261.244	75
261.477	78
261.71	86
261.942	88
262.175	71
262.407	84
262.64	89
262.872	88
263.105	76
263.337	73
263.57	83
263.802	84
264.035	88
264.267	88
264.499	72
264.732	80
264.964	98
265.197	83
265.429	86
265.661	73
265.894	79
266.126	90
266.358	86
266.591	75
266.823	92
267.055	80
267.287	95
267.52	91
267.752	74
267.984	72
268.216	79
268.448	90
268.681	85
268.913	105
269.145	87
269.377	85
269.609	64
269.841	86
270.073	59
270.306	78
270.538	74
270.77	84
271.002	86
271.234	69
271.466	72
271.698	74
271.93	104
272.162	87
272.394	74
272.626	80
272.858	83
273.09	82
273.322	80
273.553	90
273.785	82
274.017	73
274.249	76
274.481	72
274.713	68
274.945	87
275.176	66
275.408	75
275.64	86
275.872	83
276.104	75
276.335	85
276.567	60
276.799	88
277.031	98
277.262	97
277.494	92
277.726	76
277.957	98
278.189	92
278.421	84
278.652	91
278.884	95
279.115	93
279.347	98
279.579	88
279.81	98
280.042	80
280.273	96
280.505	77
280.736	65
280.968	89
281.199	80
281.431	70
281.662	92
281.894	96
282.125	87
282.356	84
282.588	74
282.819	86
283.051	92
283.282	83
283.513	89
283.745	89
283.976	79
284.207	70
284.439	96
284.67	78
284.901	73
285.132	87
285.364	86
285.595	78
285.826	79
286.057	74
286.288	79
286.52	88
286.751	95
286.982	91
287.213	104
287.444	73
287.675	79
287.906	99
288.138	77
288.369	88
288.6	78
288.831	85
289.062	93
289.293	84
289.524	86
289.755	74
289.986	80
290.217	80
290.448	82
290.679	80
290.91	84
291.141	78
291.371	77
291.602	70
291.833	81
292.064	79
292.295	88
292.526	81
292.757	68
292.987	83
293.218	88
293.449	80
293.68	88
293.91	79
294.141	89
294.372	86
294.603	79
294.833	78
295.064	82
295.295	84
295.525	82
295.756	80
295.987	87
296.217	89
296.448	95
296.679	93
296.909	84
297.14	81
297.37	76
297.601	82
297.831	86
298.062	81
298.292	96
298.523	90
298.753	78
298.984	89
299.214	83
299.445	71
299.675	85
299.905	80
300.136	82
300.366	89
300.597	82
300.827	83
301.057	96
301.288	73
301.518	82
301.748	89
301.979	102
302.209	89
302.439	81
302.669	99
302.9	88
303.13	84
303.36	95
303.59	73
303.82	72
304.051	87
304.281	78
304.511	90
304.741	78
304.971	90
305.201	94
305.431	86
305.661	82
305.891	73
306.121	81
306.352	81
306.582	68
306.812	97
307.042	82
307.272	91
307.502	80
307.731	84
307.961	86
308.191	87
308.421	80
308.651	92
308.881	84
309.111	92
309.341	100
309.571	95
309.8	90
310.03	71
310.26	84
310.49	90
310.72	90
310.949	80
311.179	91
311.409	73
311.639	82
311.868	83
312.098	91
312.328	68
312.557	84
312.787	97
313.017	75
313.246	75
313.476	90
313.706	75
313.935	84
314.165	84
314.394	79
314.624	83
314.853	93
315.083	68
315.312	80
315.542	85
315.771	96
316.001	86
316.23	95
316.46	80
316.689	74
316.919	75
317.148	92
317.377	87
317.607	91
317.836	93
318.065	108
318.295	96
318.524	73
318.753	80
318.983	86
319.212	89
319.441	81
319.67	85
319.9	92
320.129	102
320.358	69
320.587	71
320.816	86
321.046	79
321.275	89
321.504	70
321.733	86
321.962	88
322.191	98
322.42	83
322.649	90
322.878	90
323.108	87
323.337	77
323.566	87
323.795	86
324.024	91
324.253	92
324.482	79
324.71	92
324.939	97
325.168	82
325.397	84
325.626	87
325.855	75
326.084	82
326.313	102
326.542	81
326.77	85
326.999	93
327.228	86
327.457	78
327.686	95
327.914	76
328.143	70
328.372	84
328.6	90
328.829	71
329.058	86
329.287	95
329.515	69
329.744	70
329.972	96
330.201	78
330.43	86
330.658	93
330.887	86
331.115	79
331.344	85
331.572	84
331.801	85
332.03	88
332.258	103
332.486	84
332.715	80
332.943	75
333.172	87
333.4	74
333.629	78
333.857	71
334.085	86
334.314	70
334.542	97
334.771	88
334.999	85
335.227	86
335.455	86
335.684	88
335.912	85
336.14	90
336.369	89
336.597	84
336.825	83
337.053	78
337.281	96
337.51	104
337.738	77
337.966	79
338.194	76
338.422	77
338.65	80
338.878	91
339.106	72
339.334	88
339.562	87
339.79	92
340.018	84
340.246	70
340.474	93
340.702	78
340.93	73
341.158	89
341.386	85
341.614	80
341.842	80
342.07	78
342.298	80
342.526	79
342.754	95
342.981	95
343.209	84
343.437	91
343.665	74
343.893	81
344.12	80
344.348	70
344.576	80
344.804	82
345.031	80
345.259	84
345.487	80
345.714	87
345.942	85
346.17	86
346.397	71
346.625	82
346.853	81
347.08	86
347.308	101
347.535	88
347.763	77
347.99	83
348.218	84
348.445	87
348.673	98
348.9	101
349.128	92
349.355	77
349.583	77
349.81	88
350.037	90
350.265	78
350.492	69
350.72	78
350.947	88
351.174	83
351.402	97
351.629	88
351.856	72
352.083	92
352.311	76
352.538	80
352.765	82
352.992	92
353.22	102
353.447	95
353.674	95
353.901	93
354.128	93
354.355	90
354.583	85
354.81	68
355.037	77
355.264	87
355.491	97
355.718	92
355.945	69
356.172	80
356.399	77
356.626	87
356.853	94
357.08	88
357.307	86
357.534	81
357.761	90
357.988	103
358.215	94
358.441	81
358.668	88
358.895	90
359.122	90
359.349	79
359.576	89
359.802	74
360.029	75
360.256	86
360.483	91
360.709	90
360.936	88
361.163	80
361.39	83
361.616	86
361.843	74
362.07	85
362.296	85
362.523	85
362.749	95
362.976	93
363.203	112
363.429	90
363.656	79
363.882	97
364.109	95
364.335	121
364.562	107
364.788	97
365.015	92
365.241	100
365.468	86
365.694	76
365.92	89
366.147	92
366.373	85
366.599	80
366.826	70
367.052	83
367.278	86
367.505	81
367.731	89
367.957	85
368.184	84
368.41	94
368.636	74
368.862	78
369.089	93
369.315	89
369.541	75
369.767	81
369.993	88
370.219	88
370.445	104
370.672	92
370.898	101
371.124	78
371.35	94
371.576	101
371.802	93
372.028	92
372.254	92
372.48	75
372.706	78
372.932	66
373.158	82
373.384	103
373.61	111
373.835	117
374.061	82
374.287	91
374.513	78
374.739	92
374.965	89
375.191	75
375.416	97
375.642	88
375.868	95
376.094	89
376.319	83
376.545	89
376.771	74
376.997	85
377.222	71
377.448	96
377.674	93
377.899	82
378.125	84
378.35	84
378.576	84
378.802	80
379.027	79
379.253	87
379.478	87
379.704	85
379.929	89
380.155	86
380.38	86
380.606	90
380.831	74
381.057	90
381.282	89
381.507	102
381.733	103
381.958	91
382.184	86
382.409	96
382.634	92
382.86	85
383.085	93
383.31	96
383.535	85
383.761	100
383.986	92
384.211	96
384.436	86
384.662	79
384.887	83
385.112	76
385.337	89
385.562	94
385.787	86
386.013	101
386.238	94
386.463	90
386.688	104
386.913	80
387.138	89
387.363	95
387.588	89
387.813	98
388.038	84
388.263	99
388.488	87
388.713	88
388.938	77
389.163	97
389.387	97
389.612	89
389.837	101
390.062	86
390.287	99
390.512	87
390.736	82
390.961	80
391.186	86
391.411	96
391.636	92
391.86	96
392.085	98
392.31	98
392.534	112
392.759	128
392.984	180
393.208	384
393.433	606
393.658	453
393.882	166
394.107	111
394.331	115
394.556	131
394.78	90
395.005	97
395.229	92
395.454	89
395.678	90
395.903	133
396.127	139
396.352	152
396.576	224
396.801	378
397.025	474
397.249	240
397.474	133
397.698	108
397.922	88
398.147	94
398.371	101
398.595	108
398.82	92
399.044	83
399.268	82
399.492	89
399.717	84
399.941	84
400.165	82
400.389	87
400.613	84
400.837	80
401.062	81
401.286	68
401.51	95
401.734	95
401.958	91
402.182	80
402.406	79
402.63	79
402.854	82
403.078	74
403.302	71
403.526	84
403.75	86
403.974	89
404.198	95
404.422	91
404.645	81
404.869	83
405.093	68
405.317	73
405.541	84
405.765	95
405.988	97
406.212	93
406.436	87
406.66	92
406.883	92
407.107	84
407.331	79
407.555	78
407.778	130
408.002	142
408.226	86
408.449	93
408.673	93
408.896	74
409.12	82
409.344	90
409.567	101
409.791	95
410.014	86
410.238	93
410.461	81
410.685	90
410.908	85
411.132	84
411.355	84
411.578	80
411.802	90
412.025	98
412.249	84
412.472	68
412.695	75
412.919	85
413.142	96
413.365	100
413.589	93
413.812	100
414.035	87
414.258	83
414.482	87
414.705	94
414.928	80
415.151	73
415.374	78
415.597	77
415.821	80
416.044	84
416.267	81
416.49	80
416.713	79
416.936	86
417.159	85
417.382	81
417.605	82
417.828	92
418.051	67
418.274	89
418.497	85
418.72	98
418.943	89
419.166	73
419.389	92
419.611	77
419.834	98
420.057	95
420.28	78
420.503	89
420.726	74
420.948	83
421.171	91
421.394	121
421.617	132
421.839	133
422.062	128
422.285	164
422.507	303
422.73	508
422.953	424
423.175	202
423.398	131
423.621	100
423.843	93
424.066	97
424.288	102
424.511	94
424.733	85
424.956	80
425.178	92
425.401	86
425.623	83
425.846	90
426.068	96
426.291	90
426.513	87
426.735	86
426.958	91
427.18	90
427.402	96
427.625	89
427.847	80
428.069	104
428.292	119
428.514	138
428.736	110
428.958	120
429.181	145
429.403	102
429.625	95
429.847	128
430.069	180
430.292	220
430.514	186
430.736	151
430.958	148
431.18	96
431.402	77
431.624	79
431.846	128
432.068	147
432.29	83
432.512	108
432.734	90
432.956	80
433.178	92
433.4	87
433.622	80
433.844	74
434.066	82
434.287	70
434.509	74
434.731	82
434.953	85
435.175	100
435.397	90
435.618	104
435.84	100
436.062	94
436.284	74
436.505	93
436.727	77
436.949	74
437.17	85
437.392	89
437.614	87
437.835	68
438.057	78
438.278	91
438.5	92
438.721	76
438.943	71
439.165	80
439.386	86
439.608	72
439.829	93
440.05	97
440.272	80
440.493	79
440.715	89
440.936	90
441.158	101
441.379	83
441.6	85
441.822	90
442.043	97
442.264	89
442.486	135
442.707	173
442.928	110
443.149	113
443.371	150
443.592	270
443.813	228
444.034	115
444.255	72
444.476	96
444.698	91
444.919	82
445.14	169
445.361	202
445.582	318
445.803	263
446.024	121
446.245	95
446.466	90
446.687	94
446.908	93
447.129	89
447.35	81
447.571	87
447.792	73
448.013	74
448.234	77
448.455	82
448.675	84
448.896	98
449.117	80
449.338	90
449.559	92
449.779	76
450	60
450.221	96
450.442	87
450.662	78
450.883	89
451.104	84
451.324	80
451.545	65
451.766	81
451.986	89
452.207	84
452.428	94
452.648	84
452.869	94
453.089	105
453.31	88
453.53	83
453.751	71
453.971	78
454.192	86
454.412	85
454.633	74
454.853	91
455.073	70
455.294	85
455.514	80
455.734	86
455.955	83
456.175	93
456.395	90
456.616	88
456.836	90
457.056	82
457.276	85
457.497	79
457.717	89
457.937	104
458.157	127
458.377	120
458.598	111
458.818	110
459.038	96
459.258	84
459.478	69
459.698	93
459.918	92
460.138	69
460.358	73
460.578	95
460.798	137
461.018	119
461.238	75
461.458	82
461.678	86
461.898	77
462.118	72
462.338	86
462.558	86
462.777	77
462.997	92
463.217	70
463.437	69
463.657	93
463.876	65
464.096	94
464.316	80
464.536	86
464.755	86
464.975	82
465.195	78
465.414	85
465.634	93
465.854	80
466.073	93
466.293	84
466.512	80
466.732	85
466.951	84
467.171	80
467.391	84
467.61	71
467.829	83
468.049	76
468.268	89
468.488	90
468.707	83
468.927	91
469.146	68
469.365	88
469.585	94
469.804	73
470.023	91
470.243	92
470.462	82
470.681	84
470.901	74
471.12	92
471.339	86
471.558	81
471.777	86
471.997	81
472.216	82
472.435	75
472.654	93
472.873	94
473.092	78
473.311	78
473.53	68
473.749	86
473.968	96
474.187	80
474.406	86
474.625	88
474.844	96
475.063	91
475.282	86
475.501	75
475.72	95
475.939	69
476.158	75
476.377	84
476.596	92
476.814	78
477.033	85
477.252	94
477.471	82
477.69	89
477.908	87
478.127	96
478.346	84
478.564	88
478.783	100
479.002	77
479.22	91
479.439	86
479.658	87
479.876	89
480.095	90
480.313	87
480.532	80
480.751	88
480.969	77
481.188	93
481.406	83
481.624	83
481.843	101
482.061	86
482.28	88
482.498	86
482.717	97
482.935	72
483.153	104
483.372	85
483.59	96
483.808	93
484.027	82
484.245	80
484.463	92
484.681	82
484.9	89
485.118	88
485.336	87
485.554	87
485.772	95
485.99	83
486.209	88
486.427	81
486.645	85
486.863	87
487.081	94
487.299	82
487.517	88
487.735	101
487.953	167
488.171	124
488.389	85
488.607	83
488.825	97
489.043	79
489.261	88
489.479	85
489.696	81
489.914	74
490.132	103
490.35	78
490.568	102
490.786	94
491.003	91
491.221	84
491.439	76
491.657	77
491.874	94
492.092	87
492.31	76
492.527	82
492.745	90
492.963	93
493.18	104
493.398	91
493.615	100
493.833	87
494.05	101
494.268	95
494.485	94
494.703	96
494.92	80
495.138	96
495.355	74
495.573	97
495.79	81
496.008	102
496.225	84
496.442	81
496.66	90
496.877	88
497.094	82
497.312	84
497.529	89
497.746	94
497.963	98
498.181	95
498.398	97
498.615	87
498.832	69
499.049	73
499.267	94
499.484	97
499.701	80
499.918	86
500.135	87
500.352	75
500.569	92
500.786	98
501.003	96
501.22	85
501.437	86
501.654	75
501.871	84
502.088	84
502.305	100
502.522	102
502.739	82
502.956	92
503.172	95
503.389	89
503.606	96
503.823	82
504.04	88
504.256	139
504.473	130
504.69	99
504.907	97
505.123	86
505.34	91
505.557	92
505.773	86
505.99	96
506.207	80
506.423	93
506.64	96
506.856	71
507.073	75
507.289	99
507.506	86
507.722	84
507.939	84
508.155	84
508.372	94
508.588	83
508.805	102
509.021	73
509.238	84
509.454	84
509.67	86
509.887	73
510.103	78
510.319	106
510.536	81
510.752	82
510.968	84
511.184	79
511.401	76
511.617	92
511.833	85
512.049	94
512.265	105
512.481	96
512.698	97
512.914	81
513.13	89
513.346	87
513.562	89
513.778	85
513.994	98
514.21	89
514.426	76
514.642	105
514.858	92
515.074	90
515.29	85
515.506	107
515.721	80
515.937	74
516.153	85
516.369	79
516.585	94
516.801	86
517.016	100
517.232	88
517.448	107
517.664	93
517.879	84
518.095	73
518.311	87
518.527	126
518.742	112
518.958	154
519.173	154
519.389	99
519.605	92
519.82	79
520.036	80
520.251	89
520.467	80
520.682	94
520.898	89
521.113	84
521.329	92
521.544	74
521.76	83
521.975	90
522.19	98
522.406	95
522.621	96
522.836	85
523.052	82
523.267	80
523.482	90
523.698	92
523.913	94
524.128	92
524.343	87
524.559	102
524.774	98
524.989	93
525.204	94
525.419	96
525.634	97
525.849	85
526.064	104
526.28	225
526.495	301
526.71	329
526.925	233
527.14	296
527.355	258
527.57	112
527.785	91
527.999	86
528.214	84
528.429	98
528.644	78
528.859	80
529.074	83
529.289	84
529.503	77
529.718	88
529.933	84
530.148	92
530.363	94
530.577	70
530.792	100
531.007	96
531.221	83
531.436	84
531.651	82
531.865	88
532.08	86
532.295	86
532.509	74
532.724	91
532.938	95
533.153	94
533.367	97
533.582	84
533.796	82
534.011	90
534.225	86
534.44	97
534.654	104
534.868	118
535.083	165
535.297	150
535.511	103
535.726	98
535.94	99
536.154	94
536.369	77
536.583	85
536.797	95
537.011	80
537.225	90
537.44	92
537.654	92
537.868	88
538.082	83
538.296	100
538.51	106
538.724	102
538.938	95
539.153	83
539.367	100
539.581	98
539.795	101
540.009	101
540.222	100
540.436	108
540.65	92
540.864	85
541.078	96
541.292	88
541.506	106
541.72	100
541.934	92
542.147	111
542.361	89
542.575	103
542.789	80
543.002	103
543.216	97
543.43	97
543.644	93
543.857	94
544.071	84
544.285	102
544.498	96
544.712	105
544.925	112
545.139	98
545.352	106
545.566	87
545.779	100
545.993	106
546.206	91
546.42	102
546.633	81
546.847	127
547.06	130
547.274	116
547.487	147
547.7	154
547.914	162
548.127	153
548.34	161
548.554	161
548.767	168
548.98	158
549.193	165
549.407	177
549.62	163
549.833	177
550.046	200
550.259	201
550.473	200
550.686	201
550.899	245
551.112	256
551.325	267
551.538	258
551.751	260
551.964	205
552.177	207
552.39	190
552.603	205
552.816	199
553.029	203
553.242	205
553.455	193
553.667	209
553.88	198
554.093	199
554.306	217
554.519	188
554.732	192
554.944	207
555.157	189
555.37	178
555.583	166
555.795	159
556.008	163
556.221	154
556.433	140
556.646	151
556.859	154
557.071	149
557.284	133
557.496	138
557.709	130
557.921	136
558.134	145
558.346	203
558.559	174
558.771	153
558.984	336
559.196	407
559.409	217
559.621	343
559.833	234
560.046	295
560.258	229
560.47	233
560.683	138
560.895	104
561.107	102
561.32	98
561.532	95
561.744	98
561.956	92
562.168	88
562.381	89
562.593	100
562.805	100
563.017	101
563.229	95
563.441	103
563.653	107
563.865	94
564.077	91
564.289	96
564.501	79
564.713	98
564.925	99
565.137	96
565.349	87
565.561	90
565.773	103
565.985	90
566.197	93
566.408	92
566.62	92
566.832	95
567.044	89
567.255	84
567.467	100
567.679	100
567.891	99
568.102	89
568.314	77
568.526	101
568.737	101
568.949	102
569.161	98
569.372	85
569.584	102
569.795	81
570.007	99
570.218	104
570.43	94
570.641	86
570.853	99
571.064	89
571.276	89
571.487	90
571.698	100
571.91	98
572.121	79
572.333	91
572.544	90
572.755	104
572.966	92
573.178	99
573.389	100
573.6	92
573.811	85
574.023	90
574.234	92
574.445	95
574.656	91
574.867	96
575.078	102
575.289	75
575.501	88
575.712	81
575.923	82
576.134	97
576.345	84
576.556	94
576.767	100
576.978	93
577.188	92
577.399	92
577.61	91
577.821	81
578.032	81
578.243	101
578.454	87
578.665	90
578.875	99
579.086	86
579.297	83
579.508	94
579.718	76
579.929	89
580.14	71
580.35	86
580.561	102
580.772	90
580.982	82
581.193	85
581.403	88
581.614	76
581.825	100
582.035	98
582.246	84
582.456	96
582.667	99
582.877	108
583.087	64
583.298	80
583.508	109
583.719	93
583.929	98
584.139	94
584.35	101
584.56	91
584.77	90
584.981	96
585.191	101
585.401	95
585.611	110
585.821	158
586.032	249
586.242	129
586.452	87
