Data from 18505_1_HRD10591_00022.txt Node
Date: Mon Jan 19 13:58:42 EST 2026
User: Yrep
Spectrometer: HR+D1059
Trigger mode: 1
Integration Time (sec): 1.000000E-1
Scans to average: 1
Electric dark correction enabled: true
Nonlinearity correction enabled: false
Boxcar width: 0
XAxis mode: Wavelengths
Number of Pixels in Spectrum: 2048
>>>>>Begin Spectral Data<<<<<
223.165	-26.62
223.4	-26.62
223.635	-26.62
223.869	-24.62
224.104	-12.62
224.338	-22.62
224.573	-20.62
224.808	-8.62
225.042	2.38
225.277	-0.62
225.511	-9.62
225.746	5.38
225.98	12.38
226.215	16.38
226.449	8.38
226.683	22.38
226.918	27.38
227.152	31.38
227.387	18.38
227.621	47.38
227.856	46.38
228.09	53.38
228.324	51.38
228.559	44.38
228.793	41.38
229.027	59.38
229.262	56.38
229.496	69.38
229.73	63.38
229.964	57.38
230.199	60.38
230.433	85.38
230.667	77.38
230.901	64.38
231.136	73.38
231.37	80.38
231.604	83.38
231.838	71.38
232.072	79.38
232.306	79.38
232.541	83.38
232.775	96.38
233.009	79.38
233.243	87.38
233.477	86.38
233.711	86.38
233.945	80.38
234.179	74.38
234.413	82.38
234.647	84.38
234.881	81.38
235.115	78.38
235.349	78.38
235.583	73.38
235.817	71.38
236.051	69.38
236.285	81.38
236.519	73.38
236.753	95.38
236.987	79.38
237.221	67.38
237.455	83.38
237.689	68.38
237.922	83.38
238.156	75.38
238.39	82.38
238.624	80.38
238.858	83.38
239.091	73.38
239.325	83.38
239.559	70.38
239.793	67.38
240.027	68.38
240.26	57.38
240.494	72.38
240.728	82.38
240.961	83.38
241.195	65.38
241.429	67.38
241.662	89.38
241.896	88.38
242.13	57.38
242.363	85.38
242.597	80.38
242.83	80.38
243.064	81.38
243.298	82.38
243.531	71.38
243.765	82.38
243.998	88.38
244.232	78.38
244.465	62.38
244.699	94.38
244.932	63.38
245.166	68.38
245.399	71.38
245.633	92.38
245.866	75.38
246.099	88.38
246.333	71.38
246.566	81.38
246.8	82.38
247.033	82.38
247.266	72.38
247.5	71.38
247.733	80.38
247.966	84.38
248.2	65.38
248.433	70.38
248.666	71.38
248.899	70.38
249.133	67.38
249.366	83.38
249.599	72.38
249.832	72.38
250.066	73.38
250.299	87.38
250.532	85.38
250.765	81.38
250.998	87.38
251.231	81.38
251.465	94.38
251.698	73.38
251.931	60.38
252.164	76.38
252.397	87.38
252.63	73.38
252.863	85.38
253.096	93.38
253.329	88.38
253.562	81.38
253.795	76.38
254.028	84.38
254.261	73.38
254.494	81.38
254.727	89.38
254.96	82.38
255.193	77.38
255.426	80.38
255.659	78.38
255.892	73.38
256.124	77.38
256.357	66.38
256.59	74.38
256.823	77.38
257.056	75.38
257.289	81.38
257.521	81.38
257.754	88.38
257.987	75.38
258.22	61.38
258.452	79.38
258.685	72.38
258.918	72.38
259.151	73.38
259.383	99.38
259.616	96.38
259.849	76.38
260.081	89.38
260.314	79.38
260.547	80.38
260.779	77.38
261.012	79.38
261.244	81.38
261.477	82.38
261.71	73.38
261.942	72.38
262.175	78.38
262.407	85.38
262.64	92.38
262.872	78.38
263.105	52.38
263.337	82.38
263.57	87.38
263.802	80.38
264.035	77.38
264.267	66.38
264.499	67.38
264.732	82.38
264.964	78.38
265.197	76.38
265.429	104.38
265.661	77.38
265.894	77.38
266.126	80.38
266.358	76.38
266.591	83.38
266.823	90.38
267.055	77.38
267.287	60.38
267.52	79.38
267.752	83.38
267.984	94.38
268.216	94.38
268.448	67.38
268.681	82.38
268.913	81.38
269.145	78.38
269.377	77.38
269.609	81.38
269.841	69.38
270.073	81.38
270.306	73.38
270.538	90.38
270.77	92.38
271.002	83.38
271.234	79.38
271.466	84.38
271.698	84.38
271.93	71.38
272.162	79.38
272.394	73.38
272.626	87.38
272.858	89.38
273.09	79.38
273.322	70.38
273.553	70.38
273.785	92.38
274.017	92.38
274.249	89.38
274.481	87.38
274.713	78.38
274.945	77.38
275.176	84.38
275.408	87.38
275.64	68.38
275.872	87.38
276.104	72.38
276.335	83.38
276.567	83.38
276.799	73.38
277.031	71.38
277.262	68.38
277.494	79.38
277.726	78.38
277.957	95.38
278.189	87.38
278.421	59.38
278.652	93.38
278.884	86.38
279.115	77.38
279.347	92.38
279.579	97.38
279.81	107.38
280.042	95.38
280.273	95.38
280.505	107.38
280.736	88.38
280.968	83.38
281.199	76.38
281.431	83.38
281.662	64.38
281.894	67.38
282.125	78.38
282.356	93.38
282.588	75.38
282.819	73.38
283.051	83.38
283.282	73.38
283.513	82.38
283.745	81.38
283.976	83.38
284.207	80.38
284.439	84.38
284.67	89.38
284.901	94.38
285.132	100.38
285.364	100.38
285.595	98.38
285.826	87.38
286.057	77.38
286.288	75.38
286.52	94.38
286.751	80.38
286.982	94.38
287.213	85.38
287.444	78.38
287.675	88.38
287.906	88.38
288.138	93.38
288.369	91.38
288.6	61.38
288.831	82.38
289.062	94.38
289.293	76.38
289.524	72.38
289.755	87.38
289.986	88.38
290.217	85.38
290.448	77.38
290.679	60.38
290.91	76.38
291.141	79.38
291.371	91.38
291.602	81.38
291.833	85.38
292.064	88.38
292.295	80.38
292.526	113.38
292.757	91.38
292.987	94.38
293.218	80.38
293.449	79.38
293.68	75.38
293.91	71.38
294.141	85.38
294.372	79.38
294.603	84.38
294.833	78.38
295.064	86.38
295.295	78.38
295.525	82.38
295.756	87.38
295.987	69.38
296.217	86.38
296.448	78.38
296.679	79.38
296.909	79.38
297.14	76.38
297.37	82.38
297.601	87.38
297.831	79.38
298.062	91.38
298.292	102.38
298.523	94.38
298.753	85.38
298.984	94.38
299.214	101.38
299.445	87.38
299.675	90.38
299.905	83.38
300.136	88.38
300.366	80.38
300.597	97.38
300.827	98.38
301.057	89.38
301.288	91.38
301.518	87.38
301.748	91.38
301.979	93.38
302.209	79.38
302.439	76.38
302.669	79.38
302.9	80.38
303.13	81.38
303.36	93.38
303.59	73.38
303.82	71.38
304.051	89.38
304.281	85.38
304.511	80.38
304.741	101.38
304.971	88.38
305.201	96.38
305.431	88.38
305.661	80.38
305.891	88.38
306.121	92.38
306.352	93.38
306.582	92.38
306.812	97.38
307.042	81.38
307.272	83.38
307.502	73.38
307.731	85.38
307.961	86.38
308.191	100.38
308.421	103.38
308.651	74.38
308.881	88.38
309.111	93.38
309.341	129.38
309.571	105.38
309.8	79.38
310.03	86.38
310.26	82.38
310.49	77.38
310.72	88.38
310.949	85.38
311.179	86.38
311.409	74.38
311.639	76.38
311.868	79.38
312.098	85.38
312.328	86.38
312.557	80.38
312.787	80.38
313.017	97.38
313.246	85.38
313.476	85.38
313.706	73.38
313.935	89.38
314.165	72.38
314.394	112.38
314.624	103.38
314.853	99.38
315.083	80.38
315.312	102.38
315.542	94.38
315.771	122.38
316.001	141.38
316.23	112.38
316.46	88.38
316.689	95.38
316.919	95.38
317.148	102.38
317.377	94.38
317.607	116.38
317.836	144.38
318.065	181.38
318.295	126.38
318.524	111.38
318.753	91.38
318.983	87.38
319.212	91.38
319.441	91.38
319.67	72.38
319.9	82.38
320.129	74.38
320.358	94.38
320.587	78.38
320.816	77.38
321.046	96.38
321.275	87.38
321.504	90.38
321.733	88.38
321.962	88.38
322.191	92.38
322.42	88.38
322.649	85.38
322.878	85.38
323.108	117.38
323.337	94.38
323.566	93.38
323.795	86.38
324.024	70.38
324.253	83.38
324.482	85.38
324.71	80.38
324.939	83.38
325.168	80.38
325.397	74.38
325.626	90.38
325.855	89.38
326.084	86.38
326.313	69.38
326.542	86.38
326.77	79.38
326.999	78.38
327.228	95.38
327.457	97.38
327.686	81.38
327.914	89.38
328.143	82.38
328.372	96.38
328.6	86.38
328.829	85.38
329.058	86.38
329.287	81.38
329.515	81.38
329.744	92.38
329.972	82.38
330.201	92.38
330.43	76.38
330.658	86.38
330.887	71.38
331.115	85.38
331.344	85.38
331.572	77.38
331.801	72.38
332.03	93.38
332.258	88.38
332.486	79.38
332.715	90.38
332.943	86.38
333.172	92.38
333.4	89.38
333.629	85.38
333.857	94.38
334.085	95.38
334.314	84.38
334.542	90.38
334.771	101.38
334.999	110.38
335.227	100.38
335.455	81.38
335.684	97.38
335.912	102.38
336.14	98.38
336.369	102.38
336.597	102.38
336.825	79.38
337.053	84.38
337.281	86.38
337.51	99.38
337.738	93.38
337.966	85.38
338.194	86.38
338.422	91.38
338.65	91.38
338.878	73.38
339.106	87.38
339.334	73.38
339.562	70.38
339.79	94.38
340.018	78.38
340.246	88.38
340.474	78.38
340.702	81.38
340.93	82.38
341.158	84.38
341.386	87.38
341.614	83.38
341.842	79.38
342.07	73.38
342.298	87.38
342.526	80.38
342.754	91.38
342.981	91.38
343.209	89.38
343.437	115.38
343.665	93.38
343.893	90.38
344.12	97.38
344.348	83.38
344.576	83.38
344.804	73.38
345.031	87.38
345.259	92.38
345.487	87.38
345.714	89.38
345.942	80.38
346.17	77.38
346.397	71.38
346.625	83.38
346.853	81.38
347.08	83.38
347.308	95.38
347.535	99.38
347.763	73.38
347.99	90.38
348.218	93.38
348.445	96.38
348.673	93.38
348.9	88.38
349.128	90.38
349.355	84.38
349.583	88.38
349.81	104.38
350.037	99.38
350.265	91.38
350.492	93.38
350.72	81.38
350.947	74.38
351.174	81.38
351.402	91.38
351.629	89.38
351.856	83.38
352.083	107.38
352.311	83.38
352.538	92.38
352.765	73.38
352.992	83.38
353.22	101.38
353.447	94.38
353.674	95.38
353.901	94.38
354.128	99.38
354.355	87.38
354.583	75.38
354.81	87.38
355.037	105.38
355.264	79.38
355.491	91.38
355.718	97.38
355.945	84.38
356.172	86.38
356.399	98.38
356.626	92.38
356.853	91.38
357.08	91.38
357.307	92.38
357.534	92.38
357.761	91.38
357.988	91.38
358.215	108.38
358.441	89.38
358.668	86.38
358.895	85.38
359.122	87.38
359.349	89.38
359.576	82.38
359.802	91.38
360.029	81.38
360.256	86.38
360.483	99.38
360.709	109.38
360.936	100.38
361.163	99.38
361.39	100.38
361.616	87.38
361.843	98.38
362.07	108.38
362.296	102.38
362.523	120.38
362.749	138.38
362.976	138.38
363.203	150.38
363.429	104.38
363.656	89.38
363.882	97.38
364.109	127.38
364.335	161.38
364.562	187.38
364.788	129.38
365.015	103.38
365.241	94.38
365.468	98.38
365.694	89.38
365.92	78.38
366.147	77.38
366.373	74.38
366.599	83.38
366.826	91.38
367.052	77.38
367.278	91.38
367.505	76.38
367.731	88.38
367.957	81.38
368.184	102.38
368.41	86.38
368.636	82.38
368.862	96.38
369.089	74.38
369.315	107.38
369.541	93.38
369.767	96.38
369.993	92.38
370.219	94.38
370.445	119.38
370.672	136.38
370.898	114.38
371.124	97.38
371.35	80.38
371.576	93.38
371.802	89.38
372.028	99.38
372.254	100.38
372.48	88.38
372.706	84.38
372.932	84.38
373.158	108.38
373.384	137.38
373.61	173.38
373.835	199.38
374.061	135.38
374.287	105.38
374.513	106.38
374.739	105.38
374.965	100.38
375.191	98.38
375.416	96.38
375.642	107.38
375.868	112.38
376.094	100.38
376.319	98.38
376.545	94.38
376.771	86.38
376.997	95.38
377.222	93.38
377.448	89.38
377.674	91.38
377.899	76.38
378.125	85.38
378.35	91.38
378.576	88.38
378.802	85.38
379.027	94.38
379.253	87.38
379.478	102.38
379.704	90.38
379.929	96.38
380.155	87.38
380.38	88.38
380.606	81.38
380.831	96.38
381.057	95.38
381.282	96.38
381.507	92.38
381.733	96.38
381.958	98.38
382.184	111.38
382.409	111.38
382.634	125.38
382.86	119.38
383.085	128.38
383.31	118.38
383.535	129.38
383.761	130.38
383.986	124.38
384.211	119.38
384.436	96.38
384.662	93.38
384.887	83.38
385.112	113.38
385.337	96.38
385.562	104.38
385.787	112.38
386.013	114.38
386.238	111.38
386.463	96.38
386.688	115.38
386.913	103.38
387.138	110.38
387.363	100.38
387.588	104.38
387.813	103.38
388.038	113.38
388.263	119.38
388.488	125.38
388.713	122.38
388.938	95.38
389.163	104.38
389.387	99.38
389.612	85.38
389.837	91.38
390.062	107.38
390.287	103.38
390.512	98.38
390.736	97.38
390.961	102.38
391.186	110.38
391.411	101.38
391.636	115.38
391.86	101.38
392.085	113.38
392.31	128.38
392.534	159.38
392.759	249.38
392.984	424.38
393.208	940.38
393.433	1460.38
393.658	1067.38
393.882	355.38
394.107	193.38
394.331	160.38
394.556	185.38
394.78	159.38
395.005	113.38
395.229	124.38
395.454	112.38
395.678	154.38
395.903	176.38
396.127	247.38
396.352	327.38
396.576	491.38
396.801	934.38
397.025	1133.38
397.249	467.38
397.474	235.38
397.698	147.38
397.922	102.38
398.147	89.38
398.371	96.38
398.595	89.38
398.82	91.38
399.044	85.38
399.268	83.38
399.492	92.38
399.717	99.38
399.941	95.38
400.165	93.38
400.389	93.38
400.613	110.38
400.837	87.38
401.062	93.38
401.286	87.38
401.51	101.38
401.734	93.38
401.958	97.38
402.182	94.38
402.406	80.38
402.63	80.38
402.854	92.38
403.078	82.38
403.302	86.38
403.526	80.38
403.75	98.38
403.974	107.38
404.198	85.38
404.422	111.38
404.645	143.38
404.869	108.38
405.093	82.38
405.317	83.38
405.541	92.38
405.765	99.38
405.988	99.38
406.212	76.38
406.436	95.38
406.66	90.38
406.883	89.38
407.107	79.38
407.331	104.38
407.555	136.38
407.778	222.38
408.002	197.38
408.226	108.38
408.449	94.38
408.673	81.38
408.896	85.38
409.12	106.38
409.344	101.38
409.567	115.38
409.791	131.38
410.014	135.38
410.238	107.38
410.461	102.38
410.685	93.38
410.908	98.38
411.132	99.38
411.355	90.38
411.578	83.38
411.802	89.38
412.025	91.38
412.249	95.38
412.472	89.38
412.695	79.38
412.919	95.38
413.142	93.38
413.365	91.38
413.589	86.38
413.812	93.38
414.035	95.38
414.258	88.38
414.482	96.38
414.705	88.38
414.928	97.38
415.151	97.38
415.374	95.38
415.597	99.38
415.821	85.38
416.044	83.38
416.267	82.38
416.49	91.38
416.713	98.38
416.936	95.38
417.159	81.38
417.382	101.38
417.605	98.38
417.828	91.38
418.051	98.38
418.274	86.38
418.497	87.38
418.72	104.38
418.943	83.38
419.166	93.38
419.389	65.38
419.611	94.38
419.834	72.38
420.057	93.38
420.28	87.38
420.503	87.38
420.726	73.38
420.948	96.38
421.171	104.38
421.394	145.38
421.617	204.38
421.839	193.38
422.062	147.38
422.285	239.38
422.507	501.38
422.73	891.38
422.953	775.38
423.175	282.38
423.398	145.38
423.621	133.38
423.843	111.38
424.066	109.38
424.288	100.38
424.511	87.38
424.733	85.38
424.956	96.38
425.178	98.38
425.401	101.38
425.623	84.38
425.846	83.38
426.068	89.38
426.291	88.38
426.513	87.38
426.735	81.38
426.958	88.38
427.18	94.38
427.402	94.38
427.625	92.38
427.847	102.38
428.069	131.38
428.292	198.38
428.514	236.38
428.736	165.38
428.958	191.38
429.181	209.38
429.403	118.38
429.625	113.38
429.847	187.38
430.069	290.38
430.292	336.38
430.514	309.38
430.736	231.38
430.958	238.38
431.18	143.38
431.402	91.38
431.624	118.38
431.846	187.38
432.068	212.38
432.29	124.38
432.512	98.38
432.734	89.38
432.956	87.38
433.178	85.38
433.4	87.38
433.622	76.38
433.844	72.38
434.066	81.38
434.287	83.38
434.509	91.38
434.731	87.38
434.953	87.38
435.175	86.38
435.397	101.38
435.618	105.38
435.84	99.38
436.062	86.38
436.284	99.38
436.505	100.38
436.727	90.38
436.949	96.38
437.17	93.38
437.392	88.38
437.614	99.38
437.835	71.38
438.057	76.38
438.278	94.38
438.5	94.38
438.721	88.38
438.943	74.38
439.165	96.38
439.386	82.38
439.608	79.38
439.829	68.38
440.05	86.38
440.272	91.38
440.493	98.38
440.715	88.38
440.936	87.38
441.158	107.38
441.379	93.38
441.6	80.38
441.822	84.38
442.043	99.38
442.264	112.38
442.486	202.38
442.707	292.38
442.928	177.38
443.149	155.38
443.371	260.38
443.592	501.38
443.813	429.38
444.034	150.38
444.255	120.38
444.476	99.38
444.698	113.38
444.919	125.38
445.14	212.38
445.361	340.38
445.582	606.38
445.803	521.38
446.024	179.38
446.245	107.38
446.466	92.38
446.687	85.38
446.908	98.38
447.129	89.38
447.35	87.38
447.571	77.38
447.792	82.38
448.013	80.38
448.234	87.38
448.455	89.38
448.675	73.38
448.896	86.38
449.117	82.38
449.338	86.38
449.559	71.38
449.779	81.38
450	74.38
450.221	87.38
450.442	83.38
450.662	71.38
450.883	84.38
451.104	77.38
451.324	87.38
451.545	98.38
451.766	84.38
451.986	77.38
452.207	73.38
452.428	82.38
452.648	104.38
452.869	131.38
453.089	91.38
453.31	91.38
453.53	86.38
453.751	91.38
453.971	88.38
454.192	91.38
454.412	95.38
454.633	78.38
454.853	88.38
455.073	66.38
455.294	84.38
455.514	107.38
455.734	101.38
455.955	81.38
456.175	82.38
456.395	83.38
456.616	90.38
456.836	80.38
457.056	83.38
457.276	81.38
457.497	96.38
457.717	94.38
457.937	144.38
458.157	184.38
458.377	164.38
458.598	159.38
458.818	176.38
459.038	110.38
459.258	91.38
459.478	93.38
459.698	108.38
459.918	105.38
460.138	91.38
460.358	82.38
460.578	111.38
460.798	138.38
461.018	142.38
461.238	101.38
461.458	80.38
461.678	85.38
461.898	86.38
462.118	76.38
462.338	74.38
462.558	78.38
462.777	84.38
462.997	71.38
463.217	83.38
463.437	75.38
463.657	80.38
463.876	93.38
464.096	90.38
464.316	77.38
464.536	83.38
464.755	95.38
464.975	71.38
465.195	71.38
465.414	83.38
465.634	87.38
465.854	83.38
466.073	84.38
466.293	106.38
466.512	83.38
466.732	88.38
466.951	94.38
467.171	89.38
467.391	84.38
467.61	89.38
467.829	80.38
468.049	80.38
468.268	73.38
468.488	101.38
468.707	103.38
468.927	91.38
469.146	82.38
469.365	87.38
469.585	88.38
469.804	77.38
470.023	94.38
470.243	86.38
470.462	98.38
470.681	87.38
470.901	86.38
471.12	97.38
471.339	76.38
471.558	70.38
471.777	81.38
471.997	79.38
472.216	87.38
472.435	78.38
472.654	74.38
472.873	89.38
473.092	80.38
473.311	90.38
473.53	75.38
473.749	86.38
473.968	80.38
474.187	95.38
474.406	82.38
474.625	74.38
474.844	96.38
475.063	72.38
475.282	85.38
475.501	91.38
475.72	91.38
475.939	91.38
476.158	93.38
476.377	76.38
476.596	88.38
476.814	93.38
477.033	91.38
477.252	84.38
477.471	85.38
477.69	70.38
477.908	84.38
478.127	79.38
478.346	94.38
478.564	99.38
478.783	77.38
479.002	81.38
479.22	93.38
479.439	109.38
479.658	105.38
479.876	79.38
480.095	82.38
480.313	94.38
480.532	91.38
480.751	76.38
480.969	92.38
481.188	90.38
481.406	92.38
481.624	83.38
481.843	91.38
482.061	102.38
482.28	103.38
482.498	103.38
482.717	80.38
482.935	82.38
483.153	97.38
483.372	87.38
483.59	93.38
483.808	104.38
484.027	92.38
484.245	83.38
484.463	80.38
484.681	91.38
484.9	96.38
485.118	96.38
485.336	79.38
485.554	89.38
485.772	78.38
485.99	91.38
486.209	94.38
486.427	85.38
486.645	87.38
486.863	96.38
487.081	92.38
487.299	104.38
487.517	122.38
487.735	137.38
487.953	297.38
488.171	207.38
488.389	103.38
488.607	102.38
488.825	77.38
489.043	83.38
489.261	107.38
489.479	87.38
489.696	99.38
489.914	92.38
490.132	89.38
490.35	91.38
490.568	93.38
490.786	98.38
491.003	88.38
491.221	84.38
491.439	88.38
491.657	73.38
491.874	81.38
492.092	95.38
492.31	99.38
492.527	87.38
492.745	81.38
492.963	76.38
493.18	86.38
493.398	102.38
493.615	100.38
493.833	86.38
494.05	79.38
494.268	82.38
494.485	95.38
494.703	98.38
494.92	91.38
495.138	87.38
495.355	87.38
495.573	97.38
495.79	78.38
496.008	99.38
496.225	93.38
496.442	97.38
496.66	96.38
496.877	79.38
497.094	91.38
497.312	89.38
497.529	84.38
497.746	92.38
497.963	90.38
498.181	72.38
498.398	88.38
498.615	104.38
498.832	91.38
499.049	73.38
499.267	99.38
499.484	79.38
499.701	85.38
499.918	101.38
500.135	94.38
500.352	96.38
500.569	90.38
500.786	81.38
501.003	92.38
501.22	80.38
501.437	83.38
501.654	85.38
501.871	91.38
502.088	89.38
502.305	89.38
502.522	89.38
502.739	94.38
502.956	92.38
503.172	92.38
503.389	95.38
503.606	91.38
503.823	111.38
504.04	109.38
504.256	209.38
504.473	213.38
504.69	101.38
504.907	108.38
505.123	79.38
505.34	92.38
505.557	89.38
505.773	87.38
505.99	91.38
506.207	85.38
506.423	81.38
506.64	97.38
506.856	104.38
507.073	88.38
507.289	98.38
507.506	99.38
507.722	84.38
507.939	88.38
508.155	93.38
508.372	77.38
508.588	83.38
508.805	91.38
509.021	88.38
509.238	82.38
509.454	101.38
509.67	83.38
509.887	83.38
510.103	95.38
510.319	95.38
510.536	89.38
510.752	93.38
510.968	89.38
511.184	94.38
511.401	101.38
511.617	90.38
511.833	90.38
512.049	82.38
512.265	83.38
512.481	83.38
512.698	84.38
512.914	100.38
513.13	81.38
513.346	87.38
513.562	87.38
513.778	85.38
513.994	87.38
514.21	92.38
514.426	93.38
514.642	90.38
514.858	77.38
515.074	86.38
515.29	86.38
515.506	86.38
515.721	81.38
515.937	84.38
516.153	82.38
516.369	81.38
516.585	83.38
