Data from Circ_1985_H10_HRD10591_00091.txt Node
Date: Wed Jan 03 12:19:40 EST 2024
User: Yrep
Spectrometer: HR+D1059
Trigger mode: 1
Integration Time (sec): 1.000000E-1
Scans to average: 1
Electric dark correction enabled: true
Nonlinearity correction enabled: false
Boxcar width: 0
XAxis mode: Wavelengths
Number of Pixels in Spectrum: 2048
>>>>>Begin Spectral Data<<<<<
223.165	-18.81
223.4	-18.81
223.635	-18.81
223.869	-15.81
224.104	-24.81
224.338	-19.81
224.573	-18.81
224.808	-4.81
225.042	1.19
225.277	-8.81
225.511	2.19
225.746	9.19
225.98	0.19
226.215	1.19
226.449	22.19
226.683	13.19
226.918	28.19
227.152	34.19
227.387	35.19
227.621	43.19
227.856	58.19
228.09	35.19
228.324	36.19
228.559	60.19
228.793	64.19
229.027	64.19
229.262	61.19
229.496	66.19
229.73	72.19
229.964	72.19
230.199	75.19
230.433	76.19
230.667	71.19
230.901	75.19
231.136	70.19
231.37	98.19
231.604	80.19
231.838	81.19
232.072	86.19
232.306	95.19
232.541	81.19
232.775	68.19
233.009	77.19
233.243	87.19
233.477	79.19
233.711	82.19
233.945	79.19
234.179	67.19
234.413	79.19
234.647	90.19
234.881	79.19
235.115	95.19
235.349	69.19
235.583	76.19
235.817	82.19
236.051	74.19
236.285	66.19
236.519	71.19
236.753	69.19
236.987	74.19
237.221	76.19
237.455	92.19
237.689	75.19
237.922	78.19
238.156	83.19
238.39	76.19
238.624	83.19
238.858	79.19
239.091	68.19
239.325	86.19
239.559	84.19
239.793	76.19
240.027	86.19
240.26	71.19
240.494	89.19
240.728	84.19
240.961	83.19
241.195	80.19
241.429	83.19
241.662	72.19
241.896	71.19
242.13	92.19
242.363	72.19
242.597	85.19
242.83	69.19
243.064	78.19
243.298	75.19
243.531	76.19
243.765	91.19
243.998	88.19
244.232	91.19
244.465	86.19
244.699	70.19
244.932	75.19
245.166	80.19
245.399	71.19
245.633	84.19
245.866	83.19
246.099	71.19
246.333	84.19
246.566	83.19
246.8	87.19
247.033	67.19
247.266	72.19
247.5	76.19
247.733	82.19
247.966	79.19
248.2	79.19
248.433	73.19
248.666	88.19
248.899	68.19
249.133	69.19
249.366	90.19
249.599	96.19
249.832	73.19
250.066	74.19
250.299	102.19
250.532	94.19
250.765	86.19
250.998	89.19
251.231	71.19
251.465	79.19
251.698	87.19
251.931	80.19
252.164	76.19
252.397	71.19
252.63	84.19
252.863	79.19
253.096	55.19
253.329	84.19
253.562	80.19
253.795	85.19
254.028	89.19
254.261	81.19
254.494	68.19
254.727	79.19
254.96	85.19
255.193	84.19
255.426	83.19
255.659	81.19
255.892	101.19
256.124	74.19
256.357	97.19
256.59	95.19
256.823	75.19
257.056	74.19
257.289	74.19
257.521	80.19
257.754	59.19
257.987	81.19
258.22	95.19
258.452	72.19
258.685	76.19
258.918	82.19
259.151	81.19
259.383	77.19
259.616	80.19
259.849	94.19
260.081	79.19
260.314	88.19
260.547	85.19
260.779	72.19
261.012	83.19
261.244	90.19
261.477	104.19
261.71	87.19
261.942	118.19
262.175	108.19
262.407	88.19
262.64	92.19
262.872	91.19
263.105	80.19
263.337	74.19
263.57	86.19
263.802	82.19
264.035	83.19
264.267	81.19
264.499	81.19
264.732	92.19
264.964	89.19
265.197	75.19
265.429	78.19
265.661	83.19
265.894	84.19
266.126	88.19
266.358	91.19
266.591	86.19
266.823	71.19
267.055	92.19
267.287	90.19
267.52	71.19
267.752	79.19
267.984	73.19
268.216	81.19
268.448	85.19
268.681	70.19
268.913	83.19
269.145	76.19
269.377	99.19
269.609	73.19
269.841	91.19
270.073	85.19
270.306	100.19
270.538	77.19
270.77	82.19
271.002	91.19
271.234	84.19
271.466	81.19
271.698	80.19
271.93	88.19
272.162	79.19
272.394	93.19
272.626	75.19
272.858	79.19
273.09	87.19
273.322	81.19
273.553	80.19
273.785	103.19
274.017	93.19
274.249	83.19
274.481	82.19
274.713	81.19
274.945	74.19
275.176	98.19
275.408	105.19
275.64	80.19
275.872	76.19
276.104	95.19
276.335	83.19
276.567	92.19
276.799	98.19
277.031	87.19
277.262	90.19
277.494	84.19
277.726	84.19
277.957	73.19
278.189	90.19
278.421	77.19
278.652	95.19
278.884	78.19
279.115	90.19
279.347	84.19
279.579	79.19
279.81	77.19
280.042	98.19
280.273	107.19
280.505	93.19
280.736	96.19
280.968	79.19
281.199	79.19
281.431	82.19
281.662	96.19
281.894	83.19
282.125	95.19
282.356	104.19
282.588	126.19
282.819	98.19
283.051	91.19
283.282	89.19
283.513	93.19
283.745	89.19
283.976	96.19
284.207	82.19
284.439	84.19
284.67	100.19
284.901	85.19
285.132	87.19
285.364	81.19
285.595	89.19
285.826	100.19
286.057	95.19
286.288	90.19
286.52	103.19
286.751	81.19
286.982	79.19
287.213	88.19
287.444	91.19
287.675	84.19
287.906	83.19
288.138	85.19
288.369	94.19
288.6	95.19
288.831	81.19
289.062	98.19
289.293	89.19
289.524	86.19
289.755	92.19
289.986	85.19
290.217	73.19
290.448	91.19
290.679	89.19
290.91	98.19
291.141	80.19
291.371	83.19
291.602	101.19
291.833	86.19
292.064	93.19
292.295	86.19
292.526	90.19
292.757	79.19
292.987	79.19
293.218	87.19
293.449	97.19
293.68	81.19
293.91	90.19
294.141	87.19
294.372	89.19
294.603	86.19
294.833	99.19
295.064	96.19
295.295	90.19
295.525	80.19
295.756	96.19
295.987	101.19
296.217	134.19
296.448	117.19
296.679	97.19
296.909	102.19
297.14	91.19
297.37	76.19
297.601	78.19
297.831	89.19
298.062	92.19
298.292	82.19
298.523	95.19
298.753	84.19
298.984	79.19
299.214	84.19
299.445	94.19
299.675	95.19
299.905	107.19
300.136	95.19
300.366	84.19
300.597	75.19
300.827	94.19
301.057	89.19
301.288	99.19
301.518	96.19
301.748	90.19
301.979	97.19
302.209	94.19
302.439	81.19
302.669	98.19
302.9	88.19
303.13	85.19
303.36	107.19
303.59	94.19
303.82	103.19
304.051	91.19
304.281	87.19
304.511	74.19
304.741	90.19
304.971	85.19
305.201	77.19
305.431	94.19
305.661	87.19
305.891	85.19
306.121	98.19
306.352	108.19
306.582	89.19
306.812	91.19
307.042	88.19
307.272	96.19
307.502	103.19
307.731	100.19
307.961	92.19
308.191	83.19
308.421	101.19
308.651	105.19
308.881	112.19
309.111	95.19
309.341	87.19
309.571	99.19
309.8	104.19
310.03	101.19
310.26	105.19
310.49	103.19
310.72	95.19
310.949	101.19
311.179	95.19
311.409	90.19
311.639	93.19
311.868	104.19
312.098	85.19
312.328	101.19
312.557	115.19
312.787	109.19
313.017	92.19
313.246	97.19
313.476	75.19
313.706	86.19
313.935	85.19
314.165	87.19
314.394	88.19
314.624	86.19
314.853	96.19
315.083	92.19
315.312	87.19
315.542	90.19
315.771	85.19
316.001	100.19
316.23	93.19
316.46	94.19
316.689	87.19
316.919	94.19
317.148	97.19
317.377	91.19
317.607	92.19
317.836	103.19
318.065	89.19
318.295	86.19
318.524	91.19
318.753	91.19
318.983	96.19
319.212	88.19
319.441	92.19
319.67	98.19
319.9	94.19
320.129	103.19
320.358	94.19
320.587	101.19
320.816	93.19
321.046	82.19
321.275	98.19
321.504	99.19
321.733	85.19
321.962	89.19
322.191	91.19
322.42	108.19
322.649	104.19
322.878	117.19
323.108	103.19
323.337	116.19
323.566	130.19
323.795	145.19
324.024	198.19
324.253	357.19
324.482	786.19
324.71	1588.19
324.939	2119.19
325.168	758.19
325.397	240.19
325.626	146.19
325.855	133.19
326.084	125.19
326.313	135.19
326.542	143.19
326.77	203.19
326.999	438.19
327.228	910.19
327.457	1663.19
327.686	1319.19
327.914	365.19
328.143	186.19
328.372	168.19
328.6	140.19
328.829	123.19
329.058	127.19
329.287	125.19
329.515	107.19
329.744	113.19
329.972	113.19
330.201	143.19
330.43	178.19
330.658	136.19
330.887	123.19
331.115	106.19
331.344	103.19
331.572	95.19
331.801	104.19
332.03	99.19
332.258	88.19
332.486	81.19
332.715	76.19
332.943	79.19
333.172	102.19
333.4	101.19
333.629	104.19
333.857	112.19
334.085	108.19
334.314	150.19
334.542	190.19
334.771	195.19
334.999	105.19
335.227	106.19
335.455	107.19
335.684	106.19
335.912	110.19
336.14	103.19
336.369	102.19
336.597	92.19
336.825	90.19
337.053	99.19
337.281	104.19
337.51	99.19
337.738	85.19
337.966	93.19
338.194	84.19
338.422	88.19
338.65	83.19
338.878	97.19
339.106	90.19
339.334	109.19
339.562	99.19
339.79	89.19
340.018	102.19
340.246	76.19
340.474	97.19
340.702	103.19
340.93	87.19
341.158	102.19
341.386	90.19
341.614	95.19
341.842	96.19
342.07	96.19
342.298	85.19
342.526	96.19
342.754	79.19
342.981	76.19
343.209	82.19
343.437	87.19
343.665	87.19
343.893	97.19
344.12	85.19
344.348	84.19
344.576	76.19
344.804	87.19
345.031	92.19
345.259	92.19
345.487	79.19
345.714	102.19
345.942	99.19
346.17	89.19
346.397	83.19
346.625	89.19
346.853	79.19
347.08	95.19
347.308	96.19
347.535	83.19
347.763	102.19
347.99	100.19
348.218	102.19
348.445	102.19
348.673	100.19
348.9	97.19
349.128	89.19
349.355	98.19
349.583	104.19
349.81	93.19
350.037	101.19
350.265	109.19
350.492	100.19
350.72	102.19
350.947	107.19
351.174	109.19
351.402	112.19
351.629	115.19
351.856	111.19
352.083	111.19
352.311	104.19
352.538	116.19
352.765	97.19
352.992	110.19
353.22	97.19
353.447	108.19
353.674	105.19
353.901	92.19
354.128	108.19
354.355	101.19
354.583	99.19
354.81	101.19
355.037	108.19
355.264	97.19
355.491	84.19
355.718	100.19
355.945	99.19
356.172	95.19
356.399	95.19
356.626	99.19
356.853	107.19
357.08	96.19
357.307	91.19
357.534	83.19
357.761	87.19
357.988	99.19
358.215	93.19
358.441	83.19
358.668	92.19
358.895	101.19
359.122	80.19
359.349	93.19
359.576	91.19
359.802	106.19
360.029	98.19
360.256	101.19
360.483	84.19
360.709	93.19
360.936	92.19
361.163	93.19
361.39	99.19
361.616	83.19
361.843	87.19
362.07	94.19
362.296	75.19
362.523	85.19
362.749	90.19
362.976	106.19
363.203	91.19
363.429	95.19
363.656	84.19
363.882	102.19
364.109	83.19
364.335	92.19
364.562	77.19
364.788	79.19
365.015	92.19
365.241	74.19
365.468	103.19
365.694	104.19
365.92	99.19
366.147	83.19
366.373	102.19
366.599	93.19
366.826	100.19
367.052	97.19
367.278	104.19
367.505	80.19
367.731	92.19
367.957	83.19
368.184	91.19
368.41	92.19
368.636	109.19
368.862	117.19
369.089	108.19
369.315	105.19
369.541	102.19
369.767	102.19
369.993	88.19
370.219	92.19
370.445	95.19
370.672	106.19
370.898	96.19
371.124	85.19
371.35	95.19
371.576	76.19
371.802	98.19
372.028	83.19
372.254	86.19
372.48	68.19
372.706	83.19
372.932	95.19
373.158	83.19
373.384	99.19
373.61	107.19
373.835	98.19
374.061	81.19
374.287	86.19
374.513	102.19
374.739	94.19
374.965	76.19
375.191	96.19
375.416	91.19
375.642	101.19
375.868	88.19
376.094	75.19
376.319	92.19
376.545	83.19
376.771	100.19
376.997	94.19
377.222	93.19
377.448	79.19
377.674	77.19
377.899	94.19
378.125	85.19
378.35	82.19
378.576	89.19
378.802	81.19
379.027	87.19
379.253	99.19
379.478	104.19
379.704	89.19
379.929	88.19
380.155	88.19
380.38	88.19
380.606	87.19
380.831	100.19
381.057	93.19
381.282	112.19
381.507	104.19
381.733	97.19
381.958	94.19
382.184	90.19
382.409	88.19
382.634	102.19
382.86	81.19
383.085	91.19
383.31	97.19
383.535	99.19
383.761	103.19
383.986	96.19
384.211	108.19
384.436	92.19
384.662	97.19
384.887	94.19
385.112	95.19
385.337	106.19
385.562	103.19
385.787	84.19
386.013	104.19
386.238	107.19
386.463	97.19
386.688	112.19
386.913	110.19
387.138	113.19
387.363	95.19
387.588	108.19
387.813	92.19
388.038	106.19
388.263	112.19
388.488	101.19
388.713	104.19
388.938	95.19
389.163	93.19
389.387	91.19
389.612	88.19
389.837	76.19
390.062	92.19
390.287	95.19
390.512	87.19
390.736	96.19
390.961	83.19
391.186	99.19
391.411	86.19
391.636	95.19
391.86	69.19
392.085	99.19
392.31	97.19
392.534	76.19
392.759	79.19
392.984	95.19
393.208	97.19
393.433	98.19
393.658	88.19
393.882	93.19
394.107	82.19
394.331	88.19
394.556	93.19
394.78	82.19
395.005	81.19
395.229	77.19
395.454	95.19
395.678	87.19
395.903	93.19
396.127	98.19
396.352	91.19
396.576	87.19
396.801	90.19
397.025	76.19
397.249	88.19
397.474	92.19
397.698	83.19
397.922	88.19
398.147	75.19
398.371	75.19
398.595	91.19
398.82	89.19
399.044	98.19
399.268	96.19
399.492	100.19
399.717	101.19
399.941	89.19
400.165	93.19
400.389	90.19
400.613	88.19
400.837	96.19
401.062	94.19
401.286	97.19
401.51	89.19
401.734	96.19
401.958	92.19
402.182	110.19
402.406	131.19
402.63	113.19
402.854	83.19
403.078	86.19
403.302	90.19
403.526	96.19
403.75	93.19
403.974	95.19
404.198	79.19
404.422	102.19
404.645	93.19
404.869	85.19
405.093	83.19
405.317	90.19
405.541	82.19
405.765	90.19
405.988	110.19
406.212	155.19
406.436	210.19
406.66	135.19
406.883	106.19
407.107	91.19
407.331	98.19
407.555	99.19
407.778	96.19
408.002	103.19
408.226	75.19
408.449	70.19
408.673	91.19
408.896	106.19
409.12	101.19
409.344	97.19
409.567	80.19
409.791	91.19
410.014	85.19
410.238	100.19
410.461	92.19
410.685	88.19
410.908	94.19
411.132	107.19
411.355	96.19
411.578	97.19
411.802	88.19
412.025	91.19
412.249	107.19
412.472	98.19
412.695	105.19
412.919	85.19
413.142	85.19
413.365	88.19
413.589	95.19
413.812	95.19
414.035	103.19
414.258	91.19
414.482	88.19
414.705	87.19
414.928	100.19
415.151	85.19
415.374	101.19
415.597	83.19
415.821	86.19
416.044	96.19
416.267	85.19
416.49	98.19
416.713	84.19
416.936	97.19
417.159	99.19
417.382	85.19
417.605	87.19
417.828	92.19
418.051	82.19
418.274	97.19
418.497	86.19
418.72	79.19
418.943	89.19
419.166	85.19
419.389	76.19
419.611	89.19
419.834	71.19
420.057	82.19
420.28	104.19
420.503	97.19
420.726	91.19
420.948	88.19
421.171	72.19
421.394	99.19
421.617	101.19
421.839	92.19
422.062	76.19
422.285	96.19
422.507	102.19
422.73	109.19
422.953	84.19
423.175	80.19
423.398	72.19
423.621	93.19
423.843	95.19
424.066	89.19
424.288	95.19
424.511	96.19
424.733	96.19
424.956	95.19
425.178	99.19
425.401	96.19
425.623	107.19
425.846	82.19
426.068	95.19
426.291	77.19
426.513	99.19
426.735	95.19
426.958	87.19
427.18	99.19
427.402	135.19
427.625	146.19
427.847	125.19
428.069	119.19
428.292	95.19
428.514	82.19
428.736	81.19
428.958	80.19
429.181	83.19
429.403	77.19
429.625	100.19
429.847	81.19
430.069	93.19
430.292	84.19
430.514	79.19
430.736	80.19
430.958	86.19
431.18	77.19
431.402	91.19
431.624	89.19
431.846	76.19
432.068	94.19
432.29	94.19
432.512	82.19
432.734	84.19
432.956	97.19
433.178	99.19
433.4	83.19
433.622	106.19
433.844	95.19
434.066	98.19
434.287	82.19
434.509	101.19
434.731	84.19
434.953	90.19
435.175	97.19
435.397	79.19
435.618	90.19
435.84	92.19
436.062	108.19
436.284	123.19
436.505	89.19
436.727	78.19
436.949	104.19
437.17	92.19
437.392	91.19
437.614	90.19
437.835	104.19
438.057	108.19
438.278	97.19
438.5	98.19
438.721	111.19
438.943	98.19
439.165	95.19
439.386	92.19
439.608	86.19
439.829	80.19
440.05	106.19
440.272	133.19
440.493	108.19
440.715	95.19
440.936	95.19
441.158	89.19
441.379	91.19
441.6	74.19
441.822	89.19
442.043	101.19
442.264	113.19
442.486	96.19
442.707	89.19
442.928	99.19
443.149	103.19
443.371	120.19
443.592	93.19
443.813	104.19
444.034	111.19
444.255	104.19
444.476	82.19
444.698	87.19
444.919	89.19
445.14	137.19
445.361	116.19
445.582	118.19
445.803	121.19
446.024	117.19
446.245	130.19
446.466	109.19
446.687	83.19
446.908	84.19
447.129	83.19
447.35	78.19
447.571	99.19
447.792	93.19
448.013	101.19
448.234	111.19
448.455	94.19
448.675	115.19
448.896	113.19
449.117	105.19
449.338	89.19
449.559	102.19
449.779	116.19
450	87.19
450.221	79.19
450.442	79.19
450.662	100.19
450.883	113.19
451.104	107.19
451.324	87.19
451.545	101.19
451.766	84.19
451.986	91.19
452.207	81.19
452.428	108.19
452.648	93.19
452.869	100.19
453.089	108.19
453.31	104.19
453.53	91.19
453.751	98.19
453.971	104.19
454.192	119.19
454.412	91.19
454.633	97.19
454.853	93.19
455.073	95.19
455.294	96.19
455.514	103.19
455.734	77.19
455.955	84.19
456.175	88.19
456.395	88.19
456.616	69.19
456.836	79.19
457.056	79.19
457.276	86.19
457.497	87.19
457.717	93.19
457.937	89.19
458.157	79.19
458.377	104.19
458.598	105.19
458.818	150.19
459.038	149.19
459.258	116.19
459.478	68.19
459.698	79.19
459.918	95.19
460.138	84.19
460.358	106.19
460.578	93.19
460.798	88.19
461.018	99.19
461.238	79.19
461.458	72.19
461.678	93.19
461.898	96.19
462.118	75.19
462.338	73.19
462.558	93.19
462.777	75.19
462.997	84.19
463.217	67.19
463.437	93.19
463.657	91.19
463.876	98.19
464.096	95.19
464.316	71.19
464.536	80.19
464.755	77.19
464.975	100.19
465.195	137.19
465.414	126.19
465.634	77.19
465.854	92.19
466.073	87.19
466.293	87.19
466.512	85.19
466.732	84.19
466.951	76.19
467.171	95.19
467.391	109.19
467.61	88.19
467.829	108.19
468.049	117.19
468.268	115.19
468.488	79.19
468.707	85.19
468.927	85.19
469.146	96.19
469.365	100.19
469.585	90.19
469.804	102.19
470.023	82.19
470.243	98.19
470.462	90.19
470.681	97.19
470.901	101.19
471.12	87.19
471.339	73.19
471.558	78.19
471.777	81.19
471.997	100.19
472.216	167.19
472.435	221.19
472.654	112.19
472.873	90.19
473.092	91.19
473.311	81.19
473.53	88.19
473.749	85.19
473.968	80.19
474.187	98.19
474.406	79.19
474.625	97.19
474.844	81.19
475.063	80.19
475.282	83.19
475.501	72.19
475.72	81.19
475.939	86.19
476.158	81.19
476.377	81.19
476.596	97.19
476.814	90.19
477.033	85.19
477.252	74.19
477.471	81.19
477.69	98.19
477.908	86.19
478.127	75.19
478.346	89.19
478.564	100.19
478.783	102.19
479.002	89.19
479.22	91.19
479.439	98.19
479.658	98.19
479.876	98.19
480.095	98.19
480.313	94.19
480.532	106.19
480.751	110.19
480.969	157.19
481.188	360.19
481.406	235.19
481.624	110.19
481.843	99.19
482.061	89.19
482.28	76.19
482.498	82.19
482.717	100.19
482.935	102.19
483.153	76.19
483.372	84.19
483.59	83.19
483.808	103.19
484.027	88.19
484.245	81.19
484.463	88.19
484.681	89.19
484.9	86.19
485.118	85.19
485.336	97.19
485.554	99.19
485.772	101.19
485.99	82.19
486.209	105.19
486.427	106.19
486.645	114.19
486.863	118.19
487.081	102.19
487.299	93.19
487.517	96.19
487.735	106.19
487.953	106.19
488.171	93.19
488.389	87.19
488.607	101.19
488.825	103.19
489.043	89.19
489.261	99.19
489.479	93.19
489.696	92.19
489.914	89.19
490.132	79.19
490.35	91.19
490.568	84.19
490.786	90.19
491.003	88.19
491.221	102.19
491.439	83.19
491.657	88.19
491.874	98.19
492.092	95.19
492.31	89.19
492.527	82.19
492.745	85.19
492.963	89.19
493.18	91.19
493.398	100.19
493.615	93.19
493.833	93.19
494.05	97.19
494.268	91.19
494.485	86.19
494.703	87.19
494.92	90.19
495.138	88.19
495.355	91.19
495.573	103.19
495.79	91.19
496.008	90.19
496.225	102.19
496.442	102.19
496.66	97.19
496.877	100.19
497.094	98.19
497.312	93.19
497.529	87.19
497.746	76.19
497.963	81.19
498.181	97.19
498.398	103.19
498.615	108.19
498.832	98.19
499.049	90.19
499.267	84.19
499.484	87.19
499.701	81.19
499.918	88.19
500.135	92.19
500.352	96.19
500.569	76.19
500.786	84.19
501.003	91.19
501.22	89.19
501.437	99.19
501.654	111.19
501.871	105.19
502.088	91.19
502.305	87.19
502.522	90.19
502.739	84.19
502.956	83.19
503.172	88.19
503.389	98.19
503.606	86.19
503.823	97.19
504.04	93.19
504.256	84.19
504.473	86.19
504.69	100.19
504.907	95.19
505.123	80.19
505.34	92.19
505.557	81.19
505.773	96.19
505.99	86.19
506.207	91.19
506.423	84.19
506.64	99.19
506.856	88.19
507.073	81.19
507.289	96.19
507.506	91.19
507.722	96.19
507.939	121.19
508.155	99.19
508.372	97.19
508.588	100.19
508.805	89.19
509.021	92.19
509.238	101.19
509.454	86.19
509.67	109.19
509.887	111.19
510.103	131.19
510.319	210.19
510.536	660.19
510.752	2045.19
510.968	579.19
511.184	127.19
511.401	123.19
511.617	101.19
511.833	97.19
512.049	81.19
512.265	94.19
512.481	96.19
512.698	99.19
512.914	80.19
513.13	91.19
513.346	77.19
513.562	96.19
513.778	100.19
513.994	87.19
514.21	75.19
514.426	118.19
514.642	112.19
514.858	97.19
515.074	137.19
515.29	380.19
515.506	1227.19
515.721	460.19
