Data from Circ_1985_H10_HRD10591_00071.txt Node
Date: Wed Jan 03 12:19:36 EST 2024
User: Yrep
Spectrometer: HR+D1059
Trigger mode: 1
Integration Time (sec): 1.000000E-1
Scans to average: 1
Electric dark correction enabled: true
Nonlinearity correction enabled: false
Boxcar width: 0
XAxis mode: Wavelengths
Number of Pixels in Spectrum: 2048
>>>>>Begin Spectral Data<<<<<
223.165	-16.94
223.4	-16.94
223.635	-16.94
223.869	-8.94
224.104	-23.94
224.338	-13.94
224.573	-17.94
224.808	3.06
225.042	-8.94
225.277	-12.94
225.511	-4.94
225.746	3.06
225.98	4.06
226.215	12.06
226.449	24.06
226.683	26.06
226.918	14.06
227.152	22.06
227.387	46.06
227.621	33.06
227.856	58.06
228.09	44.06
228.324	43.06
228.559	47.06
228.793	48.06
229.027	75.06
229.262	65.06
229.496	64.06
229.73	76.06
229.964	84.06
230.199	73.06
230.433	87.06
230.667	75.06
230.901	104.06
231.136	88.06
231.37	79.06
231.604	87.06
231.838	88.06
232.072	76.06
232.306	83.06
232.541	68.06
232.775	87.06
233.009	84.06
233.243	90.06
233.477	98.06
233.711	87.06
233.945	89.06
234.179	90.06
234.413	77.06
234.647	76.06
234.881	96.06
235.115	90.06
235.349	79.06
235.583	82.06
235.817	90.06
236.051	90.06
236.285	99.06
236.519	87.06
236.753	62.06
236.987	79.06
237.221	80.06
237.455	69.06
237.689	82.06
237.922	91.06
238.156	88.06
238.39	88.06
238.624	88.06
238.858	87.06
239.091	73.06
239.325	82.06
239.559	73.06
239.793	78.06
240.027	92.06
240.26	82.06
240.494	83.06
240.728	77.06
240.961	86.06
241.195	78.06
241.429	89.06
241.662	84.06
241.896	77.06
242.13	94.06
242.363	93.06
242.597	76.06
242.83	88.06
243.064	78.06
243.298	90.06
243.531	83.06
243.765	84.06
243.998	85.06
244.232	90.06
244.465	93.06
244.699	79.06
244.932	78.06
245.166	86.06
245.399	78.06
245.633	100.06
245.866	82.06
246.099	78.06
246.333	94.06
246.566	81.06
246.8	55.06
247.033	83.06
247.266	70.06
247.5	86.06
247.733	75.06
247.966	83.06
248.2	73.06
248.433	86.06
248.666	88.06
248.899	87.06
249.133	73.06
249.366	102.06
249.599	86.06
249.832	83.06
250.066	106.06
250.299	93.06
250.532	80.06
250.765	88.06
250.998	74.06
251.231	88.06
251.465	77.06
251.698	93.06
251.931	95.06
252.164	86.06
252.397	84.06
252.63	72.06
252.863	78.06
253.096	104.06
253.329	82.06
253.562	82.06
253.795	83.06
254.028	90.06
254.261	88.06
254.494	76.06
254.727	92.06
254.96	84.06
255.193	85.06
255.426	87.06
255.659	86.06
255.892	85.06
256.124	83.06
256.357	87.06
256.59	94.06
256.823	85.06
257.056	85.06
257.289	88.06
257.521	97.06
257.754	74.06
257.987	88.06
258.22	84.06
258.452	83.06
258.685	90.06
258.918	85.06
259.151	79.06
259.383	79.06
259.616	84.06
259.849	79.06
260.081	84.06
260.314	95.06
260.547	96.06
260.779	82.06
261.012	107.06
261.244	87.06
261.477	94.06
261.71	98.06
261.942	103.06
262.175	108.06
262.407	84.06
262.64	93.06
262.872	93.06
263.105	83.06
263.337	86.06
263.57	94.06
263.802	88.06
264.035	94.06
264.267	84.06
264.499	90.06
264.732	90.06
264.964	86.06
265.197	76.06
265.429	76.06
265.661	87.06
265.894	85.06
266.126	87.06
266.358	96.06
266.591	91.06
266.823	87.06
267.055	84.06
267.287	91.06
267.52	82.06
267.752	84.06
267.984	83.06
268.216	107.06
268.448	92.06
268.681	90.06
268.913	98.06
269.145	95.06
269.377	84.06
269.609	86.06
269.841	90.06
270.073	90.06
270.306	78.06
270.538	80.06
270.77	90.06
271.002	91.06
271.234	92.06
271.466	86.06
271.698	87.06
271.93	96.06
272.162	99.06
272.394	91.06
272.626	86.06
272.858	84.06
273.09	89.06
273.322	95.06
273.553	73.06
273.785	82.06
274.017	92.06
274.249	76.06
274.481	92.06
274.713	91.06
274.945	75.06
275.176	87.06
275.408	85.06
275.64	99.06
275.872	92.06
276.104	105.06
276.335	84.06
276.567	102.06
276.799	111.06
277.031	106.06
277.262	94.06
277.494	92.06
277.726	87.06
277.957	83.06
278.189	80.06
278.421	100.06
278.652	87.06
278.884	84.06
279.115	86.06
279.347	88.06
279.579	77.06
279.81	99.06
280.042	82.06
280.273	97.06
280.505	86.06
280.736	91.06
280.968	97.06
281.199	90.06
281.431	79.06
281.662	79.06
281.894	91.06
282.125	108.06
282.356	103.06
282.588	130.06
282.819	122.06
283.051	95.06
283.282	78.06
283.513	90.06
283.745	87.06
283.976	106.06
284.207	87.06
284.439	91.06
284.67	84.06
284.901	72.06
285.132	90.06
285.364	79.06
285.595	86.06
285.826	88.06
286.057	103.06
286.288	90.06
286.52	88.06
286.751	87.06
286.982	94.06
287.213	92.06
287.444	98.06
287.675	87.06
287.906	86.06
288.138	74.06
288.369	94.06
288.6	103.06
288.831	90.06
289.062	94.06
289.293	91.06
289.524	86.06
289.755	88.06
289.986	88.06
290.217	80.06
290.448	83.06
290.679	86.06
290.91	99.06
291.141	79.06
291.371	98.06
291.602	87.06
291.833	72.06
292.064	66.06
292.295	83.06
292.526	94.06
292.757	92.06
292.987	92.06
293.218	89.06
293.449	90.06
293.68	87.06
293.91	85.06
294.141	98.06
294.372	92.06
294.603	91.06
294.833	93.06
295.064	96.06
295.295	93.06
295.525	86.06
295.756	100.06
295.987	116.06
296.217	113.06
296.448	110.06
296.679	94.06
296.909	93.06
297.14	96.06
297.37	90.06
297.601	95.06
297.831	82.06
298.062	92.06
298.292	88.06
298.523	98.06
298.753	90.06
298.984	94.06
299.214	89.06
299.445	86.06
299.675	77.06
299.905	87.06
300.136	86.06
300.366	92.06
300.597	94.06
300.827	108.06
301.057	106.06
301.288	103.06
301.518	95.06
301.748	87.06
301.979	103.06
302.209	96.06
302.439	86.06
302.669	95.06
302.9	98.06
303.13	88.06
303.36	108.06
303.59	105.06
303.82	114.06
304.051	94.06
304.281	91.06
304.511	96.06
304.741	90.06
304.971	101.06
305.201	95.06
305.431	94.06
305.661	89.06
305.891	105.06
306.121	93.06
306.352	95.06
306.582	103.06
306.812	104.06
307.042	100.06
307.272	102.06
307.502	98.06
307.731	98.06
307.961	80.06
308.191	93.06
308.421	80.06
308.651	91.06
308.881	98.06
309.111	109.06
309.341	96.06
309.571	102.06
309.8	100.06
310.03	92.06
310.26	89.06
310.49	89.06
310.72	91.06
310.949	118.06
311.179	104.06
311.409	91.06
311.639	94.06
311.868	105.06
312.098	99.06
312.328	109.06
312.557	103.06
312.787	100.06
313.017	95.06
313.246	98.06
313.476	102.06
313.706	92.06
313.935	91.06
314.165	91.06
314.394	104.06
314.624	88.06
314.853	102.06
315.083	91.06
315.312	83.06
315.542	96.06
315.771	88.06
316.001	102.06
316.23	72.06
316.46	97.06
316.689	107.06
316.919	100.06
317.148	84.06
317.377	107.06
317.607	92.06
317.836	88.06
318.065	102.06
318.295	96.06
318.524	88.06
318.753	91.06
318.983	94.06
319.212	90.06
319.441	120.06
319.67	109.06
319.9	95.06
320.129	82.06
320.358	106.06
320.587	89.06
320.816	110.06
321.046	95.06
321.275	98.06
321.504	96.06
321.733	77.06
321.962	102.06
322.191	109.06
322.42	107.06
322.649	119.06
322.878	112.06
323.108	123.06
323.337	125.06
323.566	116.06
323.795	149.06
324.024	179.06
324.253	341.06
324.482	749.06
324.71	1523.06
324.939	2010.06
325.168	724.06
325.397	214.06
325.626	127.06
325.855	114.06
326.084	122.06
326.313	136.06
326.542	146.06
326.77	211.06
326.999	411.06
327.228	876.06
327.457	1603.06
327.686	1225.06
327.914	339.06
328.143	186.06
328.372	152.06
328.6	113.06
328.829	104.06
329.058	122.06
329.287	120.06
329.515	112.06
329.744	108.06
329.972	104.06
330.201	116.06
330.43	143.06
330.658	119.06
330.887	126.06
331.115	101.06
331.344	100.06
331.572	104.06
331.801	106.06
332.03	94.06
332.258	94.06
332.486	87.06
332.715	93.06
332.943	88.06
333.172	100.06
333.4	99.06
333.629	94.06
333.857	104.06
334.085	123.06
334.314	121.06
334.542	149.06
334.771	141.06
334.999	99.06
335.227	106.06
335.455	104.06
335.684	92.06
335.912	98.06
336.14	101.06
336.369	100.06
336.597	91.06
336.825	100.06
337.053	101.06
337.281	91.06
337.51	94.06
337.738	112.06
337.966	92.06
338.194	95.06
338.422	90.06
338.65	108.06
338.878	77.06
339.106	95.06
339.334	101.06
339.562	90.06
339.79	88.06
340.018	91.06
340.246	98.06
340.474	94.06
340.702	100.06
340.93	88.06
341.158	88.06
341.386	94.06
341.614	107.06
341.842	98.06
342.07	96.06
342.298	102.06
342.526	99.06
342.754	96.06
342.981	94.06
343.209	95.06
343.437	105.06
343.665	87.06
343.893	107.06
344.12	78.06
344.348	105.06
344.576	97.06
344.804	75.06
345.031	93.06
345.259	98.06
345.487	92.06
345.714	100.06
345.942	94.06
346.17	98.06
346.397	82.06
346.625	100.06
346.853	103.06
347.08	93.06
347.308	103.06
347.535	119.06
347.763	100.06
347.99	91.06
348.218	100.06
348.445	104.06
348.673	101.06
348.9	94.06
349.128	85.06
349.355	89.06
349.583	96.06
349.81	87.06
350.037	92.06
350.265	95.06
350.492	105.06
350.72	91.06
350.947	93.06
351.174	114.06
351.402	102.06
351.629	103.06
351.856	109.06
352.083	98.06
352.311	102.06
352.538	116.06
352.765	107.06
352.992	115.06
353.22	115.06
353.447	96.06
353.674	97.06
353.901	110.06
354.128	82.06
354.355	89.06
354.583	93.06
354.81	102.06
355.037	97.06
355.264	90.06
355.491	94.06
355.718	96.06
355.945	100.06
356.172	99.06
356.399	91.06
356.626	109.06
356.853	103.06
357.08	96.06
357.307	98.06
357.534	96.06
357.761	85.06
357.988	95.06
358.215	111.06
358.441	91.06
358.668	96.06
358.895	98.06
359.122	88.06
359.349	110.06
359.576	92.06
359.802	78.06
360.029	94.06
360.256	106.06
360.483	103.06
360.709	94.06
360.936	104.06
361.163	102.06
361.39	98.06
361.616	91.06
361.843	86.06
362.07	107.06
362.296	88.06
362.523	80.06
362.749	106.06
362.976	102.06
363.203	96.06
363.429	93.06
363.656	108.06
363.882	99.06
364.109	90.06
364.335	92.06
364.562	108.06
364.788	103.06
365.015	93.06
365.241	102.06
365.468	107.06
365.694	111.06
365.92	83.06
366.147	94.06
366.373	93.06
366.599	91.06
366.826	86.06
367.052	85.06
367.278	99.06
367.505	94.06
367.731	90.06
367.957	109.06
368.184	83.06
368.41	103.06
368.636	104.06
368.862	107.06
369.089	110.06
369.315	94.06
369.541	111.06
369.767	93.06
369.993	97.06
370.219	109.06
370.445	80.06
370.672	85.06
370.898	95.06
371.124	97.06
371.35	89.06
371.576	97.06
371.802	91.06
372.028	84.06
372.254	97.06
372.48	101.06
372.706	96.06
372.932	93.06
373.158	102.06
373.384	96.06
373.61	108.06
373.835	102.06
374.061	89.06
374.287	92.06
374.513	95.06
374.739	82.06
374.965	88.06
375.191	100.06
375.416	100.06
375.642	98.06
375.868	80.06
376.094	102.06
376.319	88.06
376.545	95.06
376.771	87.06
376.997	85.06
377.222	94.06
377.448	93.06
377.674	94.06
377.899	82.06
378.125	102.06
378.35	95.06
378.576	89.06
378.802	95.06
379.027	105.06
379.253	97.06
379.478	88.06
379.704	91.06
379.929	99.06
380.155	100.06
380.38	80.06
380.606	97.06
380.831	94.06
381.057	100.06
381.282	94.06
381.507	94.06
381.733	97.06
381.958	100.06
382.184	115.06
382.409	110.06
382.634	107.06
382.86	115.06
383.085	98.06
383.31	113.06
383.535	104.06
383.761	108.06
383.986	96.06
384.211	87.06
384.436	107.06
384.662	104.06
384.887	104.06
385.112	101.06
385.337	106.06
385.562	104.06
385.787	105.06
386.013	95.06
386.238	110.06
386.463	117.06
386.688	113.06
386.913	96.06
387.138	103.06
387.363	109.06
387.588	114.06
387.813	94.06
388.038	106.06
388.263	108.06
388.488	120.06
388.713	103.06
388.938	99.06
389.163	109.06
389.387	94.06
389.612	110.06
389.837	95.06
390.062	77.06
390.287	74.06
390.512	98.06
390.736	82.06
390.961	102.06
391.186	102.06
391.411	92.06
391.636	100.06
391.86	93.06
392.085	90.06
392.31	96.06
392.534	98.06
392.759	100.06
392.984	93.06
393.208	96.06
393.433	96.06
393.658	97.06
393.882	87.06
394.107	80.06
394.331	82.06
394.556	74.06
394.78	95.06
395.005	77.06
395.229	76.06
395.454	95.06
395.678	96.06
395.903	82.06
396.127	94.06
396.352	102.06
396.576	105.06
396.801	94.06
397.025	96.06
397.249	107.06
397.474	107.06
397.698	91.06
397.922	88.06
398.147	96.06
398.371	79.06
398.595	91.06
398.82	98.06
399.044	79.06
399.268	96.06
399.492	87.06
399.717	92.06
399.941	103.06
400.165	97.06
400.389	97.06
400.613	103.06
400.837	88.06
401.062	78.06
401.286	75.06
401.51	96.06
401.734	86.06
401.958	91.06
402.182	122.06
402.406	136.06
402.63	115.06
402.854	105.06
403.078	84.06
403.302	91.06
403.526	97.06
403.75	96.06
403.974	92.06
404.198	97.06
404.422	104.06
404.645	90.06
404.869	92.06
405.093	90.06
405.317	102.06
405.541	96.06
405.765	88.06
405.988	128.06
406.212	139.06
406.436	187.06
406.66	133.06
406.883	94.06
407.107	92.06
407.331	90.06
407.555	85.06
407.778	91.06
408.002	102.06
408.226	87.06
408.449	97.06
408.673	103.06
408.896	89.06
409.12	90.06
409.344	97.06
409.567	90.06
409.791	88.06
410.014	102.06
410.238	73.06
410.461	89.06
410.685	102.06
410.908	103.06
411.132	130.06
411.355	95.06
411.578	101.06
411.802	86.06
412.025	76.06
412.249	92.06
412.472	92.06
412.695	98.06
412.919	98.06
413.142	95.06
413.365	86.06
413.589	85.06
413.812	88.06
414.035	93.06
414.258	86.06
414.482	90.06
414.705	85.06
414.928	93.06
415.151	93.06
415.374	98.06
415.597	92.06
415.821	96.06
416.044	100.06
416.267	86.06
416.49	100.06
416.713	108.06
416.936	75.06
417.159	77.06
417.382	88.06
417.605	86.06
417.828	98.06
418.051	85.06
418.274	92.06
418.497	85.06
418.72	80.06
418.943	103.06
419.166	96.06
419.389	100.06
419.611	90.06
419.834	95.06
420.057	95.06
420.28	98.06
420.503	94.06
420.726	84.06
420.948	95.06
421.171	96.06
421.394	93.06
421.617	92.06
421.839	95.06
422.062	91.06
422.285	98.06
422.507	100.06
422.73	112.06
422.953	93.06
423.175	90.06
423.398	92.06
423.621	91.06
423.843	93.06
424.066	96.06
424.288	90.06
424.511	87.06
424.733	94.06
424.956	109.06
425.178	92.06
425.401	88.06
425.623	92.06
425.846	96.06
426.068	99.06
426.291	84.06
426.513	90.06
426.735	94.06
426.958	101.06
427.18	115.06
427.402	135.06
427.625	140.06
427.847	129.06
428.069	124.06
428.292	96.06
428.514	94.06
428.736	80.06
428.958	84.06
429.181	93.06
429.403	92.06
429.625	103.06
429.847	93.06
430.069	89.06
430.292	80.06
430.514	99.06
430.736	96.06
430.958	98.06
431.18	99.06
431.402	79.06
431.624	101.06
431.846	90.06
432.068	88.06
432.29	92.06
432.512	88.06
432.734	95.06
432.956	91.06
433.178	87.06
433.4	90.06
433.622	90.06
433.844	93.06
434.066	102.06
434.287	105.06
434.509	88.06
434.731	98.06
434.953	96.06
435.175	90.06
435.397	102.06
435.618	100.06
435.84	102.06
436.062	117.06
436.284	111.06
436.505	104.06
436.727	109.06
436.949	107.06
437.17	99.06
437.392	100.06
437.614	88.06
437.835	95.06
438.057	94.06
438.278	122.06
438.5	95.06
438.721	112.06
438.943	96.06
439.165	82.06
439.386	90.06
439.608	92.06
439.829	101.06
440.05	120.06
440.272	138.06
440.493	104.06
440.715	86.06
440.936	88.06
441.158	90.06
441.379	90.06
441.6	91.06
441.822	107.06
442.043	108.06
442.264	116.06
442.486	101.06
442.707	99.06
442.928	93.06
443.149	118.06
443.371	113.06
443.592	100.06
443.813	115.06
444.034	110.06
444.255	90.06
444.476	95.06
444.698	90.06
444.919	95.06
445.14	116.06
445.361	130.06
445.582	113.06
445.803	125.06
446.024	125.06
446.245	130.06
446.466	125.06
446.687	95.06
446.908	96.06
447.129	86.06
447.35	78.06
447.571	95.06
447.792	90.06
448.013	97.06
448.234	95.06
448.455	89.06
448.675	101.06
448.896	94.06
449.117	95.06
449.338	112.06
449.559	120.06
449.779	129.06
450	104.06
450.221	92.06
450.442	93.06
450.662	100.06
450.883	103.06
451.104	101.06
451.324	110.06
451.545	91.06
451.766	90.06
451.986	88.06
452.207	92.06
452.428	106.06
452.648	99.06
452.869	105.06
453.089	102.06
453.31	106.06
453.53	93.06
453.751	96.06
453.971	100.06
454.192	101.06
454.412	102.06
454.633	94.06
454.853	87.06
455.073	86.06
455.294	83.06
455.514	85.06
455.734	108.06
455.955	91.06
456.175	81.06
456.395	85.06
456.616	86.06
456.836	86.06
457.056	79.06
457.276	87.06
457.497	88.06
457.717	90.06
457.937	106.06
458.157	93.06
458.377	102.06
458.598	99.06
458.818	113.06
459.038	126.06
459.258	118.06
459.478	92.06
459.698	90.06
459.918	90.06
460.138	92.06
460.358	103.06
460.578	99.06
460.798	100.06
461.018	92.06
461.238	95.06
461.458	84.06
461.678	93.06
461.898	93.06
462.118	81.06
462.338	75.06
462.558	67.06
462.777	64.06
462.997	83.06
463.217	78.06
463.437	92.06
463.657	97.06
463.876	87.06
464.096	71.06
464.316	86.06
464.536	94.06
464.755	87.06
464.975	116.06
465.195	154.06
465.414	134.06
465.634	106.06
465.854	90.06
466.073	101.06
466.293	91.06
466.512	77.06
466.732	87.06
466.951	94.06
467.171	94.06
467.391	108.06
467.61	90.06
467.829	96.06
468.049	103.06
468.268	103.06
468.488	79.06
468.707	85.06
468.927	79.06
469.146	90.06
469.365	82.06
469.585	83.06
469.804	91.06
470.023	96.06
470.243	95.06
470.462	101.06
470.681	122.06
470.901	94.06
471.12	95.06
471.339	81.06
471.558	96.06
471.777	100.06
471.997	101.06
472.216	134.06
472.435	168.06
472.654	109.06
472.873	96.06
473.092	99.06
473.311	95.06
473.53	83.06
473.749	102.06
473.968	98.06
474.187	98.06
474.406	100.06
474.625	93.06
474.844	86.06
475.063	88.06
475.282	85.06
475.501	100.06
475.72	102.06
475.939	86.06
476.158	91.06
476.377	104.06
476.596	98.06
476.814	95.06
477.033	94.06
477.252	98.06
477.471	94.06
477.69	98.06
477.908	90.06
478.127	94.06
478.346	107.06
478.564	106.06
478.783	101.06
479.002	99.06
479.22	96.06
479.439	100.06
479.658	100.06
479.876	99.06
480.095	86.06
480.313	99.06
480.532	99.06
480.751	109.06
480.969	122.06
481.188	256.06
481.406	175.06
481.624	86.06
481.843	95.06
482.061	90.06
482.28	84.06
482.498	76.06
482.717	87.06
482.935	82.06
483.153	86.06
483.372	108.06
483.59	96.06
483.808	88.06
484.027	89.06
484.245	92.06
484.463	103.06
484.681	107.06
484.9	111.06
485.118	98.06
485.336	89.06
485.554	86.06
485.772	104.06
485.99	115.06
486.209	106.06
486.427	106.06
486.645	117.06
486.863	104.06
487.081	106.06
487.299	95.06
487.517	110.06
487.735	96.06
487.953	95.06
488.171	88.06
488.389	103.06
488.607	93.06
488.825	104.06
489.043	86.06
489.261	102.06
489.479	91.06
489.696	101.06
489.914	83.06
490.132	103.06
490.35	84.06
490.568	89.06
490.786	97.06
491.003	94.06
491.221	75.06
491.439	90.06
491.657	86.06
491.874	91.06
492.092	95.06
492.31	91.06
492.527	94.06
492.745	98.06
492.963	99.06
493.18	90.06
493.398	88.06
493.615	95.06
493.833	105.06
494.05	94.06
494.268	94.06
494.485	88.06
494.703	85.06
494.92	92.06
495.138	84.06
495.355	92.06
495.573	92.06
495.79	86.06
496.008	84.06
496.225	110.06
496.442	96.06
496.66	106.06
496.877	95.06
497.094	88.06
497.312	79.06
497.529	102.06
497.746	82.06
497.963	87.06
498.181	99.06
498.398	98.06
498.615	97.06
498.832	123.06
499.049	99.06
499.267	98.06
499.484	95.06
499.701	95.06
499.918	91.06
500.135	104.06
500.352	86.06
500.569	95.06
500.786	84.06
501.003	88.06
501.22	75.06
501.437	93.06
501.654	101.06
501.871	106.06
502.088	98.06
502.305	80.06
502.522	76.06
502.739	91.06
502.956	85.06
503.172	100.06
503.389	103.06
503.606	112.06
503.823	96.06
504.04	89.06
504.256	95.06
504.473	87.06
504.69	69.06
504.907	90.06
505.123	87.06
505.34	79.06
505.557	80.06
505.773	86.06
505.99	80.06
506.207	99.06
506.423	98.06
506.64	86.06
506.856	88.06
507.073	82.06
507.289	102.06
507.506	105.06
507.722	103.06
507.939	111.06
508.155	102.06
508.372	95.06
508.588	88.06
508.805	99.06
509.021	112.06
509.238	101.06
509.454	103.06
509.67	97.06
509.887	111.06
510.103	116.06
510.319	195.06
510.536	613.06
510.752	1863.06
510.968	512.06
511.184	139.06
511.401	103.06
511.617	88.06
511.833	86.06
512.049	90.06
512.265	89.06
512.481	92.06
512.698	92.06
512.914	109.06
513.13	94.06
513.346	98.06
513.562	104.06
513.778	109.06
513.994	104.06
514.21	94.06
514.426	104.06
514.642	106.06
