Data from Circ_1985_H10_HRD10591_00046.txt Node
Date: Wed Jan 03 12:19:31 EST 2024
User: Yrep
Spectrometer: HR+D1059
Trigger mode: 1
Integration Time (sec): 1.000000E-1
Scans to average: 1
Electric dark correction enabled: true
Nonlinearity correction enabled: false
Boxcar width: 0
XAxis mode: Wavelengths
Number of Pixels in Spectrum: 2048
>>>>>Begin Spectral Data<<<<<
223.165	-21.31
223.4	-21.31
223.635	-21.31
223.869	-23.31
224.104	-21.31
224.338	-15.31
224.573	-23.31
224.808	-11.31
225.042	-16.31
225.277	-22.31
225.511	-1.31
225.746	4.69
225.98	3.69
226.215	22.69
226.449	24.69
226.683	29.69
226.918	40.69
227.152	29.69
227.387	43.69
227.621	51.69
227.856	45.69
228.09	34.69
228.324	47.69
228.559	48.69
228.793	64.69
229.027	57.69
229.262	75.69
229.496	64.69
229.73	90.69
229.964	82.69
230.199	65.69
230.433	71.69
230.667	73.69
230.901	60.69
231.136	63.69
231.37	75.69
231.604	70.69
231.838	82.69
232.072	89.69
232.306	77.69
232.541	70.69
232.775	82.69
233.009	75.69
233.243	66.69
233.477	80.69
233.711	80.69
233.945	80.69
234.179	71.69
234.413	87.69
234.647	72.69
234.881	75.69
235.115	82.69
235.349	86.69
235.583	70.69
235.817	98.69
236.051	88.69
236.285	72.69
236.519	69.69
236.753	83.69
236.987	74.69
237.221	84.69
237.455	72.69
237.689	78.69
237.922	70.69
238.156	89.69
238.39	64.69
238.624	72.69
238.858	81.69
239.091	66.69
239.325	73.69
239.559	79.69
239.793	85.69
240.027	87.69
240.26	93.69
240.494	75.69
240.728	61.69
240.961	72.69
241.195	69.69
241.429	90.69
241.662	71.69
241.896	79.69
242.13	71.69
242.363	92.69
242.597	64.69
242.83	65.69
243.064	66.69
243.298	73.69
243.531	67.69
243.765	63.69
243.998	90.69
244.232	78.69
244.465	71.69
244.699	68.69
244.932	78.69
245.166	80.69
245.399	79.69
245.633	72.69
245.866	77.69
246.099	78.69
246.333	73.69
246.566	79.69
246.8	65.69
247.033	70.69
247.266	85.69
247.5	81.69
247.733	81.69
247.966	78.69
248.2	78.69
248.433	78.69
248.666	74.69
248.899	80.69
249.133	78.69
249.366	92.69
249.599	81.69
249.832	80.69
250.066	82.69
250.299	58.69
250.532	61.69
250.765	82.69
250.998	78.69
251.231	82.69
251.465	70.69
251.698	60.69
251.931	78.69
252.164	61.69
252.397	77.69
252.63	85.69
252.863	82.69
253.096	83.69
253.329	102.69
253.562	71.69
253.795	72.69
254.028	77.69
254.261	80.69
254.494	85.69
254.727	90.69
254.96	70.69
255.193	84.69
255.426	76.69
255.659	75.69
255.892	72.69
256.124	87.69
256.357	73.69
256.59	62.69
256.823	81.69
257.056	76.69
257.289	79.69
257.521	84.69
257.754	72.69
257.987	80.69
258.22	72.69
258.452	60.69
258.685	92.69
258.918	100.69
259.151	70.69
259.383	80.69
259.616	83.69
259.849	83.69
260.081	79.69
260.314	86.69
260.547	77.69
260.779	82.69
261.012	79.69
261.244	84.69
261.477	78.69
261.71	90.69
261.942	99.69
262.175	96.69
262.407	93.69
262.64	80.69
262.872	81.69
263.105	88.69
263.337	80.69
263.57	62.69
263.802	72.69
264.035	77.69
264.267	81.69
264.499	82.69
264.732	75.69
264.964	86.69
265.197	84.69
265.429	83.69
265.661	86.69
265.894	81.69
266.126	76.69
266.358	80.69
266.591	87.69
266.823	90.69
267.055	92.69
267.287	97.69
267.52	63.69
267.752	84.69
267.984	84.69
268.216	94.69
268.448	88.69
268.681	88.69
268.913	85.69
269.145	60.69
269.377	78.69
269.609	69.69
269.841	87.69
270.073	80.69
270.306	66.69
270.538	80.69
270.77	83.69
271.002	77.69
271.234	81.69
271.466	86.69
271.698	65.69
271.93	81.69
272.162	73.69
272.394	78.69
272.626	73.69
272.858	89.69
273.09	82.69
273.322	79.69
273.553	72.69
273.785	84.69
274.017	68.69
274.249	92.69
274.481	89.69
274.713	81.69
274.945	80.69
275.176	86.69
275.408	88.69
275.64	81.69
275.872	91.69
276.104	78.69
276.335	85.69
276.567	90.69
276.799	100.69
277.031	89.69
277.262	76.69
277.494	78.69
277.726	85.69
277.957	88.69
278.189	73.69
278.421	79.69
278.652	80.69
278.884	83.69
279.115	66.69
279.347	81.69
279.579	69.69
279.81	89.69
280.042	80.69
280.273	93.69
280.505	72.69
280.736	80.69
280.968	92.69
281.199	84.69
281.431	95.69
281.662	83.69
281.894	85.69
282.125	95.69
282.356	104.69
282.588	117.69
282.819	108.69
283.051	76.69
283.282	84.69
283.513	66.69
283.745	72.69
283.976	78.69
284.207	91.69
284.439	83.69
284.67	65.69
284.901	80.69
285.132	73.69
285.364	72.69
285.595	88.69
285.826	80.69
286.057	78.69
286.288	86.69
286.52	90.69
286.751	99.69
286.982	77.69
287.213	95.69
287.444	84.69
287.675	61.69
287.906	92.69
288.138	85.69
288.369	86.69
288.6	86.69
288.831	94.69
289.062	91.69
289.293	81.69
289.524	95.69
289.755	90.69
289.986	78.69
290.217	93.69
290.448	82.69
290.679	66.69
290.91	77.69
291.141	92.69
291.371	72.69
291.602	68.69
291.833	73.69
292.064	86.69
292.295	89.69
292.526	93.69
292.757	80.69
292.987	96.69
293.218	82.69
293.449	90.69
293.68	69.69
293.91	76.69
294.141	98.69
294.372	84.69
294.603	88.69
294.833	84.69
295.064	82.69
295.295	96.69
295.525	97.69
295.756	107.69
295.987	93.69
296.217	127.69
296.448	112.69
296.679	102.69
296.909	80.69
297.14	73.69
297.37	84.69
297.601	79.69
297.831	88.69
298.062	91.69
298.292	80.69
298.523	75.69
298.753	85.69
298.984	90.69
299.214	95.69
299.445	83.69
299.675	84.69
299.905	88.69
300.136	85.69
300.366	86.69
300.597	96.69
300.827	91.69
301.057	90.69
301.288	92.69
301.518	92.69
301.748	93.69
301.979	103.69
302.209	87.69
302.439	98.69
302.669	87.69
302.9	84.69
303.13	89.69
303.36	87.69
303.59	101.69
303.82	110.69
304.051	80.69
304.281	107.69
304.511	83.69
304.741	85.69
304.971	80.69
305.201	100.69
305.431	77.69
305.661	89.69
305.891	92.69
306.121	94.69
306.352	100.69
306.582	101.69
306.812	90.69
307.042	86.69
307.272	80.69
307.502	98.69
307.731	97.69
307.961	84.69
308.191	85.69
308.421	93.69
308.651	85.69
308.881	81.69
309.111	89.69
309.341	74.69
309.571	83.69
309.8	86.69
310.03	97.69
310.26	89.69
310.49	109.69
310.72	98.69
310.949	96.69
311.179	104.69
311.409	101.69
311.639	87.69
311.868	79.69
312.098	83.69
312.328	113.69
312.557	100.69
312.787	84.69
313.017	98.69
313.246	97.69
313.476	84.69
313.706	86.69
313.935	88.69
314.165	80.69
314.394	93.69
314.624	98.69
314.853	100.69
315.083	81.69
315.312	90.69
315.542	99.69
315.771	101.69
316.001	92.69
316.23	92.69
316.46	80.69
316.689	84.69
316.919	77.69
317.148	105.69
317.377	85.69
317.607	96.69
317.836	92.69
318.065	94.69
318.295	92.69
318.524	70.69
318.753	109.69
318.983	98.69
319.212	88.69
319.441	101.69
319.67	94.69
319.9	77.69
320.129	91.69
320.358	90.69
320.587	83.69
320.816	96.69
321.046	96.69
321.275	98.69
321.504	100.69
321.733	91.69
321.962	96.69
322.191	89.69
322.42	93.69
322.649	100.69
322.878	112.69
323.108	101.69
323.337	104.69
323.566	129.69
323.795	145.69
324.024	175.69
324.253	322.69
324.482	730.69
324.71	1454.69
324.939	1945.69
325.168	710.69
325.397	204.69
325.626	143.69
325.855	113.69
326.084	119.69
326.313	115.69
326.542	130.69
326.77	188.69
326.999	376.69
327.228	846.69
327.457	1488.69
327.686	1208.69
327.914	323.69
328.143	179.69
328.372	121.69
328.6	107.69
328.829	105.69
329.058	93.69
329.287	108.69
329.515	92.69
329.744	102.69
329.972	89.69
330.201	109.69
330.43	117.69
330.658	109.69
330.887	116.69
331.115	108.69
331.344	94.69
331.572	104.69
331.801	85.69
332.03	100.69
332.258	98.69
332.486	90.69
332.715	96.69
332.943	96.69
333.172	106.69
333.4	96.69
333.629	102.69
333.857	100.69
334.085	102.69
334.314	112.69
334.542	127.69
334.771	104.69
334.999	103.69
335.227	84.69
335.455	79.69
335.684	92.69
335.912	85.69
336.14	88.69
336.369	90.69
336.597	99.69
336.825	104.69
337.053	97.69
337.281	80.69
337.51	87.69
337.738	89.69
337.966	82.69
338.194	94.69
338.422	78.69
338.65	102.69
338.878	95.69
339.106	94.69
339.334	79.69
339.562	95.69
339.79	92.69
340.018	79.69
340.246	89.69
340.474	95.69
340.702	89.69
340.93	86.69
341.158	97.69
341.386	90.69
341.614	85.69
341.842	111.69
342.07	88.69
342.298	83.69
342.526	85.69
342.754	84.69
342.981	78.69
343.209	79.69
343.437	89.69
343.665	95.69
343.893	92.69
344.12	87.69
344.348	84.69
344.576	82.69
344.804	86.69
345.031	92.69
345.259	85.69
345.487	113.69
345.714	80.69
345.942	97.69
346.17	85.69
346.397	93.69
346.625	84.69
346.853	86.69
347.08	92.69
347.308	93.69
347.535	105.69
347.763	85.69
347.99	87.69
348.218	94.69
348.445	85.69
348.673	95.69
348.9	98.69
349.128	82.69
349.355	80.69
349.583	85.69
349.81	92.69
350.037	96.69
350.265	102.69
350.492	104.69
350.72	86.69
350.947	82.69
351.174	105.69
351.402	104.69
351.629	97.69
351.856	92.69
352.083	85.69
352.311	101.69
352.538	99.69
352.765	97.69
352.992	100.69
353.22	106.69
353.447	101.69
353.674	105.69
353.901	97.69
354.128	87.69
354.355	104.69
354.583	103.69
354.81	96.69
355.037	114.69
355.264	97.69
355.491	88.69
355.718	106.69
355.945	88.69
356.172	95.69
356.399	93.69
356.626	100.69
356.853	92.69
357.08	86.69
357.307	97.69
357.534	80.69
357.761	97.69
357.988	94.69
358.215	96.69
358.441	93.69
358.668	84.69
358.895	106.69
359.122	89.69
359.349	83.69
359.576	88.69
359.802	105.69
360.029	106.69
360.256	98.69
360.483	97.69
360.709	90.69
360.936	89.69
361.163	87.69
361.39	96.69
361.616	80.69
361.843	80.69
362.07	86.69
362.296	88.69
362.523	105.69
362.749	91.69
362.976	102.69
363.203	102.69
363.429	93.69
363.656	93.69
363.882	93.69
364.109	95.69
364.335	92.69
364.562	73.69
364.788	75.69
365.015	78.69
365.241	106.69
365.468	112.69
365.694	86.69
365.92	95.69
366.147	82.69
366.373	89.69
366.599	96.69
366.826	85.69
367.052	87.69
367.278	84.69
367.505	95.69
367.731	87.69
367.957	94.69
368.184	95.69
368.41	113.69
368.636	98.69
368.862	105.69
369.089	97.69
369.315	82.69
369.541	101.69
369.767	83.69
369.993	84.69
370.219	80.69
370.445	74.69
370.672	82.69
370.898	95.69
371.124	85.69
371.35	78.69
371.576	105.69
371.802	82.69
372.028	80.69
372.254	79.69
372.48	95.69
372.706	96.69
372.932	83.69
373.158	90.69
373.384	65.69
373.61	96.69
373.835	95.69
374.061	92.69
374.287	87.69
374.513	70.69
374.739	82.69
374.965	88.69
375.191	86.69
375.416	91.69
375.642	96.69
375.868	82.69
376.094	89.69
376.319	92.69
376.545	87.69
376.771	88.69
376.997	91.69
377.222	88.69
377.448	85.69
377.674	89.69
377.899	85.69
378.125	90.69
378.35	101.69
378.576	89.69
378.802	86.69
379.027	81.69
379.253	93.69
379.478	94.69
379.704	84.69
379.929	88.69
380.155	92.69
380.38	101.69
380.606	95.69
380.831	109.69
381.057	98.69
381.282	100.69
381.507	90.69
381.733	96.69
381.958	96.69
382.184	88.69
382.409	102.69
382.634	85.69
382.86	103.69
383.085	97.69
383.31	117.69
383.535	104.69
383.761	92.69
383.986	76.69
384.211	89.69
384.436	91.69
384.662	103.69
384.887	96.69
385.112	84.69
385.337	112.69
385.562	118.69
385.787	100.69
386.013	109.69
386.238	108.69
386.463	111.69
386.688	119.69
386.913	107.69
387.138	101.69
387.363	89.69
387.588	109.69
387.813	92.69
388.038	102.69
388.263	94.69
388.488	106.69
388.713	103.69
388.938	84.69
389.163	100.69
389.387	95.69
389.612	90.69
389.837	92.69
390.062	96.69
390.287	78.69
390.512	85.69
390.736	85.69
390.961	84.69
391.186	79.69
391.411	102.69
391.636	93.69
391.86	82.69
392.085	86.69
392.31	72.69
392.534	73.69
392.759	84.69
392.984	95.69
393.208	108.69
393.433	103.69
393.658	108.69
393.882	80.69
394.107	68.69
394.331	84.69
394.556	90.69
394.78	94.69
395.005	85.69
395.229	88.69
395.454	89.69
395.678	89.69
395.903	86.69
396.127	83.69
396.352	84.69
396.576	93.69
396.801	88.69
397.025	88.69
397.249	97.69
397.474	93.69
397.698	78.69
397.922	76.69
398.147	99.69
398.371	79.69
398.595	95.69
398.82	73.69
399.044	73.69
399.268	91.69
399.492	88.69
399.717	83.69
399.941	83.69
400.165	95.69
400.389	85.69
400.613	83.69
400.837	94.69
401.062	76.69
401.286	81.69
401.51	86.69
401.734	78.69
401.958	87.69
402.182	110.69
402.406	131.69
402.63	103.69
402.854	90.69
403.078	88.69
403.302	95.69
403.526	91.69
403.75	103.69
403.974	93.69
404.198	79.69
404.422	89.69
404.645	81.69
404.869	89.69
405.093	91.69
405.317	94.69
405.541	101.69
405.765	109.69
405.988	97.69
406.212	140.69
406.436	176.69
406.66	124.69
406.883	99.69
407.107	93.69
407.331	80.69
407.555	95.69
407.778	84.69
408.002	80.69
408.226	83.69
408.449	84.69
408.673	92.69
408.896	90.69
409.12	95.69
409.344	68.69
409.567	93.69
409.791	96.69
410.014	93.69
410.238	96.69
410.461	94.69
410.685	72.69
410.908	99.69
411.132	95.69
411.355	103.69
411.578	84.69
411.802	86.69
412.025	93.69
412.249	91.69
412.472	81.69
412.695	95.69
412.919	71.69
413.142	90.69
413.365	93.69
413.589	100.69
413.812	78.69
414.035	100.69
414.258	82.69
414.482	73.69
414.705	83.69
414.928	84.69
415.151	86.69
415.374	88.69
415.597	76.69
415.821	79.69
416.044	80.69
416.267	93.69
416.49	84.69
416.713	93.69
416.936	79.69
417.159	81.69
417.382	83.69
417.605	90.69
417.828	88.69
418.051	83.69
418.274	84.69
418.497	86.69
418.72	82.69
418.943	85.69
419.166	78.69
419.389	92.69
419.611	90.69
419.834	68.69
420.057	70.69
420.28	84.69
420.503	78.69
420.726	76.69
420.948	84.69
421.171	82.69
421.394	86.69
421.617	89.69
421.839	105.69
422.062	93.69
422.285	101.69
422.507	93.69
422.73	100.69
422.953	90.69
423.175	97.69
423.398	91.69
423.621	84.69
423.843	73.69
424.066	81.69
424.288	88.69
424.511	92.69
424.733	88.69
424.956	100.69
425.178	105.69
425.401	101.69
425.623	87.69
425.846	94.69
426.068	78.69
426.291	96.69
426.513	95.69
426.735	78.69
426.958	79.69
427.18	101.69
427.402	117.69
427.625	145.69
427.847	129.69
428.069	113.69
428.292	85.69
428.514	89.69
428.736	84.69
428.958	102.69
429.181	87.69
429.403	91.69
429.625	87.69
429.847	92.69
430.069	93.69
430.292	86.69
430.514	79.69
430.736	76.69
430.958	96.69
431.18	82.69
431.402	88.69
431.624	88.69
431.846	81.69
432.068	93.69
432.29	85.69
432.512	88.69
432.734	89.69
432.956	88.69
433.178	106.69
433.4	97.69
433.622	91.69
433.844	92.69
434.066	77.69
434.287	81.69
434.509	93.69
434.731	80.69
434.953	94.69
435.175	87.69
435.397	83.69
435.618	92.69
435.84	116.69
436.062	102.69
436.284	88.69
436.505	92.69
436.727	98.69
436.949	87.69
437.17	79.69
437.392	71.69
437.614	76.69
437.835	86.69
438.057	101.69
438.278	99.69
438.5	97.69
438.721	98.69
438.943	87.69
439.165	79.69
439.386	89.69
439.608	87.69
439.829	85.69
440.05	98.69
440.272	114.69
440.493	101.69
440.715	90.69
440.936	82.69
441.158	83.69
441.379	89.69
441.6	78.69
441.822	96.69
442.043	99.69
442.264	82.69
442.486	92.69
442.707	86.69
442.928	99.69
443.149	102.69
443.371	120.69
443.592	97.69
443.813	108.69
444.034	109.69
444.255	78.69
444.476	79.69
444.698	72.69
444.919	88.69
445.14	122.69
445.361	114.69
445.582	97.69
445.803	119.69
446.024	112.69
446.245	110.69
446.466	94.69
446.687	92.69
446.908	66.69
447.129	88.69
447.35	88.69
447.571	85.69
447.792	68.69
448.013	99.69
448.234	99.69
448.455	97.69
448.675	94.69
448.896	103.69
449.117	81.69
449.338	88.69
449.559	109.69
449.779	114.69
450	84.69
450.221	103.69
450.442	73.69
450.662	81.69
450.883	92.69
451.104	109.69
451.324	92.69
451.545	87.69
451.766	85.69
451.986	88.69
452.207	91.69
452.428	96.69
452.648	102.69
452.869	97.69
453.089	110.69
453.31	99.69
453.53	78.69
453.751	98.69
453.971	93.69
454.192	104.69
454.412	100.69
454.633	88.69
454.853	72.69
455.073	82.69
455.294	80.69
455.514	78.69
455.734	90.69
455.955	82.69
456.175	97.69
456.395	70.69
456.616	92.69
456.836	76.69
457.056	82.69
457.276	76.69
457.497	85.69
457.717	87.69
457.937	92.69
458.157	85.69
458.377	89.69
458.598	89.69
458.818	133.69
459.038	120.69
459.258	110.69
459.478	83.69
459.698	74.69
459.918	70.69
460.138	95.69
460.358	79.69
460.578	97.69
460.798	87.69
461.018	93.69
461.238	74.69
461.458	88.69
461.678	76.69
461.898	85.69
462.118	82.69
462.338	84.69
462.558	83.69
462.777	74.69
462.997	90.69
463.217	74.69
463.437	81.69
463.657	76.69
463.876	78.69
464.096	78.69
464.316	84.69
464.536	78.69
464.755	95.69
464.975	96.69
465.195	124.69
465.414	132.69
465.634	94.69
465.854	90.69
466.073	76.69
466.293	73.69
466.512	82.69
466.732	80.69
466.951	80.69
467.171	92.69
467.391	93.69
467.61	94.69
467.829	92.69
468.049	86.69
468.268	97.69
468.488	95.69
468.707	88.69
468.927	77.69
469.146	87.69
469.365	72.69
469.585	78.69
469.804	78.69
470.023	88.69
470.243	84.69
470.462	65.69
470.681	92.69
470.901	74.69
471.12	78.69
471.339	83.69
471.558	96.69
471.777	77.69
471.997	89.69
472.216	115.69
472.435	124.69
472.654	93.69
472.873	87.69
473.092	93.69
473.311	83.69
473.53	89.69
473.749	86.69
473.968	81.69
474.187	87.69
474.406	77.69
474.625	88.69
474.844	94.69
475.063	86.69
475.282	105.69
475.501	92.69
475.72	88.69
475.939	98.69
476.158	85.69
476.377	69.69
476.596	81.69
476.814	91.69
477.033	89.69
477.252	85.69
477.471	98.69
477.69	97.69
477.908	93.69
478.127	84.69
478.346	93.69
478.564	84.69
478.783	80.69
479.002	91.69
479.22	95.69
479.439	83.69
479.658	83.69
479.876	85.69
480.095	94.69
480.313	85.69
480.532	92.69
480.751	104.69
480.969	98.69
481.188	186.69
481.406	148.69
481.624	106.69
481.843	88.69
482.061	81.69
482.28	91.69
482.498	82.69
482.717	97.69
482.935	96.69
483.153	89.69
483.372	93.69
483.59	80.69
483.808	77.69
484.027	88.69
484.245	96.69
484.463	76.69
484.681	100.69
484.9	96.69
485.118	95.69
485.336	90.69
485.554	94.69
485.772	80.69
485.99	103.69
486.209	105.69
486.427	100.69
486.645	109.69
486.863	96.69
487.081	109.69
487.299	99.69
487.517	84.69
487.735	82.69
487.953	87.69
488.171	99.69
488.389	89.69
488.607	85.69
488.825	81.69
489.043	72.69
489.261	83.69
489.479	89.69
489.696	81.69
489.914	85.69
490.132	85.69
490.35	71.69
490.568	87.69
490.786	73.69
491.003	83.69
491.221	74.69
491.439	91.69
491.657	85.69
491.874	93.69
492.092	84.69
492.31	92.69
492.527	91.69
492.745	81.69
492.963	82.69
493.18	86.69
493.398	89.69
493.615	83.69
493.833	102.69
494.05	87.69
494.268	87.69
494.485	82.69
494.703	82.69
494.92	84.69
495.138	93.69
495.355	78.69
495.573	76.69
495.79	90.69
496.008	85.69
496.225	71.69
496.442	90.69
496.66	105.69
496.877	98.69
497.094	98.69
497.312	98.69
497.529	88.69
497.746	73.69
497.963	92.69
498.181	87.69
498.398	87.69
498.615	99.69
498.832	100.69
499.049	91.69
499.267	89.69
499.484	84.69
499.701	88.69
499.918	94.69
500.135	84.69
500.352	74.69
500.569	94.69
500.786	87.69
501.003	90.69
501.22	79.69
501.437	83.69
501.654	85.69
501.871	92.69
502.088	91.69
502.305	95.69
502.522	89.69
502.739	85.69
502.956	90.69
503.172	92.69
503.389	99.69
503.606	92.69
503.823	116.69
504.04	92.69
504.256	72.69
504.473	86.69
504.69	71.69
504.907	90.69
505.123	93.69
505.34	92.69
505.557	85.69
505.773	84.69
505.99	72.69
506.207	69.69
506.423	95.69
506.64	99.69
506.856	83.69
507.073	101.69
507.289	99.69
507.506	97.69
507.722	102.69
507.939	92.69
508.155	99.69
508.372	102.69
508.588	91.69
508.805	89.69
509.021	100.69
509.238	96.69
509.454	92.69
509.67	80.69
509.887	92.69
510.103	106.69
510.319	168.69
510.536	604.69
510.752	1806.69
510.968	510.69
511.184	145.69
511.401	93.69
511.617	84.69
511.833	96.69
512.049	87.69
512.265	103.69
512.481	83.69
512.698	72.69
512.914	80.69
513.13	80.69
513.346	88.69
513.562	83.69
513.778	91.69
513.994	78.69
514.21	100.69
514.426	101.69
514.642	98.69
514.858	93.69
515.074	137.69
515.29	331.69
515.506	1071.69
515.721	416.69
515.937	134.69
516.153	94.69
516.369	84.69
516.585	93.69
516.801	84.69
517.016	96.69
