Data from Circ_1985_H10_HRD10591_00079.txt Node
Date: Wed Jan 03 12:19:38 EST 2024
User: Yrep
Spectrometer: HR+D1059
Trigger mode: 1
Integration Time (sec): 1.000000E-1
Scans to average: 1
Electric dark correction enabled: true
Nonlinearity correction enabled: false
Boxcar width: 0
XAxis mode: Wavelengths
Number of Pixels in Spectrum: 2048
>>>>>Begin Spectral Data<<<<<
223.165	-14.44
223.4	-14.44
223.635	-14.44
223.869	-29.44
224.104	-12.44
224.338	-24.44
224.573	-19.44
224.808	-25.44
225.042	-7.44
225.277	4.56
225.511	-7.44
225.746	2.56
225.98	10.56
226.215	16.56
226.449	23.56
226.683	16.56
226.918	32.56
227.152	33.56
227.387	26.56
227.621	33.56
227.856	39.56
228.09	48.56
228.324	50.56
228.559	47.56
228.793	62.56
229.027	64.56
229.262	69.56
229.496	64.56
229.73	85.56
229.964	89.56
230.199	66.56
230.433	86.56
230.667	90.56
230.901	87.56
231.136	76.56
231.37	78.56
231.604	81.56
231.838	76.56
232.072	85.56
232.306	92.56
232.541	96.56
232.775	90.56
233.009	78.56
233.243	92.56
233.477	74.56
233.711	86.56
233.945	74.56
234.179	63.56
234.413	92.56
234.647	69.56
234.881	82.56
235.115	66.56
235.349	68.56
235.583	68.56
235.817	87.56
236.051	66.56
236.285	84.56
236.519	68.56
236.753	73.56
236.987	83.56
237.221	82.56
237.455	86.56
237.689	82.56
237.922	79.56
238.156	57.56
238.39	94.56
238.624	90.56
238.858	78.56
239.091	68.56
239.325	82.56
239.559	71.56
239.793	85.56
240.027	74.56
240.26	80.56
240.494	70.56
240.728	76.56
240.961	88.56
241.195	73.56
241.429	71.56
241.662	64.56
241.896	79.56
242.13	81.56
242.363	88.56
242.597	60.56
242.83	80.56
243.064	84.56
243.298	85.56
243.531	77.56
243.765	80.56
243.998	64.56
244.232	72.56
244.465	83.56
244.699	71.56
244.932	84.56
245.166	70.56
245.399	66.56
245.633	65.56
245.866	74.56
246.099	67.56
246.333	82.56
246.566	91.56
246.8	79.56
247.033	67.56
247.266	83.56
247.5	83.56
247.733	86.56
247.966	93.56
248.2	82.56
248.433	69.56
248.666	80.56
248.899	94.56
249.133	99.56
249.366	97.56
249.599	81.56
249.832	82.56
250.066	69.56
250.299	87.56
250.532	85.56
250.765	78.56
250.998	73.56
251.231	79.56
251.465	75.56
251.698	94.56
251.931	72.56
252.164	75.56
252.397	82.56
252.63	78.56
252.863	77.56
253.096	83.56
253.329	71.56
253.562	79.56
253.795	70.56
254.028	95.56
254.261	92.56
254.494	82.56
254.727	104.56
254.96	86.56
255.193	76.56
255.426	69.56
255.659	71.56
255.892	95.56
256.124	73.56
256.357	74.56
256.59	75.56
256.823	89.56
257.056	72.56
257.289	80.56
257.521	93.56
257.754	94.56
257.987	82.56
258.22	80.56
258.452	81.56
258.685	84.56
258.918	79.56
259.151	85.56
259.383	73.56
259.616	99.56
259.849	76.56
260.081	91.56
260.314	60.56
260.547	79.56
260.779	70.56
261.012	82.56
261.244	77.56
261.477	67.56
261.71	84.56
261.942	113.56
262.175	96.56
262.407	82.56
262.64	74.56
262.872	82.56
263.105	80.56
263.337	87.56
263.57	85.56
263.802	84.56
264.035	81.56
264.267	90.56
264.499	85.56
264.732	71.56
264.964	78.56
265.197	88.56
265.429	92.56
265.661	85.56
265.894	75.56
266.126	75.56
266.358	75.56
266.591	89.56
266.823	83.56
267.055	84.56
267.287	84.56
267.52	96.56
267.752	87.56
267.984	94.56
268.216	80.56
268.448	108.56
268.681	102.56
268.913	74.56
269.145	79.56
269.377	82.56
269.609	81.56
269.841	82.56
270.073	81.56
270.306	89.56
270.538	81.56
270.77	83.56
271.002	99.56
271.234	79.56
271.466	97.56
271.698	79.56
271.93	87.56
272.162	89.56
272.394	104.56
272.626	86.56
272.858	79.56
273.09	81.56
273.322	70.56
273.553	82.56
273.785	97.56
274.017	90.56
274.249	88.56
274.481	82.56
274.713	91.56
274.945	71.56
275.176	73.56
275.408	89.56
275.64	78.56
275.872	86.56
276.104	91.56
276.335	84.56
276.567	75.56
276.799	86.56
277.031	75.56
277.262	80.56
277.494	88.56
277.726	112.56
277.957	76.56
278.189	95.56
278.421	70.56
278.652	87.56
278.884	92.56
279.115	83.56
279.347	99.56
279.579	89.56
279.81	95.56
280.042	78.56
280.273	88.56
280.505	91.56
280.736	86.56
280.968	81.56
281.199	83.56
281.431	79.56
281.662	96.56
281.894	82.56
282.125	98.56
282.356	104.56
282.588	127.56
282.819	114.56
283.051	90.56
283.282	82.56
283.513	91.56
283.745	80.56
283.976	82.56
284.207	89.56
284.439	92.56
284.67	96.56
284.901	89.56
285.132	81.56
285.364	92.56
285.595	66.56
285.826	92.56
286.057	87.56
286.288	98.56
286.52	88.56
286.751	80.56
286.982	81.56
287.213	84.56
287.444	78.56
287.675	94.56
287.906	96.56
288.138	87.56
288.369	100.56
288.6	84.56
288.831	86.56
289.062	90.56
289.293	85.56
289.524	90.56
289.755	86.56
289.986	85.56
290.217	83.56
290.448	97.56
290.679	90.56
290.91	82.56
291.141	91.56
291.371	96.56
291.602	91.56
291.833	93.56
292.064	87.56
292.295	94.56
292.526	87.56
292.757	75.56
292.987	95.56
293.218	71.56
293.449	87.56
293.68	101.56
293.91	88.56
294.141	101.56
294.372	95.56
294.603	96.56
294.833	100.56
295.064	82.56
295.295	100.56
295.525	97.56
295.756	95.56
295.987	112.56
296.217	128.56
296.448	119.56
296.679	98.56
296.909	73.56
297.14	85.56
297.37	66.56
297.601	94.56
297.831	91.56
298.062	100.56
298.292	101.56
298.523	73.56
298.753	82.56
298.984	86.56
299.214	93.56
299.445	98.56
299.675	87.56
299.905	91.56
300.136	99.56
300.366	91.56
300.597	81.56
300.827	92.56
301.057	104.56
301.288	91.56
301.518	85.56
301.748	97.56
301.979	94.56
302.209	95.56
302.439	83.56
302.669	80.56
302.9	80.56
303.13	104.56
303.36	95.56
303.59	84.56
303.82	94.56
304.051	99.56
304.281	98.56
304.511	80.56
304.741	94.56
304.971	88.56
305.201	100.56
305.431	91.56
305.661	107.56
305.891	100.56
306.121	95.56
306.352	98.56
306.582	98.56
306.812	95.56
307.042	82.56
307.272	99.56
307.502	107.56
307.731	93.56
307.961	102.56
308.191	99.56
308.421	82.56
308.651	92.56
308.881	91.56
309.111	89.56
309.341	91.56
309.571	99.56
309.8	96.56
310.03	95.56
310.26	105.56
310.49	106.56
310.72	107.56
310.949	97.56
311.179	88.56
311.409	90.56
311.639	96.56
311.868	89.56
312.098	84.56
312.328	95.56
312.557	104.56
312.787	99.56
313.017	97.56
313.246	115.56
313.476	95.56
313.706	102.56
313.935	83.56
314.165	93.56
314.394	101.56
314.624	100.56
314.853	98.56
315.083	103.56
315.312	99.56
315.542	82.56
315.771	92.56
316.001	82.56
316.23	87.56
316.46	79.56
316.689	105.56
316.919	94.56
317.148	96.56
317.377	86.56
317.607	99.56
317.836	88.56
318.065	103.56
318.295	89.56
318.524	84.56
318.753	94.56
318.983	79.56
319.212	93.56
319.441	107.56
319.67	100.56
319.9	90.56
320.129	95.56
320.358	90.56
320.587	101.56
320.816	92.56
321.046	101.56
321.275	89.56
321.504	101.56
321.733	96.56
321.962	99.56
322.191	108.56
322.42	97.56
322.649	99.56
322.878	105.56
323.108	128.56
323.337	118.56
323.566	127.56
323.795	150.56
324.024	190.56
324.253	364.56
324.482	744.56
324.71	1610.56
324.939	2030.56
325.168	761.56
325.397	235.56
325.626	149.56
325.855	121.56
326.084	109.56
326.313	115.56
326.542	140.56
326.77	229.56
326.999	441.56
327.228	879.56
327.457	1626.56
327.686	1295.56
327.914	345.56
328.143	192.56
328.372	142.56
328.6	122.56
328.829	111.56
329.058	129.56
329.287	125.56
329.515	117.56
329.744	108.56
329.972	120.56
330.201	127.56
330.43	150.56
330.658	126.56
330.887	123.56
331.115	102.56
331.344	103.56
331.572	107.56
331.801	97.56
332.03	92.56
332.258	100.56
332.486	103.56
332.715	99.56
332.943	81.56
333.172	87.56
333.4	90.56
333.629	91.56
333.857	108.56
334.085	111.56
334.314	117.56
334.542	153.56
334.771	148.56
334.999	91.56
335.227	91.56
335.455	103.56
335.684	108.56
335.912	96.56
336.14	106.56
336.369	88.56
336.597	96.56
336.825	100.56
337.053	91.56
337.281	91.56
337.51	97.56
337.738	91.56
337.966	84.56
338.194	86.56
338.422	84.56
338.65	108.56
338.878	92.56
339.106	97.56
339.334	99.56
339.562	86.56
339.79	78.56
340.018	84.56
340.246	85.56
340.474	95.56
340.702	95.56
340.93	95.56
341.158	90.56
341.386	91.56
341.614	90.56
341.842	93.56
342.07	96.56
342.298	84.56
342.526	77.56
342.754	98.56
342.981	109.56
343.209	82.56
343.437	98.56
343.665	80.56
343.893	101.56
344.12	103.56
344.348	83.56
344.576	95.56
344.804	97.56
345.031	94.56
345.259	106.56
345.487	108.56
345.714	90.56
345.942	99.56
346.17	94.56
346.397	83.56
346.625	110.56
346.853	98.56
347.08	92.56
347.308	86.56
347.535	101.56
347.763	98.56
347.99	92.56
348.218	108.56
348.445	108.56
348.673	98.56
348.9	94.56
349.128	96.56
349.355	91.56
349.583	100.56
349.81	91.56
350.037	82.56
350.265	106.56
350.492	94.56
350.72	101.56
350.947	101.56
351.174	98.56
351.402	106.56
351.629	87.56
351.856	108.56
352.083	89.56
352.311	100.56
352.538	102.56
352.765	115.56
352.992	117.56
353.22	115.56
353.447	102.56
353.674	100.56
353.901	99.56
354.128	103.56
354.355	99.56
354.583	101.56
354.81	88.56
355.037	104.56
355.264	99.56
355.491	107.56
355.718	75.56
355.945	98.56
356.172	109.56
356.399	88.56
356.626	90.56
356.853	97.56
357.08	93.56
357.307	95.56
357.534	85.56
357.761	99.56
357.988	106.56
358.215	106.56
358.441	82.56
358.668	84.56
358.895	83.56
359.122	93.56
359.349	77.56
359.576	94.56
359.802	87.56
360.029	99.56
360.256	100.56
360.483	88.56
360.709	89.56
360.936	88.56
361.163	83.56
361.39	97.56
361.616	87.56
361.843	87.56
362.07	96.56
362.296	84.56
362.523	104.56
362.749	76.56
362.976	78.56
363.203	89.56
363.429	72.56
363.656	81.56
363.882	64.56
364.109	86.56
364.335	86.56
364.562	96.56
364.788	90.56
365.015	102.56
365.241	98.56
365.468	98.56
365.694	97.56
365.92	95.56
366.147	102.56
366.373	95.56
366.599	92.56
366.826	69.56
367.052	94.56
367.278	90.56
367.505	84.56
367.731	94.56
367.957	98.56
368.184	88.56
368.41	84.56
368.636	107.56
368.862	111.56
369.089	100.56
369.315	97.56
369.541	91.56
369.767	87.56
369.993	98.56
370.219	68.56
370.445	94.56
370.672	92.56
370.898	90.56
371.124	95.56
371.35	85.56
371.576	94.56
371.802	88.56
372.028	83.56
372.254	95.56
372.48	102.56
372.706	99.56
372.932	80.56
373.158	84.56
373.384	81.56
373.61	105.56
373.835	94.56
374.061	84.56
374.287	96.56
374.513	90.56
374.739	91.56
374.965	98.56
375.191	101.56
375.416	90.56
375.642	101.56
375.868	100.56
376.094	103.56
376.319	90.56
376.545	103.56
376.771	86.56
376.997	89.56
377.222	84.56
377.448	78.56
377.674	93.56
377.899	89.56
378.125	90.56
378.35	81.56
378.576	102.56
378.802	86.56
379.027	91.56
379.253	97.56
379.478	83.56
379.704	84.56
379.929	90.56
380.155	93.56
380.38	101.56
380.606	84.56
380.831	86.56
381.057	107.56
381.282	102.56
381.507	90.56
381.733	102.56
381.958	87.56
382.184	90.56
382.409	92.56
382.634	106.56
382.86	102.56
383.085	99.56
383.31	99.56
383.535	100.56
383.761	108.56
383.986	94.56
384.211	99.56
384.436	94.56
384.662	113.56
384.887	86.56
385.112	98.56
385.337	90.56
385.562	102.56
385.787	102.56
386.013	118.56
386.238	103.56
386.463	98.56
386.688	114.56
386.913	111.56
387.138	106.56
387.363	102.56
387.588	103.56
387.813	100.56
388.038	108.56
388.263	102.56
388.488	104.56
388.713	87.56
388.938	90.56
389.163	79.56
389.387	94.56
389.612	89.56
389.837	84.56
390.062	94.56
390.287	103.56
390.512	83.56
390.736	92.56
390.961	99.56
391.186	98.56
391.411	94.56
391.636	104.56
391.86	92.56
392.085	91.56
392.31	86.56
392.534	92.56
392.759	88.56
392.984	100.56
393.208	85.56
393.433	102.56
393.658	82.56
393.882	83.56
394.107	81.56
394.331	84.56
394.556	101.56
394.78	89.56
395.005	89.56
395.229	87.56
395.454	82.56
395.678	83.56
395.903	89.56
396.127	81.56
396.352	81.56
396.576	89.56
396.801	91.56
397.025	96.56
397.249	73.56
397.474	88.56
397.698	94.56
397.922	67.56
398.147	95.56
398.371	88.56
398.595	94.56
398.82	97.56
399.044	91.56
399.268	93.56
399.492	78.56
399.717	93.56
399.941	72.56
400.165	93.56
400.389	101.56
400.613	101.56
400.837	91.56
401.062	90.56
401.286	106.56
401.51	97.56
401.734	101.56
401.958	103.56
402.182	120.56
402.406	151.56
402.63	137.56
402.854	102.56
403.078	99.56
403.302	100.56
403.526	94.56
403.75	86.56
403.974	87.56
404.198	90.56
404.422	93.56
404.645	92.56
404.869	92.56
405.093	97.56
405.317	103.56
405.541	95.56
405.765	94.56
405.988	116.56
406.212	137.56
406.436	197.56
406.66	133.56
406.883	97.56
407.107	84.56
407.331	90.56
407.555	95.56
407.778	101.56
408.002	96.56
408.226	98.56
408.449	91.56
408.673	98.56
408.896	108.56
409.12	89.56
409.344	85.56
409.567	89.56
409.791	102.56
410.014	92.56
410.238	91.56
410.461	87.56
410.685	88.56
410.908	98.56
411.132	98.56
411.355	89.56
411.578	89.56
411.802	86.56
412.025	99.56
412.249	94.56
412.472	96.56
412.695	97.56
412.919	92.56
413.142	91.56
413.365	109.56
413.589	90.56
413.812	94.56
414.035	86.56
414.258	95.56
414.482	97.56
414.705	103.56
414.928	101.56
415.151	78.56
415.374	92.56
415.597	87.56
415.821	96.56
416.044	96.56
416.267	94.56
416.49	82.56
416.713	115.56
416.936	85.56
417.159	92.56
417.382	86.56
417.605	89.56
417.828	114.56
418.051	80.56
418.274	84.56
418.497	86.56
418.72	92.56
418.943	80.56
419.166	89.56
419.389	86.56
419.611	83.56
419.834	96.56
420.057	93.56
420.28	84.56
420.503	80.56
420.726	79.56
420.948	94.56
421.171	89.56
421.394	78.56
421.617	96.56
421.839	96.56
422.062	80.56
422.285	95.56
422.507	86.56
422.73	108.56
422.953	95.56
423.175	88.56
423.398	88.56
423.621	101.56
423.843	98.56
424.066	87.56
424.288	82.56
424.511	82.56
424.733	93.56
424.956	109.56
425.178	82.56
425.401	101.56
425.623	101.56
425.846	97.56
426.068	98.56
426.291	96.56
426.513	86.56
426.735	93.56
426.958	106.56
427.18	95.56
427.402	128.56
427.625	142.56
427.847	112.56
428.069	113.56
428.292	88.56
428.514	97.56
428.736	89.56
428.958	79.56
429.181	83.56
429.403	91.56
429.625	84.56
429.847	90.56
430.069	90.56
430.292	97.56
430.514	73.56
430.736	86.56
430.958	103.56
431.18	82.56
431.402	86.56
431.624	96.56
431.846	74.56
432.068	95.56
432.29	84.56
432.512	89.56
432.734	90.56
432.956	94.56
433.178	96.56
433.4	111.56
433.622	105.56
433.844	82.56
434.066	94.56
434.287	108.56
434.509	100.56
434.731	81.56
434.953	82.56
435.175	78.56
435.397	93.56
435.618	87.56
435.84	98.56
436.062	109.56
436.284	106.56
436.505	94.56
436.727	91.56
436.949	95.56
437.17	85.56
437.392	76.56
437.614	99.56
437.835	113.56
438.057	106.56
438.278	107.56
438.5	108.56
438.721	108.56
438.943	93.56
439.165	82.56
439.386	104.56
439.608	90.56
439.829	93.56
440.05	124.56
440.272	129.56
440.493	113.56
440.715	82.56
440.936	83.56
441.158	86.56
441.379	91.56
441.6	89.56
441.822	94.56
442.043	86.56
442.264	114.56
442.486	102.56
442.707	80.56
442.928	98.56
443.149	106.56
443.371	121.56
443.592	110.56
443.813	118.56
444.034	111.56
444.255	102.56
444.476	86.56
444.698	84.56
444.919	87.56
445.14	131.56
445.361	112.56
445.582	100.56
445.803	131.56
446.024	119.56
446.245	115.56
446.466	103.56
446.687	69.56
446.908	66.56
447.129	68.56
447.35	83.56
447.571	95.56
447.792	99.56
448.013	92.56
448.234	87.56
448.455	106.56
448.675	97.56
448.896	108.56
449.117	102.56
449.338	103.56
449.559	108.56
449.779	126.56
450	90.56
450.221	81.56
450.442	101.56
450.662	75.56
450.883	98.56
451.104	117.56
451.324	95.56
451.545	80.56
451.766	102.56
451.986	80.56
452.207	75.56
452.428	91.56
452.648	97.56
452.869	99.56
453.089	111.56
453.31	107.56
453.53	97.56
453.751	102.56
453.971	96.56
454.192	107.56
454.412	83.56
454.633	83.56
454.853	83.56
455.073	84.56
455.294	88.56
455.514	105.56
455.734	88.56
455.955	86.56
456.175	93.56
456.395	88.56
456.616	80.56
456.836	78.56
457.056	71.56
457.276	78.56
457.497	81.56
457.717	96.56
457.937	78.56
458.157	85.56
458.377	92.56
458.598	105.56
458.818	119.56
459.038	121.56
459.258	100.56
459.478	91.56
459.698	81.56
459.918	70.56
460.138	94.56
460.358	89.56
460.578	95.56
460.798	91.56
461.018	79.56
461.238	90.56
461.458	79.56
461.678	88.56
461.898	92.56
462.118	82.56
462.338	87.56
462.558	80.56
462.777	94.56
462.997	93.56
463.217	80.56
463.437	85.56
463.657	81.56
463.876	90.56
464.096	75.56
464.316	90.56
464.536	81.56
464.755	95.56
464.975	115.56
465.195	146.56
465.414	131.56
465.634	95.56
465.854	82.56
466.073	79.56
466.293	78.56
466.512	89.56
466.732	91.56
466.951	97.56
467.171	97.56
467.391	109.56
467.61	113.56
467.829	105.56
468.049	103.56
468.268	115.56
468.488	96.56
468.707	81.56
468.927	96.56
469.146	99.56
469.365	91.56
469.585	85.56
469.804	99.56
470.023	97.56
470.243	90.56
470.462	92.56
470.681	94.56
470.901	92.56
471.12	102.56
471.339	87.56
471.558	96.56
471.777	102.56
471.997	97.56
472.216	126.56
472.435	189.56
472.654	110.56
472.873	82.56
473.092	89.56
473.311	83.56
473.53	89.56
473.749	91.56
473.968	95.56
474.187	91.56
474.406	96.56
474.625	106.56
474.844	87.56
475.063	94.56
475.282	89.56
475.501	78.56
475.72	98.56
475.939	98.56
476.158	105.56
476.377	95.56
476.596	82.56
476.814	92.56
477.033	91.56
477.252	91.56
477.471	90.56
477.69	100.56
477.908	84.56
478.127	92.56
478.346	94.56
478.564	102.56
478.783	84.56
479.002	94.56
479.22	88.56
479.439	100.56
479.658	108.56
479.876	100.56
480.095	87.56
480.313	91.56
480.532	94.56
480.751	104.56
480.969	140.56
481.188	262.56
481.406	191.56
481.624	103.56
481.843	88.56
482.061	74.56
482.28	95.56
482.498	86.56
482.717	91.56
482.935	82.56
483.153	89.56
483.372	87.56
483.59	78.56
483.808	84.56
484.027	98.56
484.245	84.56
484.463	90.56
484.681	100.56
484.9	78.56
485.118	105.56
485.336	103.56
485.554	91.56
485.772	104.56
485.99	98.56
486.209	107.56
486.427	99.56
486.645	102.56
486.863	114.56
487.081	114.56
487.299	113.56
487.517	91.56
487.735	107.56
487.953	85.56
488.171	98.56
488.389	96.56
488.607	88.56
488.825	88.56
489.043	91.56
489.261	79.56
489.479	81.56
489.696	88.56
489.914	97.56
490.132	83.56
490.35	96.56
490.568	96.56
490.786	99.56
491.003	97.56
491.221	98.56
491.439	91.56
491.657	84.56
491.874	98.56
492.092	87.56
492.31	88.56
492.527	98.56
492.745	85.56
492.963	83.56
493.18	88.56
493.398	91.56
493.615	92.56
493.833	82.56
494.05	85.56
494.268	99.56
494.485	97.56
494.703	89.56
494.92	76.56
495.138	88.56
495.355	101.56
495.573	88.56
495.79	80.56
496.008	86.56
496.225	81.56
496.442	96.56
496.66	98.56
496.877	98.56
497.094	105.56
497.312	86.56
497.529	99.56
497.746	97.56
497.963	93.56
498.181	85.56
498.398	103.56
498.615	123.56
498.832	92.56
499.049	98.56
499.267	85.56
499.484	89.56
499.701	79.56
499.918	91.56
500.135	98.56
500.352	97.56
500.569	96.56
500.786	97.56
501.003	90.56
501.22	76.56
501.437	87.56
501.654	82.56
501.871	109.56
502.088	109.56
502.305	82.56
502.522	97.56
502.739	91.56
502.956	101.56
503.172	95.56
503.389	85.56
503.606	101.56
503.823	103.56
504.04	95.56
504.256	86.56
504.473	86.56
504.69	82.56
504.907	104.56
505.123	102.56
505.34	94.56
505.557	80.56
505.773	81.56
505.99	94.56
506.207	98.56
506.423	82.56
506.64	80.56
506.856	87.56
507.073	91.56
507.289	98.56
507.506	95.56
507.722	106.56
507.939	106.56
508.155	87.56
508.372	89.56
508.588	75.56
508.805	107.56
509.021	96.56
509.238	96.56
509.454	102.56
509.67	106.56
509.887	113.56
510.103	116.56
510.319	195.56
510.536	663.56
510.752	2015.56
510.968	562.56
511.184	146.56
511.401	115.56
511.617	92.56
511.833	94.56
512.049	90.56
512.265	74.56
512.481	103.56
512.698	105.56
512.914	82.56
513.13	89.56
513.346	97.56
513.562	99.56
513.778	96.56
513.994	104.56
514.21	98.56
514.426	118.56
514.642	110.56
514.858	117.56
515.074	145.56
515.29	347.56
515.506	1108.56
