Data from Circ_1985_H10_HRD10591_00090.txt Node
Date: Wed Jan 03 12:19:40 EST 2024
User: Yrep
Spectrometer: HR+D1059
Trigger mode: 1
Integration Time (sec): 1.000000E-1
Scans to average: 1
Electric dark correction enabled: true
Nonlinearity correction enabled: false
Boxcar width: 0
XAxis mode: Wavelengths
Number of Pixels in Spectrum: 2048
>>>>>Begin Spectral Data<<<<<
223.165	-17.94
223.4	-17.94
223.635	-17.94
223.869	-26.94
224.104	-27.94
224.338	-4.94
224.573	-8.94
224.808	-16.94
225.042	-0.94
225.277	-11.94
225.511	1.06
225.746	0.06
225.98	4.06
226.215	0.06
226.449	13.06
226.683	33.06
226.918	39.06
227.152	26.06
227.387	32.06
227.621	37.06
227.856	47.06
228.09	44.06
228.324	54.06
228.559	54.06
228.793	62.06
229.027	70.06
229.262	55.06
229.496	63.06
229.73	67.06
229.964	75.06
230.199	89.06
230.433	62.06
230.667	75.06
230.901	71.06
231.136	83.06
231.37	68.06
231.604	98.06
231.838	77.06
232.072	69.06
232.306	78.06
232.541	70.06
232.775	68.06
233.009	69.06
233.243	81.06
233.477	78.06
233.711	78.06
233.945	81.06
234.179	72.06
234.413	82.06
234.647	82.06
234.881	70.06
235.115	68.06
235.349	78.06
235.583	88.06
235.817	74.06
236.051	80.06
236.285	74.06
236.519	73.06
236.753	73.06
236.987	81.06
237.221	87.06
237.455	84.06
237.689	91.06
237.922	70.06
238.156	83.06
238.39	66.06
238.624	90.06
238.858	71.06
239.091	82.06
239.325	75.06
239.559	89.06
239.793	73.06
240.027	70.06
240.26	76.06
240.494	91.06
240.728	79.06
240.961	82.06
241.195	85.06
241.429	84.06
241.662	66.06
241.896	85.06
242.13	67.06
242.363	73.06
242.597	74.06
242.83	75.06
243.064	81.06
243.298	83.06
243.531	62.06
243.765	71.06
243.998	94.06
244.232	82.06
244.465	82.06
244.699	82.06
244.932	85.06
245.166	74.06
245.399	78.06
245.633	64.06
245.866	80.06
246.099	73.06
246.333	74.06
246.566	74.06
246.8	68.06
247.033	80.06
247.266	82.06
247.5	81.06
247.733	54.06
247.966	82.06
248.2	84.06
248.433	74.06
248.666	81.06
248.899	78.06
249.133	85.06
249.366	102.06
249.599	79.06
249.832	82.06
250.066	80.06
250.299	79.06
250.532	70.06
250.765	86.06
250.998	83.06
251.231	83.06
251.465	87.06
251.698	82.06
251.931	94.06
252.164	90.06
252.397	79.06
252.63	88.06
252.863	74.06
253.096	83.06
253.329	74.06
253.562	75.06
253.795	93.06
254.028	77.06
254.261	68.06
254.494	104.06
254.727	84.06
254.96	74.06
255.193	79.06
255.426	90.06
255.659	86.06
255.892	82.06
256.124	80.06
256.357	66.06
256.59	83.06
256.823	75.06
257.056	83.06
257.289	89.06
257.521	92.06
257.754	86.06
257.987	86.06
258.22	83.06
258.452	90.06
258.685	96.06
258.918	75.06
259.151	69.06
259.383	85.06
259.616	90.06
259.849	89.06
260.081	90.06
260.314	67.06
260.547	80.06
260.779	81.06
261.012	79.06
261.244	83.06
261.477	95.06
261.71	84.06
261.942	93.06
262.175	103.06
262.407	90.06
262.64	67.06
262.872	72.06
263.105	66.06
263.337	89.06
263.57	88.06
263.802	96.06
264.035	89.06
264.267	90.06
264.499	69.06
264.732	84.06
264.964	89.06
265.197	75.06
265.429	82.06
265.661	83.06
265.894	82.06
266.126	61.06
266.358	77.06
266.591	79.06
266.823	80.06
267.055	82.06
267.287	82.06
267.52	79.06
267.752	85.06
267.984	80.06
268.216	82.06
268.448	93.06
268.681	92.06
268.913	74.06
269.145	95.06
269.377	90.06
269.609	78.06
269.841	75.06
270.073	81.06
270.306	66.06
270.538	80.06
270.77	81.06
271.002	87.06
271.234	74.06
271.466	74.06
271.698	91.06
271.93	82.06
272.162	89.06
272.394	77.06
272.626	75.06
272.858	84.06
273.09	96.06
273.322	88.06
273.553	85.06
273.785	96.06
274.017	82.06
274.249	77.06
274.481	80.06
274.713	79.06
274.945	76.06
275.176	94.06
275.408	80.06
275.64	86.06
275.872	75.06
276.104	94.06
276.335	78.06
276.567	82.06
276.799	106.06
277.031	85.06
277.262	101.06
277.494	85.06
277.726	69.06
277.957	75.06
278.189	84.06
278.421	86.06
278.652	86.06
278.884	84.06
279.115	81.06
279.347	87.06
279.579	86.06
279.81	91.06
280.042	99.06
280.273	98.06
280.505	86.06
280.736	76.06
280.968	88.06
281.199	82.06
281.431	83.06
281.662	93.06
281.894	94.06
282.125	103.06
282.356	99.06
282.588	124.06
282.819	97.06
283.051	82.06
283.282	97.06
283.513	95.06
283.745	70.06
283.976	86.06
284.207	85.06
284.439	85.06
284.67	87.06
284.901	86.06
285.132	87.06
285.364	90.06
285.595	98.06
285.826	102.06
286.057	83.06
286.288	82.06
286.52	78.06
286.751	89.06
286.982	80.06
287.213	78.06
287.444	83.06
287.675	98.06
287.906	86.06
288.138	92.06
288.369	84.06
288.6	101.06
288.831	99.06
289.062	88.06
289.293	94.06
289.524	89.06
289.755	89.06
289.986	84.06
290.217	86.06
290.448	97.06
290.679	85.06
290.91	86.06
291.141	90.06
291.371	84.06
291.602	90.06
291.833	78.06
292.064	98.06
292.295	95.06
292.526	75.06
292.757	69.06
292.987	81.06
293.218	81.06
293.449	72.06
293.68	76.06
293.91	87.06
294.141	92.06
294.372	87.06
294.603	91.06
294.833	92.06
295.064	87.06
295.295	86.06
295.525	87.06
295.756	92.06
295.987	87.06
296.217	128.06
296.448	124.06
296.679	113.06
296.909	97.06
297.14	97.06
297.37	95.06
297.601	90.06
297.831	96.06
298.062	87.06
298.292	115.06
298.523	98.06
298.753	88.06
298.984	93.06
299.214	77.06
299.445	92.06
299.675	90.06
299.905	88.06
300.136	98.06
300.366	84.06
300.597	90.06
300.827	104.06
301.057	92.06
301.288	106.06
301.518	97.06
301.748	91.06
301.979	94.06
302.209	73.06
302.439	95.06
302.669	83.06
302.9	85.06
303.13	83.06
303.36	97.06
303.59	87.06
303.82	106.06
304.051	73.06
304.281	97.06
304.511	102.06
304.741	98.06
304.971	95.06
305.201	87.06
305.431	80.06
305.661	82.06
305.891	89.06
306.121	109.06
306.352	106.06
306.582	94.06
306.812	94.06
307.042	97.06
307.272	79.06
307.502	105.06
307.731	105.06
307.961	90.06
308.191	89.06
308.421	111.06
308.651	101.06
308.881	78.06
309.111	99.06
309.341	90.06
309.571	90.06
309.8	103.06
310.03	96.06
310.26	89.06
310.49	107.06
310.72	107.06
310.949	115.06
311.179	90.06
311.409	110.06
311.639	86.06
311.868	103.06
312.098	102.06
312.328	96.06
312.557	82.06
312.787	98.06
313.017	95.06
313.246	92.06
313.476	90.06
313.706	76.06
313.935	86.06
314.165	110.06
314.394	109.06
314.624	81.06
314.853	96.06
315.083	67.06
315.312	71.06
315.542	89.06
315.771	97.06
316.001	84.06
316.23	85.06
316.46	83.06
316.689	82.06
316.919	93.06
317.148	88.06
317.377	86.06
317.607	92.06
317.836	89.06
318.065	90.06
318.295	91.06
318.524	89.06
318.753	92.06
318.983	92.06
319.212	110.06
319.441	101.06
319.67	98.06
319.9	92.06
320.129	96.06
320.358	106.06
320.587	88.06
320.816	86.06
321.046	95.06
321.275	97.06
321.504	86.06
321.733	87.06
321.962	102.06
322.191	97.06
322.42	107.06
322.649	89.06
322.878	106.06
323.108	125.06
323.337	110.06
323.566	117.06
323.795	165.06
324.024	210.06
324.253	364.06
324.482	784.06
324.71	1667.06
324.939	2144.06
325.168	803.06
325.397	249.06
325.626	135.06
325.855	130.06
326.084	136.06
326.313	131.06
326.542	154.06
326.77	206.06
326.999	434.06
327.228	933.06
327.457	1702.06
327.686	1327.06
327.914	370.06
328.143	190.06
328.372	162.06
328.6	118.06
328.829	98.06
329.058	116.06
329.287	118.06
329.515	92.06
329.744	102.06
329.972	109.06
330.201	133.06
330.43	164.06
330.658	133.06
330.887	120.06
331.115	104.06
331.344	101.06
331.572	104.06
331.801	110.06
332.03	96.06
332.258	103.06
332.486	83.06
332.715	107.06
332.943	95.06
333.172	87.06
333.4	93.06
333.629	106.06
333.857	109.06
334.085	120.06
334.314	126.06
334.542	167.06
334.771	166.06
334.999	115.06
335.227	107.06
335.455	94.06
335.684	90.06
335.912	96.06
336.14	89.06
336.369	100.06
336.597	94.06
336.825	86.06
337.053	89.06
337.281	85.06
337.51	90.06
337.738	93.06
337.966	85.06
338.194	89.06
338.422	98.06
338.65	89.06
338.878	88.06
339.106	85.06
339.334	89.06
339.562	98.06
339.79	87.06
340.018	72.06
340.246	85.06
340.474	92.06
340.702	92.06
340.93	81.06
341.158	93.06
341.386	98.06
341.614	93.06
341.842	80.06
342.07	90.06
342.298	85.06
342.526	107.06
342.754	85.06
342.981	82.06
343.209	72.06
343.437	91.06
343.665	75.06
343.893	82.06
344.12	91.06
344.348	75.06
344.576	87.06
344.804	109.06
345.031	103.06
345.259	94.06
345.487	88.06
345.714	96.06
345.942	89.06
346.17	78.06
346.397	89.06
346.625	86.06
346.853	74.06
347.08	77.06
347.308	84.06
347.535	92.06
347.763	106.06
347.99	89.06
348.218	99.06
348.445	75.06
348.673	107.06
348.9	104.06
349.128	78.06
349.355	88.06
349.583	87.06
349.81	99.06
350.037	84.06
350.265	100.06
350.492	88.06
350.72	98.06
350.947	93.06
351.174	90.06
351.402	98.06
351.629	85.06
351.856	99.06
352.083	113.06
352.311	91.06
352.538	95.06
352.765	118.06
352.992	108.06
353.22	106.06
353.447	107.06
353.674	96.06
353.901	91.06
354.128	99.06
354.355	89.06
354.583	100.06
354.81	103.06
355.037	108.06
355.264	85.06
355.491	84.06
355.718	82.06
355.945	104.06
356.172	92.06
356.399	95.06
356.626	90.06
356.853	97.06
357.08	96.06
357.307	84.06
357.534	85.06
357.761	102.06
357.988	105.06
358.215	85.06
358.441	95.06
358.668	82.06
358.895	84.06
359.122	103.06
359.349	96.06
359.576	102.06
359.802	102.06
360.029	96.06
360.256	102.06
360.483	93.06
360.709	76.06
360.936	101.06
361.163	105.06
361.39	82.06
361.616	79.06
361.843	89.06
362.07	86.06
362.296	94.06
362.523	91.06
362.749	74.06
362.976	97.06
363.203	86.06
363.429	87.06
363.656	82.06
363.882	75.06
364.109	72.06
364.335	105.06
364.562	89.06
364.788	86.06
365.015	84.06
365.241	98.06
365.468	114.06
365.694	94.06
365.92	91.06
366.147	90.06
366.373	75.06
366.599	83.06
366.826	91.06
367.052	94.06
367.278	85.06
367.505	89.06
367.731	85.06
367.957	80.06
368.184	88.06
368.41	97.06
368.636	114.06
368.862	118.06
369.089	103.06
369.315	98.06
369.541	90.06
369.767	90.06
369.993	84.06
370.219	100.06
370.445	89.06
370.672	101.06
370.898	103.06
371.124	94.06
371.35	79.06
371.576	78.06
371.802	99.06
372.028	92.06
372.254	78.06
372.48	91.06
372.706	97.06
372.932	80.06
373.158	93.06
373.384	91.06
373.61	71.06
373.835	91.06
374.061	100.06
374.287	75.06
374.513	88.06
374.739	103.06
374.965	87.06
375.191	85.06
375.416	90.06
375.642	98.06
375.868	108.06
376.094	104.06
376.319	92.06
376.545	108.06
376.771	79.06
376.997	100.06
377.222	86.06
377.448	93.06
377.674	81.06
377.899	85.06
378.125	88.06
378.35	88.06
378.576	100.06
378.802	95.06
379.027	87.06
379.253	102.06
379.478	105.06
379.704	85.06
379.929	88.06
380.155	100.06
380.38	96.06
380.606	86.06
380.831	106.06
381.057	95.06
381.282	92.06
381.507	91.06
381.733	116.06
381.958	107.06
382.184	97.06
382.409	102.06
382.634	95.06
382.86	98.06
383.085	97.06
383.31	95.06
383.535	93.06
383.761	102.06
383.986	89.06
384.211	94.06
384.436	89.06
384.662	94.06
384.887	92.06
385.112	96.06
385.337	94.06
385.562	87.06
385.787	116.06
386.013	112.06
386.238	114.06
386.463	99.06
386.688	94.06
386.913	92.06
387.138	102.06
387.363	103.06
387.588	82.06
387.813	104.06
388.038	110.06
388.263	92.06
388.488	90.06
388.713	96.06
388.938	94.06
389.163	99.06
389.387	86.06
389.612	113.06
389.837	88.06
390.062	97.06
390.287	74.06
390.512	98.06
390.736	84.06
390.961	105.06
391.186	94.06
391.411	90.06
391.636	91.06
391.86	92.06
392.085	98.06
392.31	84.06
392.534	98.06
392.759	83.06
392.984	104.06
393.208	89.06
393.433	86.06
393.658	105.06
393.882	92.06
394.107	82.06
394.331	88.06
394.556	91.06
394.78	95.06
395.005	74.06
395.229	90.06
395.454	80.06
395.678	93.06
395.903	87.06
396.127	80.06
396.352	107.06
396.576	90.06
396.801	81.06
397.025	90.06
397.249	84.06
397.474	78.06
397.698	97.06
397.922	82.06
398.147	76.06
398.371	84.06
398.595	86.06
398.82	72.06
399.044	81.06
399.268	102.06
399.492	88.06
399.717	85.06
399.941	106.06
400.165	80.06
400.389	103.06
400.613	83.06
400.837	83.06
401.062	90.06
401.286	92.06
401.51	88.06
401.734	80.06
401.958	92.06
402.182	112.06
402.406	129.06
402.63	107.06
402.854	84.06
403.078	85.06
403.302	92.06
403.526	94.06
403.75	96.06
403.974	92.06
404.198	86.06
404.422	95.06
404.645	102.06
404.869	92.06
405.093	92.06
405.317	111.06
405.541	99.06
405.765	96.06
405.988	104.06
406.212	138.06
406.436	191.06
406.66	129.06
406.883	96.06
407.107	88.06
407.331	76.06
407.555	106.06
407.778	98.06
408.002	98.06
408.226	100.06
408.449	88.06
408.673	90.06
408.896	91.06
409.12	117.06
409.344	99.06
409.567	103.06
409.791	91.06
410.014	92.06
410.238	99.06
410.461	103.06
410.685	98.06
410.908	98.06
411.132	88.06
411.355	104.06
411.578	96.06
411.802	99.06
412.025	92.06
412.249	82.06
412.472	107.06
412.695	98.06
412.919	87.06
413.142	81.06
413.365	83.06
413.589	95.06
413.812	69.06
414.035	79.06
414.258	99.06
414.482	90.06
414.705	87.06
414.928	95.06
415.151	86.06
415.374	99.06
415.597	95.06
415.821	104.06
416.044	103.06
416.267	90.06
416.49	92.06
416.713	87.06
416.936	84.06
417.159	83.06
417.382	84.06
417.605	96.06
417.828	89.06
418.051	82.06
418.274	88.06
418.497	108.06
418.72	81.06
418.943	96.06
419.166	79.06
419.389	88.06
419.611	85.06
419.834	72.06
420.057	74.06
420.28	75.06
420.503	76.06
420.726	91.06
420.948	84.06
421.171	87.06
421.394	94.06
421.617	83.06
421.839	81.06
422.062	80.06
422.285	88.06
422.507	87.06
422.73	107.06
422.953	73.06
423.175	82.06
423.398	80.06
423.621	89.06
423.843	72.06
424.066	91.06
424.288	96.06
424.511	98.06
424.733	105.06
424.956	96.06
425.178	89.06
425.401	105.06
425.623	105.06
425.846	100.06
426.068	81.06
426.291	91.06
426.513	110.06
426.735	78.06
426.958	83.06
427.18	104.06
427.402	120.06
427.625	159.06
427.847	119.06
428.069	115.06
428.292	98.06
428.514	87.06
428.736	71.06
428.958	80.06
429.181	86.06
429.403	78.06
429.625	70.06
429.847	77.06
430.069	81.06
430.292	105.06
430.514	88.06
430.736	90.06
430.958	99.06
431.18	96.06
431.402	81.06
431.624	90.06
431.846	81.06
432.068	72.06
432.29	88.06
432.512	91.06
432.734	79.06
432.956	85.06
433.178	78.06
433.4	98.06
433.622	84.06
433.844	76.06
434.066	87.06
434.287	80.06
434.509	73.06
434.731	86.06
434.953	91.06
435.175	90.06
435.397	71.06
435.618	90.06
435.84	110.06
436.062	113.06
436.284	96.06
436.505	94.06
436.727	92.06
436.949	85.06
437.17	92.06
437.392	89.06
437.614	70.06
437.835	108.06
438.057	105.06
438.278	102.06
438.5	99.06
438.721	120.06
438.943	99.06
439.165	72.06
439.386	77.06
439.608	90.06
439.829	99.06
440.05	127.06
440.272	136.06
440.493	102.06
440.715	87.06
440.936	97.06
441.158	92.06
441.379	80.06
441.6	99.06
441.822	93.06
442.043	87.06
442.264	93.06
442.486	97.06
442.707	84.06
442.928	100.06
443.149	140.06
443.371	116.06
443.592	104.06
443.813	123.06
444.034	98.06
444.255	79.06
444.476	88.06
444.698	86.06
444.919	90.06
445.14	133.06
445.361	112.06
445.582	106.06
445.803	110.06
446.024	103.06
446.245	111.06
446.466	103.06
446.687	94.06
446.908	82.06
447.129	101.06
447.35	119.06
447.571	99.06
447.792	91.06
448.013	85.06
448.234	106.06
448.455	98.06
448.675	103.06
448.896	105.06
449.117	103.06
449.338	90.06
449.559	112.06
449.779	123.06
450	98.06
450.221	82.06
450.442	82.06
450.662	94.06
450.883	98.06
451.104	106.06
451.324	88.06
451.545	93.06
451.766	97.06
451.986	86.06
452.207	97.06
452.428	98.06
452.648	91.06
452.869	92.06
453.089	95.06
453.31	130.06
453.53	87.06
453.751	92.06
453.971	90.06
454.192	110.06
454.412	88.06
454.633	89.06
454.853	97.06
455.073	100.06
455.294	87.06
455.514	99.06
455.734	81.06
455.955	81.06
456.175	70.06
456.395	84.06
456.616	88.06
456.836	89.06
457.056	84.06
457.276	83.06
457.497	85.06
457.717	83.06
457.937	95.06
458.157	91.06
458.377	82.06
458.598	102.06
458.818	119.06
459.038	145.06
459.258	100.06
459.478	98.06
459.698	86.06
459.918	75.06
460.138	74.06
460.358	87.06
460.578	87.06
460.798	87.06
461.018	84.06
461.238	78.06
461.458	90.06
461.678	98.06
461.898	83.06
462.118	86.06
462.338	95.06
462.558	75.06
462.777	103.06
462.997	94.06
463.217	84.06
463.437	76.06
463.657	89.06
463.876	93.06
464.096	95.06
464.316	97.06
464.536	82.06
464.755	99.06
464.975	97.06
465.195	149.06
465.414	148.06
465.634	86.06
465.854	68.06
466.073	90.06
466.293	84.06
466.512	73.06
466.732	74.06
466.951	89.06
467.171	82.06
467.391	100.06
467.61	93.06
467.829	97.06
468.049	110.06
468.268	103.06
468.488	96.06
468.707	95.06
468.927	81.06
469.146	87.06
469.365	92.06
469.585	85.06
469.804	87.06
470.023	104.06
470.243	96.06
470.462	101.06
470.681	110.06
470.901	89.06
471.12	103.06
471.339	99.06
471.558	80.06
471.777	83.06
471.997	88.06
472.216	144.06
472.435	212.06
472.654	96.06
472.873	85.06
473.092	101.06
473.311	84.06
473.53	70.06
473.749	91.06
473.968	98.06
474.187	101.06
474.406	100.06
474.625	84.06
474.844	71.06
475.063	89.06
475.282	99.06
475.501	85.06
475.72	74.06
475.939	85.06
476.158	98.06
476.377	85.06
476.596	75.06
476.814	90.06
477.033	85.06
477.252	91.06
477.471	92.06
477.69	78.06
477.908	80.06
478.127	82.06
478.346	88.06
478.564	88.06
478.783	84.06
479.002	86.06
479.22	94.06
479.439	84.06
479.658	97.06
479.876	102.06
480.095	108.06
480.313	113.06
480.532	95.06
480.751	113.06
480.969	155.06
481.188	335.06
481.406	222.06
481.624	107.06
481.843	88.06
482.061	89.06
482.28	87.06
482.498	92.06
482.717	106.06
482.935	95.06
483.153	89.06
483.372	90.06
483.59	96.06
483.808	94.06
484.027	86.06
484.245	100.06
484.463	87.06
484.681	103.06
484.9	88.06
485.118	88.06
485.336	71.06
485.554	96.06
485.772	95.06
485.99	108.06
486.209	106.06
486.427	91.06
486.645	117.06
486.863	102.06
487.081	94.06
487.299	103.06
487.517	103.06
487.735	99.06
487.953	91.06
488.171	98.06
488.389	87.06
488.607	104.06
488.825	88.06
489.043	85.06
489.261	88.06
489.479	88.06
489.696	94.06
489.914	98.06
490.132	80.06
490.35	104.06
490.568	91.06
490.786	79.06
491.003	88.06
491.221	83.06
491.439	98.06
491.657	97.06
491.874	91.06
492.092	94.06
492.31	104.06
492.527	84.06
492.745	84.06
492.963	80.06
493.18	90.06
493.398	76.06
493.615	91.06
493.833	91.06
494.05	78.06
494.268	82.06
494.485	102.06
494.703	89.06
494.92	91.06
495.138	79.06
495.355	79.06
495.573	100.06
495.79	89.06
496.008	87.06
496.225	83.06
496.442	83.06
496.66	87.06
496.877	94.06
497.094	92.06
497.312	91.06
497.529	101.06
497.746	96.06
497.963	96.06
498.181	91.06
498.398	103.06
498.615	113.06
498.832	100.06
499.049	86.06
499.267	103.06
499.484	99.06
499.701	94.06
499.918	93.06
500.135	89.06
500.352	103.06
500.569	76.06
500.786	89.06
501.003	81.06
501.22	86.06
501.437	78.06
501.654	90.06
501.871	98.06
502.088	85.06
502.305	85.06
502.522	88.06
502.739	78.06
502.956	93.06
503.172	82.06
503.389	95.06
503.606	100.06
503.823	87.06
504.04	81.06
504.256	76.06
504.473	92.06
504.69	82.06
504.907	98.06
505.123	73.06
505.34	92.06
505.557	82.06
505.773	91.06
505.99	87.06
506.207	76.06
506.423	92.06
506.64	94.06
506.856	88.06
507.073	88.06
507.289	106.06
507.506	78.06
507.722	97.06
507.939	97.06
508.155	90.06
508.372	87.06
508.588	89.06
508.805	98.06
509.021	83.06
509.238	94.06
509.454	90.06
509.67	90.06
509.887	98.06
510.103	122.06
510.319	198.06
510.536	659.06
510.752	2034.06
510.968	562.06
511.184	142.06
511.401	114.06
511.617	82.06
511.833	83.06
512.049	97.06
512.265	80.06
512.481	86.06
512.698	91.06
512.914	114.06
513.13	102.06
513.346	99.06
513.562	86.06
513.778	112.06
513.994	80.06
514.21	95.06
514.426	113.06
514.642	108.06
514.858	112.06
515.074	162.06
515.29	358.06
515.506	1199.06
515.721	434.06
515.937	139.06
516.153	112.06
