Data from Circ_1985_H10_HRD10591_00065.txt Node
Date: Wed Jan 03 12:19:35 EST 2024
User: Yrep
Spectrometer: HR+D1059
Trigger mode: 1
Integration Time (sec): 1.000000E-1
Scans to average: 1
Electric dark correction enabled: true
Nonlinearity correction enabled: false
Boxcar width: 0
XAxis mode: Wavelengths
Number of Pixels in Spectrum: 2048
>>>>>Begin Spectral Data<<<<<
223.165	-21.19
223.4	-21.19
223.635	-21.19
223.869	-30.19
224.104	-18.19
224.338	-32.19
224.573	-13.19
224.808	-18.19
225.042	-9.19
225.277	7.81
225.511	-2.19
225.746	8.81
225.98	11.81
226.215	10.81
226.449	19.81
226.683	18.81
226.918	34.81
227.152	31.81
227.387	39.81
227.621	33.81
227.856	37.81
228.09	37.81
228.324	59.81
228.559	45.81
228.793	50.81
229.027	51.81
229.262	52.81
229.496	60.81
229.73	70.81
229.964	87.81
230.199	79.81
230.433	68.81
230.667	92.81
230.901	69.81
231.136	67.81
231.37	81.81
231.604	65.81
231.838	85.81
232.072	76.81
232.306	64.81
232.541	71.81
232.775	67.81
233.009	76.81
233.243	65.81
233.477	66.81
233.711	83.81
233.945	72.81
234.179	83.81
234.413	67.81
234.647	82.81
234.881	71.81
235.115	81.81
235.349	70.81
235.583	83.81
235.817	80.81
236.051	75.81
236.285	63.81
236.519	69.81
236.753	76.81
236.987	73.81
237.221	72.81
237.455	79.81
237.689	66.81
237.922	72.81
238.156	61.81
238.39	78.81
238.624	75.81
238.858	72.81
239.091	71.81
239.325	61.81
239.559	79.81
239.793	71.81
240.027	84.81
240.26	73.81
240.494	70.81
240.728	73.81
240.961	72.81
241.195	72.81
241.429	64.81
241.662	62.81
241.896	65.81
242.13	72.81
242.363	67.81
242.597	79.81
242.83	73.81
243.064	78.81
243.298	68.81
243.531	75.81
243.765	83.81
243.998	80.81
244.232	68.81
244.465	77.81
244.699	70.81
244.932	68.81
245.166	59.81
245.399	92.81
245.633	67.81
245.866	59.81
246.099	77.81
246.333	86.81
246.566	68.81
246.8	75.81
247.033	83.81
247.266	72.81
247.5	87.81
247.733	72.81
247.966	70.81
248.2	73.81
248.433	75.81
248.666	85.81
248.899	72.81
249.133	72.81
249.366	99.81
249.599	96.81
249.832	79.81
250.066	91.81
250.299	71.81
250.532	87.81
250.765	66.81
250.998	80.81
251.231	63.81
251.465	67.81
251.698	73.81
251.931	73.81
252.164	68.81
252.397	91.81
252.63	67.81
252.863	70.81
253.096	76.81
253.329	68.81
253.562	73.81
253.795	71.81
254.028	80.81
254.261	54.81
254.494	82.81
254.727	89.81
254.96	75.81
255.193	82.81
255.426	79.81
255.659	76.81
255.892	73.81
256.124	88.81
256.357	70.81
256.59	87.81
256.823	95.81
257.056	72.81
257.289	76.81
257.521	79.81
257.754	74.81
257.987	75.81
258.22	83.81
258.452	68.81
258.685	61.81
258.918	75.81
259.151	95.81
259.383	79.81
259.616	72.81
259.849	84.81
260.081	77.81
260.314	80.81
260.547	71.81
260.779	87.81
261.012	85.81
261.244	84.81
261.477	73.81
261.71	77.81
261.942	99.81
262.175	107.81
262.407	86.81
262.64	80.81
262.872	82.81
263.105	61.81
263.337	81.81
263.57	72.81
263.802	76.81
264.035	93.81
264.267	85.81
264.499	73.81
264.732	85.81
264.964	85.81
265.197	90.81
265.429	86.81
265.661	81.81
265.894	88.81
266.126	90.81
266.358	83.81
266.591	92.81
266.823	78.81
267.055	82.81
267.287	80.81
267.52	80.81
267.752	80.81
267.984	86.81
268.216	82.81
268.448	84.81
268.681	81.81
268.913	86.81
269.145	73.81
269.377	86.81
269.609	76.81
269.841	83.81
270.073	63.81
270.306	86.81
270.538	84.81
270.77	79.81
271.002	71.81
271.234	94.81
271.466	68.81
271.698	77.81
271.93	81.81
272.162	86.81
272.394	88.81
272.626	81.81
272.858	82.81
273.09	85.81
273.322	86.81
273.553	93.81
273.785	87.81
274.017	72.81
274.249	84.81
274.481	78.81
274.713	80.81
274.945	75.81
275.176	73.81
275.408	77.81
275.64	75.81
275.872	88.81
276.104	68.81
276.335	80.81
276.567	90.81
276.799	101.81
277.031	84.81
277.262	85.81
277.494	73.81
277.726	84.81
277.957	87.81
278.189	89.81
278.421	72.81
278.652	93.81
278.884	77.81
279.115	92.81
279.347	83.81
279.579	80.81
279.81	82.81
280.042	91.81
280.273	81.81
280.505	76.81
280.736	84.81
280.968	75.81
281.199	88.81
281.431	84.81
281.662	96.81
281.894	84.81
282.125	84.81
282.356	99.81
282.588	128.81
282.819	119.81
283.051	88.81
283.282	81.81
283.513	96.81
283.745	75.81
283.976	77.81
284.207	76.81
284.439	83.81
284.67	80.81
284.901	83.81
285.132	80.81
285.364	94.81
285.595	75.81
285.826	75.81
286.057	79.81
286.288	73.81
286.52	75.81
286.751	82.81
286.982	79.81
287.213	72.81
287.444	71.81
287.675	82.81
287.906	94.81
288.138	94.81
288.369	88.81
288.6	80.81
288.831	91.81
289.062	94.81
289.293	84.81
289.524	87.81
289.755	83.81
289.986	95.81
290.217	79.81
290.448	87.81
290.679	92.81
290.91	94.81
291.141	79.81
291.371	87.81
291.602	85.81
291.833	91.81
292.064	82.81
292.295	87.81
292.526	100.81
292.757	84.81
292.987	72.81
293.218	97.81
293.449	82.81
293.68	86.81
293.91	85.81
294.141	82.81
294.372	84.81
294.603	83.81
294.833	73.81
295.064	87.81
295.295	95.81
295.525	89.81
295.756	92.81
295.987	107.81
296.217	117.81
296.448	116.81
296.679	88.81
296.909	97.81
297.14	83.81
297.37	64.81
297.601	89.81
297.831	93.81
298.062	92.81
298.292	88.81
298.523	94.81
298.753	82.81
298.984	87.81
299.214	84.81
299.445	92.81
299.675	78.81
299.905	87.81
300.136	81.81
300.366	79.81
300.597	97.81
300.827	73.81
301.057	88.81
301.288	83.81
301.518	78.81
301.748	85.81
301.979	93.81
302.209	83.81
302.439	84.81
302.669	83.81
302.9	95.81
303.13	94.81
303.36	101.81
303.59	120.81
303.82	106.81
304.051	75.81
304.281	81.81
304.511	79.81
304.741	85.81
304.971	82.81
305.201	97.81
305.431	95.81
305.661	68.81
305.891	88.81
306.121	93.81
306.352	106.81
306.582	88.81
306.812	82.81
307.042	87.81
307.272	100.81
307.502	94.81
307.731	102.81
307.961	93.81
308.191	87.81
308.421	84.81
308.651	97.81
308.881	93.81
309.111	95.81
309.341	95.81
309.571	78.81
309.8	92.81
310.03	94.81
310.26	84.81
310.49	85.81
310.72	89.81
310.949	94.81
311.179	87.81
311.409	92.81
311.639	107.81
311.868	86.81
312.098	98.81
312.328	92.81
312.557	87.81
312.787	100.81
313.017	110.81
313.246	92.81
313.476	96.81
313.706	84.81
313.935	89.81
314.165	86.81
314.394	91.81
314.624	92.81
314.853	88.81
315.083	85.81
315.312	73.81
315.542	96.81
315.771	90.81
316.001	87.81
316.23	84.81
316.46	104.81
316.689	93.81
316.919	83.81
317.148	93.81
317.377	87.81
317.607	88.81
317.836	93.81
318.065	77.81
318.295	91.81
318.524	86.81
318.753	92.81
318.983	86.81
319.212	98.81
319.441	97.81
319.67	102.81
319.9	95.81
320.129	72.81
320.358	93.81
320.587	90.81
320.816	94.81
321.046	86.81
321.275	100.81
321.504	100.81
321.733	83.81
321.962	88.81
322.191	92.81
322.42	105.81
322.649	118.81
322.878	113.81
323.108	113.81
323.337	114.81
323.566	132.81
323.795	135.81
324.024	179.81
324.253	325.81
324.482	715.81
324.71	1481.81
324.939	1951.81
325.168	708.81
325.397	228.81
325.626	136.81
325.855	133.81
326.084	114.81
326.313	126.81
326.542	153.81
326.77	192.81
326.999	408.81
327.228	851.81
327.457	1534.81
327.686	1227.81
327.914	315.81
328.143	182.81
328.372	142.81
328.6	126.81
328.829	116.81
329.058	128.81
329.287	107.81
329.515	110.81
329.744	98.81
329.972	99.81
330.201	129.81
330.43	128.81
330.658	107.81
330.887	110.81
331.115	109.81
331.344	102.81
331.572	89.81
331.801	92.81
332.03	89.81
332.258	97.81
332.486	85.81
332.715	88.81
332.943	97.81
333.172	102.81
333.4	90.81
333.629	111.81
333.857	113.81
334.085	114.81
334.314	105.81
334.542	142.81
334.771	128.81
334.999	109.81
335.227	91.81
335.455	92.81
335.684	89.81
335.912	97.81
336.14	106.81
336.369	93.81
336.597	88.81
336.825	84.81
337.053	87.81
337.281	81.81
337.51	88.81
337.738	100.81
337.966	71.81
338.194	96.81
338.422	95.81
338.65	85.81
338.878	90.81
339.106	87.81
339.334	94.81
339.562	77.81
339.79	92.81
340.018	79.81
340.246	85.81
340.474	86.81
340.702	88.81
340.93	101.81
341.158	92.81
341.386	88.81
341.614	87.81
341.842	79.81
342.07	82.81
342.298	83.81
342.526	99.81
342.754	100.81
342.981	84.81
343.209	83.81
343.437	93.81
343.665	83.81
343.893	95.81
344.12	89.81
344.348	66.81
344.576	77.81
344.804	87.81
345.031	84.81
345.259	84.81
345.487	94.81
345.714	93.81
345.942	76.81
346.17	91.81
346.397	89.81
346.625	80.81
346.853	87.81
347.08	90.81
347.308	83.81
347.535	105.81
347.763	92.81
347.99	97.81
348.218	86.81
348.445	104.81
348.673	82.81
348.9	88.81
349.128	93.81
349.355	94.81
349.583	98.81
349.81	83.81
350.037	75.81
350.265	89.81
350.492	83.81
350.72	100.81
350.947	99.81
351.174	103.81
351.402	91.81
351.629	95.81
351.856	95.81
352.083	89.81
352.311	111.81
352.538	100.81
352.765	112.81
352.992	107.81
353.22	94.81
353.447	102.81
353.674	102.81
353.901	94.81
354.128	92.81
354.355	83.81
354.583	79.81
354.81	90.81
355.037	106.81
355.264	91.81
355.491	80.81
355.718	102.81
355.945	89.81
356.172	89.81
356.399	91.81
356.626	95.81
356.853	97.81
357.08	86.81
357.307	95.81
357.534	82.81
357.761	85.81
357.988	92.81
358.215	91.81
358.441	98.81
358.668	89.81
358.895	74.81
359.122	77.81
359.349	76.81
359.576	88.81
359.802	96.81
360.029	85.81
360.256	111.81
360.483	91.81
360.709	86.81
360.936	85.81
361.163	89.81
361.39	97.81
361.616	80.81
361.843	86.81
362.07	67.81
362.296	77.81
362.523	85.81
362.749	86.81
362.976	69.81
363.203	72.81
363.429	92.81
363.656	92.81
363.882	74.81
364.109	91.81
364.335	84.81
364.562	80.81
364.788	82.81
365.015	79.81
365.241	90.81
365.468	83.81
365.694	85.81
365.92	98.81
366.147	92.81
366.373	81.81
366.599	85.81
366.826	88.81
367.052	88.81
367.278	98.81
367.505	77.81
367.731	75.81
367.957	85.81
368.184	79.81
368.41	90.81
368.636	93.81
368.862	107.81
369.089	97.81
369.315	88.81
369.541	91.81
369.767	94.81
369.993	93.81
370.219	91.81
370.445	77.81
370.672	89.81
370.898	77.81
371.124	77.81
371.35	98.81
371.576	88.81
371.802	85.81
372.028	83.81
372.254	81.81
372.48	73.81
372.706	83.81
372.932	88.81
373.158	88.81
373.384	88.81
373.61	99.81
373.835	99.81
374.061	88.81
374.287	86.81
374.513	93.81
374.739	84.81
374.965	88.81
375.191	73.81
375.416	96.81
375.642	82.81
375.868	68.81
376.094	84.81
376.319	91.81
376.545	78.81
376.771	94.81
376.997	98.81
377.222	87.81
377.448	80.81
377.674	95.81
377.899	100.81
378.125	76.81
378.35	92.81
378.576	84.81
378.802	89.81
379.027	92.81
379.253	96.81
379.478	87.81
379.704	81.81
379.929	90.81
380.155	83.81
380.38	86.81
380.606	87.81
380.831	91.81
381.057	89.81
381.282	98.81
381.507	95.81
381.733	103.81
381.958	93.81
382.184	114.81
382.409	105.81
382.634	94.81
382.86	92.81
383.085	103.81
383.31	89.81
383.535	108.81
383.761	93.81
383.986	101.81
384.211	104.81
384.436	103.81
384.662	106.81
384.887	91.81
385.112	100.81
385.337	111.81
385.562	91.81
385.787	103.81
386.013	105.81
386.238	98.81
386.463	99.81
386.688	112.81
386.913	90.81
387.138	103.81
387.363	99.81
387.588	99.81
387.813	81.81
388.038	103.81
388.263	94.81
388.488	87.81
388.713	105.81
388.938	97.81
389.163	96.81
389.387	101.81
389.612	83.81
389.837	93.81
390.062	89.81
390.287	82.81
390.512	81.81
390.736	93.81
390.961	94.81
391.186	86.81
391.411	77.81
391.636	79.81
391.86	96.81
392.085	79.81
392.31	91.81
392.534	92.81
392.759	91.81
392.984	77.81
393.208	104.81
393.433	93.81
393.658	83.81
393.882	75.81
394.107	85.81
394.331	88.81
394.556	84.81
394.78	76.81
395.005	89.81
395.229	77.81
395.454	91.81
395.678	87.81
395.903	73.81
396.127	83.81
396.352	70.81
396.576	81.81
396.801	88.81
397.025	96.81
397.249	75.81
397.474	72.81
397.698	85.81
397.922	84.81
398.147	86.81
398.371	71.81
398.595	82.81
398.82	75.81
399.044	84.81
399.268	83.81
399.492	91.81
399.717	104.81
399.941	78.81
400.165	85.81
400.389	96.81
400.613	68.81
400.837	81.81
401.062	85.81
401.286	80.81
401.51	87.81
401.734	93.81
401.958	88.81
402.182	93.81
402.406	130.81
402.63	109.81
402.854	85.81
403.078	93.81
403.302	80.81
403.526	97.81
403.75	82.81
403.974	85.81
404.198	86.81
404.422	86.81
404.645	78.81
404.869	96.81
405.093	93.81
405.317	94.81
405.541	87.81
405.765	96.81
405.988	95.81
406.212	147.81
406.436	187.81
406.66	116.81
406.883	87.81
407.107	80.81
407.331	83.81
407.555	96.81
407.778	103.81
408.002	77.81
408.226	75.81
408.449	92.81
408.673	86.81
408.896	101.81
409.12	105.81
409.344	76.81
409.567	85.81
409.791	80.81
410.014	68.81
410.238	95.81
410.461	82.81
410.685	88.81
410.908	99.81
411.132	116.81
411.355	92.81
411.578	99.81
411.802	88.81
412.025	82.81
412.249	71.81
412.472	100.81
412.695	82.81
412.919	79.81
413.142	89.81
413.365	75.81
413.589	80.81
413.812	83.81
414.035	80.81
414.258	83.81
414.482	85.81
414.705	81.81
414.928	76.81
415.151	87.81
415.374	85.81
415.597	96.81
415.821	84.81
416.044	68.81
416.267	85.81
416.49	72.81
416.713	79.81
416.936	71.81
417.159	85.81
417.382	87.81
417.605	87.81
417.828	83.81
418.051	85.81
418.274	94.81
418.497	83.81
418.72	71.81
418.943	85.81
419.166	82.81
419.389	97.81
419.611	86.81
419.834	79.81
420.057	87.81
420.28	91.81
420.503	75.81
420.726	80.81
420.948	79.81
421.171	96.81
421.394	79.81
421.617	72.81
421.839	104.81
422.062	77.81
422.285	83.81
422.507	98.81
422.73	89.81
422.953	92.81
423.175	90.81
423.398	84.81
423.621	94.81
423.843	85.81
424.066	91.81
424.288	75.81
424.511	84.81
424.733	75.81
424.956	94.81
425.178	89.81
425.401	90.81
425.623	96.81
425.846	85.81
426.068	86.81
426.291	83.81
426.513	67.81
426.735	93.81
426.958	87.81
427.18	91.81
427.402	127.81
427.625	108.81
427.847	120.81
428.069	102.81
428.292	88.81
428.514	96.81
428.736	92.81
428.958	83.81
429.181	66.81
429.403	84.81
429.625	71.81
429.847	91.81
430.069	87.81
430.292	86.81
430.514	64.81
430.736	77.81
430.958	85.81
431.18	72.81
431.402	81.81
431.624	86.81
431.846	72.81
432.068	81.81
432.29	83.81
432.512	108.81
432.734	78.81
432.956	99.81
433.178	88.81
433.4	95.81
433.622	88.81
433.844	89.81
434.066	87.81
434.287	86.81
434.509	87.81
434.731	91.81
434.953	88.81
435.175	87.81
435.397	64.81
435.618	78.81
435.84	98.81
436.062	108.81
436.284	95.81
436.505	92.81
436.727	101.81
436.949	98.81
437.17	88.81
437.392	91.81
437.614	81.81
437.835	82.81
438.057	104.81
438.278	91.81
438.5	86.81
438.721	114.81
438.943	98.81
439.165	77.81
439.386	93.81
439.608	86.81
439.829	86.81
440.05	103.81
440.272	129.81
440.493	100.81
440.715	75.81
440.936	81.81
441.158	75.81
441.379	80.81
441.6	78.81
441.822	86.81
442.043	78.81
442.264	87.81
442.486	84.81
442.707	77.81
442.928	115.81
443.149	106.81
443.371	96.81
443.592	87.81
443.813	105.81
444.034	104.81
444.255	95.81
444.476	80.81
444.698	96.81
444.919	84.81
445.14	123.81
445.361	96.81
445.582	110.81
445.803	122.81
446.024	139.81
446.245	118.81
446.466	94.81
446.687	79.81
446.908	85.81
447.129	91.81
447.35	80.81
447.571	89.81
447.792	81.81
448.013	84.81
448.234	90.81
448.455	91.81
448.675	104.81
448.896	101.81
449.117	87.81
449.338	96.81
449.559	99.81
449.779	128.81
450	93.81
450.221	87.81
450.442	82.81
450.662	96.81
450.883	102.81
451.104	100.81
451.324	84.81
451.545	82.81
451.766	77.81
451.986	77.81
452.207	78.81
452.428	91.81
452.648	87.81
452.869	101.81
453.089	84.81
453.31	114.81
453.53	88.81
453.751	85.81
453.971	89.81
454.192	109.81
454.412	75.81
454.633	91.81
454.853	91.81
455.073	97.81
455.294	73.81
455.514	93.81
455.734	76.81
455.955	76.81
456.175	91.81
456.395	83.81
456.616	81.81
456.836	79.81
457.056	80.81
457.276	68.81
457.497	66.81
457.717	79.81
457.937	79.81
458.157	74.81
458.377	88.81
458.598	91.81
458.818	129.81
459.038	133.81
459.258	109.81
459.478	95.81
459.698	76.81
459.918	75.81
460.138	79.81
460.358	93.81
460.578	83.81
460.798	75.81
461.018	85.81
461.238	75.81
461.458	76.81
461.678	71.81
461.898	88.81
462.118	88.81
462.338	77.81
462.558	75.81
462.777	71.81
462.997	77.81
463.217	91.81
463.437	79.81
463.657	98.81
463.876	85.81
464.096	82.81
464.316	71.81
464.536	81.81
464.755	70.81
464.975	95.81
465.195	128.81
465.414	130.81
465.634	81.81
465.854	83.81
466.073	87.81
466.293	83.81
466.512	84.81
466.732	89.81
466.951	72.81
467.171	96.81
467.391	94.81
467.61	102.81
467.829	76.81
468.049	94.81
468.268	109.81
468.488	92.81
468.707	81.81
468.927	71.81
469.146	78.81
469.365	77.81
469.585	81.81
469.804	99.81
470.023	93.81
470.243	94.81
470.462	76.81
470.681	90.81
470.901	88.81
471.12	86.81
471.339	95.81
471.558	72.81
471.777	95.81
471.997	93.81
472.216	114.81
472.435	153.81
472.654	101.81
472.873	71.81
473.092	80.81
473.311	87.81
473.53	86.81
473.749	94.81
473.968	90.81
474.187	95.81
474.406	85.81
474.625	83.81
474.844	83.81
475.063	84.81
475.282	80.81
475.501	84.81
475.72	95.81
475.939	79.81
476.158	83.81
476.377	84.81
476.596	80.81
476.814	90.81
477.033	96.81
477.252	75.81
477.471	83.81
477.69	71.81
477.908	75.81
478.127	87.81
478.346	78.81
478.564	92.81
478.783	92.81
479.002	94.81
479.22	94.81
479.439	108.81
479.658	88.81
479.876	82.81
480.095	86.81
480.313	96.81
480.532	95.81
480.751	84.81
480.969	107.81
481.188	229.81
481.406	169.81
481.624	79.81
481.843	90.81
482.061	95.81
482.28	81.81
482.498	74.81
482.717	91.81
482.935	87.81
483.153	78.81
483.372	88.81
483.59	103.81
483.808	78.81
484.027	92.81
484.245	92.81
484.463	86.81
484.681	90.81
484.9	89.81
485.118	83.81
485.336	85.81
485.554	88.81
485.772	91.81
485.99	102.81
486.209	103.81
486.427	104.81
486.645	123.81
486.863	105.81
487.081	103.81
487.299	96.81
487.517	79.81
487.735	82.81
487.953	80.81
488.171	102.81
488.389	95.81
488.607	94.81
488.825	89.81
489.043	85.81
489.261	90.81
489.479	86.81
489.696	90.81
489.914	95.81
490.132	79.81
490.35	84.81
490.568	88.81
490.786	91.81
491.003	87.81
491.221	87.81
491.439	92.81
491.657	79.81
491.874	93.81
492.092	67.81
492.31	80.81
492.527	87.81
492.745	81.81
492.963	88.81
493.18	79.81
493.398	79.81
493.615	85.81
493.833	96.81
494.05	87.81
494.268	94.81
494.485	103.81
494.703	96.81
494.92	87.81
495.138	80.81
495.355	91.81
495.573	84.81
495.79	95.81
496.008	95.81
496.225	77.81
496.442	77.81
496.66	95.81
496.877	87.81
497.094	97.81
497.312	92.81
497.529	93.81
497.746	71.81
497.963	92.81
498.181	88.81
498.398	96.81
498.615	98.81
498.832	98.81
499.049	86.81
499.267	78.81
499.484	80.81
499.701	92.81
499.918	77.81
500.135	88.81
500.352	89.81
500.569	85.81
500.786	82.81
501.003	63.81
501.22	91.81
501.437	81.81
501.654	81.81
501.871	88.81
502.088	87.81
502.305	91.81
502.522	83.81
502.739	76.81
502.956	81.81
503.172	96.81
503.389	89.81
503.606	84.81
503.823	86.81
504.04	81.81
504.256	86.81
504.473	83.81
504.69	81.81
504.907	85.81
505.123	91.81
505.34	89.81
505.557	87.81
505.773	79.81
505.99	76.81
506.207	71.81
506.423	85.81
506.64	87.81
506.856	87.81
507.073	91.81
507.289	85.81
507.506	76.81
507.722	108.81
507.939	100.81
508.155	89.81
508.372	87.81
508.588	83.81
508.805	103.81
509.021	78.81
509.238	94.81
509.454	100.81
509.67	91.81
509.887	105.81
510.103	121.81
510.319	198.81
510.536	593.81
510.752	1852.81
510.968	534.81
511.184	139.81
511.401	103.81
511.617	97.81
511.833	80.81
512.049	85.81
512.265	96.81
512.481	98.81
512.698	87.81
512.914	81.81
513.13	100.81
513.346	100.81
513.562	88.81
513.778	89.81
513.994	88.81
514.21	86.81
514.426	109.81
514.642	125.81
514.858	106.81
515.074	141.81
515.29	345.81
515.506	1108.81
515.721	422.81
515.937	125.81
516.153	79.81
516.369	87.81
516.585	81.81
516.801	88.81
517.016	95.81
517.232	90.81
517.448	87.81
