Data from Circ_1985_H10_HRD10591_00025.txt Node
Date: Wed Jan 03 12:19:27 EST 2024
User: Yrep
Spectrometer: HR+D1059
Trigger mode: 1
Integration Time (sec): 1.000000E-1
Scans to average: 1
Electric dark correction enabled: true
Nonlinearity correction enabled: false
Boxcar width: 0
XAxis mode: Wavelengths
Number of Pixels in Spectrum: 2048
>>>>>Begin Spectral Data<<<<<
223.165	-9.81
223.4	-9.81
223.635	-9.81
223.869	-15.81
224.104	-8.81
224.338	-19.81
224.573	-18.81
224.808	-5.81
225.042	4.19
225.277	0.19
225.511	-7.81
225.746	0.19
225.98	10.19
226.215	8.19
226.449	15.19
226.683	10.19
226.918	14.19
227.152	24.19
227.387	19.19
227.621	42.19
227.856	38.19
228.09	35.19
228.324	44.19
228.559	46.19
228.793	74.19
229.027	66.19
229.262	56.19
229.496	71.19
229.73	68.19
229.964	79.19
230.199	65.19
230.433	68.19
230.667	79.19
230.901	88.19
231.136	76.19
231.37	62.19
231.604	88.19
231.838	83.19
232.072	69.19
232.306	70.19
232.541	67.19
232.775	83.19
233.009	73.19
233.243	80.19
233.477	71.19
233.711	74.19
233.945	93.19
234.179	69.19
234.413	88.19
234.647	78.19
234.881	72.19
235.115	71.19
235.349	64.19
235.583	68.19
235.817	76.19
236.051	80.19
236.285	69.19
236.519	82.19
236.753	72.19
236.987	80.19
237.221	90.19
237.455	90.19
237.689	71.19
237.922	61.19
238.156	66.19
238.39	86.19
238.624	69.19
238.858	86.19
239.091	78.19
239.325	68.19
239.559	68.19
239.793	74.19
240.027	86.19
240.26	86.19
240.494	82.19
240.728	73.19
240.961	69.19
241.195	86.19
241.429	81.19
241.662	73.19
241.896	60.19
242.13	63.19
242.363	71.19
242.597	81.19
242.83	89.19
243.064	86.19
243.298	78.19
243.531	69.19
243.765	81.19
243.998	61.19
244.232	79.19
244.465	74.19
244.699	82.19
244.932	66.19
245.166	78.19
245.399	88.19
245.633	70.19
245.866	74.19
246.099	86.19
246.333	83.19
246.566	76.19
246.8	79.19
247.033	60.19
247.266	72.19
247.5	72.19
247.733	77.19
247.966	68.19
248.2	72.19
248.433	86.19
248.666	73.19
248.899	81.19
249.133	86.19
249.366	87.19
249.599	87.19
249.832	70.19
250.066	89.19
250.299	88.19
250.532	90.19
250.765	81.19
250.998	74.19
251.231	71.19
251.465	76.19
251.698	71.19
251.931	71.19
252.164	82.19
252.397	63.19
252.63	88.19
252.863	83.19
253.096	58.19
253.329	62.19
253.562	79.19
253.795	78.19
254.028	84.19
254.261	67.19
254.494	85.19
254.727	80.19
254.96	80.19
255.193	82.19
255.426	74.19
255.659	70.19
255.892	81.19
256.124	87.19
256.357	78.19
256.59	74.19
256.823	78.19
257.056	68.19
257.289	71.19
257.521	92.19
257.754	76.19
257.987	68.19
258.22	73.19
258.452	86.19
258.685	73.19
258.918	85.19
259.151	86.19
259.383	76.19
259.616	94.19
259.849	73.19
260.081	88.19
260.314	76.19
260.547	88.19
260.779	71.19
261.012	79.19
261.244	86.19
261.477	93.19
261.71	88.19
261.942	115.19
262.175	110.19
262.407	87.19
262.64	76.19
262.872	75.19
263.105	86.19
263.337	89.19
263.57	76.19
263.802	76.19
264.035	80.19
264.267	87.19
264.499	74.19
264.732	71.19
264.964	64.19
265.197	78.19
265.429	87.19
265.661	88.19
265.894	78.19
266.126	75.19
266.358	78.19
266.591	83.19
266.823	76.19
267.055	82.19
267.287	80.19
267.52	73.19
267.752	92.19
267.984	76.19
268.216	74.19
268.448	80.19
268.681	84.19
268.913	79.19
269.145	83.19
269.377	78.19
269.609	89.19
269.841	80.19
270.073	78.19
270.306	82.19
270.538	82.19
270.77	83.19
271.002	76.19
271.234	71.19
271.466	98.19
271.698	65.19
271.93	89.19
272.162	89.19
272.394	101.19
272.626	80.19
272.858	84.19
273.09	73.19
273.322	80.19
273.553	79.19
273.785	84.19
274.017	80.19
274.249	81.19
274.481	76.19
274.713	89.19
274.945	82.19
275.176	77.19
275.408	95.19
275.64	81.19
275.872	80.19
276.104	102.19
276.335	82.19
276.567	86.19
276.799	84.19
277.031	95.19
277.262	74.19
277.494	85.19
277.726	100.19
277.957	91.19
278.189	82.19
278.421	87.19
278.652	80.19
278.884	71.19
279.115	82.19
279.347	88.19
279.579	87.19
279.81	82.19
280.042	84.19
280.273	86.19
280.505	88.19
280.736	66.19
280.968	84.19
281.199	92.19
281.431	80.19
281.662	97.19
281.894	98.19
282.125	84.19
282.356	100.19
282.588	112.19
282.819	105.19
283.051	93.19
283.282	76.19
283.513	78.19
283.745	88.19
283.976	100.19
284.207	80.19
284.439	89.19
284.67	68.19
284.901	71.19
285.132	88.19
285.364	81.19
285.595	82.19
285.826	93.19
286.057	83.19
286.288	90.19
286.52	83.19
286.751	68.19
286.982	81.19
287.213	72.19
287.444	73.19
287.675	90.19
287.906	89.19
288.138	91.19
288.369	110.19
288.6	102.19
288.831	76.19
289.062	96.19
289.293	89.19
289.524	80.19
289.755	80.19
289.986	86.19
290.217	68.19
290.448	97.19
290.679	86.19
290.91	88.19
291.141	72.19
291.371	82.19
291.602	72.19
291.833	97.19
292.064	82.19
292.295	71.19
292.526	84.19
292.757	98.19
292.987	90.19
293.218	71.19
293.449	87.19
293.68	86.19
293.91	96.19
294.141	79.19
294.372	82.19
294.603	101.19
294.833	84.19
295.064	87.19
295.295	87.19
295.525	79.19
295.756	100.19
295.987	92.19
296.217	124.19
296.448	119.19
296.679	89.19
296.909	93.19
297.14	93.19
297.37	85.19
297.601	82.19
297.831	76.19
298.062	99.19
298.292	91.19
298.523	83.19
298.753	100.19
298.984	87.19
299.214	78.19
299.445	98.19
299.675	89.19
299.905	94.19
300.136	86.19
300.366	92.19
300.597	95.19
300.827	90.19
301.057	90.19
301.288	93.19
301.518	97.19
301.748	98.19
301.979	93.19
302.209	88.19
302.439	92.19
302.669	91.19
302.9	89.19
303.13	89.19
303.36	88.19
303.59	105.19
303.82	98.19
304.051	95.19
304.281	97.19
304.511	97.19
304.741	70.19
304.971	81.19
305.201	84.19
305.431	97.19
305.661	76.19
305.891	100.19
306.121	88.19
306.352	106.19
306.582	104.19
306.812	86.19
307.042	95.19
307.272	100.19
307.502	97.19
307.731	99.19
307.961	90.19
308.191	89.19
308.421	100.19
308.651	84.19
308.881	84.19
309.111	77.19
309.341	84.19
309.571	94.19
309.8	101.19
310.03	101.19
310.26	96.19
310.49	95.19
310.72	90.19
310.949	96.19
311.179	91.19
311.409	81.19
311.639	81.19
311.868	101.19
312.098	82.19
312.328	104.19
312.557	96.19
312.787	85.19
313.017	100.19
313.246	89.19
313.476	86.19
313.706	92.19
313.935	95.19
314.165	93.19
314.394	82.19
314.624	87.19
314.853	79.19
315.083	98.19
315.312	85.19
315.542	77.19
315.771	98.19
316.001	84.19
316.23	101.19
316.46	90.19
316.689	80.19
316.919	88.19
317.148	85.19
317.377	108.19
317.607	101.19
317.836	80.19
318.065	80.19
318.295	95.19
318.524	78.19
318.753	91.19
318.983	87.19
319.212	93.19
319.441	100.19
319.67	99.19
319.9	83.19
320.129	106.19
320.358	98.19
320.587	110.19
320.816	92.19
321.046	100.19
321.275	95.19
321.504	93.19
321.733	78.19
321.962	100.19
322.191	113.19
322.42	84.19
322.649	102.19
322.878	99.19
323.108	117.19
323.337	105.19
323.566	126.19
323.795	135.19
324.024	185.19
324.253	351.19
324.482	742.19
324.71	1481.19
324.939	1996.19
325.168	735.19
325.397	220.19
325.626	133.19
325.855	113.19
326.084	106.19
326.313	118.19
326.542	144.19
326.77	197.19
326.999	405.19
327.228	856.19
327.457	1566.19
327.686	1284.19
327.914	349.19
328.143	168.19
328.372	146.19
328.6	117.19
328.829	113.19
329.058	112.19
329.287	128.19
329.515	101.19
329.744	93.19
329.972	97.19
330.201	105.19
330.43	119.19
330.658	123.19
330.887	122.19
331.115	111.19
331.344	96.19
331.572	100.19
331.801	81.19
332.03	82.19
332.258	74.19
332.486	84.19
332.715	95.19
332.943	99.19
333.172	94.19
333.4	88.19
333.629	86.19
333.857	116.19
334.085	101.19
334.314	109.19
334.542	106.19
334.771	106.19
334.999	95.19
335.227	112.19
335.455	101.19
335.684	92.19
335.912	87.19
336.14	81.19
336.369	93.19
336.597	89.19
336.825	97.19
337.053	87.19
337.281	96.19
337.51	93.19
337.738	88.19
337.966	89.19
338.194	88.19
338.422	95.19
338.65	100.19
338.878	88.19
339.106	81.19
339.334	93.19
339.562	87.19
339.79	80.19
340.018	80.19
340.246	80.19
340.474	81.19
340.702	81.19
340.93	89.19
341.158	91.19
341.386	103.19
341.614	90.19
341.842	94.19
342.07	85.19
342.298	81.19
342.526	83.19
342.754	78.19
342.981	98.19
343.209	87.19
343.437	95.19
343.665	83.19
343.893	94.19
344.12	103.19
344.348	85.19
344.576	78.19
344.804	89.19
345.031	96.19
345.259	96.19
345.487	94.19
345.714	102.19
345.942	85.19
346.17	99.19
346.397	96.19
346.625	98.19
346.853	81.19
347.08	95.19
347.308	98.19
347.535	85.19
347.763	94.19
347.99	85.19
348.218	95.19
348.445	99.19
348.673	97.19
348.9	113.19
349.128	98.19
349.355	80.19
349.583	106.19
349.81	101.19
350.037	93.19
350.265	99.19
350.492	99.19
350.72	93.19
350.947	86.19
351.174	103.19
351.402	97.19
351.629	90.19
351.856	90.19
352.083	103.19
352.311	90.19
352.538	108.19
352.765	105.19
352.992	109.19
353.22	105.19
353.447	94.19
353.674	100.19
353.901	109.19
354.128	94.19
354.355	88.19
354.583	101.19
354.81	106.19
355.037	96.19
355.264	86.19
355.491	108.19
355.718	73.19
355.945	104.19
356.172	100.19
356.399	110.19
356.626	85.19
356.853	84.19
357.08	81.19
357.307	79.19
357.534	97.19
357.761	82.19
357.988	97.19
358.215	106.19
358.441	91.19
358.668	103.19
358.895	94.19
359.122	102.19
359.349	82.19
359.576	92.19
359.802	85.19
360.029	112.19
360.256	105.19
360.483	93.19
360.709	73.19
360.936	89.19
361.163	81.19
361.39	91.19
361.616	98.19
361.843	82.19
362.07	79.19
362.296	88.19
362.523	93.19
362.749	91.19
362.976	103.19
363.203	82.19
363.429	75.19
363.656	88.19
363.882	89.19
364.109	87.19
364.335	86.19
364.562	90.19
364.788	84.19
365.015	90.19
365.241	98.19
365.468	99.19
365.694	97.19
365.92	90.19
366.147	77.19
366.373	100.19
366.599	89.19
366.826	87.19
367.052	86.19
367.278	84.19
367.505	78.19
367.731	97.19
367.957	81.19
368.184	86.19
368.41	97.19
368.636	100.19
368.862	113.19
369.089	100.19
369.315	84.19
369.541	90.19
369.767	80.19
369.993	87.19
370.219	88.19
370.445	86.19
370.672	91.19
370.898	90.19
371.124	93.19
371.35	85.19
371.576	95.19
371.802	91.19
372.028	92.19
372.254	78.19
372.48	95.19
372.706	98.19
372.932	68.19
373.158	94.19
373.384	87.19
373.61	89.19
373.835	71.19
374.061	76.19
374.287	90.19
374.513	101.19
374.739	92.19
374.965	88.19
375.191	79.19
375.416	88.19
375.642	89.19
375.868	89.19
376.094	108.19
376.319	89.19
376.545	86.19
376.771	104.19
376.997	84.19
377.222	96.19
377.448	85.19
377.674	85.19
377.899	84.19
378.125	78.19
378.35	94.19
378.576	87.19
378.802	89.19
379.027	85.19
379.253	100.19
379.478	103.19
379.704	104.19
379.929	83.19
380.155	89.19
380.38	100.19
380.606	94.19
380.831	89.19
381.057	96.19
381.282	78.19
381.507	95.19
381.733	102.19
381.958	106.19
382.184	113.19
382.409	93.19
382.634	102.19
382.86	113.19
383.085	104.19
383.31	97.19
383.535	88.19
383.761	99.19
383.986	88.19
384.211	97.19
384.436	106.19
384.662	89.19
384.887	110.19
385.112	115.19
385.337	122.19
385.562	108.19
385.787	105.19
386.013	115.19
386.238	116.19
386.463	105.19
386.688	121.19
386.913	101.19
387.138	112.19
387.363	105.19
387.588	108.19
387.813	112.19
388.038	129.19
388.263	126.19
388.488	121.19
388.713	94.19
388.938	88.19
389.163	92.19
389.387	92.19
389.612	104.19
389.837	94.19
390.062	98.19
390.287	94.19
390.512	94.19
390.736	103.19
390.961	96.19
391.186	96.19
391.411	85.19
391.636	86.19
391.86	90.19
392.085	85.19
392.31	83.19
392.534	80.19
392.759	87.19
392.984	92.19
393.208	103.19
393.433	110.19
393.658	89.19
393.882	90.19
394.107	87.19
394.331	97.19
394.556	72.19
394.78	83.19
395.005	102.19
395.229	78.19
395.454	87.19
395.678	84.19
395.903	86.19
396.127	79.19
396.352	99.19
396.576	87.19
396.801	97.19
397.025	94.19
397.249	96.19
397.474	86.19
397.698	87.19
397.922	78.19
398.147	84.19
398.371	74.19
398.595	87.19
398.82	94.19
399.044	80.19
399.268	83.19
399.492	88.19
399.717	88.19
399.941	104.19
400.165	102.19
400.389	92.19
400.613	86.19
400.837	73.19
401.062	90.19
401.286	90.19
401.51	77.19
401.734	77.19
401.958	79.19
402.182	108.19
402.406	134.19
402.63	116.19
402.854	95.19
403.078	97.19
403.302	102.19
403.526	88.19
403.75	83.19
403.974	88.19
404.198	89.19
404.422	93.19
404.645	88.19
404.869	88.19
405.093	85.19
405.317	92.19
405.541	89.19
405.765	89.19
405.988	91.19
406.212	144.19
406.436	179.19
406.66	128.19
406.883	87.19
407.107	92.19
407.331	80.19
407.555	90.19
407.778	98.19
408.002	84.19
408.226	103.19
408.449	88.19
408.673	95.19
408.896	88.19
409.12	106.19
409.344	96.19
409.567	83.19
409.791	100.19
410.014	89.19
410.238	90.19
410.461	94.19
410.685	99.19
410.908	90.19
411.132	99.19
411.355	89.19
411.578	99.19
411.802	80.19
412.025	92.19
412.249	94.19
412.472	84.19
412.695	93.19
412.919	85.19
413.142	111.19
413.365	98.19
413.589	78.19
413.812	66.19
414.035	83.19
414.258	89.19
414.482	76.19
414.705	92.19
414.928	101.19
415.151	89.19
415.374	111.19
415.597	95.19
415.821	84.19
416.044	77.19
416.267	87.19
416.49	83.19
416.713	80.19
416.936	92.19
417.159	60.19
417.382	78.19
417.605	90.19
417.828	106.19
418.051	92.19
418.274	84.19
418.497	81.19
418.72	89.19
418.943	71.19
419.166	105.19
419.389	83.19
419.611	82.19
419.834	84.19
420.057	71.19
420.28	82.19
420.503	92.19
420.726	82.19
420.948	80.19
421.171	74.19
421.394	80.19
421.617	88.19
421.839	87.19
422.062	87.19
422.285	88.19
422.507	91.19
422.73	91.19
422.953	96.19
423.175	78.19
423.398	102.19
423.621	95.19
423.843	78.19
424.066	79.19
424.288	90.19
424.511	105.19
424.733	98.19
424.956	96.19
425.178	104.19
425.401	87.19
425.623	89.19
425.846	100.19
426.068	100.19
426.291	95.19
426.513	94.19
426.735	89.19
426.958	94.19
427.18	100.19
427.402	121.19
427.625	129.19
427.847	114.19
428.069	100.19
428.292	94.19
428.514	77.19
428.736	81.19
428.958	76.19
429.181	78.19
429.403	84.19
429.625	62.19
429.847	82.19
430.069	89.19
430.292	87.19
430.514	97.19
430.736	91.19
430.958	100.19
431.18	78.19
431.402	79.19
431.624	81.19
431.846	85.19
432.068	82.19
432.29	93.19
432.512	85.19
432.734	78.19
432.956	91.19
433.178	81.19
433.4	94.19
433.622	110.19
433.844	106.19
434.066	102.19
434.287	97.19
434.509	80.19
434.731	90.19
434.953	87.19
435.175	80.19
435.397	92.19
435.618	103.19
435.84	96.19
436.062	117.19
436.284	108.19
436.505	93.19
436.727	103.19
436.949	96.19
437.17	87.19
437.392	83.19
437.614	84.19
437.835	108.19
438.057	103.19
438.278	114.19
438.5	97.19
438.721	102.19
438.943	97.19
439.165	98.19
439.386	89.19
439.608	91.19
439.829	95.19
440.05	109.19
440.272	129.19
440.493	102.19
440.715	74.19
440.936	85.19
441.158	89.19
441.379	87.19
441.6	93.19
441.822	85.19
442.043	103.19
442.264	116.19
442.486	105.19
442.707	89.19
442.928	95.19
443.149	128.19
443.371	117.19
443.592	93.19
443.813	111.19
444.034	89.19
444.255	87.19
444.476	86.19
444.698	85.19
444.919	86.19
445.14	138.19
445.361	120.19
445.582	103.19
445.803	127.19
446.024	135.19
446.245	113.19
446.466	107.19
446.687	81.19
446.908	86.19
447.129	93.19
447.35	92.19
447.571	93.19
447.792	81.19
448.013	91.19
448.234	109.19
448.455	101.19
448.675	98.19
448.896	118.19
449.117	98.19
449.338	92.19
449.559	125.19
449.779	121.19
450	83.19
450.221	94.19
450.442	89.19
450.662	99.19
450.883	86.19
451.104	104.19
451.324	86.19
451.545	95.19
451.766	104.19
451.986	98.19
452.207	80.19
452.428	94.19
452.648	92.19
452.869	110.19
453.089	102.19
453.31	110.19
453.53	108.19
453.751	85.19
453.971	90.19
454.192	113.19
454.412	99.19
454.633	83.19
454.853	77.19
455.073	86.19
455.294	97.19
455.514	89.19
455.734	83.19
455.955	83.19
456.175	93.19
456.395	85.19
456.616	93.19
456.836	91.19
457.056	76.19
457.276	75.19
457.497	84.19
457.717	83.19
457.937	72.19
458.157	91.19
458.377	84.19
458.598	88.19
458.818	133.19
459.038	120.19
459.258	104.19
459.478	92.19
459.698	76.19
459.918	81.19
460.138	74.19
460.358	82.19
460.578	81.19
460.798	95.19
461.018	96.19
461.238	91.19
461.458	86.19
461.678	96.19
461.898	89.19
462.118	95.19
462.338	89.19
462.558	87.19
462.777	70.19
462.997	73.19
463.217	85.19
463.437	95.19
463.657	82.19
463.876	80.19
464.096	77.19
464.316	97.19
464.536	81.19
464.755	95.19
464.975	106.19
465.195	146.19
465.414	128.19
465.634	78.19
465.854	98.19
466.073	88.19
466.293	92.19
466.512	81.19
466.732	87.19
466.951	97.19
467.171	90.19
467.391	76.19
467.61	84.19
467.829	92.19
468.049	88.19
468.268	95.19
468.488	96.19
468.707	72.19
468.927	84.19
469.146	72.19
469.365	86.19
469.585	92.19
469.804	88.19
470.023	96.19
470.243	83.19
470.462	95.19
470.681	90.19
470.901	78.19
471.12	94.19
471.339	88.19
471.558	80.19
471.777	97.19
471.997	81.19
472.216	113.19
472.435	115.19
472.654	97.19
472.873	93.19
473.092	97.19
473.311	72.19
473.53	82.19
473.749	79.19
473.968	87.19
474.187	103.19
474.406	89.19
474.625	91.19
474.844	95.19
475.063	81.19
475.282	100.19
475.501	71.19
475.72	74.19
475.939	85.19
476.158	80.19
476.377	88.19
476.596	81.19
476.814	93.19
477.033	87.19
477.252	94.19
477.471	97.19
477.69	86.19
477.908	97.19
478.127	94.19
478.346	76.19
478.564	87.19
478.783	93.19
479.002	79.19
479.22	85.19
479.439	91.19
479.658	85.19
479.876	94.19
480.095	91.19
480.313	93.19
480.532	85.19
480.751	94.19
480.969	86.19
481.188	141.19
481.406	111.19
481.624	83.19
481.843	85.19
482.061	85.19
482.28	89.19
482.498	98.19
482.717	74.19
482.935	80.19
483.153	61.19
483.372	78.19
483.59	89.19
483.808	98.19
484.027	83.19
484.245	69.19
484.463	86.19
484.681	82.19
484.9	85.19
485.118	93.19
485.336	101.19
485.554	80.19
485.772	91.19
485.99	105.19
486.209	105.19
486.427	106.19
486.645	117.19
486.863	113.19
487.081	91.19
487.299	100.19
487.517	98.19
487.735	101.19
487.953	83.19
488.171	81.19
488.389	97.19
488.607	84.19
488.825	93.19
489.043	91.19
489.261	81.19
489.479	96.19
489.696	81.19
489.914	87.19
490.132	94.19
490.35	95.19
490.568	87.19
490.786	91.19
491.003	81.19
491.221	82.19
491.439	74.19
491.657	93.19
491.874	99.19
492.092	92.19
492.31	94.19
492.527	92.19
492.745	81.19
492.963	88.19
493.18	88.19
493.398	87.19
493.615	92.19
493.833	86.19
494.05	84.19
494.268	97.19
494.485	95.19
494.703	83.19
494.92	89.19
495.138	68.19
495.355	80.19
495.573	88.19
495.79	72.19
496.008	90.19
496.225	94.19
496.442	91.19
496.66	84.19
496.877	88.19
497.094	94.19
497.312	87.19
497.529	87.19
497.746	98.19
497.963	80.19
498.181	77.19
498.398	87.19
498.615	90.19
498.832	108.19
499.049	91.19
499.267	88.19
499.484	85.19
499.701	83.19
499.918	89.19
500.135	87.19
500.352	103.19
500.569	89.19
500.786	81.19
501.003	72.19
501.22	93.19
501.437	87.19
501.654	93.19
501.871	104.19
502.088	90.19
502.305	96.19
502.522	80.19
502.739	76.19
502.956	93.19
503.172	96.19
503.389	92.19
503.606	100.19
503.823	101.19
504.04	84.19
504.256	88.19
504.473	85.19
504.69	86.19
504.907	100.19
505.123	86.19
505.34	88.19
505.557	103.19
505.773	96.19
505.99	98.19
506.207	88.19
506.423	83.19
506.64	103.19
506.856	87.19
507.073	88.19
507.289	80.19
507.506	103.19
507.722	92.19
507.939	101.19
508.155	95.19
508.372	86.19
508.588	89.19
508.805	77.19
509.021	91.19
509.238	93.19
509.454	95.19
509.67	92.19
509.887	105.19
510.103	113.19
510.319	176.19
510.536	612.19
510.752	1837.19
510.968	520.19
511.184	124.19
511.401	111.19
511.617	87.19
511.833	93.19
512.049	88.19
512.265	86.19
512.481	97.19
512.698	83.19
512.914	86.19
513.13	76.19
513.346	91.19
513.562	96.19
513.778	95.19
513.994	98.19
514.21	89.19
514.426	101.19
514.642	128.19
514.858	120.19
515.074	134.19
515.29	349.19
515.506	1078.19
515.721	416.19
515.937	119.19
516.153	90.19
516.369	98.19
516.585	85.19
