Data from Circ_1985_H10_HRD10591_00030.txt Node
Date: Wed Jan 03 12:19:28 EST 2024
User: Yrep
Spectrometer: HR+D1059
Trigger mode: 1
Integration Time (sec): 1.000000E-1
Scans to average: 1
Electric dark correction enabled: true
Nonlinearity correction enabled: false
Boxcar width: 0
XAxis mode: Wavelengths
Number of Pixels in Spectrum: 2048
>>>>>Begin Spectral Data<<<<<
223.165	-22.69
223.4	-22.69
223.635	-22.69
223.869	-12.69
224.104	-10.69
224.338	-20.69
224.573	-19.69
224.808	-16.69
225.042	-13.69
225.277	4.31
225.511	-10.69
225.746	6.31
225.98	3.31
226.215	6.31
226.449	10.31
226.683	33.31
226.918	30.31
227.152	33.31
227.387	51.31
227.621	41.31
227.856	46.31
228.09	50.31
228.324	47.31
228.559	49.31
228.793	59.31
229.027	68.31
229.262	70.31
229.496	63.31
229.73	81.31
229.964	70.31
230.199	74.31
230.433	71.31
230.667	83.31
230.901	70.31
231.136	79.31
231.37	80.31
231.604	54.31
231.838	69.31
232.072	71.31
232.306	80.31
232.541	84.31
232.775	73.31
233.009	80.31
233.243	76.31
233.477	79.31
233.711	87.31
233.945	87.31
234.179	61.31
234.413	78.31
234.647	84.31
234.881	82.31
235.115	92.31
235.349	77.31
235.583	86.31
235.817	88.31
236.051	72.31
236.285	68.31
236.519	82.31
236.753	73.31
236.987	82.31
237.221	71.31
237.455	74.31
237.689	76.31
237.922	66.31
238.156	78.31
238.39	71.31
238.624	48.31
238.858	71.31
239.091	84.31
239.325	81.31
239.559	78.31
239.793	77.31
240.027	67.31
240.26	88.31
240.494	85.31
240.728	55.31
240.961	76.31
241.195	72.31
241.429	78.31
241.662	63.31
241.896	60.31
242.13	69.31
242.363	72.31
242.597	74.31
242.83	80.31
243.064	80.31
243.298	84.31
243.531	80.31
243.765	69.31
243.998	84.31
244.232	67.31
244.465	78.31
244.699	64.31
244.932	65.31
245.166	72.31
245.399	78.31
245.633	77.31
245.866	77.31
246.099	66.31
246.333	60.31
246.566	67.31
246.8	76.31
247.033	68.31
247.266	65.31
247.5	80.31
247.733	108.31
247.966	68.31
248.2	82.31
248.433	68.31
248.666	74.31
248.899	89.31
249.133	78.31
249.366	98.31
249.599	93.31
249.832	85.31
250.066	88.31
250.299	79.31
250.532	85.31
250.765	71.31
250.998	67.31
251.231	73.31
251.465	73.31
251.698	80.31
251.931	78.31
252.164	86.31
252.397	86.31
252.63	71.31
252.863	66.31
253.096	90.31
253.329	93.31
253.562	81.31
253.795	89.31
254.028	82.31
254.261	77.31
254.494	76.31
254.727	78.31
254.96	87.31
255.193	67.31
255.426	64.31
255.659	72.31
255.892	71.31
256.124	70.31
256.357	68.31
256.59	77.31
256.823	82.31
257.056	78.31
257.289	82.31
257.521	87.31
257.754	77.31
257.987	91.31
258.22	87.31
258.452	78.31
258.685	84.31
258.918	77.31
259.151	103.31
259.383	90.31
259.616	69.31
259.849	92.31
260.081	84.31
260.314	71.31
260.547	77.31
260.779	92.31
261.012	81.31
261.244	76.31
261.477	103.31
261.71	90.31
261.942	92.31
262.175	117.31
262.407	88.31
262.64	66.31
262.872	67.31
263.105	75.31
263.337	86.31
263.57	80.31
263.802	77.31
264.035	86.31
264.267	64.31
264.499	80.31
264.732	73.31
264.964	79.31
265.197	86.31
265.429	84.31
265.661	73.31
265.894	76.31
266.126	65.31
266.358	90.31
266.591	80.31
266.823	65.31
267.055	65.31
267.287	90.31
267.52	77.31
267.752	86.31
267.984	84.31
268.216	74.31
268.448	82.31
268.681	82.31
268.913	68.31
269.145	96.31
269.377	95.31
269.609	86.31
269.841	82.31
270.073	87.31
270.306	89.31
270.538	81.31
270.77	81.31
271.002	89.31
271.234	80.31
271.466	80.31
271.698	95.31
271.93	92.31
272.162	89.31
272.394	76.31
272.626	88.31
272.858	81.31
273.09	79.31
273.322	90.31
273.553	98.31
273.785	82.31
274.017	81.31
274.249	73.31
274.481	78.31
274.713	79.31
274.945	82.31
275.176	79.31
275.408	80.31
275.64	80.31
275.872	76.31
276.104	84.31
276.335	96.31
276.567	88.31
276.799	84.31
277.031	94.31
277.262	84.31
277.494	96.31
277.726	77.31
277.957	72.31
278.189	71.31
278.421	89.31
278.652	87.31
278.884	95.31
279.115	86.31
279.347	86.31
279.579	68.31
279.81	101.31
280.042	80.31
280.273	93.31
280.505	93.31
280.736	87.31
280.968	93.31
281.199	86.31
281.431	77.31
281.662	84.31
281.894	89.31
282.125	94.31
282.356	109.31
282.588	109.31
282.819	103.31
283.051	91.31
283.282	88.31
283.513	80.31
283.745	93.31
283.976	86.31
284.207	80.31
284.439	82.31
284.67	89.31
284.901	85.31
285.132	79.31
285.364	96.31
285.595	93.31
285.826	89.31
286.057	99.31
286.288	90.31
286.52	83.31
286.751	88.31
286.982	80.31
287.213	87.31
287.444	83.31
287.675	82.31
287.906	94.31
288.138	90.31
288.369	106.31
288.6	87.31
288.831	84.31
289.062	87.31
289.293	83.31
289.524	68.31
289.755	91.31
289.986	92.31
290.217	82.31
290.448	90.31
290.679	85.31
290.91	100.31
291.141	88.31
291.371	78.31
291.602	94.31
291.833	90.31
292.064	83.31
292.295	77.31
292.526	96.31
292.757	84.31
292.987	98.31
293.218	78.31
293.449	80.31
293.68	94.31
293.91	81.31
294.141	94.31
294.372	83.31
294.603	78.31
294.833	91.31
295.064	85.31
295.295	65.31
295.525	88.31
295.756	104.31
295.987	114.31
296.217	128.31
296.448	104.31
296.679	82.31
296.909	87.31
297.14	89.31
297.37	91.31
297.601	83.31
297.831	88.31
298.062	92.31
298.292	88.31
298.523	82.31
298.753	72.31
298.984	84.31
299.214	92.31
299.445	95.31
299.675	101.31
299.905	90.31
300.136	94.31
300.366	72.31
300.597	91.31
300.827	105.31
301.057	75.31
301.288	84.31
301.518	77.31
301.748	88.31
301.979	88.31
302.209	90.31
302.439	88.31
302.669	83.31
302.9	87.31
303.13	73.31
303.36	104.31
303.59	99.31
303.82	98.31
304.051	86.31
304.281	97.31
304.511	87.31
304.741	78.31
304.971	97.31
305.201	82.31
305.431	87.31
305.661	86.31
305.891	99.31
306.121	102.31
306.352	94.31
306.582	106.31
306.812	106.31
307.042	96.31
307.272	76.31
307.502	81.31
307.731	97.31
307.961	91.31
308.191	81.31
308.421	102.31
308.651	83.31
308.881	85.31
309.111	88.31
309.341	96.31
309.571	88.31
309.8	93.31
310.03	96.31
310.26	89.31
310.49	89.31
310.72	94.31
310.949	102.31
311.179	96.31
311.409	96.31
311.639	91.31
311.868	80.31
312.098	78.31
312.328	90.31
312.557	88.31
312.787	101.31
313.017	106.31
313.246	92.31
313.476	94.31
313.706	88.31
313.935	96.31
314.165	92.31
314.394	96.31
314.624	104.31
314.853	93.31
315.083	103.31
315.312	81.31
315.542	97.31
315.771	68.31
316.001	89.31
316.23	79.31
316.46	79.31
316.689	97.31
316.919	98.31
317.148	88.31
317.377	82.31
317.607	89.31
317.836	85.31
318.065	87.31
318.295	89.31
318.524	93.31
318.753	88.31
318.983	96.31
319.212	93.31
319.441	93.31
319.67	89.31
319.9	106.31
320.129	90.31
320.358	92.31
320.587	97.31
320.816	91.31
321.046	110.31
321.275	103.31
321.504	94.31
321.733	85.31
321.962	87.31
322.191	83.31
322.42	82.31
322.649	104.31
322.878	105.31
323.108	110.31
323.337	114.31
323.566	106.31
323.795	135.31
324.024	178.31
324.253	327.31
324.482	726.31
324.71	1505.31
324.939	1982.31
325.168	746.31
325.397	214.31
325.626	141.31
325.855	118.31
326.084	109.31
326.313	140.31
326.542	136.31
326.77	205.31
326.999	434.31
327.228	852.31
327.457	1565.31
327.686	1256.31
327.914	339.31
328.143	172.31
328.372	132.31
328.6	125.31
328.829	102.31
329.058	113.31
329.287	118.31
329.515	105.31
329.744	108.31
329.972	96.31
330.201	110.31
330.43	111.31
330.658	114.31
330.887	118.31
331.115	97.31
331.344	96.31
331.572	105.31
331.801	101.31
332.03	107.31
332.258	92.31
332.486	92.31
332.715	81.31
332.943	92.31
333.172	92.31
333.4	98.31
333.629	103.31
333.857	87.31
334.085	100.31
334.314	107.31
334.542	119.31
334.771	121.31
334.999	107.31
335.227	105.31
335.455	93.31
335.684	95.31
335.912	84.31
336.14	103.31
336.369	104.31
336.597	110.31
336.825	80.31
337.053	95.31
337.281	84.31
337.51	100.31
337.738	77.31
337.966	94.31
338.194	82.31
338.422	84.31
338.65	93.31
338.878	95.31
339.106	93.31
339.334	92.31
339.562	96.31
339.79	86.31
340.018	86.31
340.246	96.31
340.474	94.31
340.702	95.31
340.93	83.31
341.158	97.31
341.386	90.31
341.614	96.31
341.842	103.31
342.07	83.31
342.298	71.31
342.526	91.31
342.754	97.31
342.981	85.31
343.209	92.31
343.437	110.31
343.665	75.31
343.893	83.31
344.12	96.31
344.348	98.31
344.576	76.31
344.804	80.31
345.031	90.31
345.259	88.31
345.487	97.31
345.714	86.31
345.942	72.31
346.17	87.31
346.397	101.31
346.625	94.31
346.853	93.31
347.08	74.31
347.308	84.31
347.535	88.31
347.763	98.31
347.99	88.31
348.218	98.31
348.445	84.31
348.673	101.31
348.9	102.31
349.128	89.31
349.355	92.31
349.583	92.31
349.81	85.31
350.037	99.31
350.265	100.31
350.492	88.31
350.72	112.31
350.947	98.31
351.174	99.31
351.402	105.31
351.629	92.31
351.856	81.31
352.083	112.31
352.311	95.31
352.538	95.31
352.765	121.31
352.992	103.31
353.22	117.31
353.447	99.31
353.674	104.31
353.901	101.31
354.128	94.31
354.355	98.31
354.583	103.31
354.81	95.31
355.037	104.31
355.264	94.31
355.491	82.31
355.718	91.31
355.945	88.31
356.172	100.31
356.399	95.31
356.626	81.31
356.853	87.31
357.08	106.31
357.307	84.31
357.534	87.31
357.761	93.31
357.988	96.31
358.215	110.31
358.441	83.31
358.668	86.31
358.895	84.31
359.122	102.31
359.349	81.31
359.576	87.31
359.802	92.31
360.029	113.31
360.256	89.31
360.483	93.31
360.709	72.31
360.936	99.31
361.163	96.31
361.39	92.31
361.616	94.31
361.843	93.31
362.07	88.31
362.296	95.31
362.523	89.31
362.749	86.31
362.976	98.31
363.203	94.31
363.429	96.31
363.656	91.31
363.882	92.31
364.109	86.31
364.335	83.31
364.562	86.31
364.788	89.31
365.015	86.31
365.241	98.31
365.468	95.31
365.694	95.31
365.92	79.31
366.147	86.31
366.373	86.31
366.599	80.31
366.826	87.31
367.052	88.31
367.278	87.31
367.505	87.31
367.731	78.31
367.957	90.31
368.184	77.31
368.41	101.31
368.636	101.31
368.862	125.31
369.089	102.31
369.315	92.31
369.541	87.31
369.767	72.31
369.993	95.31
370.219	78.31
370.445	82.31
370.672	98.31
370.898	99.31
371.124	83.31
371.35	94.31
371.576	90.31
371.802	95.31
372.028	89.31
372.254	95.31
372.48	88.31
372.706	94.31
372.932	93.31
373.158	73.31
373.384	85.31
373.61	94.31
373.835	96.31
374.061	95.31
374.287	95.31
374.513	89.31
374.739	93.31
374.965	76.31
375.191	95.31
375.416	88.31
375.642	82.31
375.868	78.31
376.094	91.31
376.319	100.31
376.545	82.31
376.771	68.31
376.997	90.31
377.222	77.31
377.448	80.31
377.674	91.31
377.899	76.31
378.125	93.31
378.35	87.31
378.576	88.31
378.802	89.31
379.027	109.31
379.253	96.31
379.478	98.31
379.704	99.31
379.929	101.31
380.155	88.31
380.38	96.31
380.606	94.31
380.831	107.31
381.057	111.31
381.282	92.31
381.507	99.31
381.733	95.31
381.958	76.31
382.184	100.31
382.409	98.31
382.634	111.31
382.86	112.31
383.085	103.31
383.31	118.31
383.535	111.31
383.761	101.31
383.986	94.31
384.211	94.31
384.436	96.31
384.662	93.31
384.887	111.31
385.112	103.31
385.337	94.31
385.562	100.31
385.787	119.31
386.013	113.31
386.238	111.31
386.463	104.31
386.688	117.31
386.913	105.31
387.138	100.31
387.363	111.31
387.588	95.31
387.813	105.31
388.038	110.31
388.263	115.31
388.488	110.31
388.713	89.31
388.938	95.31
389.163	100.31
389.387	93.31
389.612	85.31
389.837	94.31
390.062	96.31
390.287	101.31
390.512	98.31
390.736	100.31
390.961	109.31
391.186	96.31
391.411	104.31
391.636	88.31
391.86	87.31
392.085	94.31
392.31	79.31
392.534	90.31
392.759	84.31
392.984	86.31
393.208	104.31
393.433	103.31
393.658	97.31
393.882	79.31
394.107	80.31
394.331	82.31
394.556	87.31
394.78	84.31
395.005	88.31
395.229	96.31
395.454	90.31
395.678	68.31
395.903	91.31
396.127	85.31
396.352	82.31
396.576	83.31
396.801	101.31
397.025	96.31
397.249	89.31
397.474	93.31
397.698	85.31
397.922	89.31
398.147	90.31
398.371	84.31
398.595	94.31
398.82	83.31
399.044	88.31
399.268	84.31
399.492	88.31
399.717	83.31
399.941	102.31
400.165	88.31
400.389	87.31
400.613	96.31
400.837	93.31
401.062	92.31
401.286	79.31
401.51	97.31
401.734	91.31
401.958	95.31
402.182	103.31
402.406	134.31
402.63	107.31
402.854	93.31
403.078	88.31
403.302	82.31
403.526	80.31
403.75	82.31
403.974	83.31
404.198	84.31
404.422	83.31
404.645	73.31
404.869	86.31
405.093	84.31
405.317	97.31
405.541	104.31
405.765	91.31
405.988	106.31
406.212	132.31
406.436	174.31
406.66	111.31
406.883	91.31
407.107	85.31
407.331	95.31
407.555	93.31
407.778	88.31
408.002	98.31
408.226	91.31
408.449	86.31
408.673	77.31
408.896	93.31
409.12	85.31
409.344	70.31
409.567	96.31
409.791	89.31
410.014	80.31
410.238	93.31
410.461	95.31
410.685	97.31
410.908	111.31
411.132	109.31
411.355	94.31
411.578	96.31
411.802	99.31
412.025	96.31
412.249	90.31
412.472	94.31
412.695	103.31
412.919	81.31
413.142	85.31
413.365	97.31
413.589	76.31
413.812	78.31
414.035	89.31
414.258	89.31
414.482	75.31
414.705	93.31
414.928	100.31
415.151	100.31
415.374	80.31
415.597	80.31
415.821	99.31
416.044	73.31
416.267	92.31
416.49	93.31
416.713	100.31
416.936	94.31
417.159	90.31
417.382	76.31
417.605	83.31
417.828	97.31
418.051	87.31
418.274	96.31
418.497	80.31
418.72	81.31
418.943	88.31
419.166	72.31
419.389	89.31
419.611	71.31
419.834	80.31
420.057	92.31
420.28	80.31
420.503	82.31
420.726	92.31
420.948	84.31
421.171	92.31
421.394	86.31
421.617	86.31
421.839	81.31
422.062	85.31
422.285	94.31
422.507	85.31
422.73	105.31
422.953	105.31
423.175	86.31
423.398	86.31
423.621	93.31
423.843	86.31
424.066	77.31
424.288	80.31
424.511	87.31
424.733	102.31
424.956	104.31
425.178	105.31
425.401	81.31
425.623	98.31
425.846	94.31
426.068	96.31
426.291	85.31
426.513	91.31
426.735	76.31
426.958	83.31
427.18	92.31
427.402	113.31
427.625	141.31
427.847	114.31
428.069	108.31
428.292	89.31
428.514	80.31
428.736	87.31
428.958	78.31
429.181	88.31
429.403	68.31
429.625	87.31
429.847	98.31
430.069	89.31
430.292	89.31
430.514	85.31
430.736	85.31
430.958	84.31
431.18	73.31
431.402	78.31
431.624	87.31
431.846	76.31
432.068	71.31
432.29	78.31
432.512	96.31
432.734	81.31
432.956	92.31
433.178	100.31
433.4	84.31
433.622	97.31
433.844	114.31
434.066	82.31
434.287	93.31
434.509	102.31
434.731	82.31
434.953	84.31
435.175	98.31
435.397	92.31
435.618	78.31
435.84	86.31
436.062	118.31
436.284	105.31
436.505	102.31
436.727	91.31
436.949	93.31
437.17	92.31
437.392	88.31
437.614	104.31
437.835	99.31
438.057	116.31
438.278	110.31
438.5	103.31
438.721	110.31
438.943	112.31
439.165	79.31
439.386	77.31
439.608	88.31
439.829	103.31
440.05	109.31
440.272	122.31
440.493	90.31
440.715	88.31
440.936	81.31
441.158	83.31
441.379	89.31
441.6	79.31
441.822	102.31
442.043	90.31
442.264	77.31
442.486	96.31
442.707	102.31
442.928	91.31
443.149	116.31
443.371	112.31
443.592	90.31
443.813	98.31
444.034	96.31
444.255	82.31
444.476	90.31
444.698	93.31
444.919	86.31
445.14	135.31
445.361	126.31
445.582	107.31
445.803	125.31
446.024	130.31
446.245	117.31
446.466	101.31
446.687	73.31
446.908	88.31
447.129	82.31
447.35	84.31
447.571	100.31
447.792	89.31
448.013	104.31
448.234	106.31
448.455	99.31
448.675	100.31
448.896	101.31
449.117	83.31
449.338	95.31
449.559	119.31
449.779	113.31
450	86.31
450.221	69.31
450.442	97.31
450.662	72.31
450.883	97.31
451.104	101.31
451.324	90.31
451.545	90.31
451.766	81.31
451.986	77.31
452.207	80.31
452.428	94.31
452.648	96.31
452.869	86.31
453.089	104.31
453.31	109.31
453.53	90.31
453.751	90.31
453.971	105.31
454.192	100.31
454.412	78.31
454.633	95.31
454.853	87.31
455.073	88.31
455.294	93.31
455.514	87.31
455.734	98.31
455.955	86.31
456.175	82.31
456.395	74.31
456.616	74.31
456.836	71.31
457.056	88.31
457.276	86.31
457.497	71.31
457.717	82.31
457.937	86.31
458.157	79.31
458.377	85.31
458.598	109.31
458.818	142.31
459.038	134.31
459.258	110.31
459.478	89.31
459.698	85.31
459.918	85.31
460.138	103.31
460.358	65.31
460.578	73.31
460.798	70.31
461.018	79.31
461.238	87.31
461.458	87.31
461.678	78.31
461.898	83.31
462.118	79.31
462.338	86.31
462.558	86.31
462.777	85.31
462.997	94.31
463.217	97.31
463.437	97.31
463.657	87.31
463.876	89.31
464.096	84.31
464.316	76.31
464.536	82.31
464.755	96.31
464.975	109.31
465.195	123.31
465.414	126.31
465.634	81.31
465.854	76.31
466.073	75.31
466.293	90.31
466.512	89.31
466.732	76.31
466.951	86.31
467.171	93.31
467.391	100.31
467.61	94.31
467.829	89.31
468.049	80.31
468.268	99.31
468.488	81.31
468.707	78.31
468.927	102.31
469.146	103.31
469.365	100.31
469.585	90.31
469.804	79.31
470.023	76.31
470.243	92.31
470.462	80.31
470.681	93.31
470.901	78.31
471.12	89.31
471.339	87.31
471.558	82.31
471.777	77.31
471.997	85.31
472.216	96.31
472.435	115.31
472.654	84.31
472.873	89.31
473.092	72.31
473.311	77.31
473.53	78.31
473.749	79.31
473.968	89.31
474.187	91.31
474.406	85.31
474.625	82.31
474.844	92.31
475.063	97.31
475.282	78.31
475.501	78.31
475.72	71.31
475.939	84.31
476.158	94.31
476.377	68.31
476.596	85.31
476.814	74.31
477.033	99.31
477.252	96.31
477.471	92.31
477.69	71.31
477.908	88.31
478.127	81.31
478.346	83.31
478.564	87.31
478.783	92.31
479.002	82.31
479.22	88.31
479.439	89.31
479.658	100.31
479.876	85.31
480.095	94.31
480.313	86.31
480.532	89.31
480.751	93.31
480.969	116.31
481.188	161.31
481.406	132.31
481.624	86.31
481.843	70.31
482.061	89.31
482.28	97.31
482.498	92.31
482.717	94.31
482.935	89.31
483.153	80.31
483.372	85.31
483.59	88.31
483.808	94.31
484.027	93.31
484.245	76.31
484.463	89.31
484.681	109.31
484.9	86.31
485.118	83.31
485.336	90.31
485.554	91.31
485.772	87.31
485.99	108.31
486.209	114.31
486.427	107.31
486.645	115.31
486.863	99.31
487.081	97.31
487.299	110.31
487.517	99.31
487.735	115.31
487.953	91.31
488.171	87.31
488.389	88.31
488.607	86.31
488.825	89.31
489.043	86.31
489.261	85.31
489.479	91.31
489.696	88.31
489.914	76.31
490.132	78.31
490.35	85.31
490.568	97.31
490.786	82.31
491.003	83.31
491.221	97.31
491.439	72.31
491.657	90.31
491.874	100.31
492.092	89.31
492.31	85.31
492.527	89.31
492.745	89.31
492.963	93.31
493.18	90.31
493.398	98.31
493.615	92.31
493.833	80.31
494.05	85.31
494.268	87.31
494.485	90.31
494.703	87.31
494.92	80.31
495.138	84.31
495.355	96.31
495.573	92.31
495.79	86.31
496.008	92.31
496.225	89.31
496.442	86.31
496.66	88.31
496.877	81.31
497.094	89.31
497.312	94.31
497.529	101.31
497.746	89.31
497.963	97.31
498.181	108.31
498.398	93.31
498.615	95.31
498.832	94.31
499.049	96.31
499.267	74.31
499.484	97.31
499.701	99.31
499.918	77.31
500.135	87.31
500.352	88.31
500.569	69.31
500.786	94.31
501.003	91.31
501.22	78.31
501.437	84.31
501.654	93.31
501.871	103.31
502.088	94.31
502.305	91.31
502.522	88.31
502.739	78.31
502.956	90.31
503.172	78.31
503.389	87.31
503.606	104.31
503.823	98.31
504.04	89.31
504.256	82.31
504.473	85.31
504.69	87.31
504.907	103.31
505.123	72.31
505.34	99.31
505.557	98.31
505.773	90.31
505.99	82.31
506.207	84.31
506.423	90.31
506.64	80.31
506.856	79.31
507.073	89.31
507.289	85.31
507.506	92.31
507.722	106.31
507.939	113.31
508.155	101.31
508.372	100.31
508.588	82.31
508.805	97.31
509.021	98.31
509.238	105.31
509.454	90.31
509.67	99.31
509.887	97.31
510.103	117.31
510.319	179.31
510.536	615.31
510.752	1833.31
510.968	531.31
511.184	145.31
511.401	102.31
511.617	94.31
511.833	97.31
512.049	101.31
512.265	88.31
512.481	89.31
512.698	102.31
512.914	91.31
513.13	90.31
513.346	102.31
513.562	90.31
513.778	97.31
513.994	90.31
514.21	85.31
514.426	93.31
514.642	111.31
514.858	103.31
515.074	130.31
515.29	368.31
515.506	1101.31
515.721	396.31
515.937	133.31
516.153	103.31
516.369	92.31
