Data from Circ_1985_H10_HRD10591_00034.txt Node
Date: Wed Jan 03 12:19:29 EST 2024
User: Yrep
Spectrometer: HR+D1059
Trigger mode: 1
Integration Time (sec): 1.000000E-1
Scans to average: 1
Electric dark correction enabled: true
Nonlinearity correction enabled: false
Boxcar width: 0
XAxis mode: Wavelengths
Number of Pixels in Spectrum: 2048
>>>>>Begin Spectral Data<<<<<
223.165	-22.06
223.4	-22.06
223.635	-22.06
223.869	-13.06
224.104	-16.06
224.338	-22.06
224.573	-23.06
224.808	-17.06
225.042	-2.06
225.277	-0.06
225.511	-11.06
225.746	-10.06
225.98	13.94
226.215	11.94
226.449	24.94
226.683	20.94
226.918	33.94
227.152	30.94
227.387	31.94
227.621	43.94
227.856	45.94
228.09	48.94
228.324	54.94
228.559	57.94
228.793	54.94
229.027	47.94
229.262	58.94
229.496	51.94
229.73	61.94
229.964	66.94
230.199	63.94
230.433	63.94
230.667	84.94
230.901	63.94
231.136	75.94
231.37	76.94
231.604	69.94
231.838	70.94
232.072	80.94
232.306	73.94
232.541	82.94
232.775	77.94
233.009	78.94
233.243	76.94
233.477	73.94
233.711	77.94
233.945	80.94
234.179	80.94
234.413	85.94
234.647	70.94
234.881	79.94
235.115	73.94
235.349	94.94
235.583	79.94
235.817	75.94
236.051	90.94
236.285	62.94
236.519	71.94
236.753	77.94
236.987	61.94
237.221	71.94
237.455	69.94
237.689	64.94
237.922	66.94
238.156	77.94
238.39	71.94
238.624	69.94
238.858	83.94
239.091	67.94
239.325	73.94
239.559	69.94
239.793	59.94
240.027	79.94
240.26	76.94
240.494	82.94
240.728	88.94
240.961	75.94
241.195	70.94
241.429	79.94
241.662	75.94
241.896	69.94
242.13	70.94
242.363	83.94
242.597	71.94
242.83	76.94
243.064	67.94
243.298	77.94
243.531	60.94
243.765	79.94
243.998	66.94
244.232	72.94
244.465	70.94
244.699	75.94
244.932	73.94
245.166	75.94
245.399	56.94
245.633	77.94
245.866	79.94
246.099	80.94
246.333	79.94
246.566	60.94
246.8	72.94
247.033	78.94
247.266	73.94
247.5	77.94
247.733	77.94
247.966	85.94
248.2	84.94
248.433	63.94
248.666	77.94
248.899	86.94
249.133	81.94
249.366	99.94
249.599	87.94
249.832	70.94
250.066	87.94
250.299	68.94
250.532	85.94
250.765	54.94
250.998	79.94
251.231	77.94
251.465	73.94
251.698	82.94
251.931	71.94
252.164	78.94
252.397	79.94
252.63	88.94
252.863	79.94
253.096	83.94
253.329	81.94
253.562	78.94
253.795	78.94
254.028	80.94
254.261	78.94
254.494	78.94
254.727	77.94
254.96	67.94
255.193	77.94
255.426	82.94
255.659	85.94
255.892	77.94
256.124	74.94
256.357	77.94
256.59	80.94
256.823	61.94
257.056	76.94
257.289	66.94
257.521	71.94
257.754	91.94
257.987	85.94
258.22	77.94
258.452	71.94
258.685	87.94
258.918	89.94
259.151	75.94
259.383	78.94
259.616	76.94
259.849	83.94
260.081	82.94
260.314	76.94
260.547	68.94
260.779	70.94
261.012	90.94
261.244	85.94
261.477	75.94
261.71	95.94
261.942	94.94
262.175	109.94
262.407	80.94
262.64	77.94
262.872	79.94
263.105	64.94
263.337	93.94
263.57	86.94
263.802	76.94
264.035	75.94
264.267	75.94
264.499	85.94
264.732	89.94
264.964	73.94
265.197	85.94
265.429	74.94
265.661	81.94
265.894	91.94
266.126	79.94
266.358	65.94
266.591	81.94
266.823	74.94
267.055	92.94
267.287	72.94
267.52	71.94
267.752	84.94
267.984	82.94
268.216	81.94
268.448	83.94
268.681	89.94
268.913	93.94
269.145	96.94
269.377	88.94
269.609	88.94
269.841	70.94
270.073	83.94
270.306	82.94
270.538	89.94
270.77	82.94
271.002	77.94
271.234	77.94
271.466	88.94
271.698	87.94
271.93	87.94
272.162	78.94
272.394	82.94
272.626	78.94
272.858	81.94
273.09	79.94
273.322	87.94
273.553	88.94
273.785	84.94
274.017	83.94
274.249	77.94
274.481	77.94
274.713	96.94
274.945	89.94
275.176	77.94
275.408	79.94
275.64	77.94
275.872	95.94
276.104	95.94
276.335	89.94
276.567	95.94
276.799	106.94
277.031	84.94
277.262	77.94
277.494	70.94
277.726	93.94
277.957	87.94
278.189	84.94
278.421	89.94
278.652	77.94
278.884	77.94
279.115	74.94
279.347	91.94
279.579	79.94
279.81	71.94
280.042	89.94
280.273	77.94
280.505	79.94
280.736	85.94
280.968	80.94
281.199	86.94
281.431	77.94
281.662	91.94
281.894	91.94
282.125	94.94
282.356	109.94
282.588	113.94
282.819	103.94
283.051	95.94
283.282	75.94
283.513	83.94
283.745	86.94
283.976	78.94
284.207	80.94
284.439	88.94
284.67	74.94
284.901	72.94
285.132	66.94
285.364	79.94
285.595	81.94
285.826	75.94
286.057	80.94
286.288	87.94
286.52	80.94
286.751	99.94
286.982	81.94
287.213	79.94
287.444	80.94
287.675	82.94
287.906	90.94
288.138	79.94
288.369	70.94
288.6	85.94
288.831	81.94
289.062	75.94
289.293	76.94
289.524	75.94
289.755	78.94
289.986	97.94
290.217	87.94
290.448	81.94
290.679	94.94
290.91	86.94
291.141	88.94
291.371	72.94
291.602	83.94
291.833	79.94
292.064	71.94
292.295	86.94
292.526	79.94
292.757	95.94
292.987	80.94
293.218	89.94
293.449	75.94
293.68	81.94
293.91	77.94
294.141	87.94
294.372	94.94
294.603	75.94
294.833	97.94
295.064	105.94
295.295	93.94
295.525	87.94
295.756	84.94
295.987	112.94
296.217	112.94
296.448	108.94
296.679	90.94
296.909	86.94
297.14	79.94
297.37	95.94
297.601	92.94
297.831	81.94
298.062	94.94
298.292	82.94
298.523	78.94
298.753	98.94
298.984	77.94
299.214	76.94
299.445	92.94
299.675	103.94
299.905	95.94
300.136	94.94
300.366	94.94
300.597	89.94
300.827	92.94
301.057	82.94
301.288	96.94
301.518	89.94
301.748	83.94
301.979	103.94
302.209	93.94
302.439	82.94
302.669	66.94
302.9	72.94
303.13	94.94
303.36	96.94
303.59	89.94
303.82	93.94
304.051	78.94
304.281	93.94
304.511	83.94
304.741	92.94
304.971	82.94
305.201	81.94
305.431	93.94
305.661	92.94
305.891	103.94
306.121	88.94
306.352	93.94
306.582	106.94
306.812	96.94
307.042	91.94
307.272	81.94
307.502	85.94
307.731	90.94
307.961	89.94
308.191	81.94
308.421	101.94
308.651	85.94
308.881	82.94
309.111	85.94
309.341	98.94
309.571	96.94
309.8	87.94
310.03	88.94
310.26	86.94
310.49	87.94
310.72	88.94
310.949	81.94
311.179	95.94
311.409	86.94
311.639	84.94
311.868	81.94
312.098	83.94
312.328	78.94
312.557	80.94
312.787	101.94
313.017	86.94
313.246	97.94
313.476	85.94
313.706	91.94
313.935	104.94
314.165	99.94
314.394	84.94
314.624	91.94
314.853	88.94
315.083	85.94
315.312	81.94
315.542	84.94
315.771	81.94
316.001	84.94
316.23	90.94
316.46	93.94
316.689	91.94
316.919	94.94
317.148	83.94
317.377	91.94
317.607	87.94
317.836	88.94
318.065	79.94
318.295	78.94
318.524	80.94
318.753	86.94
318.983	85.94
319.212	94.94
319.441	93.94
319.67	99.94
319.9	80.94
320.129	92.94
320.358	105.94
320.587	93.94
320.816	97.94
321.046	95.94
321.275	95.94
321.504	94.94
321.733	91.94
321.962	93.94
322.191	99.94
322.42	79.94
322.649	95.94
322.878	100.94
323.108	117.94
323.337	119.94
323.566	131.94
323.795	117.94
324.024	183.94
324.253	355.94
324.482	739.94
324.71	1484.94
324.939	1965.94
325.168	735.94
325.397	228.94
325.626	137.94
325.855	112.94
326.084	120.94
326.313	113.94
326.542	140.94
326.77	197.94
326.999	424.94
327.228	863.94
327.457	1559.94
327.686	1214.94
327.914	312.94
328.143	152.94
328.372	151.94
328.6	116.94
328.829	115.94
329.058	104.94
329.287	112.94
329.515	90.94
329.744	106.94
329.972	89.94
330.201	110.94
330.43	112.94
330.658	113.94
330.887	118.94
331.115	120.94
331.344	101.94
331.572	93.94
331.801	88.94
332.03	82.94
332.258	82.94
332.486	95.94
332.715	95.94
332.943	102.94
333.172	92.94
333.4	106.94
333.629	97.94
333.857	104.94
334.085	106.94
334.314	93.94
334.542	111.94
334.771	110.94
334.999	97.94
335.227	100.94
335.455	76.94
335.684	89.94
335.912	89.94
336.14	102.94
336.369	80.94
336.597	93.94
336.825	107.94
337.053	80.94
337.281	75.94
337.51	94.94
337.738	82.94
337.966	85.94
338.194	87.94
338.422	88.94
338.65	102.94
338.878	85.94
339.106	79.94
339.334	89.94
339.562	96.94
339.79	87.94
340.018	86.94
340.246	81.94
340.474	86.94
340.702	93.94
340.93	98.94
341.158	79.94
341.386	95.94
341.614	102.94
341.842	78.94
342.07	95.94
342.298	93.94
342.526	92.94
342.754	73.94
342.981	80.94
343.209	94.94
343.437	102.94
343.665	75.94
343.893	88.94
344.12	85.94
344.348	81.94
344.576	104.94
344.804	100.94
345.031	79.94
345.259	84.94
345.487	85.94
345.714	84.94
345.942	87.94
346.17	89.94
346.397	99.94
346.625	93.94
346.853	92.94
347.08	87.94
347.308	91.94
347.535	89.94
347.763	93.94
347.99	83.94
348.218	89.94
348.445	83.94
348.673	89.94
348.9	100.94
349.128	83.94
349.355	93.94
349.583	86.94
349.81	97.94
350.037	96.94
350.265	84.94
350.492	74.94
350.72	88.94
350.947	97.94
351.174	121.94
351.402	105.94
351.629	91.94
351.856	93.94
352.083	87.94
352.311	85.94
352.538	111.94
352.765	113.94
352.992	114.94
353.22	97.94
353.447	95.94
353.674	95.94
353.901	111.94
354.128	92.94
354.355	101.94
354.583	110.94
354.81	95.94
355.037	99.94
355.264	96.94
355.491	93.94
355.718	87.94
355.945	86.94
356.172	104.94
356.399	95.94
356.626	91.94
356.853	101.94
357.08	87.94
357.307	72.94
357.534	94.94
357.761	98.94
357.988	93.94
358.215	105.94
358.441	96.94
358.668	81.94
358.895	89.94
359.122	93.94
359.349	83.94
359.576	97.94
359.802	101.94
360.029	76.94
360.256	101.94
360.483	84.94
360.709	88.94
360.936	84.94
361.163	76.94
361.39	98.94
361.616	107.94
361.843	83.94
362.07	78.94
362.296	91.94
362.523	85.94
362.749	83.94
362.976	72.94
363.203	101.94
363.429	96.94
363.656	89.94
363.882	88.94
364.109	82.94
364.335	86.94
364.562	81.94
364.788	79.94
365.015	92.94
365.241	98.94
365.468	101.94
365.694	102.94
365.92	88.94
366.147	83.94
366.373	72.94
366.599	69.94
366.826	94.94
367.052	95.94
367.278	94.94
367.505	80.94
367.731	94.94
367.957	80.94
368.184	93.94
368.41	96.94
368.636	93.94
368.862	105.94
369.089	84.94
369.315	87.94
369.541	92.94
369.767	79.94
369.993	72.94
370.219	80.94
370.445	98.94
370.672	98.94
370.898	82.94
371.124	80.94
371.35	99.94
371.576	88.94
371.802	84.94
372.028	85.94
372.254	99.94
372.48	90.94
372.706	87.94
372.932	88.94
373.158	94.94
373.384	93.94
373.61	93.94
373.835	76.94
374.061	96.94
374.287	85.94
374.513	101.94
374.739	92.94
374.965	88.94
375.191	83.94
375.416	93.94
375.642	78.94
375.868	89.94
376.094	86.94
376.319	94.94
376.545	83.94
376.771	95.94
376.997	86.94
377.222	86.94
377.448	100.94
377.674	77.94
377.899	81.94
378.125	88.94
378.35	96.94
378.576	100.94
378.802	79.94
379.027	103.94
379.253	84.94
379.478	76.94
379.704	85.94
379.929	93.94
380.155	92.94
380.38	101.94
380.606	96.94
380.831	106.94
381.057	102.94
381.282	94.94
381.507	98.94
381.733	84.94
381.958	102.94
382.184	105.94
382.409	85.94
382.634	114.94
382.86	108.94
383.085	97.94
383.31	102.94
383.535	94.94
383.761	88.94
383.986	91.94
384.211	81.94
384.436	97.94
384.662	94.94
384.887	98.94
385.112	121.94
385.337	99.94
385.562	106.94
385.787	96.94
386.013	119.94
386.238	117.94
386.463	109.94
386.688	129.94
386.913	113.94
387.138	116.94
387.363	96.94
387.588	104.94
387.813	97.94
388.038	95.94
388.263	128.94
388.488	108.94
388.713	80.94
388.938	81.94
389.163	91.94
389.387	92.94
389.612	89.94
389.837	104.94
390.062	92.94
390.287	91.94
390.512	99.94
390.736	94.94
390.961	96.94
391.186	91.94
391.411	87.94
391.636	99.94
391.86	80.94
392.085	94.94
392.31	78.94
392.534	74.94
392.759	85.94
392.984	83.94
393.208	92.94
393.433	105.94
393.658	92.94
393.882	91.94
394.107	75.94
394.331	82.94
394.556	90.94
394.78	100.94
395.005	91.94
395.229	72.94
395.454	81.94
395.678	76.94
395.903	79.94
396.127	90.94
396.352	82.94
396.576	73.94
396.801	81.94
397.025	83.94
397.249	71.94
397.474	84.94
397.698	84.94
397.922	88.94
398.147	88.94
398.371	85.94
398.595	88.94
398.82	68.94
399.044	83.94
399.268	83.94
399.492	91.94
399.717	72.94
399.941	79.94
400.165	99.94
400.389	84.94
400.613	84.94
400.837	89.94
401.062	87.94
401.286	79.94
401.51	81.94
401.734	85.94
401.958	100.94
402.182	95.94
402.406	119.94
402.63	108.94
402.854	84.94
403.078	91.94
403.302	67.94
403.526	71.94
403.75	89.94
403.974	79.94
404.198	84.94
404.422	85.94
404.645	99.94
404.869	92.94
405.093	90.94
405.317	94.94
405.541	107.94
405.765	75.94
405.988	102.94
406.212	131.94
406.436	189.94
406.66	121.94
406.883	91.94
407.107	85.94
407.331	89.94
407.555	93.94
407.778	85.94
408.002	85.94
408.226	111.94
408.449	96.94
408.673	82.94
408.896	75.94
409.12	92.94
409.344	84.94
409.567	84.94
409.791	86.94
410.014	98.94
410.238	86.94
410.461	80.94
410.685	99.94
410.908	91.94
411.132	104.94
411.355	94.94
411.578	101.94
411.802	95.94
412.025	77.94
412.249	89.94
412.472	86.94
412.695	103.94
412.919	85.94
413.142	85.94
413.365	70.94
413.589	83.94
413.812	81.94
414.035	84.94
414.258	81.94
414.482	83.94
414.705	93.94
414.928	90.94
415.151	101.94
415.374	89.94
415.597	76.94
415.821	95.94
416.044	101.94
416.267	87.94
416.49	93.94
416.713	90.94
416.936	80.94
417.159	79.94
417.382	89.94
417.605	87.94
417.828	79.94
418.051	94.94
418.274	90.94
418.497	88.94
418.72	97.94
418.943	80.94
419.166	91.94
419.389	83.94
419.611	85.94
419.834	81.94
420.057	104.94
420.28	87.94
420.503	81.94
420.726	73.94
420.948	93.94
421.171	98.94
421.394	82.94
421.617	78.94
421.839	88.94
422.062	89.94
422.285	85.94
422.507	86.94
422.73	95.94
422.953	83.94
423.175	79.94
423.398	84.94
423.621	86.94
423.843	75.94
424.066	93.94
424.288	83.94
424.511	81.94
424.733	101.94
424.956	87.94
425.178	79.94
425.401	92.94
425.623	97.94
425.846	85.94
426.068	83.94
426.291	99.94
426.513	91.94
426.735	91.94
426.958	92.94
427.18	95.94
427.402	123.94
427.625	137.94
427.847	109.94
428.069	104.94
428.292	88.94
428.514	84.94
428.736	75.94
428.958	67.94
429.181	87.94
429.403	83.94
429.625	91.94
429.847	91.94
430.069	102.94
430.292	88.94
430.514	77.94
430.736	91.94
430.958	84.94
431.18	76.94
431.402	77.94
431.624	84.94
431.846	85.94
432.068	92.94
432.29	93.94
432.512	87.94
432.734	79.94
432.956	94.94
433.178	81.94
433.4	96.94
433.622	90.94
433.844	89.94
434.066	92.94
434.287	81.94
434.509	70.94
434.731	90.94
434.953	87.94
435.175	81.94
435.397	82.94
435.618	95.94
435.84	79.94
436.062	104.94
436.284	86.94
436.505	91.94
436.727	99.94
436.949	88.94
437.17	93.94
437.392	102.94
437.614	91.94
437.835	79.94
438.057	102.94
438.278	102.94
438.5	94.94
438.721	102.94
438.943	84.94
439.165	95.94
439.386	77.94
439.608	95.94
439.829	90.94
440.05	94.94
440.272	118.94
440.493	94.94
440.715	71.94
440.936	86.94
441.158	82.94
441.379	67.94
441.6	86.94
441.822	88.94
442.043	83.94
442.264	91.94
442.486	83.94
442.707	91.94
442.928	92.94
443.149	108.94
443.371	101.94
443.592	91.94
443.813	98.94
444.034	101.94
444.255	107.94
444.476	65.94
444.698	77.94
444.919	82.94
445.14	123.94
445.361	109.94
445.582	94.94
445.803	109.94
446.024	112.94
446.245	112.94
446.466	93.94
446.687	80.94
446.908	90.94
447.129	83.94
447.35	79.94
447.571	85.94
447.792	93.94
448.013	90.94
448.234	93.94
448.455	94.94
448.675	93.94
448.896	101.94
449.117	92.94
449.338	96.94
449.559	115.94
449.779	122.94
450	83.94
450.221	85.94
450.442	81.94
450.662	77.94
450.883	92.94
451.104	84.94
451.324	83.94
451.545	84.94
451.766	95.94
451.986	86.94
452.207	86.94
452.428	76.94
452.648	79.94
452.869	110.94
453.089	98.94
453.31	91.94
453.53	81.94
453.751	70.94
453.971	86.94
454.192	84.94
454.412	93.94
454.633	83.94
454.853	81.94
455.073	87.94
455.294	70.94
455.514	90.94
455.734	86.94
455.955	89.94
456.175	88.94
456.395	88.94
456.616	76.94
456.836	81.94
457.056	91.94
457.276	83.94
457.497	72.94
457.717	81.94
457.937	85.94
458.157	76.94
458.377	82.94
458.598	104.94
458.818	122.94
459.038	117.94
459.258	90.94
459.478	81.94
459.698	85.94
459.918	70.94
460.138	75.94
460.358	83.94
460.578	83.94
460.798	77.94
461.018	83.94
461.238	89.94
461.458	85.94
461.678	75.94
461.898	90.94
462.118	81.94
462.338	75.94
462.558	81.94
462.777	79.94
462.997	91.94
463.217	72.94
463.437	77.94
463.657	79.94
463.876	85.94
464.096	83.94
464.316	91.94
464.536	76.94
464.755	88.94
464.975	100.94
465.195	124.94
465.414	132.94
465.634	76.94
465.854	94.94
466.073	92.94
466.293	79.94
466.512	76.94
466.732	65.94
466.951	81.94
467.171	86.94
467.391	86.94
467.61	96.94
467.829	89.94
468.049	67.94
468.268	96.94
468.488	91.94
468.707	88.94
468.927	80.94
469.146	88.94
469.365	81.94
469.585	79.94
469.804	72.94
470.023	95.94
470.243	89.94
470.462	89.94
470.681	115.94
470.901	79.94
471.12	90.94
471.339	79.94
471.558	90.94
471.777	88.94
471.997	92.94
472.216	96.94
472.435	123.94
472.654	100.94
472.873	83.94
473.092	94.94
473.311	68.94
473.53	94.94
473.749	95.94
473.968	91.94
474.187	95.94
474.406	71.94
474.625	84.94
474.844	86.94
475.063	86.94
475.282	91.94
475.501	90.94
475.72	76.94
475.939	76.94
476.158	84.94
476.377	80.94
476.596	84.94
476.814	83.94
477.033	84.94
477.252	81.94
477.471	108.94
477.69	86.94
477.908	78.94
478.127	86.94
478.346	75.94
478.564	71.94
478.783	83.94
479.002	77.94
479.22	79.94
479.439	96.94
479.658	94.94
479.876	73.94
480.095	78.94
480.313	81.94
480.532	91.94
480.751	83.94
480.969	87.94
481.188	148.94
481.406	117.94
481.624	96.94
481.843	86.94
482.061	87.94
482.28	83.94
482.498	72.94
482.717	75.94
482.935	89.94
483.153	80.94
483.372	70.94
483.59	94.94
483.808	73.94
484.027	88.94
484.245	96.94
484.463	94.94
484.681	87.94
484.9	84.94
485.118	99.94
485.336	77.94
485.554	83.94
485.772	94.94
485.99	88.94
486.209	110.94
486.427	103.94
486.645	93.94
486.863	100.94
487.081	96.94
487.299	97.94
487.517	105.94
487.735	90.94
487.953	93.94
488.171	93.94
488.389	94.94
488.607	88.94
488.825	95.94
489.043	81.94
489.261	84.94
489.479	92.94
489.696	92.94
489.914	78.94
490.132	85.94
490.35	95.94
490.568	94.94
490.786	77.94
491.003	77.94
491.221	89.94
491.439	102.94
491.657	97.94
491.874	89.94
492.092	89.94
492.31	85.94
492.527	85.94
492.745	84.94
492.963	81.94
493.18	54.94
493.398	82.94
493.615	88.94
493.833	92.94
494.05	80.94
494.268	89.94
494.485	92.94
494.703	95.94
494.92	75.94
495.138	87.94
495.355	87.94
495.573	80.94
495.79	91.94
496.008	97.94
496.225	76.94
496.442	77.94
496.66	85.94
496.877	95.94
497.094	87.94
497.312	86.94
497.529	88.94
497.746	83.94
497.963	95.94
498.181	76.94
498.398	72.94
498.615	103.94
498.832	77.94
499.049	87.94
499.267	89.94
499.484	84.94
499.701	85.94
499.918	86.94
500.135	94.94
500.352	89.94
500.569	76.94
500.786	84.94
501.003	95.94
501.22	79.94
501.437	82.94
501.654	85.94
501.871	87.94
502.088	98.94
502.305	86.94
502.522	82.94
502.739	84.94
502.956	86.94
503.172	95.94
503.389	92.94
503.606	105.94
503.823	86.94
504.04	96.94
504.256	97.94
504.473	84.94
504.69	86.94
504.907	101.94
505.123	87.94
505.34	83.94
505.557	83.94
505.773	105.94
505.99	89.94
506.207	86.94
506.423	86.94
506.64	95.94
506.856	85.94
507.073	91.94
507.289	89.94
507.506	97.94
507.722	86.94
507.939	99.94
508.155	101.94
508.372	91.94
508.588	82.94
508.805	97.94
509.021	99.94
509.238	95.94
509.454	94.94
509.67	76.94
509.887	101.94
510.103	114.94
510.319	188.94
510.536	605.94
510.752	1848.94
510.968	525.94
511.184	134.94
511.401	100.94
511.617	99.94
511.833	79.94
512.049	95.94
512.265	76.94
512.481	86.94
512.698	95.94
512.914	87.94
513.13	71.94
513.346	82.94
513.562	81.94
513.778	79.94
513.994	91.94
514.21	72.94
514.426	94.94
514.642	110.94
514.858	111.94
515.074	131.94
515.29	331.94
515.506	1033.94
515.721	381.94
515.937	129.94
516.153	103.94
516.369	88.94
516.585	84.94
516.801	88.94
517.016	85.94
517.232	105.94
