Data from Circ_1985_H10_HRD10591_00095.txt Node
Date: Wed Jan 03 12:19:41 EST 2024
User: Yrep
Spectrometer: HR+D1059
Trigger mode: 1
Integration Time (sec): 1.000000E-1
Scans to average: 1
Electric dark correction enabled: true
Nonlinearity correction enabled: false
Boxcar width: 0
XAxis mode: Wavelengths
Number of Pixels in Spectrum: 2048
>>>>>Begin Spectral Data<<<<<
223.165	-29.06
223.4	-29.06
223.635	-29.06
223.869	-16.06
224.104	-27.06
224.338	-15.06
224.573	-10.06
224.808	-9.06
225.042	-3.06
225.277	-8.06
225.511	-11.06
225.746	0.94
225.98	-9.06
226.215	13.94
226.449	25.94
226.683	23.94
226.918	32.94
227.152	39.94
227.387	11.94
227.621	24.94
227.856	48.94
228.09	41.94
228.324	45.94
228.559	67.94
228.793	154.94
229.027	434.94
229.262	515.94
229.496	596.94
229.73	777.94
229.964	784.94
230.199	533.94
230.433	489.94
230.667	500.94
230.901	460.94
231.136	455.94
231.37	427.94
231.604	443.94
231.838	445.94
232.072	469.94
232.306	447.94
232.541	461.94
232.775	456.94
233.009	459.94
233.243	484.94
233.477	488.94
233.711	518.94
233.945	526.94
234.179	520.94
234.413	537.94
234.647	499.94
234.881	505.94
235.115	525.94
235.349	545.94
235.583	565.94
235.817	600.94
236.051	619.94
236.285	616.94
236.519	627.94
236.753	709.94
236.987	890.94
237.221	1332.94
237.455	1478.94
237.689	894.94
237.922	736.94
238.156	739.94
238.39	694.94
238.624	667.94
238.858	673.94
239.091	632.94
239.325	667.94
239.559	706.94
239.793	711.94
240.027	776.94
240.26	874.94
240.494	948.94
240.728	933.94
240.961	901.94
241.195	811.94
241.429	791.94
241.662	788.94
241.896	797.94
242.13	797.94
242.363	799.94
242.597	818.94
242.83	841.94
243.064	837.94
243.298	873.94
243.531	867.94
243.765	868.94
243.998	888.94
244.232	883.94
244.465	902.94
244.699	929.94
244.932	934.94
245.166	911.94
245.399	930.94
245.633	922.94
245.866	969.94
246.099	947.94
246.333	982.94
246.566	997.94
246.8	982.94
247.033	993.94
247.266	1073.94
247.5	1141.94
247.733	1178.94
247.966	1173.94
248.2	1131.94
248.433	1165.94
248.666	1273.94
248.899	1361.94
249.133	1470.94
249.366	1464.94
249.599	1372.94
249.832	1297.94
250.066	1369.94
250.299	1525.94
250.532	1842.94
250.765	1931.94
250.998	1908.94
251.231	1766.94
251.465	1601.94
251.698	1482.94
251.931	1408.94
252.164	1469.94
252.397	1474.94
252.63	1522.94
252.863	1594.94
253.096	1673.94
253.329	1717.94
253.562	1681.94
253.795	1601.94
254.028	1593.94
254.261	1638.94
254.494	1827.94
254.727	2135.94
254.96	2243.94
255.193	2034.94
255.426	1927.94
255.659	1924.94
255.892	2325.94
256.124	2705.94
256.357	2485.94
256.59	2096.94
256.823	1841.94
257.056	1708.94
257.289	1727.94
257.521	1701.94
257.754	1660.94
257.987	1604.94
258.22	1560.94
258.452	1578.94
258.685	1567.94
258.918	1603.94
259.151	1675.94
259.383	1752.94
259.616	1768.94
259.849	1768.94
260.081	1944.94
260.314	2083.94
260.547	2024.94
260.779	1833.94
261.012	1809.94
261.244	1741.94
261.477	1725.94
261.71	1730.94
261.942	1794.94
262.175	1814.94
262.407	1741.94
262.64	1695.94
262.872	1679.94
263.105	1648.94
263.337	1696.94
263.57	1703.94
263.802	1701.94
264.035	1677.94
264.267	1705.94
264.499	1685.94
264.732	1710.94
264.964	1711.94
265.197	1683.94
265.429	1705.94
265.661	1745.94
265.894	1725.94
266.126	1767.94
266.358	1798.94
266.591	1803.94
266.823	1867.94
267.055	1920.94
267.287	1862.94
267.52	1851.94
267.752	1881.94
267.984	1879.94
268.216	1873.94
268.448	1926.94
268.681	1999.94
268.913	2118.94
269.145	2299.94
269.377	2371.94
269.609	2275.94
269.841	2209.94
270.073	2351.94
270.306	2571.94
270.538	2759.94
270.77	2619.94
271.002	2472.94
271.234	2433.94
271.466	2561.94
271.698	2722.94
271.93	2713.94
272.162	2704.94
272.394	2630.94
272.626	2454.94
272.858	2375.94
273.09	2279.94
273.322	2250.94
273.553	2211.94
273.785	2197.94
274.017	2215.94
274.249	2281.94
274.481	2272.94
274.713	2276.94
274.945	2266.94
275.176	2308.94
275.408	2268.94
275.64	2313.94
275.872	2317.94
276.104	2345.94
276.335	2334.94
276.567	2436.94
276.799	2575.94
277.031	2794.94
277.262	2925.94
277.494	2802.94
277.726	2635.94
277.957	2521.94
278.189	2462.94
278.421	2427.94
278.652	2423.94
278.884	2388.94
279.115	2439.94
279.347	2393.94
279.579	2426.94
279.81	2412.94
280.042	2423.94
280.273	2501.94
280.505	2510.94
280.736	2485.94
280.968	2411.94
281.199	2459.94
281.431	2436.94
281.662	2507.94
281.894	2507.94
282.125	2529.94
282.356	2679.94
282.588	2774.94
282.819	2630.94
283.051	2547.94
283.282	2531.94
283.513	2548.94
283.745	2557.94
283.976	2656.94
284.207	2647.94
284.439	2635.94
284.67	2623.94
284.901	2637.94
285.132	2659.94
285.364	2606.94
285.595	2630.94
285.826	2670.94
286.057	2696.94
286.288	2661.94
286.52	2669.94
286.751	2713.94
286.982	2658.94
287.213	2717.94
287.444	2735.94
287.675	2832.94
287.906	2920.94
288.138	2994.94
288.369	2933.94
288.6	2895.94
288.831	2871.94
289.062	2815.94
289.293	2840.94
289.524	2861.94
289.755	2808.94
289.986	2811.94
290.217	2837.94
290.448	2841.94
290.679	2778.94
290.91	2789.94
291.141	2805.94
291.371	2788.94
291.602	2834.94
291.833	2799.94
292.064	2790.94
292.295	2822.94
292.526	2853.94
292.757	2849.94
292.987	2766.94
293.218	2793.94
293.449	2839.94
293.68	2843.94
293.91	2809.94
294.141	2794.94
294.372	2813.94
294.603	2832.94
294.833	2882.94
295.064	2865.94
295.295	2855.94
295.525	2881.94
295.756	2932.94
295.987	2961.94
296.217	3209.94
296.448	3127.94
296.679	2935.94
296.909	2901.94
297.14	2967.94
297.37	3008.94
297.601	2994.94
297.831	2994.94
298.062	3015.94
298.292	3011.94
298.523	3081.94
298.753	3085.94
298.984	3039.94
299.214	3093.94
299.445	3090.94
299.675	3045.94
299.905	3185.94
300.136	3100.94
300.366	3077.94
300.597	3126.94
300.827	3200.94
301.057	3296.94
301.288	3367.94
301.518	3301.94
301.748	3314.94
301.979	3338.94
302.209	3367.94
302.439	3377.94
302.669	3253.94
302.9	3331.94
303.13	3241.94
303.36	3300.94
303.59	3303.94
303.82	3361.94
304.051	3391.94
304.281	3303.94
304.511	3212.94
304.741	3235.94
304.971	3275.94
305.201	3257.94
305.431	3284.94
305.661	3259.94
305.891	3218.94
306.121	3216.94
306.352	3257.94
306.582	3277.94
306.812	3215.94
307.042	3321.94
307.272	3235.94
307.502	3308.94
307.731	3322.94
307.961	3253.94
308.191	3309.94
308.421	3225.94
308.651	3265.94
308.881	3324.94
309.111	3312.94
309.341	3309.94
309.571	3369.94
309.8	3433.94
310.03	3562.94
310.26	3519.94
310.49	3523.94
310.72	3609.94
310.949	3683.94
311.179	3713.94
311.409	3604.94
311.639	3563.94
311.868	3572.94
312.098	3600.94
312.328	3747.94
312.557	3861.94
312.787	3847.94
313.017	3818.94
313.246	3762.94
313.476	3671.94
313.706	3707.94
313.935	3843.94
314.165	3901.94
314.394	3901.94
314.624	3805.94
314.853	3770.94
315.083	3723.94
315.312	3699.94
315.542	3673.94
315.771	3645.94
316.001	3677.94
316.23	3651.94
316.46	3660.94
316.689	3704.94
316.919	3728.94
317.148	3762.94
317.377	3710.94
317.607	3657.94
317.836	3704.94
318.065	3639.94
318.295	3609.94
318.524	3647.94
318.753	3639.94
318.983	3699.94
319.212	3663.94
319.441	3729.94
319.67	3705.94
319.9	3720.94
320.129	3702.94
320.358	3669.94
320.587	3699.94
320.816	3821.94
321.046	3844.94
321.275	3762.94
321.504	3829.94
321.733	3811.94
321.962	3878.94
322.191	4014.94
322.42	4102.94
322.649	4138.94
322.878	4167.94
323.108	4221.94
323.337	4488.94
323.566	4610.94
323.795	4873.94
324.024	5406.94
324.253	6973.94
324.482	10403.94
324.71	14940.94
324.939	15627.94
325.168	12491.94
325.397	6384.94
325.626	5161.94
325.855	4778.94
326.084	4768.94
326.313	4728.94
326.542	4961.94
326.77	5549.94
326.999	6801.94
327.228	9992.94
327.457	14107.94
327.686	13417.94
327.914	7498.94
328.143	6215.94
328.372	5950.94
328.6	5539.94
328.829	5407.94
329.058	5517.94
329.287	5536.94
329.515	5338.94
329.744	5339.94
329.972	5671.94
330.201	6408.94
330.43	6829.94
330.658	6331.94
330.887	6029.94
331.115	5578.94
331.344	5133.94
331.572	5055.94
331.801	5153.94
332.03	5143.94
332.258	5031.94
332.486	5059.94
332.715	5150.94
332.943	5315.94
333.172	5554.94
333.4	5769.94
333.629	5980.94
333.857	6285.94
334.085	6707.94
334.314	7515.94
334.542	8303.94
334.771	7769.94
334.999	6258.94
335.227	5699.94
335.455	5453.94
335.684	5259.94
335.912	5058.94
336.14	5077.94
336.369	4982.94
336.597	5059.94
336.825	5022.94
337.053	4900.94
337.281	4794.94
337.51	4709.94
337.738	4790.94
337.966	4691.94
338.194	4692.94
338.422	4538.94
338.65	4443.94
338.878	4554.94
339.106	4539.94
339.334	4458.94
339.562	4450.94
339.79	4354.94
340.018	4340.94
340.246	4376.94
340.474	4362.94
340.702	4351.94
340.93	4379.94
341.158	4303.94
341.386	4310.94
341.614	4281.94
341.842	4318.94
342.07	4237.94
342.298	4210.94
342.526	4277.94
342.754	4223.94
342.981	4210.94
343.209	4381.94
343.437	4540.94
343.665	4881.94
343.893	5043.94
344.12	5153.94
344.348	4849.94
344.576	4719.94
344.804	4639.94
345.031	4512.94
345.259	4535.94
345.487	4404.94
345.714	4296.94
345.942	4138.94
346.17	4232.94
346.397	4134.94
346.625	4094.94
346.853	4108.94
347.08	4099.94
347.308	4160.94
347.535	4266.94
347.763	4179.94
347.99	4210.94
348.218	4211.94
348.445	4204.94
348.673	4129.94
348.9	4115.94
349.128	4089.94
349.355	4017.94
349.583	3994.94
349.81	3988.94
350.037	4037.94
350.265	3917.94
350.492	3993.94
350.72	4044.94
350.947	4054.94
351.174	4130.94
351.402	4159.94
351.629	4042.94
351.856	4133.94
352.083	4143.94
352.311	4186.94
352.538	4183.94
352.765	4139.94
352.992	4020.94
353.22	4037.94
353.447	4037.94
353.674	4031.94
353.901	3908.94
354.128	3875.94
354.355	3895.94
354.583	3916.94
354.81	3942.94
355.037	3865.94
355.264	3870.94
355.491	3898.94
355.718	3927.94
355.945	3897.94
356.172	3880.94
356.399	3928.94
356.626	3919.94
356.853	3907.94
357.08	3840.94
357.307	3840.94
357.534	3888.94
357.761	3912.94
357.988	3884.94
358.215	3962.94
358.441	3930.94
358.668	3909.94
358.895	3960.94
359.122	4040.94
359.349	4103.94
359.576	4187.94
359.802	4386.94
360.029	4543.94
360.256	4523.94
360.483	4272.94
360.709	4189.94
360.936	4118.94
361.163	4125.94
361.39	4187.94
361.616	4125.94
361.843	4072.94
362.07	4082.94
362.296	4112.94
362.523	4119.94
362.749	4049.94
362.976	4042.94
363.203	3990.94
363.429	4009.94
363.656	3994.94
363.882	4006.94
364.109	3966.94
364.335	3940.94
364.562	3985.94
364.788	3951.94
365.015	3969.94
365.241	3999.94
365.468	3993.94
365.694	4048.94
365.92	4000.94
366.147	3985.94
366.373	3972.94
366.599	4007.94
366.826	3934.94
367.052	3940.94
367.278	3945.94
367.505	4046.94
367.731	4087.94
367.957	3978.94
368.184	4054.94
368.41	4127.94
368.636	4155.94
368.862	4227.94
369.089	4098.94
369.315	4108.94
369.541	4077.94
369.767	4094.94
369.993	4106.94
370.219	4098.94
370.445	4224.94
370.672	4191.94
370.898	4128.94
371.124	4177.94
371.35	4291.94
371.576	4241.94
371.802	4219.94
372.028	4202.94
372.254	4259.94
372.48	4314.94
372.706	4377.94
372.932	4405.94
373.158	4376.94
373.384	4317.94
373.61	4221.94
373.835	4252.94
374.061	4278.94
374.287	4308.94
374.513	4488.94
374.739	4521.94
374.965	4653.94
375.191	4656.94
375.416	4591.94
375.642	4407.94
375.868	4438.94
376.094	4381.94
376.319	4301.94
376.545	4361.94
376.771	4246.94
376.997	4250.94
377.222	4260.94
377.448	4194.94
377.674	4183.94
377.899	4188.94
378.125	4136.94
378.35	4161.94
378.576	4201.94
378.802	4191.94
379.027	4219.94
379.253	4195.94
379.478	4124.94
379.704	4183.94
379.929	4175.94
380.155	4242.94
380.38	4232.94
380.606	4261.94
380.831	4228.94
381.057	4310.94
381.282	4253.94
381.507	4269.94
381.733	4311.94
381.958	4336.94
382.184	4449.94
382.409	4405.94
382.634	4494.94
382.86	4416.94
383.085	4522.94
383.31	4601.94
383.535	4689.94
383.761	4660.94
383.986	4796.94
384.211	4866.94
384.436	4886.94
384.662	4994.94
384.887	5056.94
385.112	5001.94
385.337	5071.94
385.562	5128.94
385.787	5104.94
386.013	5213.94
386.238	5206.94
386.463	5246.94
386.688	5146.94
386.913	5103.94
387.138	5058.94
387.363	5030.94
387.588	4982.94
387.813	5058.94
388.038	5069.94
388.263	5097.94
388.488	5067.94
388.713	5115.94
388.938	5115.94
389.163	4993.94
389.387	5064.94
389.612	4936.94
389.837	5043.94
390.062	4960.94
390.287	4956.94
390.512	4969.94
390.736	5132.94
390.961	5208.94
391.186	5236.94
391.411	5287.94
391.636	5494.94
391.86	5592.94
392.085	5631.94
392.31	5600.94
392.534	5450.94
392.759	5334.94
392.984	5261.94
393.208	5215.94
393.433	5222.94
393.658	5289.94
393.882	5204.94
394.107	5311.94
394.331	5304.94
394.556	5302.94
394.78	5324.94
395.005	5418.94
395.229	5349.94
395.454	5588.94
395.678	5595.94
395.903	5719.94
396.127	5721.94
396.352	5535.94
396.576	5373.94
396.801	5353.94
397.025	5469.94
397.249	5509.94
397.474	5639.94
397.698	5701.94
397.922	5798.94
398.147	5935.94
398.371	5977.94
398.595	6093.94
398.82	6433.94
399.044	6941.94
399.268	7737.94
399.492	8750.94
399.717	9400.94
399.941	9113.94
400.165	8548.94
400.389	7891.94
400.613	7075.94
400.837	6636.94
401.062	6513.94
401.286	6471.94
401.51	6384.94
401.734	6357.94
401.958	6493.94
402.182	6656.94
402.406	6635.94
402.63	6762.94
402.854	6826.94
403.078	6920.94
403.302	7019.94
403.526	7147.94
403.75	7185.94
403.974	7292.94
404.198	7356.94
404.422	7392.94
404.645	7406.94
404.869	7470.94
405.093	8059.94
405.317	8397.94
405.541	8278.94
405.765	7597.94
405.988	7316.94
406.212	7338.94
406.436	7460.94
406.66	7631.94
406.883	7607.94
407.107	8138.94
407.331	8706.94
407.555	9185.94
407.778	8787.94
408.002	8103.94
408.226	7733.94
408.449	7669.94
408.673	7464.94
408.896	7566.94
409.12	7807.94
409.344	7354.94
409.567	6996.94
409.791	6965.94
410.014	6817.94
410.238	6785.94
410.461	6859.94
410.685	6913.94
410.908	6983.94
411.132	7305.94
411.355	7314.94
411.578	6920.94
411.802	6763.94
412.025	6846.94
412.249	7159.94
412.472	7633.94
412.695	8030.94
412.919	7359.94
413.142	6917.94
413.365	6774.94
413.589	6675.94
413.812	6491.94
414.035	6321.94
414.258	6337.94
414.482	6380.94
414.705	6361.94
414.928	6334.94
415.151	6298.94
415.374	6337.94
415.597	6228.94
415.821	6230.94
416.044	6262.94
416.267	6184.94
416.49	6150.94
416.713	6142.94
416.936	6224.94
417.159	6250.94
417.382	6328.94
417.605	6371.94
417.828	6457.94
418.051	6605.94
418.274	6375.94
418.497	6368.94
418.72	6391.94
418.943	6339.94
419.166	6799.94
419.389	7215.94
419.611	7133.94
419.834	6952.94
420.057	7017.94
420.28	7047.94
420.503	6936.94
420.726	6720.94
420.948	6825.94
421.171	7112.94
421.394	6996.94
421.617	6442.94
421.839	6452.94
422.062	6582.94
422.285	6709.94
422.507	7273.94
422.73	7837.94
422.953	7173.94
423.175	6870.94
423.398	6896.94
423.621	6886.94
423.843	7165.94
424.066	7027.94
424.288	6929.94
424.511	7159.94
424.733	7668.94
424.956	8131.94
425.178	7621.94
425.401	7688.94
425.623	7644.94
425.846	6698.94
426.068	6568.94
426.291	6412.94
426.513	6477.94
426.735	6456.94
426.958	6982.94
427.18	7836.94
427.402	8847.94
427.625	9141.94
427.847	7979.94
428.069	7517.94
428.292	6675.94
428.514	6121.94
428.736	5902.94
428.958	5906.94
429.181	5764.94
429.403	5764.94
429.625	5955.94
429.847	6197.94
430.069	6798.94
430.292	6273.94
430.514	5721.94
430.736	5714.94
430.958	5623.94
431.18	5510.94
431.402	5559.94
431.624	5645.94
431.846	5675.94
432.068	5651.94
432.29	5742.94
432.512	5634.94
432.734	5714.94
432.956	5687.94
433.178	5734.94
433.4	5748.94
433.622	5604.94
433.844	5690.94
434.066	5680.94
434.287	5726.94
434.509	6053.94
434.731	6250.94
434.953	6314.94
435.175	6493.94
435.397	6499.94
435.618	6474.94
435.84	6875.94
436.062	7717.94
436.284	7603.94
436.505	6429.94
436.727	6120.94
436.949	5910.94
437.17	5761.94
437.392	5701.94
437.614	5865.94
437.835	6256.94
438.057	7219.94
438.278	7840.94
438.5	7761.94
438.721	8624.94
438.943	7453.94
439.165	6206.94
439.386	6053.94
439.608	6209.94
439.829	6234.94
440.05	6583.94
440.272	6888.94
440.493	6305.94
440.715	6033.94
440.936	5934.94
441.158	5938.94
441.379	6173.94
441.6	6382.94
441.822	6639.94
442.043	7034.94
442.264	7944.94
442.486	7646.94
442.707	6731.94
442.928	6542.94
443.149	6829.94
443.371	6910.94
443.592	7546.94
443.813	8623.94
444.034	8532.94
444.255	7343.94
444.476	7144.94
444.698	7369.94
444.919	7450.94
445.14	7182.94
445.361	7107.94
445.582	7250.94
445.803	7765.94
446.024	8506.94
446.245	8114.94
446.466	7220.94
446.687	6343.94
446.908	6031.94
447.129	5733.94
447.35	5611.94
447.571	5566.94
447.792	5492.94
448.013	5590.94
448.234	5677.94
448.455	6321.94
448.675	7568.94
448.896	8059.94
449.117	6534.94
449.338	6778.94
449.559	8134.94
449.779	8277.94
450	6370.94
450.221	5643.94
450.442	5473.94
450.662	5389.94
450.883	5442.94
451.104	5466.94
451.324	5369.94
451.545	5173.94
451.766	5105.94
451.986	4973.94
452.207	4931.94
452.428	4929.94
452.648	4943.94
452.869	4993.94
453.089	5064.94
453.31	5171.94
453.53	4995.94
453.751	4898.94
453.971	4874.94
454.192	5015.94
454.412	4896.94
454.633	4772.94
454.853	4841.94
455.073	4851.94
455.294	5202.94
455.514	5832.94
455.734	5325.94
455.955	4676.94
456.175	4677.94
456.395	4575.94
456.616	4548.94
456.836	4633.94
457.056	4637.94
457.276	4517.94
457.497	4665.94
457.717	4634.94
457.937	4672.94
458.157	4793.94
458.377	4903.94
458.598	5276.94
458.818	5765.94
459.038	6547.94
459.258	6483.94
459.478	5758.94
459.698	5699.94
459.918	5778.94
460.138	5895.94
460.358	6127.94
460.578	6160.94
460.798	6242.94
461.018	6258.94
461.238	6097.94
461.458	6072.94
461.678	5995.94
461.898	6205.94
462.118	6183.94
462.338	6585.94
462.558	6679.94
462.777	6957.94
462.997	7546.94
463.217	7946.94
463.437	7720.94
463.657	7242.94
463.876	7059.94
464.096	7035.94
464.316	6955.94
464.536	6942.94
464.755	6832.94
464.975	6741.94
465.195	6847.94
465.414	6815.94
465.634	5998.94
465.854	5745.94
466.073	5523.94
466.293	5382.94
466.512	5215.94
466.732	5125.94
466.951	5106.94
467.171	5163.94
467.391	5263.94
467.61	5197.94
467.829	5262.94
468.049	5330.94
468.268	5406.94
468.488	5232.94
468.707	5059.94
468.927	5010.94
469.146	5009.94
469.365	4992.94
469.585	5031.94
469.804	5207.94
470.023	5270.94
470.243	5243.94
470.462	5391.94
470.681	5512.94
470.901	5391.94
471.12	5285.94
471.339	5357.94
471.558	5277.94
471.777	5135.94
471.997	5171.94
472.216	5647.94
472.435	6511.94
472.654	5874.94
472.873	5348.94
473.092	5186.94
473.311	5077.94
473.53	5122.94
473.749	5099.94
473.968	5673.94
474.187	6683.94
474.406	6213.94
474.625	5250.94
474.844	5007.94
475.063	4932.94
475.282	4976.94
475.501	5089.94
475.72	5036.94
475.939	5107.94
476.158	5126.94
476.377	5124.94
476.596	5146.94
476.814	5288.94
477.033	5343.94
477.252	5385.94
477.471	5492.94
477.69	5613.94
477.908	5704.94
478.127	5877.94
478.346	5824.94
478.564	5973.94
478.783	6074.94
479.002	6202.94
479.22	6308.94
479.439	6279.94
479.658	6428.94
479.876	6490.94
480.095	6815.94
480.313	7208.94
480.532	7046.94
480.751	7063.94
480.969	7409.94
481.188	9119.94
481.406	8942.94
481.624	7349.94
481.843	6816.94
482.061	6314.94
482.28	6269.94
482.498	6133.94
482.717	6067.94
482.935	5975.94
483.153	5914.94
483.372	5925.94
483.59	5960.94
483.808	5925.94
484.027	6028.94
484.245	5905.94
484.463	5931.94
484.681	6170.94
484.9	6119.94
485.118	6151.94
485.336	6255.94
485.554	6240.94
485.772	6321.94
485.99	6301.94
486.209	6390.94
486.427	6387.94
486.645	6357.94
486.863	6473.94
487.081	6453.94
487.299	6446.94
487.517	6354.94
487.735	6297.94
487.953	6349.94
