Data from Circ_1985_H10_HRD10591_00009.txt Node
Date: Wed Jan 03 12:19:24 EST 2024
User: Yrep
Spectrometer: HR+D1059
Trigger mode: 1
Integration Time (sec): 1.000000E-1
Scans to average: 1
Electric dark correction enabled: true
Nonlinearity correction enabled: false
Boxcar width: 0
XAxis mode: Wavelengths
Number of Pixels in Spectrum: 2048
>>>>>Begin Spectral Data<<<<<
223.165	-19.44
223.4	-19.44
223.635	-19.44
223.869	-16.44
224.104	-16.44
224.338	-19.44
224.573	-9.44
224.808	-6.44
225.042	-7.44
225.277	-3.44
225.511	-3.44
225.746	14.56
225.98	3.56
226.215	1.56
226.449	5.56
226.683	13.56
226.918	22.56
227.152	40.56
227.387	36.56
227.621	38.56
227.856	40.56
228.09	38.56
228.324	65.56
228.559	49.56
228.793	53.56
229.027	62.56
229.262	62.56
229.496	77.56
229.73	72.56
229.964	87.56
230.199	81.56
230.433	71.56
230.667	91.56
230.901	67.56
231.136	72.56
231.37	87.56
231.604	95.56
231.838	86.56
232.072	74.56
232.306	82.56
232.541	84.56
232.775	77.56
233.009	72.56
233.243	86.56
233.477	83.56
233.711	76.56
233.945	85.56
234.179	85.56
234.413	88.56
234.647	77.56
234.881	92.56
235.115	78.56
235.349	69.56
235.583	84.56
235.817	86.56
236.051	98.56
236.285	76.56
236.519	89.56
236.753	79.56
236.987	87.56
237.221	77.56
237.455	81.56
237.689	81.56
237.922	77.56
238.156	57.56
238.39	68.56
238.624	77.56
238.858	82.56
239.091	89.56
239.325	70.56
239.559	78.56
239.793	83.56
240.027	90.56
240.26	85.56
240.494	65.56
240.728	81.56
240.961	61.56
241.195	77.56
241.429	85.56
241.662	85.56
241.896	82.56
242.13	67.56
242.363	91.56
242.597	89.56
242.83	86.56
243.064	64.56
243.298	69.56
243.531	59.56
243.765	65.56
243.998	69.56
244.232	70.56
244.465	90.56
244.699	77.56
244.932	90.56
245.166	94.56
245.399	87.56
245.633	85.56
245.866	74.56
246.099	68.56
246.333	82.56
246.566	83.56
246.8	79.56
247.033	81.56
247.266	83.56
247.5	68.56
247.733	93.56
247.966	83.56
248.2	79.56
248.433	84.56
248.666	90.56
248.899	82.56
249.133	83.56
249.366	88.56
249.599	92.56
249.832	101.56
250.066	93.56
250.299	87.56
250.532	89.56
250.765	85.56
250.998	81.56
251.231	83.56
251.465	84.56
251.698	93.56
251.931	86.56
252.164	81.56
252.397	74.56
252.63	88.56
252.863	82.56
253.096	72.56
253.329	78.56
253.562	90.56
253.795	63.56
254.028	90.56
254.261	70.56
254.494	86.56
254.727	82.56
254.96	79.56
255.193	84.56
255.426	96.56
255.659	98.56
255.892	78.56
256.124	97.56
256.357	90.56
256.59	100.56
256.823	96.56
257.056	82.56
257.289	78.56
257.521	79.56
257.754	84.56
257.987	81.56
258.22	90.56
258.452	85.56
258.685	98.56
258.918	84.56
259.151	70.56
259.383	73.56
259.616	92.56
259.849	90.56
260.081	85.56
260.314	91.56
260.547	92.56
260.779	84.56
261.012	90.56
261.244	85.56
261.477	77.56
261.71	85.56
261.942	104.56
262.175	104.56
262.407	87.56
262.64	93.56
262.872	74.56
263.105	86.56
263.337	99.56
263.57	74.56
263.802	81.56
264.035	78.56
264.267	87.56
264.499	97.56
264.732	90.56
264.964	73.56
265.197	85.56
265.429	83.56
265.661	84.56
265.894	93.56
266.126	102.56
266.358	75.56
266.591	89.56
266.823	85.56
267.055	75.56
267.287	87.56
267.52	87.56
267.752	88.56
267.984	87.56
268.216	84.56
268.448	77.56
268.681	89.56
268.913	82.56
269.145	84.56
269.377	79.56
269.609	78.56
269.841	75.56
270.073	97.56
270.306	91.56
270.538	85.56
270.77	85.56
271.002	81.56
271.234	86.56
271.466	76.56
271.698	104.56
271.93	100.56
272.162	95.56
272.394	96.56
272.626	81.56
272.858	101.56
273.09	101.56
273.322	92.56
273.553	81.56
273.785	76.56
274.017	77.56
274.249	81.56
274.481	91.56
274.713	84.56
274.945	93.56
275.176	85.56
275.408	86.56
275.64	81.56
275.872	89.56
276.104	99.56
276.335	78.56
276.567	100.56
276.799	97.56
277.031	96.56
277.262	101.56
277.494	98.56
277.726	76.56
277.957	99.56
278.189	81.56
278.421	79.56
278.652	87.56
278.884	88.56
279.115	79.56
279.347	83.56
279.579	81.56
279.81	92.56
280.042	76.56
280.273	85.56
280.505	82.56
280.736	82.56
280.968	76.56
281.199	83.56
281.431	97.56
281.662	95.56
281.894	95.56
282.125	93.56
282.356	103.56
282.588	115.56
282.819	101.56
283.051	92.56
283.282	103.56
283.513	88.56
283.745	85.56
283.976	78.56
284.207	101.56
284.439	95.56
284.67	85.56
284.901	86.56
285.132	89.56
285.364	79.56
285.595	95.56
285.826	100.56
286.057	70.56
286.288	92.56
286.52	86.56
286.751	89.56
286.982	86.56
287.213	83.56
287.444	102.56
287.675	94.56
287.906	87.56
288.138	73.56
288.369	91.56
288.6	100.56
288.831	81.56
289.062	85.56
289.293	98.56
289.524	98.56
289.755	86.56
289.986	90.56
290.217	86.56
290.448	101.56
290.679	91.56
290.91	96.56
291.141	89.56
291.371	81.56
291.602	85.56
291.833	97.56
292.064	97.56
292.295	83.56
292.526	93.56
292.757	88.56
292.987	90.56
293.218	94.56
293.449	101.56
293.68	87.56
293.91	85.56
294.141	80.56
294.372	87.56
294.603	104.56
294.833	92.56
295.064	87.56
295.295	85.56
295.525	93.56
295.756	90.56
295.987	109.56
296.217	127.56
296.448	112.56
296.679	102.56
296.909	94.56
297.14	93.56
297.37	100.56
297.601	86.56
297.831	93.56
298.062	75.56
298.292	87.56
298.523	77.56
298.753	87.56
298.984	104.56
299.214	83.56
299.445	94.56
299.675	98.56
299.905	95.56
300.136	89.56
300.366	91.56
300.597	102.56
300.827	93.56
301.057	104.56
301.288	95.56
301.518	90.56
301.748	99.56
301.979	91.56
302.209	102.56
302.439	93.56
302.669	89.56
302.9	93.56
303.13	91.56
303.36	85.56
303.59	98.56
303.82	102.56
304.051	77.56
304.281	80.56
304.511	87.56
304.741	87.56
304.971	87.56
305.201	98.56
305.431	88.56
305.661	97.56
305.891	99.56
306.121	94.56
306.352	86.56
306.582	110.56
306.812	93.56
307.042	94.56
307.272	88.56
307.502	111.56
307.731	102.56
307.961	99.56
308.191	98.56
308.421	86.56
308.651	95.56
308.881	104.56
309.111	93.56
309.341	90.56
309.571	109.56
309.8	96.56
310.03	95.56
310.26	102.56
310.49	82.56
310.72	93.56
310.949	105.56
311.179	100.56
311.409	98.56
311.639	100.56
311.868	102.56
312.098	101.56
312.328	88.56
312.557	105.56
312.787	118.56
313.017	93.56
313.246	114.56
313.476	111.56
313.706	110.56
313.935	96.56
314.165	90.56
314.394	109.56
314.624	110.56
314.853	95.56
315.083	101.56
315.312	100.56
315.542	91.56
315.771	82.56
316.001	76.56
316.23	89.56
316.46	87.56
316.689	82.56
316.919	100.56
317.148	94.56
317.377	101.56
317.607	99.56
317.836	87.56
318.065	89.56
318.295	84.56
318.524	84.56
318.753	97.56
318.983	110.56
319.212	81.56
319.441	115.56
319.67	95.56
319.9	100.56
320.129	98.56
320.358	86.56
320.587	98.56
320.816	100.56
321.046	98.56
321.275	101.56
321.504	103.56
321.733	97.56
321.962	100.56
322.191	98.56
322.42	100.56
322.649	118.56
322.878	99.56
323.108	104.56
323.337	119.56
323.566	125.56
323.795	138.56
324.024	167.56
324.253	325.56
324.482	668.56
324.71	1379.56
324.939	1821.56
325.168	678.56
325.397	211.56
325.626	139.56
325.855	121.56
326.084	122.56
326.313	142.56
326.542	126.56
326.77	204.56
326.999	390.56
327.228	811.56
327.457	1437.56
327.686	1151.56
327.914	305.56
328.143	181.56
328.372	133.56
328.6	104.56
328.829	123.56
329.058	120.56
329.287	127.56
329.515	93.56
329.744	90.56
329.972	97.56
330.201	108.56
330.43	118.56
330.658	108.56
330.887	109.56
331.115	105.56
331.344	100.56
331.572	118.56
331.801	114.56
332.03	90.56
332.258	100.56
332.486	94.56
332.715	83.56
332.943	98.56
333.172	93.56
333.4	99.56
333.629	98.56
333.857	110.56
334.085	96.56
334.314	102.56
334.542	103.56
334.771	109.56
334.999	94.56
335.227	89.56
335.455	97.56
335.684	103.56
335.912	98.56
336.14	108.56
336.369	103.56
336.597	94.56
336.825	85.56
337.053	96.56
337.281	93.56
337.51	96.56
337.738	97.56
337.966	89.56
338.194	85.56
338.422	86.56
338.65	89.56
338.878	101.56
339.106	93.56
339.334	95.56
339.562	84.56
339.79	94.56
340.018	102.56
340.246	107.56
340.474	90.56
340.702	91.56
340.93	97.56
341.158	102.56
341.386	86.56
341.614	98.56
341.842	98.56
342.07	94.56
342.298	105.56
342.526	81.56
342.754	92.56
342.981	95.56
343.209	78.56
343.437	112.56
343.665	93.56
343.893	83.56
344.12	93.56
344.348	97.56
344.576	99.56
344.804	97.56
345.031	93.56
345.259	104.56
345.487	87.56
345.714	105.56
345.942	73.56
346.17	92.56
346.397	97.56
346.625	88.56
346.853	92.56
347.08	91.56
347.308	98.56
347.535	91.56
347.763	89.56
347.99	99.56
348.218	103.56
348.445	98.56
348.673	93.56
348.9	90.56
349.128	108.56
349.355	100.56
349.583	99.56
349.81	88.56
350.037	101.56
350.265	98.56
350.492	99.56
350.72	91.56
350.947	105.56
351.174	109.56
351.402	114.56
351.629	103.56
351.856	101.56
352.083	98.56
352.311	108.56
352.538	106.56
352.765	98.56
352.992	117.56
353.22	101.56
353.447	94.56
353.674	91.56
353.901	100.56
354.128	97.56
354.355	106.56
354.583	101.56
354.81	97.56
355.037	106.56
355.264	105.56
355.491	99.56
355.718	97.56
355.945	105.56
356.172	116.56
356.399	101.56
356.626	108.56
356.853	95.56
357.08	95.56
357.307	99.56
357.534	91.56
357.761	111.56
357.988	120.56
358.215	109.56
358.441	107.56
358.668	101.56
358.895	96.56
359.122	111.56
359.349	87.56
359.576	93.56
359.802	103.56
360.029	107.56
360.256	97.56
360.483	102.56
360.709	99.56
360.936	104.56
361.163	104.56
361.39	98.56
361.616	100.56
361.843	87.56
362.07	100.56
362.296	97.56
362.523	79.56
362.749	91.56
362.976	97.56
363.203	87.56
363.429	88.56
363.656	87.56
363.882	100.56
364.109	90.56
364.335	83.56
364.562	85.56
364.788	85.56
365.015	85.56
365.241	93.56
365.468	112.56
365.694	102.56
365.92	97.56
366.147	97.56
366.373	86.56
366.599	86.56
366.826	91.56
367.052	95.56
367.278	98.56
367.505	91.56
367.731	107.56
367.957	101.56
368.184	109.56
368.41	101.56
368.636	122.56
368.862	105.56
369.089	96.56
369.315	100.56
369.541	98.56
369.767	104.56
369.993	112.56
370.219	97.56
370.445	90.56
370.672	80.56
370.898	75.56
371.124	105.56
371.35	91.56
371.576	102.56
371.802	94.56
372.028	78.56
372.254	89.56
372.48	91.56
372.706	101.56
372.932	100.56
373.158	121.56
373.384	89.56
373.61	88.56
373.835	97.56
374.061	88.56
374.287	100.56
374.513	87.56
374.739	97.56
374.965	109.56
375.191	86.56
375.416	94.56
375.642	81.56
375.868	94.56
376.094	91.56
376.319	97.56
376.545	103.56
376.771	91.56
376.997	85.56
377.222	86.56
377.448	93.56
377.674	87.56
377.899	111.56
378.125	89.56
378.35	111.56
378.576	96.56
378.802	104.56
379.027	87.56
379.253	102.56
379.478	103.56
379.704	105.56
379.929	99.56
380.155	87.56
380.38	108.56
380.606	109.56
380.831	108.56
381.057	119.56
381.282	107.56
381.507	97.56
381.733	103.56
381.958	118.56
382.184	117.56
382.409	106.56
382.634	108.56
382.86	112.56
383.085	126.56
383.31	110.56
383.535	122.56
383.761	125.56
383.986	115.56
384.211	107.56
384.436	115.56
384.662	121.56
384.887	110.56
385.112	126.56
385.337	121.56
385.562	138.56
385.787	121.56
386.013	134.56
386.238	125.56
386.463	122.56
386.688	130.56
386.913	134.56
387.138	123.56
387.363	123.56
387.588	114.56
387.813	128.56
388.038	126.56
388.263	146.56
388.488	130.56
388.713	104.56
388.938	95.56
389.163	106.56
389.387	91.56
389.612	84.56
389.837	90.56
390.062	89.56
390.287	97.56
390.512	89.56
390.736	86.56
390.961	91.56
391.186	104.56
391.411	96.56
391.636	92.56
391.86	81.56
392.085	92.56
392.31	83.56
392.534	89.56
392.759	95.56
392.984	85.56
393.208	106.56
393.433	107.56
393.658	99.56
393.882	90.56
394.107	97.56
394.331	95.56
394.556	102.56
394.78	90.56
395.005	98.56
395.229	97.56
395.454	85.56
395.678	91.56
395.903	87.56
396.127	77.56
396.352	88.56
396.576	94.56
396.801	110.56
397.025	123.56
397.249	96.56
397.474	81.56
397.698	91.56
397.922	92.56
398.147	97.56
398.371	94.56
398.595	89.56
398.82	79.56
399.044	77.56
399.268	84.56
399.492	85.56
399.717	95.56
399.941	89.56
400.165	93.56
400.389	88.56
400.613	95.56
400.837	81.56
401.062	83.56
401.286	92.56
401.51	100.56
401.734	94.56
401.958	97.56
402.182	105.56
402.406	136.56
402.63	111.56
402.854	93.56
403.078	90.56
403.302	100.56
403.526	81.56
403.75	89.56
403.974	78.56
404.198	92.56
404.422	91.56
404.645	90.56
404.869	89.56
405.093	86.56
405.317	99.56
405.541	98.56
405.765	89.56
405.988	114.56
406.212	120.56
406.436	175.56
406.66	118.56
406.883	101.56
407.107	97.56
407.331	100.56
407.555	110.56
407.778	92.56
408.002	85.56
408.226	87.56
408.449	106.56
408.673	101.56
408.896	86.56
409.12	94.56
409.344	103.56
409.567	109.56
409.791	89.56
410.014	105.56
410.238	82.56
410.461	94.56
410.685	85.56
410.908	97.56
411.132	101.56
411.355	87.56
411.578	88.56
411.802	92.56
412.025	82.56
412.249	101.56
412.472	93.56
412.695	99.56
412.919	83.56
413.142	86.56
413.365	93.56
413.589	92.56
413.812	91.56
414.035	93.56
414.258	90.56
414.482	110.56
414.705	93.56
414.928	89.56
415.151	97.56
415.374	88.56
415.597	101.56
415.821	102.56
416.044	92.56
416.267	92.56
416.49	91.56
416.713	91.56
416.936	86.56
417.159	93.56
417.382	83.56
417.605	89.56
417.828	94.56
418.051	93.56
418.274	96.56
418.497	96.56
418.72	90.56
418.943	93.56
419.166	85.56
419.389	84.56
419.611	100.56
419.834	107.56
420.057	91.56
420.28	86.56
420.503	86.56
420.726	88.56
420.948	110.56
421.171	95.56
421.394	99.56
421.617	87.56
421.839	83.56
422.062	85.56
422.285	97.56
422.507	98.56
422.73	106.56
422.953	98.56
423.175	87.56
423.398	95.56
423.621	75.56
423.843	72.56
424.066	81.56
424.288	91.56
424.511	101.56
424.733	106.56
424.956	95.56
425.178	92.56
425.401	89.56
425.623	109.56
425.846	98.56
426.068	98.56
426.291	91.56
426.513	100.56
426.735	90.56
426.958	95.56
427.18	103.56
427.402	113.56
427.625	142.56
427.847	113.56
428.069	95.56
428.292	93.56
428.514	78.56
428.736	91.56
428.958	81.56
429.181	83.56
429.403	77.56
429.625	73.56
429.847	94.56
430.069	96.56
430.292	95.56
430.514	66.56
430.736	102.56
430.958	103.56
431.18	84.56
431.402	93.56
431.624	82.56
431.846	75.56
432.068	92.56
432.29	85.56
432.512	97.56
432.734	97.56
432.956	93.56
433.178	115.56
433.4	98.56
433.622	104.56
433.844	97.56
434.066	76.56
434.287	99.56
434.509	97.56
434.731	96.56
434.953	92.56
435.175	109.56
435.397	99.56
435.618	90.56
435.84	97.56
436.062	120.56
436.284	105.56
436.505	110.56
436.727	110.56
436.949	98.56
437.17	84.56
437.392	81.56
437.614	85.56
437.835	94.56
438.057	119.56
438.278	104.56
438.5	97.56
438.721	119.56
438.943	110.56
439.165	102.56
439.386	91.56
439.608	90.56
439.829	93.56
440.05	118.56
440.272	121.56
440.493	93.56
440.715	72.56
440.936	84.56
441.158	89.56
441.379	95.56
441.6	98.56
441.822	87.56
442.043	94.56
442.264	89.56
442.486	94.56
442.707	95.56
442.928	116.56
443.149	94.56
443.371	123.56
443.592	101.56
443.813	87.56
444.034	102.56
444.255	98.56
444.476	93.56
444.698	85.56
444.919	88.56
445.14	125.56
445.361	120.56
445.582	111.56
445.803	125.56
446.024	113.56
446.245	129.56
446.466	93.56
446.687	88.56
446.908	98.56
447.129	102.56
447.35	84.56
447.571	93.56
447.792	87.56
448.013	96.56
448.234	97.56
448.455	92.56
448.675	106.56
448.896	114.56
449.117	108.56
449.338	76.56
449.559	117.56
449.779	128.56
450	85.56
450.221	91.56
450.442	95.56
450.662	106.56
450.883	94.56
451.104	119.56
451.324	91.56
451.545	83.56
451.766	89.56
451.986	104.56
452.207	85.56
452.428	98.56
452.648	96.56
452.869	113.56
453.089	104.56
453.31	82.56
453.53	99.56
453.751	78.56
453.971	99.56
454.192	99.56
454.412	82.56
454.633	99.56
454.853	94.56
455.073	91.56
455.294	92.56
455.514	108.56
455.734	93.56
455.955	92.56
456.175	75.56
456.395	87.56
456.616	89.56
456.836	110.56
457.056	94.56
457.276	71.56
457.497	84.56
457.717	85.56
457.937	90.56
458.157	82.56
458.377	88.56
458.598	91.56
458.818	115.56
459.038	142.56
459.258	113.56
459.478	97.56
459.698	86.56
459.918	95.56
460.138	81.56
460.358	77.56
460.578	86.56
460.798	92.56
461.018	90.56
461.238	108.56
461.458	89.56
461.678	85.56
461.898	103.56
462.118	93.56
462.338	86.56
462.558	98.56
462.777	97.56
462.997	87.56
463.217	89.56
463.437	88.56
463.657	98.56
463.876	91.56
464.096	98.56
464.316	94.56
464.536	91.56
464.755	97.56
464.975	99.56
465.195	135.56
465.414	135.56
465.634	102.56
465.854	105.56
466.073	99.56
466.293	88.56
466.512	84.56
466.732	88.56
466.951	81.56
467.171	84.56
467.391	111.56
467.61	109.56
467.829	96.56
468.049	96.56
468.268	91.56
468.488	86.56
468.707	85.56
468.927	96.56
469.146	99.56
469.365	93.56
469.585	94.56
469.804	89.56
470.023	78.56
470.243	85.56
470.462	101.56
470.681	77.56
470.901	91.56
471.12	92.56
471.339	84.56
471.558	86.56
471.777	103.56
471.997	88.56
472.216	95.56
472.435	89.56
472.654	77.56
472.873	95.56
473.092	79.56
473.311	77.56
473.53	84.56
473.749	82.56
473.968	88.56
474.187	94.56
474.406	100.56
474.625	89.56
474.844	98.56
475.063	94.56
475.282	100.56
475.501	76.56
475.72	99.56
475.939	89.56
476.158	87.56
476.377	78.56
476.596	85.56
476.814	85.56
477.033	92.56
477.252	91.56
477.471	95.56
477.69	96.56
477.908	85.56
478.127	90.56
478.346	84.56
478.564	92.56
478.783	84.56
479.002	89.56
479.22	99.56
479.439	92.56
479.658	87.56
479.876	89.56
480.095	79.56
480.313	85.56
480.532	109.56
480.751	86.56
480.969	91.56
481.188	118.56
481.406	106.56
481.624	92.56
481.843	93.56
482.061	96.56
482.28	94.56
482.498	100.56
482.717	86.56
482.935	93.56
483.153	95.56
483.372	79.56
483.59	86.56
483.808	83.56
484.027	95.56
484.245	90.56
484.463	97.56
484.681	98.56
484.9	115.56
485.118	106.56
485.336	93.56
485.554	105.56
485.772	103.56
485.99	109.56
486.209	111.56
486.427	110.56
486.645	120.56
486.863	117.56
487.081	100.56
487.299	84.56
487.517	91.56
487.735	95.56
487.953	92.56
488.171	101.56
488.389	92.56
488.607	108.56
488.825	96.56
489.043	93.56
489.261	87.56
489.479	89.56
489.696	102.56
489.914	81.56
490.132	93.56
490.35	99.56
490.568	96.56
490.786	98.56
491.003	105.56
491.221	85.56
491.439	105.56
491.657	97.56
491.874	87.56
492.092	77.56
492.31	97.56
492.527	89.56
492.745	93.56
492.963	90.56
493.18	93.56
493.398	96.56
493.615	109.56
493.833	103.56
494.05	98.56
494.268	107.56
494.485	97.56
494.703	85.56
494.92	92.56
495.138	100.56
495.355	94.56
495.573	94.56
495.79	85.56
496.008	102.56
496.225	95.56
496.442	78.56
496.66	106.56
496.877	93.56
497.094	98.56
497.312	95.56
497.529	91.56
497.746	84.56
497.963	94.56
498.181	105.56
498.398	94.56
498.615	107.56
498.832	106.56
499.049	98.56
499.267	87.56
499.484	87.56
499.701	97.56
499.918	92.56
500.135	85.56
500.352	101.56
500.569	89.56
500.786	94.56
501.003	94.56
501.22	85.56
501.437	112.56
501.654	94.56
501.871	105.56
502.088	91.56
502.305	89.56
502.522	92.56
502.739	102.56
502.956	90.56
503.172	90.56
503.389	100.56
503.606	99.56
503.823	95.56
504.04	93.56
504.256	92.56
504.473	91.56
504.69	98.56
504.907	103.56
505.123	92.56
505.34	98.56
505.557	92.56
505.773	97.56
505.99	83.56
506.207	96.56
506.423	91.56
506.64	95.56
506.856	87.56
507.073	89.56
507.289	93.56
507.506	94.56
507.722	90.56
507.939	122.56
508.155	108.56
508.372	92.56
508.588	82.56
508.805	94.56
509.021	87.56
509.238	89.56
509.454	91.56
509.67	103.56
509.887	101.56
510.103	135.56
510.319	170.56
510.536	553.56
510.752	1593.56
510.968	457.56
511.184	130.56
511.401	98.56
511.617	94.56
511.833	98.56
512.049	94.56
512.265	93.56
512.481	96.56
512.698	87.56
512.914	89.56
513.13	95.56
513.346	92.56
513.562	106.56
513.778	100.56
513.994	82.56
514.21	91.56
514.426	109.56
514.642	120.56
514.858	117.56
515.074	128.56
