Data from Circ_1985_H10_HRD10591_00048.txt Node
Date: Wed Jan 03 12:19:32 EST 2024
User: Yrep
Spectrometer: HR+D1059
Trigger mode: 1
Integration Time (sec): 1.000000E-1
Scans to average: 1
Electric dark correction enabled: true
Nonlinearity correction enabled: false
Boxcar width: 0
XAxis mode: Wavelengths
Number of Pixels in Spectrum: 2048
>>>>>Begin Spectral Data<<<<<
223.165	-21.94
223.4	-21.94
223.635	-21.94
223.869	-18.94
224.104	-17.94
224.338	-7.94
224.573	-11.94
224.808	-9.94
225.042	-11.94
225.277	-6.94
225.511	-3.94
225.746	-3.94
225.98	8.06
226.215	17.06
226.449	13.06
226.683	32.06
226.918	19.06
227.152	26.06
227.387	45.06
227.621	39.06
227.856	42.06
228.09	50.06
228.324	43.06
228.559	62.06
228.793	64.06
229.027	54.06
229.262	72.06
229.496	62.06
229.73	78.06
229.964	85.06
230.199	69.06
230.433	65.06
230.667	78.06
230.901	99.06
231.136	71.06
231.37	88.06
231.604	69.06
231.838	82.06
232.072	76.06
232.306	84.06
232.541	75.06
232.775	72.06
233.009	90.06
233.243	74.06
233.477	84.06
233.711	92.06
233.945	84.06
234.179	76.06
234.413	87.06
234.647	73.06
234.881	72.06
235.115	90.06
235.349	82.06
235.583	79.06
235.817	77.06
236.051	86.06
236.285	96.06
236.519	85.06
236.753	77.06
236.987	75.06
237.221	101.06
237.455	85.06
237.689	77.06
237.922	83.06
238.156	76.06
238.39	73.06
238.624	65.06
238.858	90.06
239.091	96.06
239.325	88.06
239.559	81.06
239.793	74.06
240.027	95.06
240.26	84.06
240.494	79.06
240.728	84.06
240.961	90.06
241.195	85.06
241.429	98.06
241.662	83.06
241.896	77.06
242.13	76.06
242.363	84.06
242.597	60.06
242.83	84.06
243.064	76.06
243.298	84.06
243.531	83.06
243.765	83.06
243.998	58.06
244.232	88.06
244.465	88.06
244.699	96.06
244.932	73.06
245.166	59.06
245.399	84.06
245.633	75.06
245.866	84.06
246.099	76.06
246.333	75.06
246.566	81.06
246.8	85.06
247.033	95.06
247.266	88.06
247.5	77.06
247.733	90.06
247.966	72.06
248.2	82.06
248.433	81.06
248.666	81.06
248.899	84.06
249.133	91.06
249.366	99.06
249.599	84.06
249.832	79.06
250.066	86.06
250.299	79.06
250.532	67.06
250.765	71.06
250.998	68.06
251.231	79.06
251.465	76.06
251.698	74.06
251.931	77.06
252.164	91.06
252.397	68.06
252.63	76.06
252.863	78.06
253.096	92.06
253.329	93.06
253.562	70.06
253.795	84.06
254.028	84.06
254.261	85.06
254.494	89.06
254.727	84.06
254.96	84.06
255.193	69.06
255.426	86.06
255.659	90.06
255.892	82.06
256.124	82.06
256.357	84.06
256.59	90.06
256.823	85.06
257.056	86.06
257.289	97.06
257.521	73.06
257.754	97.06
257.987	81.06
258.22	56.06
258.452	77.06
258.685	74.06
258.918	89.06
259.151	75.06
259.383	69.06
259.616	84.06
259.849	90.06
260.081	82.06
260.314	89.06
260.547	80.06
260.779	79.06
261.012	85.06
261.244	80.06
261.477	93.06
261.71	103.06
261.942	100.06
262.175	95.06
262.407	81.06
262.64	86.06
262.872	74.06
263.105	88.06
263.337	94.06
263.57	73.06
263.802	85.06
264.035	70.06
264.267	90.06
264.499	92.06
264.732	94.06
264.964	80.06
265.197	76.06
265.429	77.06
265.661	93.06
265.894	86.06
266.126	74.06
266.358	90.06
266.591	82.06
266.823	76.06
267.055	87.06
267.287	94.06
267.52	84.06
267.752	83.06
267.984	70.06
268.216	99.06
268.448	86.06
268.681	90.06
268.913	86.06
269.145	92.06
269.377	77.06
269.609	85.06
269.841	80.06
270.073	80.06
270.306	90.06
270.538	82.06
270.77	81.06
271.002	87.06
271.234	98.06
271.466	90.06
271.698	82.06
271.93	84.06
272.162	97.06
272.394	85.06
272.626	88.06
272.858	71.06
273.09	82.06
273.322	88.06
273.553	89.06
273.785	92.06
274.017	80.06
274.249	92.06
274.481	76.06
274.713	91.06
274.945	87.06
275.176	96.06
275.408	102.06
275.64	97.06
275.872	97.06
276.104	75.06
276.335	85.06
276.567	99.06
276.799	109.06
277.031	103.06
277.262	94.06
277.494	90.06
277.726	76.06
277.957	94.06
278.189	87.06
278.421	69.06
278.652	73.06
278.884	95.06
279.115	90.06
279.347	92.06
279.579	83.06
279.81	89.06
280.042	88.06
280.273	92.06
280.505	104.06
280.736	88.06
280.968	91.06
281.199	87.06
281.431	99.06
281.662	81.06
281.894	92.06
282.125	92.06
282.356	111.06
282.588	115.06
282.819	108.06
283.051	95.06
283.282	66.06
283.513	82.06
283.745	93.06
283.976	92.06
284.207	97.06
284.439	77.06
284.67	99.06
284.901	79.06
285.132	91.06
285.364	94.06
285.595	90.06
285.826	90.06
286.057	82.06
286.288	89.06
286.52	90.06
286.751	79.06
286.982	93.06
287.213	90.06
287.444	81.06
287.675	86.06
287.906	83.06
288.138	80.06
288.369	86.06
288.6	95.06
288.831	96.06
289.062	84.06
289.293	88.06
289.524	101.06
289.755	102.06
289.986	90.06
290.217	88.06
290.448	83.06
290.679	78.06
290.91	99.06
291.141	103.06
291.371	88.06
291.602	82.06
291.833	78.06
292.064	94.06
292.295	95.06
292.526	73.06
292.757	85.06
292.987	92.06
293.218	98.06
293.449	92.06
293.68	91.06
293.91	88.06
294.141	97.06
294.372	89.06
294.603	89.06
294.833	89.06
295.064	78.06
295.295	91.06
295.525	90.06
295.756	116.06
295.987	115.06
296.217	135.06
296.448	109.06
296.679	105.06
296.909	88.06
297.14	100.06
297.37	85.06
297.601	90.06
297.831	91.06
298.062	96.06
298.292	93.06
298.523	95.06
298.753	102.06
298.984	92.06
299.214	89.06
299.445	102.06
299.675	94.06
299.905	97.06
300.136	97.06
300.366	96.06
300.597	97.06
300.827	100.06
301.057	103.06
301.288	98.06
301.518	107.06
301.748	88.06
301.979	103.06
302.209	92.06
302.439	96.06
302.669	81.06
302.9	86.06
303.13	85.06
303.36	83.06
303.59	92.06
303.82	92.06
304.051	103.06
304.281	88.06
304.511	89.06
304.741	87.06
304.971	74.06
305.201	88.06
305.431	94.06
305.661	93.06
305.891	84.06
306.121	97.06
306.352	102.06
306.582	115.06
306.812	92.06
307.042	87.06
307.272	102.06
307.502	102.06
307.731	97.06
307.961	90.06
308.191	80.06
308.421	93.06
308.651	89.06
308.881	104.06
309.111	81.06
309.341	101.06
309.571	106.06
309.8	108.06
310.03	99.06
310.26	106.06
310.49	106.06
310.72	102.06
310.949	99.06
311.179	98.06
311.409	97.06
311.639	103.06
311.868	104.06
312.098	92.06
312.328	90.06
312.557	94.06
312.787	92.06
313.017	92.06
313.246	79.06
313.476	94.06
313.706	91.06
313.935	107.06
314.165	107.06
314.394	107.06
314.624	115.06
314.853	101.06
315.083	92.06
315.312	115.06
315.542	97.06
315.771	94.06
316.001	96.06
316.23	92.06
316.46	89.06
316.689	101.06
316.919	87.06
317.148	93.06
317.377	94.06
317.607	88.06
317.836	95.06
318.065	91.06
318.295	101.06
318.524	90.06
318.753	88.06
318.983	88.06
319.212	99.06
319.441	94.06
319.67	93.06
319.9	97.06
320.129	97.06
320.358	92.06
320.587	103.06
320.816	102.06
321.046	94.06
321.275	97.06
321.504	94.06
321.733	90.06
321.962	109.06
322.191	100.06
322.42	108.06
322.649	106.06
322.878	105.06
323.108	131.06
323.337	116.06
323.566	128.06
323.795	144.06
324.024	196.06
324.253	353.06
324.482	761.06
324.71	1576.06
324.939	2089.06
325.168	735.06
325.397	228.06
325.626	146.06
325.855	132.06
326.084	134.06
326.313	132.06
326.542	165.06
326.77	243.06
326.999	410.06
327.228	882.06
327.457	1613.06
327.686	1314.06
327.914	341.06
328.143	189.06
328.372	158.06
328.6	125.06
328.829	125.06
329.058	144.06
329.287	114.06
329.515	102.06
329.744	98.06
329.972	116.06
330.201	119.06
330.43	107.06
330.658	126.06
330.887	123.06
331.115	106.06
331.344	93.06
331.572	109.06
331.801	102.06
332.03	109.06
332.258	97.06
332.486	113.06
332.715	88.06
332.943	89.06
333.172	97.06
333.4	86.06
333.629	109.06
333.857	107.06
334.085	110.06
334.314	103.06
334.542	140.06
334.771	133.06
334.999	90.06
335.227	86.06
335.455	97.06
335.684	104.06
335.912	106.06
336.14	112.06
336.369	106.06
336.597	108.06
336.825	104.06
337.053	108.06
337.281	82.06
337.51	91.06
337.738	92.06
337.966	83.06
338.194	101.06
338.422	92.06
338.65	90.06
338.878	94.06
339.106	91.06
339.334	100.06
339.562	93.06
339.79	101.06
340.018	84.06
340.246	90.06
340.474	89.06
340.702	92.06
340.93	111.06
341.158	92.06
341.386	91.06
341.614	100.06
341.842	95.06
342.07	87.06
342.298	94.06
342.526	91.06
342.754	100.06
342.981	102.06
343.209	99.06
343.437	96.06
343.665	86.06
343.893	92.06
344.12	86.06
344.348	90.06
344.576	85.06
344.804	97.06
345.031	105.06
345.259	97.06
345.487	92.06
345.714	100.06
345.942	95.06
346.17	104.06
346.397	100.06
346.625	104.06
346.853	96.06
347.08	94.06
347.308	105.06
347.535	97.06
347.763	105.06
347.99	117.06
348.218	94.06
348.445	113.06
348.673	118.06
348.9	93.06
349.128	88.06
349.355	101.06
349.583	106.06
349.81	106.06
350.037	101.06
350.265	99.06
350.492	121.06
350.72	105.06
350.947	107.06
351.174	96.06
351.402	107.06
351.629	112.06
351.856	96.06
352.083	94.06
352.311	104.06
352.538	102.06
352.765	109.06
352.992	106.06
353.22	113.06
353.447	89.06
353.674	111.06
353.901	97.06
354.128	92.06
354.355	112.06
354.583	116.06
354.81	92.06
355.037	95.06
355.264	88.06
355.491	99.06
355.718	112.06
355.945	120.06
356.172	99.06
356.399	97.06
356.626	106.06
356.853	104.06
357.08	98.06
357.307	98.06
357.534	92.06
357.761	89.06
357.988	93.06
358.215	78.06
358.441	94.06
358.668	100.06
358.895	93.06
359.122	80.06
359.349	84.06
359.576	97.06
359.802	104.06
360.029	104.06
360.256	112.06
360.483	116.06
360.709	92.06
360.936	94.06
361.163	96.06
361.39	86.06
361.616	97.06
361.843	100.06
362.07	87.06
362.296	101.06
362.523	92.06
362.749	96.06
362.976	100.06
363.203	101.06
363.429	101.06
363.656	92.06
363.882	87.06
364.109	88.06
364.335	98.06
364.562	76.06
364.788	110.06
365.015	98.06
365.241	106.06
365.468	107.06
365.694	86.06
365.92	101.06
366.147	96.06
366.373	77.06
366.599	89.06
366.826	99.06
367.052	104.06
367.278	99.06
367.505	88.06
367.731	107.06
367.957	100.06
368.184	99.06
368.41	91.06
368.636	108.06
368.862	117.06
369.089	97.06
369.315	88.06
369.541	95.06
369.767	92.06
369.993	102.06
370.219	86.06
370.445	101.06
370.672	85.06
370.898	81.06
371.124	85.06
371.35	85.06
371.576	91.06
371.802	94.06
372.028	96.06
372.254	96.06
372.48	95.06
372.706	94.06
372.932	82.06
373.158	101.06
373.384	95.06
373.61	92.06
373.835	96.06
374.061	88.06
374.287	95.06
374.513	98.06
374.739	97.06
374.965	87.06
375.191	83.06
375.416	93.06
375.642	94.06
375.868	89.06
376.094	96.06
376.319	91.06
376.545	81.06
376.771	99.06
376.997	77.06
377.222	100.06
377.448	91.06
377.674	103.06
377.899	91.06
378.125	98.06
378.35	94.06
378.576	93.06
378.802	86.06
379.027	107.06
379.253	100.06
379.478	100.06
379.704	93.06
379.929	96.06
380.155	105.06
380.38	101.06
380.606	106.06
380.831	97.06
381.057	103.06
381.282	109.06
381.507	106.06
381.733	89.06
381.958	86.06
382.184	96.06
382.409	101.06
382.634	104.06
382.86	103.06
383.085	108.06
383.31	114.06
383.535	92.06
383.761	99.06
383.986	96.06
384.211	99.06
384.436	103.06
384.662	98.06
384.887	111.06
385.112	103.06
385.337	116.06
385.562	116.06
385.787	111.06
386.013	121.06
386.238	128.06
386.463	108.06
386.688	114.06
386.913	111.06
387.138	107.06
387.363	89.06
387.588	114.06
387.813	116.06
388.038	110.06
388.263	112.06
388.488	111.06
388.713	99.06
388.938	93.06
389.163	93.06
389.387	101.06
389.612	89.06
389.837	98.06
390.062	97.06
390.287	101.06
390.512	85.06
390.736	91.06
390.961	96.06
391.186	77.06
391.411	99.06
391.636	91.06
391.86	88.06
392.085	96.06
392.31	96.06
392.534	75.06
392.759	82.06
392.984	89.06
393.208	86.06
393.433	95.06
393.658	102.06
393.882	90.06
394.107	93.06
394.331	93.06
394.556	86.06
394.78	92.06
395.005	92.06
395.229	86.06
395.454	99.06
395.678	103.06
395.903	88.06
396.127	91.06
396.352	87.06
396.576	91.06
396.801	97.06
397.025	90.06
397.249	90.06
397.474	78.06
397.698	92.06
397.922	91.06
398.147	81.06
398.371	88.06
398.595	91.06
398.82	86.06
399.044	104.06
399.268	83.06
399.492	96.06
399.717	88.06
399.941	84.06
400.165	97.06
400.389	88.06
400.613	83.06
400.837	61.06
401.062	92.06
401.286	82.06
401.51	92.06
401.734	87.06
401.958	100.06
402.182	118.06
402.406	142.06
402.63	106.06
402.854	89.06
403.078	83.06
403.302	101.06
403.526	104.06
403.75	88.06
403.974	99.06
404.198	84.06
404.422	86.06
404.645	100.06
404.869	91.06
405.093	100.06
405.317	98.06
405.541	99.06
405.765	111.06
405.988	113.06
406.212	137.06
406.436	177.06
406.66	129.06
406.883	96.06
407.107	92.06
407.331	102.06
407.555	91.06
407.778	97.06
408.002	92.06
408.226	92.06
408.449	90.06
408.673	96.06
408.896	81.06
409.12	106.06
409.344	93.06
409.567	75.06
409.791	94.06
410.014	93.06
410.238	89.06
410.461	101.06
410.685	90.06
410.908	114.06
411.132	114.06
411.355	107.06
411.578	105.06
411.802	93.06
412.025	98.06
412.249	96.06
412.472	94.06
412.695	99.06
412.919	107.06
413.142	94.06
413.365	93.06
413.589	100.06
413.812	84.06
414.035	92.06
414.258	97.06
414.482	103.06
414.705	99.06
414.928	82.06
415.151	96.06
415.374	92.06
415.597	95.06
415.821	90.06
416.044	89.06
416.267	109.06
416.49	80.06
416.713	80.06
416.936	90.06
417.159	96.06
417.382	88.06
417.605	96.06
417.828	99.06
418.051	93.06
418.274	88.06
418.497	88.06
418.72	106.06
418.943	85.06
419.166	92.06
419.389	86.06
419.611	107.06
419.834	78.06
420.057	104.06
420.28	84.06
420.503	85.06
420.726	102.06
420.948	90.06
421.171	96.06
421.394	104.06
421.617	83.06
421.839	92.06
422.062	99.06
422.285	92.06
422.507	83.06
422.73	115.06
422.953	98.06
423.175	74.06
423.398	100.06
423.621	108.06
423.843	85.06
424.066	84.06
424.288	86.06
424.511	95.06
424.733	97.06
424.956	97.06
425.178	98.06
425.401	112.06
425.623	113.06
425.846	88.06
426.068	92.06
426.291	81.06
426.513	88.06
426.735	87.06
426.958	98.06
427.18	103.06
427.402	145.06
427.625	163.06
427.847	126.06
428.069	108.06
428.292	98.06
428.514	92.06
428.736	70.06
428.958	77.06
429.181	81.06
429.403	80.06
429.625	80.06
429.847	92.06
430.069	109.06
430.292	97.06
430.514	84.06
430.736	93.06
430.958	86.06
431.18	92.06
431.402	84.06
431.624	68.06
431.846	75.06
432.068	80.06
432.29	78.06
432.512	94.06
432.734	87.06
432.956	98.06
433.178	100.06
433.4	106.06
433.622	87.06
433.844	93.06
434.066	92.06
434.287	102.06
434.509	93.06
434.731	81.06
434.953	90.06
435.175	86.06
435.397	105.06
435.618	86.06
435.84	90.06
436.062	105.06
436.284	120.06
436.505	99.06
436.727	100.06
436.949	95.06
437.17	97.06
437.392	85.06
437.614	96.06
437.835	102.06
438.057	116.06
438.278	88.06
438.5	103.06
438.721	121.06
438.943	117.06
439.165	97.06
439.386	93.06
439.608	87.06
439.829	91.06
440.05	118.06
440.272	118.06
440.493	109.06
440.715	97.06
440.936	87.06
441.158	81.06
441.379	82.06
441.6	92.06
441.822	87.06
442.043	93.06
442.264	100.06
442.486	94.06
442.707	94.06
442.928	108.06
443.149	116.06
443.371	121.06
443.592	95.06
443.813	106.06
444.034	87.06
444.255	93.06
444.476	92.06
444.698	85.06
444.919	88.06
445.14	122.06
445.361	115.06
445.582	112.06
445.803	125.06
446.024	132.06
446.245	128.06
446.466	107.06
446.687	83.06
446.908	86.06
447.129	89.06
447.35	85.06
447.571	89.06
447.792	98.06
448.013	86.06
448.234	104.06
448.455	101.06
448.675	90.06
448.896	123.06
449.117	106.06
449.338	95.06
449.559	128.06
449.779	129.06
450	96.06
450.221	90.06
450.442	85.06
450.662	89.06
450.883	111.06
451.104	107.06
451.324	99.06
451.545	95.06
451.766	83.06
451.986	82.06
452.207	78.06
452.428	89.06
452.648	101.06
452.869	108.06
453.089	98.06
453.31	108.06
453.53	97.06
453.751	101.06
453.971	98.06
454.192	101.06
454.412	91.06
454.633	97.06
454.853	78.06
455.073	86.06
455.294	88.06
455.514	93.06
455.734	83.06
455.955	99.06
456.175	91.06
456.395	90.06
456.616	102.06
456.836	89.06
457.056	91.06
457.276	97.06
457.497	84.06
457.717	93.06
457.937	91.06
458.157	103.06
458.377	101.06
458.598	110.06
458.818	125.06
459.038	130.06
459.258	109.06
459.478	94.06
459.698	78.06
459.918	93.06
460.138	88.06
460.358	112.06
460.578	77.06
460.798	93.06
461.018	89.06
461.238	95.06
461.458	81.06
461.678	84.06
461.898	89.06
462.118	85.06
462.338	79.06
462.558	92.06
462.777	90.06
462.997	73.06
463.217	90.06
463.437	83.06
463.657	89.06
463.876	97.06
464.096	110.06
464.316	91.06
464.536	100.06
464.755	104.06
464.975	103.06
465.195	136.06
465.414	133.06
465.634	108.06
465.854	89.06
466.073	98.06
466.293	100.06
466.512	98.06
466.732	93.06
466.951	86.06
467.171	100.06
467.391	89.06
467.61	97.06
467.829	89.06
468.049	98.06
468.268	96.06
468.488	88.06
468.707	86.06
468.927	95.06
469.146	83.06
469.365	80.06
469.585	92.06
469.804	91.06
470.023	88.06
470.243	85.06
470.462	90.06
470.681	95.06
470.901	89.06
471.12	90.06
471.339	106.06
471.558	82.06
471.777	93.06
471.997	76.06
472.216	98.06
472.435	137.06
472.654	91.06
472.873	75.06
473.092	88.06
473.311	84.06
473.53	90.06
473.749	76.06
473.968	100.06
474.187	96.06
474.406	101.06
474.625	95.06
474.844	73.06
475.063	86.06
475.282	76.06
475.501	91.06
475.72	94.06
475.939	97.06
476.158	92.06
476.377	102.06
476.596	97.06
476.814	85.06
477.033	80.06
477.252	88.06
477.471	75.06
477.69	82.06
477.908	78.06
478.127	86.06
478.346	100.06
478.564	103.06
478.783	96.06
479.002	102.06
479.22	89.06
479.439	96.06
479.658	103.06
479.876	92.06
480.095	85.06
480.313	95.06
480.532	87.06
480.751	100.06
480.969	108.06
481.188	179.06
481.406	135.06
481.624	104.06
481.843	100.06
482.061	82.06
482.28	91.06
482.498	99.06
482.717	100.06
482.935	87.06
483.153	98.06
483.372	95.06
483.59	94.06
483.808	90.06
484.027	105.06
484.245	96.06
484.463	89.06
484.681	93.06
484.9	96.06
485.118	93.06
485.336	89.06
485.554	105.06
485.772	114.06
485.99	100.06
486.209	106.06
486.427	103.06
486.645	105.06
486.863	110.06
487.081	107.06
487.299	96.06
487.517	88.06
487.735	112.06
487.953	84.06
488.171	101.06
488.389	82.06
488.607	87.06
488.825	77.06
489.043	80.06
489.261	85.06
489.479	88.06
489.696	106.06
489.914	96.06
490.132	77.06
490.35	90.06
490.568	89.06
490.786	92.06
491.003	88.06
491.221	101.06
491.439	84.06
491.657	90.06
491.874	104.06
492.092	90.06
492.31	98.06
492.527	69.06
492.745	80.06
492.963	87.06
493.18	85.06
493.398	96.06
493.615	101.06
493.833	100.06
494.05	90.06
494.268	104.06
494.485	86.06
494.703	93.06
494.92	85.06
495.138	101.06
495.355	95.06
495.573	91.06
495.79	92.06
496.008	92.06
496.225	89.06
496.442	81.06
496.66	88.06
496.877	98.06
497.094	83.06
497.312	92.06
497.529	106.06
497.746	94.06
497.963	88.06
498.181	92.06
498.398	101.06
498.615	99.06
498.832	98.06
499.049	94.06
499.267	86.06
499.484	90.06
499.701	83.06
499.918	73.06
500.135	77.06
500.352	83.06
500.569	90.06
500.786	71.06
501.003	92.06
501.22	96.06
501.437	96.06
501.654	81.06
501.871	107.06
502.088	93.06
502.305	73.06
502.522	82.06
502.739	104.06
502.956	103.06
503.172	106.06
503.389	109.06
503.606	109.06
503.823	94.06
504.04	88.06
504.256	88.06
504.473	100.06
504.69	95.06
504.907	97.06
505.123	94.06
505.34	80.06
505.557	85.06
505.773	92.06
505.99	85.06
506.207	95.06
506.423	101.06
506.64	85.06
506.856	81.06
507.073	78.06
507.289	94.06
507.506	81.06
507.722	98.06
507.939	96.06
508.155	99.06
508.372	91.06
508.588	97.06
508.805	96.06
509.021	76.06
509.238	92.06
509.454	90.06
509.67	96.06
509.887	96.06
510.103	108.06
510.319	198.06
510.536	614.06
510.752	1821.06
510.968	517.06
511.184	145.06
511.401	105.06
511.617	95.06
511.833	113.06
512.049	84.06
512.265	96.06
512.481	83.06
512.698	92.06
512.914	98.06
513.13	84.06
513.346	87.06
513.562	88.06
513.778	95.06
513.994	91.06
514.21	98.06
514.426	98.06
514.642	129.06
514.858	118.06
515.074	136.06
