Data from Circ_1985_H10_HRD10591_00051.txt Node
Date: Wed Jan 03 12:19:32 EST 2024
User: Yrep
Spectrometer: HR+D1059
Trigger mode: 1
Integration Time (sec): 1.000000E-1
Scans to average: 1
Electric dark correction enabled: true
Nonlinearity correction enabled: false
Boxcar width: 0
XAxis mode: Wavelengths
Number of Pixels in Spectrum: 2048
>>>>>Begin Spectral Data<<<<<
223.165	-10.88
223.4	-10.88
223.635	-10.88
223.869	-33.88
224.104	-27.88
224.338	-8.88
224.573	-11.88
224.808	-9.88
225.042	-12.88
225.277	-11.88
225.511	-12.88
225.746	18.12
225.98	16.12
226.215	9.12
226.449	7.12
226.683	12.12
226.918	35.12
227.152	43.12
227.387	45.12
227.621	46.12
227.856	39.12
228.09	53.12
228.324	58.12
228.559	58.12
228.793	59.12
229.027	66.12
229.262	61.12
229.496	56.12
229.73	67.12
229.964	73.12
230.199	81.12
230.433	80.12
230.667	73.12
230.901	79.12
231.136	56.12
231.37	75.12
231.604	85.12
231.838	92.12
232.072	94.12
232.306	68.12
232.541	79.12
232.775	93.12
233.009	76.12
233.243	92.12
233.477	81.12
233.711	68.12
233.945	86.12
234.179	81.12
234.413	90.12
234.647	71.12
234.881	76.12
235.115	81.12
235.349	71.12
235.583	69.12
235.817	87.12
236.051	89.12
236.285	85.12
236.519	73.12
236.753	80.12
236.987	71.12
237.221	81.12
237.455	79.12
237.689	70.12
237.922	58.12
238.156	83.12
238.39	84.12
238.624	83.12
238.858	72.12
239.091	96.12
239.325	76.12
239.559	83.12
239.793	79.12
240.027	88.12
240.26	74.12
240.494	85.12
240.728	72.12
240.961	68.12
241.195	74.12
241.429	68.12
241.662	71.12
241.896	80.12
242.13	84.12
242.363	82.12
242.597	78.12
242.83	75.12
243.064	71.12
243.298	75.12
243.531	68.12
243.765	87.12
243.998	89.12
244.232	83.12
244.465	94.12
244.699	79.12
244.932	93.12
245.166	87.12
245.399	90.12
245.633	76.12
245.866	65.12
246.099	89.12
246.333	75.12
246.566	59.12
246.8	79.12
247.033	92.12
247.266	71.12
247.5	100.12
247.733	93.12
247.966	83.12
248.2	85.12
248.433	84.12
248.666	93.12
248.899	76.12
249.133	79.12
249.366	84.12
249.599	95.12
249.832	81.12
250.066	85.12
250.299	80.12
250.532	86.12
250.765	59.12
250.998	71.12
251.231	80.12
251.465	75.12
251.698	77.12
251.931	77.12
252.164	75.12
252.397	81.12
252.63	78.12
252.863	79.12
253.096	81.12
253.329	87.12
253.562	74.12
253.795	76.12
254.028	76.12
254.261	97.12
254.494	73.12
254.727	69.12
254.96	81.12
255.193	74.12
255.426	88.12
255.659	83.12
255.892	75.12
256.124	82.12
256.357	91.12
256.59	64.12
256.823	67.12
257.056	89.12
257.289	87.12
257.521	81.12
257.754	80.12
257.987	75.12
258.22	82.12
258.452	87.12
258.685	92.12
258.918	88.12
259.151	80.12
259.383	69.12
259.616	85.12
259.849	84.12
260.081	83.12
260.314	93.12
260.547	92.12
260.779	90.12
261.012	85.12
261.244	84.12
261.477	86.12
261.71	87.12
261.942	97.12
262.175	109.12
262.407	89.12
262.64	92.12
262.872	98.12
263.105	83.12
263.337	87.12
263.57	69.12
263.802	86.12
264.035	81.12
264.267	83.12
264.499	70.12
264.732	70.12
264.964	91.12
265.197	83.12
265.429	92.12
265.661	96.12
265.894	75.12
266.126	95.12
266.358	85.12
266.591	87.12
266.823	87.12
267.055	88.12
267.287	89.12
267.52	102.12
267.752	87.12
267.984	89.12
268.216	72.12
268.448	84.12
268.681	85.12
268.913	85.12
269.145	92.12
269.377	97.12
269.609	79.12
269.841	85.12
270.073	77.12
270.306	80.12
270.538	93.12
270.77	79.12
271.002	74.12
271.234	79.12
271.466	93.12
271.698	76.12
271.93	71.12
272.162	89.12
272.394	79.12
272.626	83.12
272.858	90.12
273.09	86.12
273.322	89.12
273.553	99.12
273.785	84.12
274.017	83.12
274.249	83.12
274.481	77.12
274.713	96.12
274.945	79.12
275.176	90.12
275.408	96.12
275.64	91.12
275.872	87.12
276.104	81.12
276.335	93.12
276.567	90.12
276.799	101.12
277.031	102.12
277.262	98.12
277.494	91.12
277.726	85.12
277.957	82.12
278.189	86.12
278.421	76.12
278.652	100.12
278.884	94.12
279.115	84.12
279.347	82.12
279.579	91.12
279.81	84.12
280.042	100.12
280.273	82.12
280.505	96.12
280.736	88.12
280.968	92.12
281.199	93.12
281.431	80.12
281.662	97.12
281.894	86.12
282.125	105.12
282.356	109.12
282.588	139.12
282.819	114.12
283.051	85.12
283.282	91.12
283.513	98.12
283.745	83.12
283.976	101.12
284.207	87.12
284.439	75.12
284.67	82.12
284.901	88.12
285.132	99.12
285.364	79.12
285.595	97.12
285.826	83.12
286.057	87.12
286.288	102.12
286.52	87.12
286.751	88.12
286.982	84.12
287.213	80.12
287.444	79.12
287.675	83.12
287.906	92.12
288.138	100.12
288.369	85.12
288.6	86.12
288.831	84.12
289.062	87.12
289.293	83.12
289.524	94.12
289.755	85.12
289.986	91.12
290.217	110.12
290.448	83.12
290.679	88.12
290.91	96.12
291.141	95.12
291.371	83.12
291.602	88.12
291.833	96.12
292.064	87.12
292.295	79.12
292.526	81.12
292.757	86.12
292.987	85.12
293.218	90.12
293.449	84.12
293.68	85.12
293.91	96.12
294.141	91.12
294.372	87.12
294.603	77.12
294.833	84.12
295.064	101.12
295.295	91.12
295.525	97.12
295.756	85.12
295.987	116.12
296.217	133.12
296.448	115.12
296.679	90.12
296.909	93.12
297.14	93.12
297.37	85.12
297.601	87.12
297.831	82.12
298.062	86.12
298.292	85.12
298.523	85.12
298.753	83.12
298.984	92.12
299.214	85.12
299.445	92.12
299.675	93.12
299.905	90.12
300.136	101.12
300.366	84.12
300.597	95.12
300.827	80.12
301.057	100.12
301.288	93.12
301.518	93.12
301.748	96.12
301.979	95.12
302.209	83.12
302.439	83.12
302.669	97.12
302.9	81.12
303.13	89.12
303.36	92.12
303.59	108.12
303.82	114.12
304.051	86.12
304.281	91.12
304.511	88.12
304.741	84.12
304.971	90.12
305.201	102.12
305.431	94.12
305.661	102.12
305.891	85.12
306.121	100.12
306.352	87.12
306.582	95.12
306.812	99.12
307.042	101.12
307.272	97.12
307.502	92.12
307.731	97.12
307.961	98.12
308.191	86.12
308.421	93.12
308.651	97.12
308.881	86.12
309.111	91.12
309.341	82.12
309.571	94.12
309.8	97.12
310.03	100.12
310.26	104.12
310.49	83.12
310.72	84.12
310.949	103.12
311.179	103.12
311.409	102.12
311.639	88.12
311.868	96.12
312.098	89.12
312.328	97.12
312.557	95.12
312.787	99.12
313.017	104.12
313.246	92.12
313.476	88.12
313.706	85.12
313.935	90.12
314.165	101.12
314.394	78.12
314.624	97.12
314.853	111.12
315.083	101.12
315.312	100.12
315.542	101.12
315.771	91.12
316.001	90.12
316.23	87.12
316.46	82.12
316.689	95.12
316.919	100.12
317.148	102.12
317.377	101.12
317.607	106.12
317.836	92.12
318.065	90.12
318.295	79.12
318.524	81.12
318.753	83.12
318.983	104.12
319.212	103.12
319.441	85.12
319.67	101.12
319.9	105.12
320.129	88.12
320.358	103.12
320.587	97.12
320.816	110.12
321.046	100.12
321.275	109.12
321.504	97.12
321.733	98.12
321.962	106.12
322.191	91.12
322.42	105.12
322.649	107.12
322.878	114.12
323.108	105.12
323.337	119.12
323.566	131.12
323.795	144.12
324.024	200.12
324.253	358.12
324.482	763.12
324.71	1553.12
324.939	2079.12
325.168	769.12
325.397	224.12
325.626	139.12
325.855	132.12
326.084	125.12
326.313	129.12
326.542	139.12
326.77	219.12
326.999	422.12
327.228	875.12
327.457	1624.12
327.686	1271.12
327.914	337.12
328.143	201.12
328.372	130.12
328.6	119.12
328.829	101.12
329.058	113.12
329.287	115.12
329.515	117.12
329.744	114.12
329.972	109.12
330.201	140.12
330.43	128.12
330.658	116.12
330.887	135.12
331.115	117.12
331.344	86.12
331.572	115.12
331.801	106.12
332.03	103.12
332.258	105.12
332.486	101.12
332.715	94.12
332.943	98.12
333.172	93.12
333.4	90.12
333.629	104.12
333.857	111.12
334.085	127.12
334.314	114.12
334.542	122.12
334.771	128.12
334.999	109.12
335.227	90.12
335.455	105.12
335.684	103.12
335.912	105.12
336.14	127.12
336.369	95.12
336.597	97.12
336.825	90.12
337.053	89.12
337.281	89.12
337.51	92.12
337.738	95.12
337.966	97.12
338.194	112.12
338.422	98.12
338.65	99.12
338.878	66.12
339.106	85.12
339.334	99.12
339.562	85.12
339.79	90.12
340.018	105.12
340.246	76.12
340.474	77.12
340.702	91.12
340.93	77.12
341.158	92.12
341.386	104.12
341.614	89.12
341.842	81.12
342.07	75.12
342.298	91.12
342.526	83.12
342.754	109.12
342.981	84.12
343.209	89.12
343.437	111.12
343.665	97.12
343.893	88.12
344.12	94.12
344.348	99.12
344.576	91.12
344.804	99.12
345.031	89.12
345.259	92.12
345.487	92.12
345.714	106.12
345.942	99.12
346.17	102.12
346.397	90.12
346.625	82.12
346.853	97.12
347.08	87.12
347.308	82.12
347.535	104.12
347.763	93.12
347.99	103.12
348.218	116.12
348.445	112.12
348.673	100.12
348.9	87.12
349.128	105.12
349.355	104.12
349.583	97.12
349.81	101.12
350.037	100.12
350.265	103.12
350.492	92.12
350.72	99.12
350.947	106.12
351.174	116.12
351.402	105.12
351.629	113.12
351.856	102.12
352.083	96.12
352.311	107.12
352.538	105.12
352.765	92.12
352.992	102.12
353.22	105.12
353.447	94.12
353.674	104.12
353.901	104.12
354.128	88.12
354.355	110.12
354.583	92.12
354.81	93.12
355.037	92.12
355.264	80.12
355.491	89.12
355.718	97.12
355.945	97.12
356.172	89.12
356.399	92.12
356.626	104.12
356.853	88.12
357.08	80.12
357.307	73.12
357.534	85.12
357.761	95.12
357.988	100.12
358.215	104.12
358.441	104.12
358.668	97.12
358.895	102.12
359.122	97.12
359.349	91.12
359.576	85.12
359.802	106.12
360.029	114.12
360.256	102.12
360.483	105.12
360.709	71.12
360.936	84.12
361.163	75.12
361.39	102.12
361.616	103.12
361.843	97.12
362.07	94.12
362.296	99.12
362.523	98.12
362.749	101.12
362.976	71.12
363.203	87.12
363.429	82.12
363.656	88.12
363.882	99.12
364.109	90.12
364.335	75.12
364.562	83.12
364.788	89.12
365.015	92.12
365.241	104.12
365.468	111.12
365.694	104.12
365.92	100.12
366.147	93.12
366.373	93.12
366.599	95.12
366.826	89.12
367.052	84.12
367.278	95.12
367.505	81.12
367.731	94.12
367.957	72.12
368.184	90.12
368.41	89.12
368.636	94.12
368.862	119.12
369.089	101.12
369.315	106.12
369.541	82.12
369.767	91.12
369.993	91.12
370.219	105.12
370.445	80.12
370.672	74.12
370.898	89.12
371.124	85.12
371.35	97.12
371.576	92.12
371.802	94.12
372.028	97.12
372.254	91.12
372.48	95.12
372.706	86.12
372.932	95.12
373.158	91.12
373.384	83.12
373.61	93.12
373.835	100.12
374.061	92.12
374.287	82.12
374.513	88.12
374.739	106.12
374.965	94.12
375.191	96.12
375.416	80.12
375.642	101.12
375.868	88.12
376.094	102.12
376.319	82.12
376.545	92.12
376.771	90.12
376.997	80.12
377.222	98.12
377.448	95.12
377.674	79.12
377.899	90.12
378.125	93.12
378.35	84.12
378.576	101.12
378.802	90.12
379.027	89.12
379.253	82.12
379.478	88.12
379.704	95.12
379.929	103.12
380.155	88.12
380.38	97.12
380.606	97.12
380.831	116.12
381.057	99.12
381.282	88.12
381.507	79.12
381.733	90.12
381.958	95.12
382.184	98.12
382.409	112.12
382.634	99.12
382.86	84.12
383.085	100.12
383.31	96.12
383.535	102.12
383.761	105.12
383.986	92.12
384.211	101.12
384.436	90.12
384.662	112.12
384.887	95.12
385.112	117.12
385.337	113.12
385.562	102.12
385.787	117.12
386.013	109.12
386.238	107.12
386.463	87.12
386.688	130.12
386.913	97.12
387.138	96.12
387.363	92.12
387.588	105.12
387.813	112.12
388.038	113.12
388.263	118.12
388.488	120.12
388.713	94.12
388.938	98.12
389.163	85.12
389.387	98.12
389.612	86.12
389.837	88.12
390.062	96.12
390.287	91.12
390.512	91.12
390.736	101.12
390.961	88.12
391.186	92.12
391.411	106.12
391.636	79.12
391.86	94.12
392.085	106.12
392.31	89.12
392.534	84.12
392.759	86.12
392.984	80.12
393.208	99.12
393.433	94.12
393.658	99.12
393.882	81.12
394.107	81.12
394.331	92.12
394.556	87.12
394.78	96.12
395.005	85.12
395.229	81.12
395.454	96.12
395.678	94.12
395.903	86.12
396.127	102.12
396.352	84.12
396.576	73.12
396.801	92.12
397.025	99.12
397.249	107.12
397.474	104.12
397.698	79.12
397.922	83.12
398.147	91.12
398.371	88.12
398.595	85.12
398.82	98.12
399.044	94.12
399.268	94.12
399.492	78.12
399.717	92.12
399.941	91.12
400.165	79.12
400.389	91.12
400.613	80.12
400.837	76.12
401.062	97.12
401.286	81.12
401.51	90.12
401.734	79.12
401.958	91.12
402.182	106.12
402.406	150.12
402.63	109.12
402.854	115.12
403.078	95.12
403.302	88.12
403.526	91.12
403.75	82.12
403.974	67.12
404.198	79.12
404.422	74.12
404.645	93.12
404.869	84.12
405.093	97.12
405.317	97.12
405.541	85.12
405.765	93.12
405.988	109.12
406.212	154.12
406.436	201.12
406.66	111.12
406.883	114.12
407.107	113.12
407.331	90.12
407.555	85.12
407.778	89.12
408.002	89.12
408.226	99.12
408.449	98.12
408.673	96.12
408.896	85.12
409.12	80.12
409.344	88.12
409.567	95.12
409.791	97.12
410.014	92.12
410.238	100.12
410.461	95.12
410.685	88.12
410.908	91.12
411.132	104.12
411.355	70.12
411.578	85.12
411.802	83.12
412.025	89.12
412.249	85.12
412.472	98.12
412.695	102.12
412.919	87.12
413.142	101.12
413.365	88.12
413.589	84.12
413.812	95.12
414.035	91.12
414.258	87.12
414.482	91.12
414.705	97.12
414.928	102.12
415.151	91.12
415.374	98.12
415.597	92.12
415.821	89.12
416.044	84.12
416.267	92.12
416.49	89.12
416.713	96.12
416.936	87.12
417.159	103.12
417.382	95.12
417.605	76.12
417.828	87.12
418.051	91.12
418.274	91.12
418.497	96.12
418.72	83.12
418.943	79.12
419.166	87.12
419.389	85.12
419.611	95.12
419.834	81.12
420.057	88.12
420.28	87.12
420.503	87.12
420.726	85.12
420.948	81.12
421.171	95.12
421.394	105.12
421.617	96.12
421.839	93.12
422.062	92.12
422.285	82.12
422.507	97.12
422.73	87.12
422.953	96.12
423.175	91.12
423.398	113.12
423.621	81.12
423.843	83.12
424.066	91.12
424.288	70.12
424.511	95.12
424.733	85.12
424.956	90.12
425.178	96.12
425.401	83.12
425.623	100.12
425.846	91.12
426.068	96.12
426.291	74.12
426.513	89.12
426.735	92.12
426.958	87.12
427.18	104.12
427.402	118.12
427.625	153.12
427.847	121.12
428.069	100.12
428.292	88.12
428.514	102.12
428.736	80.12
428.958	82.12
429.181	82.12
429.403	92.12
429.625	113.12
429.847	99.12
430.069	88.12
430.292	91.12
430.514	108.12
430.736	83.12
430.958	77.12
431.18	73.12
431.402	80.12
431.624	79.12
431.846	95.12
432.068	92.12
432.29	83.12
432.512	82.12
432.734	88.12
432.956	101.12
433.178	107.12
433.4	103.12
433.622	105.12
433.844	82.12
434.066	91.12
434.287	83.12
434.509	76.12
434.731	97.12
434.953	84.12
435.175	97.12
435.397	85.12
435.618	100.12
435.84	100.12
436.062	124.12
436.284	99.12
436.505	99.12
436.727	99.12
436.949	92.12
437.17	82.12
437.392	94.12
437.614	92.12
437.835	110.12
438.057	92.12
438.278	101.12
438.5	101.12
438.721	112.12
438.943	109.12
439.165	87.12
439.386	92.12
439.608	84.12
439.829	104.12
440.05	112.12
440.272	128.12
440.493	98.12
440.715	87.12
440.936	83.12
441.158	85.12
441.379	92.12
441.6	92.12
441.822	92.12
442.043	101.12
442.264	103.12
442.486	88.12
442.707	93.12
442.928	98.12
443.149	113.12
443.371	116.12
443.592	93.12
443.813	86.12
444.034	104.12
444.255	95.12
444.476	88.12
444.698	92.12
444.919	83.12
445.14	136.12
445.361	118.12
445.582	100.12
445.803	106.12
446.024	127.12
446.245	117.12
446.466	105.12
446.687	97.12
446.908	104.12
447.129	83.12
447.35	97.12
447.571	98.12
447.792	102.12
448.013	88.12
448.234	103.12
448.455	101.12
448.675	115.12
448.896	111.12
449.117	92.12
449.338	83.12
449.559	120.12
449.779	103.12
450	99.12
450.221	91.12
450.442	96.12
450.662	87.12
450.883	97.12
451.104	109.12
451.324	98.12
451.545	96.12
451.766	75.12
451.986	87.12
452.207	85.12
452.428	89.12
452.648	96.12
452.869	106.12
453.089	99.12
453.31	106.12
453.53	85.12
453.751	81.12
453.971	88.12
454.192	101.12
454.412	92.12
454.633	81.12
454.853	87.12
455.073	80.12
455.294	86.12
455.514	92.12
455.734	95.12
455.955	83.12
456.175	94.12
456.395	88.12
456.616	99.12
456.836	83.12
457.056	83.12
457.276	73.12
457.497	89.12
457.717	73.12
457.937	81.12
458.157	95.12
458.377	86.12
458.598	98.12
458.818	140.12
459.038	131.12
459.258	105.12
459.478	93.12
459.698	70.12
459.918	104.12
460.138	94.12
460.358	95.12
460.578	84.12
460.798	98.12
461.018	80.12
461.238	92.12
461.458	80.12
461.678	83.12
461.898	85.12
462.118	100.12
462.338	93.12
462.558	81.12
462.777	90.12
462.997	89.12
463.217	102.12
463.437	95.12
463.657	86.12
463.876	75.12
464.096	82.12
464.316	103.12
464.536	85.12
464.755	97.12
464.975	106.12
465.195	129.12
465.414	137.12
465.634	92.12
465.854	87.12
466.073	83.12
466.293	103.12
466.512	94.12
466.732	89.12
466.951	101.12
467.171	81.12
467.391	99.12
467.61	107.12
467.829	97.12
468.049	102.12
468.268	97.12
468.488	93.12
468.707	100.12
468.927	82.12
469.146	81.12
469.365	83.12
469.585	82.12
469.804	92.12
470.023	88.12
470.243	86.12
470.462	89.12
470.681	111.12
470.901	92.12
471.12	84.12
471.339	103.12
471.558	95.12
471.777	74.12
471.997	85.12
472.216	107.12
472.435	141.12
472.654	106.12
472.873	78.12
473.092	81.12
473.311	93.12
473.53	75.12
473.749	87.12
473.968	92.12
474.187	106.12
474.406	93.12
474.625	79.12
474.844	88.12
475.063	92.12
475.282	100.12
475.501	83.12
475.72	98.12
475.939	86.12
476.158	92.12
476.377	97.12
476.596	90.12
476.814	98.12
477.033	92.12
477.252	98.12
477.471	93.12
477.69	84.12
477.908	83.12
478.127	101.12
478.346	77.12
478.564	100.12
478.783	92.12
479.002	96.12
479.22	90.12
479.439	101.12
479.658	100.12
479.876	97.12
480.095	91.12
480.313	96.12
480.532	85.12
480.751	92.12
480.969	106.12
481.188	167.12
481.406	154.12
481.624	95.12
481.843	95.12
482.061	96.12
482.28	101.12
482.498	86.12
482.717	89.12
482.935	91.12
483.153	81.12
483.372	91.12
483.59	82.12
483.808	87.12
484.027	94.12
484.245	102.12
484.463	94.12
484.681	96.12
484.9	85.12
485.118	103.12
485.336	95.12
485.554	103.12
485.772	102.12
485.99	103.12
486.209	105.12
486.427	107.12
486.645	101.12
486.863	107.12
487.081	92.12
487.299	105.12
487.517	101.12
487.735	98.12
487.953	98.12
488.171	92.12
488.389	93.12
488.607	93.12
488.825	91.12
489.043	85.12
489.261	88.12
489.479	103.12
489.696	100.12
489.914	72.12
490.132	83.12
490.35	86.12
490.568	92.12
490.786	93.12
491.003	103.12
491.221	102.12
491.439	96.12
491.657	90.12
491.874	98.12
492.092	93.12
492.31	93.12
492.527	103.12
492.745	84.12
492.963	87.12
493.18	108.12
493.398	93.12
493.615	97.12
493.833	94.12
494.05	105.12
494.268	82.12
494.485	101.12
494.703	86.12
494.92	79.12
495.138	95.12
495.355	96.12
495.573	87.12
495.79	87.12
496.008	97.12
496.225	76.12
496.442	85.12
496.66	83.12
496.877	84.12
497.094	103.12
497.312	92.12
497.529	101.12
497.746	87.12
497.963	81.12
498.181	85.12
498.398	102.12
498.615	117.12
498.832	101.12
499.049	92.12
499.267	94.12
499.484	93.12
499.701	77.12
499.918	86.12
500.135	81.12
500.352	75.12
500.569	82.12
500.786	86.12
501.003	94.12
501.22	79.12
501.437	99.12
501.654	91.12
501.871	97.12
502.088	93.12
502.305	87.12
502.522	96.12
502.739	74.12
502.956	90.12
503.172	97.12
503.389	89.12
503.606	92.12
503.823	85.12
504.04	91.12
504.256	80.12
504.473	87.12
504.69	91.12
504.907	80.12
505.123	91.12
505.34	90.12
505.557	83.12
505.773	91.12
505.99	83.12
506.207	91.12
506.423	88.12
506.64	87.12
506.856	93.12
507.073	85.12
507.289	100.12
507.506	86.12
507.722	104.12
507.939	104.12
508.155	97.12
508.372	86.12
508.588	100.12
508.805	99.12
509.021	103.12
509.238	93.12
509.454	91.12
509.67	81.12
509.887	109.12
510.103	125.12
510.319	186.12
510.536	678.12
510.752	2084.12
510.968	577.12
511.184	149.12
511.401	109.12
511.617	107.12
511.833	90.12
512.049	96.12
512.265	95.12
512.481	94.12
512.698	97.12
512.914	87.12
513.13	91.12
513.346	90.12
513.562	95.12
513.778	108.12
513.994	93.12
514.21	104.12
514.426	102.12
514.642	126.12
514.858	117.12
515.074	157.12
515.29	381.12
