Data from Circ_1985_H10_HRD10591_00014.txt Node
Date: Wed Jan 03 12:19:25 EST 2024
User: Yrep
Spectrometer: HR+D1059
Trigger mode: 1
Integration Time (sec): 1.000000E-1
Scans to average: 1
Electric dark correction enabled: true
Nonlinearity correction enabled: false
Boxcar width: 0
XAxis mode: Wavelengths
Number of Pixels in Spectrum: 2048
>>>>>Begin Spectral Data<<<<<
223.165	-17.88
223.4	-17.88
223.635	-17.88
223.869	-11.88
224.104	-9.88
224.338	-10.88
224.573	-11.88
224.808	-22.88
225.042	-11.88
225.277	1.12
225.511	-12.88
225.746	-1.88
225.98	1.12
226.215	11.12
226.449	19.12
226.683	26.12
226.918	21.12
227.152	32.12
227.387	42.12
227.621	42.12
227.856	54.12
228.09	54.12
228.324	60.12
228.559	52.12
228.793	53.12
229.027	56.12
229.262	76.12
229.496	65.12
229.73	85.12
229.964	80.12
230.199	68.12
230.433	85.12
230.667	81.12
230.901	82.12
231.136	84.12
231.37	73.12
231.604	57.12
231.838	69.12
232.072	86.12
232.306	76.12
232.541	84.12
232.775	96.12
233.009	82.12
233.243	80.12
233.477	74.12
233.711	80.12
233.945	79.12
234.179	65.12
234.413	64.12
234.647	80.12
234.881	86.12
235.115	80.12
235.349	88.12
235.583	77.12
235.817	80.12
236.051	80.12
236.285	86.12
236.519	89.12
236.753	62.12
236.987	82.12
237.221	78.12
237.455	82.12
237.689	76.12
237.922	71.12
238.156	71.12
238.39	83.12
238.624	80.12
238.858	80.12
239.091	70.12
239.325	80.12
239.559	85.12
239.793	69.12
240.027	78.12
240.26	79.12
240.494	99.12
240.728	76.12
240.961	76.12
241.195	75.12
241.429	74.12
241.662	73.12
241.896	73.12
242.13	67.12
242.363	80.12
242.597	69.12
242.83	71.12
243.064	77.12
243.298	85.12
243.531	85.12
243.765	71.12
243.998	74.12
244.232	75.12
244.465	82.12
244.699	82.12
244.932	76.12
245.166	92.12
245.399	89.12
245.633	83.12
245.866	76.12
246.099	76.12
246.333	70.12
246.566	85.12
246.8	84.12
247.033	80.12
247.266	73.12
247.5	88.12
247.733	70.12
247.966	78.12
248.2	72.12
248.433	72.12
248.666	67.12
248.899	96.12
249.133	98.12
249.366	110.12
249.599	98.12
249.832	78.12
250.066	76.12
250.299	80.12
250.532	88.12
250.765	80.12
250.998	68.12
251.231	97.12
251.465	70.12
251.698	88.12
251.931	90.12
252.164	76.12
252.397	84.12
252.63	84.12
252.863	86.12
253.096	105.12
253.329	83.12
253.562	85.12
253.795	85.12
254.028	78.12
254.261	86.12
254.494	94.12
254.727	84.12
254.96	78.12
255.193	63.12
255.426	97.12
255.659	75.12
255.892	84.12
256.124	77.12
256.357	73.12
256.59	84.12
256.823	68.12
257.056	77.12
257.289	77.12
257.521	86.12
257.754	75.12
257.987	77.12
258.22	85.12
258.452	88.12
258.685	59.12
258.918	78.12
259.151	92.12
259.383	92.12
259.616	85.12
259.849	62.12
260.081	80.12
260.314	81.12
260.547	82.12
260.779	85.12
261.012	87.12
261.244	97.12
261.477	74.12
261.71	94.12
261.942	98.12
262.175	102.12
262.407	90.12
262.64	71.12
262.872	83.12
263.105	82.12
263.337	98.12
263.57	81.12
263.802	83.12
264.035	95.12
264.267	93.12
264.499	77.12
264.732	77.12
264.964	93.12
265.197	83.12
265.429	89.12
265.661	82.12
265.894	74.12
266.126	86.12
266.358	100.12
266.591	83.12
266.823	85.12
267.055	94.12
267.287	84.12
267.52	85.12
267.752	66.12
267.984	77.12
268.216	76.12
268.448	80.12
268.681	76.12
268.913	95.12
269.145	87.12
269.377	88.12
269.609	86.12
269.841	92.12
270.073	81.12
270.306	88.12
270.538	77.12
270.77	91.12
271.002	99.12
271.234	76.12
271.466	86.12
271.698	86.12
271.93	91.12
272.162	97.12
272.394	80.12
272.626	74.12
272.858	82.12
273.09	82.12
273.322	77.12
273.553	76.12
273.785	87.12
274.017	93.12
274.249	90.12
274.481	77.12
274.713	91.12
274.945	95.12
275.176	90.12
275.408	99.12
275.64	81.12
275.872	86.12
276.104	87.12
276.335	91.12
276.567	92.12
276.799	100.12
277.031	99.12
277.262	94.12
277.494	88.12
277.726	93.12
277.957	86.12
278.189	79.12
278.421	72.12
278.652	76.12
278.884	89.12
279.115	88.12
279.347	98.12
279.579	95.12
279.81	81.12
280.042	97.12
280.273	84.12
280.505	80.12
280.736	83.12
280.968	80.12
281.199	99.12
281.431	83.12
281.662	97.12
281.894	94.12
282.125	93.12
282.356	109.12
282.588	115.12
282.819	84.12
283.051	77.12
283.282	80.12
283.513	99.12
283.745	99.12
283.976	91.12
284.207	84.12
284.439	82.12
284.67	79.12
284.901	89.12
285.132	96.12
285.364	86.12
285.595	74.12
285.826	83.12
286.057	87.12
286.288	90.12
286.52	99.12
286.751	88.12
286.982	84.12
287.213	92.12
287.444	91.12
287.675	86.12
287.906	87.12
288.138	99.12
288.369	93.12
288.6	93.12
288.831	81.12
289.062	87.12
289.293	74.12
289.524	99.12
289.755	80.12
289.986	92.12
290.217	91.12
290.448	96.12
290.679	92.12
290.91	87.12
291.141	92.12
291.371	82.12
291.602	87.12
291.833	96.12
292.064	84.12
292.295	85.12
292.526	94.12
292.757	81.12
292.987	78.12
293.218	94.12
293.449	101.12
293.68	93.12
293.91	89.12
294.141	91.12
294.372	105.12
294.603	96.12
294.833	80.12
295.064	82.12
295.295	92.12
295.525	94.12
295.756	75.12
295.987	112.12
296.217	134.12
296.448	112.12
296.679	88.12
296.909	84.12
297.14	87.12
297.37	86.12
297.601	94.12
297.831	84.12
298.062	85.12
298.292	77.12
298.523	89.12
298.753	88.12
298.984	91.12
299.214	89.12
299.445	98.12
299.675	86.12
299.905	95.12
300.136	104.12
300.366	85.12
300.597	88.12
300.827	97.12
301.057	77.12
301.288	99.12
301.518	96.12
301.748	95.12
301.979	115.12
302.209	81.12
302.439	83.12
302.669	75.12
302.9	84.12
303.13	101.12
303.36	110.12
303.59	94.12
303.82	102.12
304.051	97.12
304.281	106.12
304.511	97.12
304.741	88.12
304.971	98.12
305.201	90.12
305.431	94.12
305.661	88.12
305.891	84.12
306.121	99.12
306.352	88.12
306.582	102.12
306.812	94.12
307.042	93.12
307.272	84.12
307.502	86.12
307.731	113.12
307.961	93.12
308.191	96.12
308.421	94.12
308.651	85.12
308.881	93.12
309.111	91.12
309.341	99.12
309.571	89.12
309.8	90.12
310.03	82.12
310.26	90.12
310.49	99.12
310.72	98.12
310.949	104.12
311.179	110.12
311.409	96.12
311.639	104.12
311.868	92.12
312.098	109.12
312.328	90.12
312.557	91.12
312.787	107.12
313.017	91.12
313.246	98.12
313.476	78.12
313.706	85.12
313.935	94.12
314.165	102.12
314.394	108.12
314.624	88.12
314.853	108.12
315.083	89.12
315.312	94.12
315.542	90.12
315.771	107.12
316.001	76.12
316.23	101.12
316.46	95.12
316.689	93.12
316.919	93.12
317.148	96.12
317.377	90.12
317.607	80.12
317.836	84.12
318.065	88.12
318.295	81.12
318.524	86.12
318.753	97.12
318.983	76.12
319.212	95.12
319.441	100.12
319.67	97.12
319.9	95.12
320.129	92.12
320.358	93.12
320.587	77.12
320.816	90.12
321.046	102.12
321.275	99.12
321.504	98.12
321.733	91.12
321.962	104.12
322.191	93.12
322.42	107.12
322.649	105.12
322.878	101.12
323.108	91.12
323.337	109.12
323.566	116.12
323.795	125.12
324.024	193.12
324.253	352.12
324.482	675.12
324.71	1458.12
324.939	1962.12
325.168	735.12
325.397	231.12
325.626	138.12
325.855	127.12
326.084	131.12
326.313	124.12
326.542	154.12
326.77	218.12
326.999	408.12
327.228	833.12
327.457	1529.12
327.686	1228.12
327.914	353.12
328.143	175.12
328.372	128.12
328.6	113.12
328.829	120.12
329.058	132.12
329.287	114.12
329.515	100.12
329.744	96.12
329.972	103.12
330.201	100.12
330.43	107.12
330.658	99.12
330.887	132.12
331.115	120.12
331.344	90.12
331.572	115.12
331.801	113.12
332.03	104.12
332.258	102.12
332.486	119.12
332.715	98.12
332.943	78.12
333.172	101.12
333.4	97.12
333.629	122.12
333.857	105.12
334.085	99.12
334.314	100.12
334.542	109.12
334.771	98.12
334.999	107.12
335.227	96.12
335.455	104.12
335.684	106.12
335.912	110.12
336.14	109.12
336.369	91.12
336.597	90.12
336.825	98.12
337.053	91.12
337.281	83.12
337.51	91.12
337.738	97.12
337.966	102.12
338.194	97.12
338.422	103.12
338.65	89.12
338.878	93.12
339.106	94.12
339.334	98.12
339.562	69.12
339.79	82.12
340.018	94.12
340.246	92.12
340.474	102.12
340.702	101.12
340.93	87.12
341.158	103.12
341.386	101.12
341.614	101.12
341.842	102.12
342.07	92.12
342.298	88.12
342.526	78.12
342.754	102.12
342.981	104.12
343.209	111.12
343.437	97.12
343.665	88.12
343.893	83.12
344.12	103.12
344.348	88.12
344.576	99.12
344.804	98.12
345.031	100.12
345.259	102.12
345.487	88.12
345.714	86.12
345.942	95.12
346.17	84.12
346.397	97.12
346.625	90.12
346.853	91.12
347.08	96.12
347.308	100.12
347.535	95.12
347.763	103.12
347.99	82.12
348.218	96.12
348.445	102.12
348.673	104.12
348.9	106.12
349.128	90.12
349.355	83.12
349.583	105.12
349.81	93.12
350.037	101.12
350.265	102.12
350.492	96.12
350.72	91.12
350.947	107.12
351.174	111.12
351.402	101.12
351.629	115.12
351.856	100.12
352.083	99.12
352.311	105.12
352.538	103.12
352.765	110.12
352.992	121.12
353.22	109.12
353.447	104.12
353.674	98.12
353.901	101.12
354.128	98.12
354.355	78.12
354.583	110.12
354.81	108.12
355.037	101.12
355.264	100.12
355.491	107.12
355.718	79.12
355.945	100.12
356.172	84.12
356.399	113.12
356.626	106.12
356.853	105.12
357.08	100.12
357.307	100.12
357.534	76.12
357.761	88.12
357.988	98.12
358.215	94.12
358.441	102.12
358.668	102.12
358.895	93.12
359.122	92.12
359.349	116.12
359.576	84.12
359.802	88.12
360.029	102.12
360.256	92.12
360.483	104.12
360.709	100.12
360.936	98.12
361.163	90.12
361.39	95.12
361.616	83.12
361.843	97.12
362.07	91.12
362.296	86.12
362.523	88.12
362.749	98.12
362.976	97.12
363.203	91.12
363.429	103.12
363.656	81.12
363.882	101.12
364.109	117.12
364.335	91.12
364.562	100.12
364.788	91.12
365.015	92.12
365.241	101.12
365.468	112.12
365.694	93.12
365.92	92.12
366.147	87.12
366.373	88.12
366.599	88.12
366.826	97.12
367.052	84.12
367.278	105.12
367.505	94.12
367.731	85.12
367.957	82.12
368.184	107.12
368.41	98.12
368.636	108.12
368.862	116.12
369.089	98.12
369.315	88.12
369.541	83.12
369.767	83.12
369.993	97.12
370.219	100.12
370.445	94.12
370.672	100.12
370.898	94.12
371.124	92.12
371.35	77.12
371.576	99.12
371.802	89.12
372.028	91.12
372.254	101.12
372.48	93.12
372.706	78.12
372.932	92.12
373.158	86.12
373.384	94.12
373.61	106.12
373.835	98.12
374.061	75.12
374.287	100.12
374.513	83.12
374.739	95.12
374.965	91.12
375.191	84.12
375.416	86.12
375.642	94.12
375.868	80.12
376.094	97.12
376.319	83.12
376.545	101.12
376.771	84.12
376.997	97.12
377.222	98.12
377.448	88.12
377.674	104.12
377.899	92.12
378.125	88.12
378.35	94.12
378.576	89.12
378.802	93.12
379.027	83.12
379.253	106.12
379.478	93.12
379.704	102.12
379.929	101.12
380.155	107.12
380.38	89.12
380.606	97.12
380.831	109.12
381.057	109.12
381.282	119.12
381.507	106.12
381.733	101.12
381.958	110.12
382.184	113.12
382.409	97.12
382.634	107.12
382.86	118.12
383.085	112.12
383.31	120.12
383.535	106.12
383.761	109.12
383.986	98.12
384.211	97.12
384.436	121.12
384.662	120.12
384.887	131.12
385.112	118.12
385.337	127.12
385.562	135.12
385.787	125.12
386.013	124.12
386.238	128.12
386.463	106.12
386.688	107.12
386.913	131.12
387.138	143.12
387.363	122.12
387.588	101.12
387.813	116.12
388.038	125.12
388.263	129.12
388.488	131.12
388.713	108.12
388.938	97.12
389.163	88.12
389.387	102.12
389.612	110.12
389.837	96.12
390.062	100.12
390.287	100.12
390.512	87.12
390.736	93.12
390.961	88.12
391.186	82.12
391.411	89.12
391.636	92.12
391.86	101.12
392.085	91.12
392.31	93.12
392.534	90.12
392.759	103.12
392.984	100.12
393.208	87.12
393.433	103.12
393.658	95.12
393.882	94.12
394.107	101.12
394.331	73.12
394.556	96.12
394.78	95.12
395.005	76.12
395.229	98.12
395.454	83.12
395.678	85.12
395.903	88.12
396.127	100.12
396.352	82.12
396.576	95.12
396.801	86.12
397.025	118.12
397.249	78.12
397.474	82.12
397.698	85.12
397.922	99.12
398.147	89.12
398.371	93.12
398.595	92.12
398.82	100.12
399.044	94.12
399.268	93.12
399.492	89.12
399.717	111.12
399.941	96.12
400.165	92.12
400.389	104.12
400.613	83.12
400.837	84.12
401.062	71.12
401.286	85.12
401.51	93.12
401.734	82.12
401.958	89.12
402.182	98.12
402.406	119.12
402.63	101.12
402.854	88.12
403.078	93.12
403.302	84.12
403.526	86.12
403.75	101.12
403.974	84.12
404.198	93.12
404.422	88.12
404.645	108.12
404.869	96.12
405.093	86.12
405.317	102.12
405.541	99.12
405.765	96.12
405.988	108.12
406.212	144.12
406.436	172.12
406.66	135.12
406.883	96.12
407.107	88.12
407.331	90.12
407.555	101.12
407.778	84.12
408.002	104.12
408.226	80.12
408.449	76.12
408.673	78.12
408.896	97.12
409.12	87.12
409.344	92.12
409.567	89.12
409.791	96.12
410.014	86.12
410.238	84.12
410.461	87.12
410.685	100.12
410.908	92.12
411.132	108.12
411.355	87.12
411.578	104.12
411.802	83.12
412.025	93.12
412.249	93.12
412.472	113.12
412.695	92.12
412.919	92.12
413.142	92.12
413.365	68.12
413.589	107.12
413.812	103.12
414.035	91.12
414.258	90.12
414.482	97.12
414.705	85.12
414.928	109.12
415.151	99.12
415.374	95.12
415.597	95.12
415.821	100.12
416.044	110.12
416.267	100.12
416.49	101.12
416.713	109.12
416.936	92.12
417.159	91.12
417.382	84.12
417.605	85.12
417.828	102.12
418.051	98.12
418.274	92.12
418.497	104.12
418.72	96.12
418.943	89.12
419.166	91.12
419.389	105.12
419.611	93.12
419.834	98.12
420.057	103.12
420.28	83.12
420.503	82.12
420.726	101.12
420.948	99.12
421.171	106.12
421.394	97.12
421.617	97.12
421.839	77.12
422.062	92.12
422.285	91.12
422.507	102.12
422.73	91.12
422.953	67.12
423.175	90.12
423.398	88.12
423.621	86.12
423.843	70.12
424.066	91.12
424.288	85.12
424.511	93.12
424.733	87.12
424.956	95.12
425.178	97.12
425.401	99.12
425.623	88.12
425.846	96.12
426.068	92.12
426.291	104.12
426.513	109.12
426.735	98.12
426.958	91.12
427.18	106.12
427.402	124.12
427.625	139.12
427.847	116.12
428.069	99.12
428.292	77.12
428.514	93.12
428.736	84.12
428.958	93.12
429.181	90.12
429.403	90.12
429.625	87.12
429.847	82.12
430.069	96.12
430.292	92.12
430.514	88.12
430.736	84.12
430.958	87.12
431.18	88.12
431.402	100.12
431.624	95.12
431.846	90.12
432.068	98.12
432.29	95.12
432.512	86.12
432.734	102.12
432.956	88.12
433.178	103.12
433.4	102.12
433.622	104.12
433.844	83.12
434.066	91.12
434.287	100.12
434.509	100.12
434.731	93.12
434.953	96.12
435.175	85.12
435.397	101.12
435.618	96.12
435.84	98.12
436.062	109.12
436.284	124.12
436.505	98.12
436.727	110.12
436.949	84.12
437.17	86.12
437.392	86.12
437.614	103.12
437.835	96.12
438.057	109.12
438.278	111.12
438.5	112.12
438.721	110.12
438.943	100.12
439.165	94.12
439.386	84.12
439.608	89.12
439.829	90.12
440.05	110.12
440.272	142.12
440.493	104.12
440.715	99.12
440.936	97.12
441.158	80.12
441.379	92.12
441.6	86.12
441.822	89.12
442.043	103.12
442.264	101.12
442.486	94.12
442.707	93.12
442.928	106.12
443.149	117.12
443.371	107.12
443.592	98.12
443.813	107.12
444.034	109.12
444.255	96.12
444.476	96.12
444.698	84.12
444.919	84.12
445.14	124.12
445.361	116.12
445.582	117.12
445.803	117.12
446.024	112.12
446.245	129.12
446.466	94.12
446.687	92.12
446.908	86.12
447.129	76.12
447.35	74.12
447.571	89.12
447.792	89.12
448.013	91.12
448.234	113.12
448.455	111.12
448.675	112.12
448.896	121.12
449.117	103.12
449.338	110.12
449.559	122.12
449.779	127.12
450	85.12
450.221	88.12
450.442	82.12
450.662	94.12
450.883	85.12
451.104	107.12
451.324	91.12
451.545	97.12
451.766	108.12
451.986	87.12
452.207	88.12
452.428	93.12
452.648	93.12
452.869	106.12
453.089	100.12
453.31	110.12
453.53	94.12
453.751	93.12
453.971	106.12
454.192	96.12
454.412	88.12
454.633	82.12
454.853	75.12
455.073	100.12
455.294	81.12
455.514	107.12
455.734	85.12
455.955	78.12
456.175	104.12
456.395	85.12
456.616	102.12
456.836	90.12
457.056	94.12
457.276	80.12
457.497	95.12
457.717	82.12
457.937	62.12
458.157	92.12
458.377	112.12
458.598	108.12
458.818	133.12
459.038	126.12
459.258	103.12
459.478	82.12
459.698	84.12
459.918	91.12
460.138	87.12
460.358	87.12
460.578	77.12
460.798	89.12
461.018	96.12
461.238	86.12
461.458	88.12
461.678	105.12
461.898	64.12
462.118	91.12
462.338	91.12
462.558	89.12
462.777	84.12
462.997	77.12
463.217	70.12
463.437	93.12
463.657	86.12
463.876	92.12
464.096	88.12
464.316	94.12
464.536	98.12
464.755	93.12
464.975	97.12
465.195	129.12
465.414	121.12
465.634	89.12
465.854	75.12
466.073	81.12
466.293	85.12
466.512	89.12
466.732	91.12
466.951	87.12
467.171	91.12
467.391	93.12
467.61	93.12
467.829	96.12
468.049	87.12
468.268	91.12
468.488	87.12
468.707	101.12
468.927	77.12
469.146	82.12
469.365	78.12
469.585	104.12
469.804	96.12
470.023	80.12
470.243	81.12
470.462	90.12
470.681	106.12
470.901	90.12
471.12	89.12
471.339	78.12
471.558	79.12
471.777	82.12
471.997	93.12
472.216	96.12
472.435	100.12
472.654	95.12
472.873	70.12
473.092	94.12
473.311	80.12
473.53	80.12
473.749	89.12
473.968	92.12
474.187	90.12
474.406	82.12
474.625	97.12
474.844	96.12
475.063	89.12
475.282	83.12
475.501	87.12
475.72	89.12
475.939	90.12
476.158	94.12
476.377	88.12
476.596	85.12
476.814	87.12
477.033	78.12
477.252	76.12
477.471	101.12
477.69	89.12
477.908	92.12
478.127	104.12
478.346	92.12
478.564	97.12
478.783	105.12
479.002	92.12
479.22	75.12
479.439	81.12
479.658	96.12
479.876	93.12
480.095	96.12
480.313	91.12
480.532	86.12
480.751	106.12
480.969	100.12
481.188	115.12
481.406	109.12
481.624	104.12
481.843	80.12
482.061	95.12
482.28	100.12
482.498	92.12
482.717	93.12
482.935	103.12
483.153	95.12
483.372	99.12
483.59	96.12
483.808	91.12
484.027	96.12
484.245	99.12
484.463	88.12
484.681	107.12
484.9	98.12
485.118	101.12
485.336	102.12
485.554	96.12
485.772	103.12
485.99	99.12
486.209	114.12
486.427	101.12
486.645	118.12
486.863	115.12
487.081	105.12
487.299	109.12
487.517	98.12
487.735	107.12
487.953	84.12
488.171	94.12
488.389	88.12
488.607	104.12
488.825	98.12
489.043	86.12
489.261	99.12
489.479	87.12
489.696	88.12
489.914	82.12
490.132	89.12
490.35	90.12
490.568	85.12
490.786	83.12
491.003	86.12
491.221	93.12
491.439	88.12
491.657	95.12
491.874	85.12
492.092	84.12
492.31	91.12
492.527	83.12
492.745	86.12
492.963	99.12
493.18	95.12
493.398	88.12
493.615	91.12
493.833	82.12
494.05	99.12
494.268	97.12
494.485	93.12
494.703	87.12
494.92	84.12
495.138	85.12
495.355	93.12
495.573	85.12
495.79	95.12
496.008	93.12
496.225	106.12
496.442	101.12
496.66	108.12
496.877	84.12
497.094	102.12
497.312	84.12
497.529	96.12
497.746	83.12
497.963	91.12
498.181	88.12
498.398	84.12
498.615	103.12
498.832	79.12
499.049	88.12
499.267	94.12
499.484	82.12
499.701	105.12
499.918	96.12
500.135	83.12
500.352	84.12
500.569	89.12
500.786	88.12
501.003	85.12
501.22	87.12
501.437	87.12
501.654	100.12
501.871	100.12
502.088	97.12
502.305	101.12
502.522	78.12
502.739	84.12
502.956	82.12
503.172	85.12
503.389	86.12
503.606	92.12
503.823	99.12
504.04	101.12
504.256	80.12
504.473	88.12
504.69	73.12
504.907	104.12
505.123	100.12
505.34	87.12
505.557	88.12
505.773	76.12
505.99	82.12
506.207	88.12
506.423	104.12
506.64	87.12
506.856	78.12
507.073	89.12
507.289	102.12
507.506	100.12
507.722	105.12
507.939	96.12
508.155	92.12
508.372	83.12
508.588	86.12
508.805	106.12
509.021	92.12
509.238	90.12
509.454	90.12
509.67	97.12
509.887	118.12
510.103	109.12
510.319	183.12
510.536	553.12
510.752	1611.12
510.968	470.12
511.184	138.12
511.401	106.12
511.617	103.12
511.833	112.12
512.049	84.12
512.265	106.12
512.481	101.12
512.698	92.12
512.914	97.12
513.13	98.12
513.346	93.12
513.562	101.12
513.778	80.12
513.994	75.12
514.21	98.12
514.426	101.12
514.642	123.12
514.858	122.12
