Data from Circ_1985_H10_HRD10591_00010.txt Node
Date: Wed Jan 03 12:19:24 EST 2024
User: Yrep
Spectrometer: HR+D1059
Trigger mode: 1
Integration Time (sec): 1.000000E-1
Scans to average: 1
Electric dark correction enabled: true
Nonlinearity correction enabled: false
Boxcar width: 0
XAxis mode: Wavelengths
Number of Pixels in Spectrum: 2048
>>>>>Begin Spectral Data<<<<<
223.165	-20.88
223.4	-20.88
223.635	-20.88
223.869	-15.88
224.104	-16.88
224.338	-13.88
224.573	-18.88
224.808	-14.88
225.042	-16.88
225.277	-4.88
225.511	-15.88
225.746	14.12
225.98	12.12
226.215	16.12
226.449	6.12
226.683	16.12
226.918	31.12
227.152	43.12
227.387	46.12
227.621	24.12
227.856	45.12
228.09	61.12
228.324	52.12
228.559	43.12
228.793	61.12
229.027	65.12
229.262	58.12
229.496	60.12
229.73	74.12
229.964	91.12
230.199	61.12
230.433	81.12
230.667	74.12
230.901	83.12
231.136	71.12
231.37	77.12
231.604	74.12
231.838	87.12
232.072	93.12
232.306	86.12
232.541	79.12
232.775	90.12
233.009	86.12
233.243	75.12
233.477	86.12
233.711	75.12
233.945	84.12
234.179	94.12
234.413	70.12
234.647	78.12
234.881	72.12
235.115	73.12
235.349	81.12
235.583	68.12
235.817	75.12
236.051	82.12
236.285	72.12
236.519	73.12
236.753	74.12
236.987	66.12
237.221	73.12
237.455	94.12
237.689	79.12
237.922	66.12
238.156	69.12
238.39	67.12
238.624	71.12
238.858	81.12
239.091	81.12
239.325	89.12
239.559	84.12
239.793	66.12
240.027	57.12
240.26	82.12
240.494	71.12
240.728	89.12
240.961	77.12
241.195	81.12
241.429	80.12
241.662	74.12
241.896	78.12
242.13	87.12
242.363	77.12
242.597	80.12
242.83	77.12
243.064	81.12
243.298	84.12
243.531	81.12
243.765	81.12
243.998	71.12
244.232	94.12
244.465	85.12
244.699	77.12
244.932	71.12
245.166	82.12
245.399	71.12
245.633	73.12
245.866	77.12
246.099	69.12
246.333	78.12
246.566	69.12
246.8	84.12
247.033	79.12
247.266	77.12
247.5	75.12
247.733	73.12
247.966	81.12
248.2	75.12
248.433	92.12
248.666	67.12
248.899	87.12
249.133	96.12
249.366	97.12
249.599	88.12
249.832	84.12
250.066	72.12
250.299	69.12
250.532	83.12
250.765	81.12
250.998	81.12
251.231	65.12
251.465	72.12
251.698	79.12
251.931	68.12
252.164	74.12
252.397	77.12
252.63	83.12
252.863	79.12
253.096	82.12
253.329	67.12
253.562	78.12
253.795	90.12
254.028	81.12
254.261	65.12
254.494	81.12
254.727	82.12
254.96	86.12
255.193	95.12
255.426	81.12
255.659	83.12
255.892	78.12
256.124	82.12
256.357	82.12
256.59	75.12
256.823	81.12
257.056	72.12
257.289	85.12
257.521	75.12
257.754	78.12
257.987	82.12
258.22	80.12
258.452	90.12
258.685	88.12
258.918	81.12
259.151	68.12
259.383	76.12
259.616	70.12
259.849	98.12
260.081	68.12
260.314	77.12
260.547	86.12
260.779	84.12
261.012	79.12
261.244	95.12
261.477	92.12
261.71	95.12
261.942	107.12
262.175	106.12
262.407	88.12
262.64	88.12
262.872	90.12
263.105	79.12
263.337	96.12
263.57	94.12
263.802	84.12
264.035	82.12
264.267	81.12
264.499	89.12
264.732	87.12
264.964	81.12
265.197	87.12
265.429	93.12
265.661	81.12
265.894	77.12
266.126	97.12
266.358	77.12
266.591	83.12
266.823	71.12
267.055	80.12
267.287	87.12
267.52	80.12
267.752	87.12
267.984	74.12
268.216	87.12
268.448	89.12
268.681	83.12
268.913	77.12
269.145	80.12
269.377	95.12
269.609	87.12
269.841	83.12
270.073	89.12
270.306	71.12
270.538	77.12
270.77	66.12
271.002	87.12
271.234	70.12
271.466	89.12
271.698	83.12
271.93	81.12
272.162	79.12
272.394	82.12
272.626	81.12
272.858	86.12
273.09	79.12
273.322	98.12
273.553	82.12
273.785	85.12
274.017	83.12
274.249	85.12
274.481	87.12
274.713	75.12
274.945	87.12
275.176	89.12
275.408	82.12
275.64	89.12
275.872	84.12
276.104	90.12
276.335	88.12
276.567	95.12
276.799	103.12
277.031	95.12
277.262	78.12
277.494	88.12
277.726	89.12
277.957	83.12
278.189	103.12
278.421	80.12
278.652	81.12
278.884	88.12
279.115	84.12
279.347	78.12
279.579	87.12
279.81	92.12
280.042	75.12
280.273	79.12
280.505	77.12
280.736	85.12
280.968	90.12
281.199	94.12
281.431	81.12
281.662	72.12
281.894	77.12
282.125	97.12
282.356	101.12
282.588	136.12
282.819	93.12
283.051	82.12
283.282	85.12
283.513	83.12
283.745	88.12
283.976	84.12
284.207	89.12
284.439	105.12
284.67	90.12
284.901	89.12
285.132	85.12
285.364	86.12
285.595	82.12
285.826	86.12
286.057	77.12
286.288	83.12
286.52	84.12
286.751	83.12
286.982	94.12
287.213	82.12
287.444	82.12
287.675	80.12
287.906	84.12
288.138	86.12
288.369	84.12
288.6	95.12
288.831	82.12
289.062	77.12
289.293	100.12
289.524	93.12
289.755	81.12
289.986	79.12
290.217	86.12
290.448	87.12
290.679	86.12
290.91	90.12
291.141	88.12
291.371	85.12
291.602	94.12
291.833	78.12
292.064	79.12
292.295	99.12
292.526	90.12
292.757	79.12
292.987	81.12
293.218	77.12
293.449	85.12
293.68	94.12
293.91	77.12
294.141	80.12
294.372	89.12
294.603	90.12
294.833	95.12
295.064	81.12
295.295	96.12
295.525	86.12
295.756	97.12
295.987	106.12
296.217	126.12
296.448	110.12
296.679	104.12
296.909	101.12
297.14	92.12
297.37	62.12
297.601	100.12
297.831	85.12
298.062	87.12
298.292	82.12
298.523	82.12
298.753	70.12
298.984	85.12
299.214	93.12
299.445	98.12
299.675	95.12
299.905	91.12
300.136	95.12
300.366	73.12
300.597	88.12
300.827	87.12
301.057	98.12
301.288	90.12
301.518	86.12
301.748	91.12
301.979	85.12
302.209	101.12
302.439	87.12
302.669	89.12
302.9	82.12
303.13	93.12
303.36	89.12
303.59	90.12
303.82	106.12
304.051	95.12
304.281	83.12
304.511	79.12
304.741	84.12
304.971	82.12
305.201	89.12
305.431	84.12
305.661	98.12
305.891	80.12
306.121	79.12
306.352	110.12
306.582	95.12
306.812	99.12
307.042	94.12
307.272	91.12
307.502	97.12
307.731	84.12
307.961	83.12
308.191	83.12
308.421	93.12
308.651	77.12
308.881	98.12
309.111	105.12
309.341	100.12
309.571	94.12
309.8	98.12
310.03	94.12
310.26	99.12
310.49	97.12
310.72	96.12
310.949	85.12
311.179	86.12
311.409	76.12
311.639	94.12
311.868	103.12
312.098	100.12
312.328	88.12
312.557	93.12
312.787	99.12
313.017	114.12
313.246	91.12
313.476	87.12
313.706	98.12
313.935	88.12
314.165	92.12
314.394	91.12
314.624	88.12
314.853	90.12
315.083	90.12
315.312	100.12
315.542	83.12
315.771	93.12
316.001	98.12
316.23	97.12
316.46	100.12
316.689	93.12
316.919	97.12
317.148	101.12
317.377	86.12
317.607	89.12
317.836	91.12
318.065	101.12
318.295	93.12
318.524	94.12
318.753	101.12
318.983	90.12
319.212	109.12
319.441	110.12
319.67	99.12
319.9	100.12
320.129	84.12
320.358	82.12
320.587	97.12
320.816	111.12
321.046	97.12
321.275	106.12
321.504	82.12
321.733	87.12
321.962	107.12
322.191	107.12
322.42	106.12
322.649	109.12
322.878	91.12
323.108	112.12
323.337	124.12
323.566	113.12
323.795	121.12
324.024	186.12
324.253	353.12
324.482	717.12
324.71	1450.12
324.939	1912.12
325.168	725.12
325.397	226.12
325.626	148.12
325.855	141.12
326.084	123.12
326.313	126.12
326.542	133.12
326.77	200.12
326.999	407.12
327.228	829.12
327.457	1495.12
327.686	1201.12
327.914	330.12
328.143	169.12
328.372	142.12
328.6	122.12
328.829	129.12
329.058	106.12
329.287	113.12
329.515	100.12
329.744	104.12
329.972	100.12
330.201	105.12
330.43	117.12
330.658	122.12
330.887	111.12
331.115	110.12
331.344	102.12
331.572	114.12
331.801	102.12
332.03	88.12
332.258	88.12
332.486	90.12
332.715	108.12
332.943	95.12
333.172	88.12
333.4	93.12
333.629	91.12
333.857	90.12
334.085	116.12
334.314	99.12
334.542	110.12
334.771	104.12
334.999	96.12
335.227	93.12
335.455	66.12
335.684	89.12
335.912	94.12
336.14	101.12
336.369	94.12
336.597	106.12
336.825	104.12
337.053	86.12
337.281	91.12
337.51	96.12
337.738	74.12
337.966	95.12
338.194	95.12
338.422	89.12
338.65	90.12
338.878	98.12
339.106	93.12
339.334	88.12
339.562	86.12
339.79	95.12
340.018	91.12
340.246	95.12
340.474	77.12
340.702	88.12
340.93	73.12
341.158	77.12
341.386	98.12
341.614	95.12
341.842	79.12
342.07	82.12
342.298	92.12
342.526	96.12
342.754	101.12
342.981	93.12
343.209	84.12
343.437	103.12
343.665	83.12
343.893	86.12
344.12	99.12
344.348	89.12
344.576	79.12
344.804	85.12
345.031	95.12
345.259	86.12
345.487	94.12
345.714	104.12
345.942	88.12
346.17	89.12
346.397	94.12
346.625	93.12
346.853	79.12
347.08	91.12
347.308	89.12
347.535	87.12
347.763	93.12
347.99	101.12
348.218	84.12
348.445	100.12
348.673	87.12
348.9	86.12
349.128	90.12
349.355	109.12
349.583	95.12
349.81	96.12
350.037	113.12
350.265	85.12
350.492	97.12
350.72	102.12
350.947	81.12
351.174	97.12
351.402	97.12
351.629	94.12
351.856	89.12
352.083	98.12
352.311	97.12
352.538	101.12
352.765	107.12
352.992	105.12
353.22	113.12
353.447	97.12
353.674	106.12
353.901	96.12
354.128	100.12
354.355	101.12
354.583	99.12
354.81	101.12
355.037	106.12
355.264	77.12
355.491	87.12
355.718	91.12
355.945	110.12
356.172	84.12
356.399	103.12
356.626	99.12
356.853	107.12
357.08	95.12
357.307	106.12
357.534	90.12
357.761	93.12
357.988	105.12
358.215	106.12
358.441	103.12
358.668	90.12
358.895	99.12
359.122	93.12
359.349	84.12
359.576	96.12
359.802	85.12
360.029	91.12
360.256	100.12
360.483	95.12
360.709	88.12
360.936	94.12
361.163	103.12
361.39	87.12
361.616	87.12
361.843	85.12
362.07	101.12
362.296	83.12
362.523	83.12
362.749	87.12
362.976	91.12
363.203	84.12
363.429	80.12
363.656	85.12
363.882	89.12
364.109	81.12
364.335	101.12
364.562	91.12
364.788	82.12
365.015	84.12
365.241	107.12
365.468	106.12
365.694	94.12
365.92	93.12
366.147	87.12
366.373	95.12
366.599	85.12
366.826	67.12
367.052	90.12
367.278	84.12
367.505	84.12
367.731	93.12
367.957	81.12
368.184	82.12
368.41	98.12
368.636	103.12
368.862	110.12
369.089	104.12
369.315	74.12
369.541	77.12
369.767	83.12
369.993	84.12
370.219	89.12
370.445	97.12
370.672	87.12
370.898	85.12
371.124	94.12
371.35	85.12
371.576	81.12
371.802	96.12
372.028	87.12
372.254	95.12
372.48	96.12
372.706	83.12
372.932	89.12
373.158	102.12
373.384	86.12
373.61	96.12
373.835	90.12
374.061	82.12
374.287	92.12
374.513	93.12
374.739	97.12
374.965	87.12
375.191	83.12
375.416	91.12
375.642	112.12
375.868	81.12
376.094	90.12
376.319	85.12
376.545	97.12
376.771	100.12
376.997	70.12
377.222	80.12
377.448	90.12
377.674	88.12
377.899	104.12
378.125	99.12
378.35	100.12
378.576	87.12
378.802	92.12
379.027	85.12
379.253	105.12
379.478	99.12
379.704	98.12
379.929	108.12
380.155	105.12
380.38	99.12
380.606	109.12
380.831	97.12
381.057	118.12
381.282	90.12
381.507	88.12
381.733	88.12
381.958	101.12
382.184	93.12
382.409	105.12
382.634	102.12
382.86	104.12
383.085	120.12
383.31	118.12
383.535	117.12
383.761	107.12
383.986	102.12
384.211	117.12
384.436	98.12
384.662	110.12
384.887	124.12
385.112	142.12
385.337	107.12
385.562	127.12
385.787	141.12
386.013	131.12
386.238	131.12
386.463	136.12
386.688	138.12
386.913	120.12
387.138	134.12
387.363	134.12
387.588	114.12
387.813	110.12
388.038	106.12
388.263	131.12
388.488	143.12
388.713	103.12
388.938	88.12
389.163	100.12
389.387	95.12
389.612	94.12
389.837	92.12
390.062	90.12
390.287	91.12
390.512	100.12
390.736	95.12
390.961	88.12
391.186	85.12
391.411	100.12
391.636	96.12
391.86	83.12
392.085	87.12
392.31	79.12
392.534	88.12
392.759	99.12
392.984	88.12
393.208	91.12
393.433	92.12
393.658	109.12
393.882	70.12
394.107	83.12
394.331	81.12
394.556	81.12
394.78	88.12
395.005	94.12
395.229	79.12
395.454	99.12
395.678	87.12
395.903	89.12
396.127	77.12
396.352	96.12
396.576	93.12
396.801	105.12
397.025	90.12
397.249	97.12
397.474	88.12
397.698	85.12
397.922	84.12
398.147	69.12
398.371	89.12
398.595	79.12
398.82	83.12
399.044	79.12
399.268	86.12
399.492	80.12
399.717	83.12
399.941	83.12
400.165	89.12
400.389	94.12
400.613	89.12
400.837	73.12
401.062	100.12
401.286	80.12
401.51	78.12
401.734	88.12
401.958	105.12
402.182	103.12
402.406	142.12
402.63	100.12
402.854	85.12
403.078	85.12
403.302	81.12
403.526	69.12
403.75	81.12
403.974	71.12
404.198	89.12
404.422	77.12
404.645	87.12
404.869	88.12
405.093	80.12
405.317	91.12
405.541	91.12
405.765	114.12
405.988	110.12
406.212	136.12
406.436	175.12
406.66	130.12
406.883	101.12
407.107	91.12
407.331	89.12
407.555	82.12
407.778	90.12
408.002	93.12
408.226	85.12
408.449	77.12
408.673	87.12
408.896	97.12
409.12	93.12
409.344	82.12
409.567	97.12
409.791	89.12
410.014	104.12
410.238	89.12
410.461	96.12
410.685	107.12
410.908	93.12
411.132	94.12
411.355	89.12
411.578	73.12
411.802	76.12
412.025	77.12
412.249	87.12
412.472	100.12
412.695	95.12
412.919	94.12
413.142	95.12
413.365	81.12
413.589	67.12
413.812	73.12
414.035	82.12
414.258	85.12
414.482	88.12
414.705	81.12
414.928	100.12
415.151	96.12
415.374	94.12
415.597	73.12
415.821	91.12
416.044	88.12
416.267	69.12
416.49	94.12
416.713	79.12
416.936	85.12
417.159	87.12
417.382	87.12
417.605	88.12
417.828	85.12
418.051	92.12
418.274	105.12
418.497	91.12
418.72	93.12
418.943	96.12
419.166	86.12
419.389	81.12
419.611	79.12
419.834	102.12
420.057	74.12
420.28	83.12
420.503	80.12
420.726	93.12
420.948	76.12
421.171	79.12
421.394	87.12
421.617	74.12
421.839	87.12
422.062	77.12
422.285	93.12
422.507	92.12
422.73	111.12
422.953	90.12
423.175	85.12
423.398	74.12
423.621	76.12
423.843	81.12
424.066	85.12
424.288	71.12
424.511	74.12
424.733	101.12
424.956	95.12
425.178	93.12
425.401	95.12
425.623	95.12
425.846	83.12
426.068	87.12
426.291	73.12
426.513	75.12
426.735	72.12
426.958	87.12
427.18	104.12
427.402	104.12
427.625	130.12
427.847	106.12
428.069	93.12
428.292	81.12
428.514	87.12
428.736	82.12
428.958	80.12
429.181	84.12
429.403	90.12
429.625	81.12
429.847	93.12
430.069	95.12
430.292	108.12
430.514	73.12
430.736	82.12
430.958	69.12
431.18	79.12
431.402	89.12
431.624	73.12
431.846	95.12
432.068	78.12
432.29	92.12
432.512	88.12
432.734	84.12
432.956	74.12
433.178	85.12
433.4	79.12
433.622	79.12
433.844	81.12
434.066	85.12
434.287	103.12
434.509	94.12
434.731	91.12
434.953	95.12
435.175	88.12
435.397	85.12
435.618	86.12
435.84	97.12
436.062	105.12
436.284	95.12
436.505	95.12
436.727	90.12
436.949	102.12
437.17	104.12
437.392	80.12
437.614	84.12
437.835	85.12
438.057	107.12
438.278	101.12
438.5	101.12
438.721	105.12
438.943	91.12
439.165	90.12
439.386	87.12
439.608	81.12
439.829	85.12
440.05	114.12
440.272	114.12
440.493	87.12
440.715	76.12
440.936	73.12
441.158	87.12
441.379	86.12
441.6	79.12
441.822	85.12
442.043	85.12
442.264	90.12
442.486	82.12
442.707	83.12
442.928	94.12
443.149	119.12
443.371	106.12
443.592	103.12
443.813	102.12
444.034	98.12
444.255	96.12
444.476	85.12
444.698	88.12
444.919	96.12
445.14	110.12
445.361	98.12
445.582	98.12
445.803	114.12
446.024	129.12
446.245	137.12
446.466	103.12
446.687	78.12
446.908	91.12
447.129	92.12
447.35	73.12
447.571	95.12
447.792	89.12
448.013	78.12
448.234	107.12
448.455	89.12
448.675	103.12
448.896	105.12
449.117	83.12
449.338	93.12
449.559	115.12
449.779	119.12
450	90.12
450.221	78.12
450.442	67.12
450.662	80.12
450.883	89.12
451.104	96.12
451.324	87.12
451.545	90.12
451.766	96.12
451.986	93.12
452.207	78.12
452.428	99.12
452.648	90.12
452.869	97.12
453.089	104.12
453.31	111.12
453.53	83.12
453.751	85.12
453.971	70.12
454.192	83.12
454.412	80.12
454.633	83.12
454.853	85.12
455.073	92.12
455.294	75.12
455.514	91.12
455.734	90.12
455.955	90.12
456.175	100.12
456.395	85.12
456.616	69.12
456.836	81.12
457.056	82.12
457.276	87.12
457.497	73.12
457.717	77.12
457.937	85.12
458.157	81.12
458.377	100.12
458.598	98.12
458.818	117.12
459.038	121.12
459.258	98.12
459.478	87.12
459.698	89.12
459.918	86.12
460.138	81.12
460.358	87.12
460.578	92.12
460.798	86.12
461.018	79.12
461.238	78.12
461.458	83.12
461.678	75.12
461.898	85.12
462.118	91.12
462.338	86.12
462.558	92.12
462.777	72.12
462.997	82.12
463.217	83.12
463.437	89.12
463.657	85.12
463.876	81.12
464.096	62.12
464.316	90.12
464.536	89.12
464.755	95.12
464.975	87.12
465.195	133.12
465.414	124.12
465.634	81.12
465.854	90.12
466.073	81.12
466.293	89.12
466.512	91.12
466.732	77.12
466.951	80.12
467.171	101.12
467.391	94.12
467.61	89.12
467.829	104.12
468.049	84.12
468.268	94.12
468.488	95.12
468.707	72.12
468.927	87.12
469.146	80.12
469.365	83.12
469.585	95.12
469.804	92.12
470.023	90.12
470.243	73.12
470.462	91.12
470.681	93.12
470.901	89.12
471.12	91.12
471.339	89.12
471.558	80.12
471.777	81.12
471.997	88.12
472.216	90.12
472.435	105.12
472.654	77.12
472.873	88.12
473.092	89.12
473.311	78.12
473.53	67.12
473.749	80.12
473.968	84.12
474.187	95.12
474.406	88.12
474.625	77.12
474.844	82.12
475.063	101.12
475.282	89.12
475.501	75.12
475.72	81.12
475.939	79.12
476.158	86.12
476.377	87.12
476.596	85.12
476.814	86.12
477.033	100.12
477.252	99.12
477.471	95.12
477.69	86.12
477.908	101.12
478.127	92.12
478.346	96.12
478.564	98.12
478.783	94.12
479.002	79.12
479.22	97.12
479.439	99.12
479.658	101.12
479.876	78.12
480.095	70.12
480.313	83.12
480.532	72.12
480.751	85.12
480.969	86.12
481.188	94.12
481.406	87.12
481.624	89.12
481.843	83.12
482.061	81.12
482.28	78.12
482.498	87.12
482.717	77.12
482.935	77.12
483.153	90.12
483.372	72.12
483.59	73.12
483.808	97.12
484.027	95.12
484.245	93.12
484.463	86.12
484.681	89.12
484.9	93.12
485.118	104.12
485.336	98.12
485.554	85.12
485.772	104.12
485.99	108.12
486.209	117.12
486.427	107.12
486.645	106.12
486.863	95.12
487.081	90.12
487.299	85.12
487.517	83.12
487.735	93.12
487.953	85.12
488.171	84.12
488.389	79.12
488.607	87.12
488.825	92.12
489.043	81.12
489.261	81.12
489.479	78.12
489.696	84.12
489.914	81.12
490.132	69.12
490.35	71.12
490.568	87.12
490.786	83.12
491.003	89.12
491.221	85.12
491.439	93.12
491.657	91.12
491.874	93.12
492.092	81.12
492.31	81.12
492.527	85.12
492.745	99.12
492.963	87.12
493.18	95.12
493.398	90.12
493.615	86.12
493.833	92.12
494.05	93.12
494.268	91.12
494.485	84.12
494.703	82.12
494.92	84.12
495.138	82.12
495.355	95.12
495.573	90.12
495.79	78.12
496.008	86.12
496.225	97.12
496.442	90.12
496.66	99.12
496.877	87.12
497.094	86.12
497.312	90.12
497.529	101.12
497.746	90.12
497.963	81.12
498.181	94.12
498.398	92.12
498.615	102.12
498.832	85.12
499.049	81.12
499.267	88.12
499.484	85.12
499.701	79.12
499.918	99.12
500.135	90.12
500.352	85.12
500.569	85.12
500.786	85.12
501.003	82.12
501.22	85.12
501.437	100.12
501.654	91.12
501.871	105.12
502.088	91.12
502.305	87.12
502.522	83.12
502.739	77.12
502.956	81.12
503.172	86.12
503.389	97.12
503.606	95.12
503.823	84.12
504.04	74.12
504.256	81.12
504.473	91.12
504.69	85.12
504.907	92.12
505.123	88.12
505.34	89.12
505.557	96.12
505.773	96.12
505.99	90.12
506.207	85.12
506.423	74.12
506.64	69.12
506.856	84.12
507.073	75.12
507.289	101.12
507.506	95.12
507.722	99.12
507.939	112.12
508.155	102.12
508.372	98.12
508.588	97.12
508.805	96.12
509.021	98.12
509.238	93.12
509.454	96.12
509.67	98.12
509.887	105.12
510.103	106.12
510.319	183.12
510.536	595.12
510.752	1761.12
510.968	463.12
511.184	137.12
511.401	97.12
511.617	102.12
511.833	92.12
512.049	88.12
512.265	80.12
512.481	92.12
512.698	90.12
512.914	89.12
513.13	85.12
513.346	80.12
513.562	85.12
513.778	97.12
513.994	93.12
514.21	102.12
514.426	107.12
514.642	123.12
514.858	126.12
515.074	137.12
515.29	324.12
515.506	1035.12
515.721	385.12
515.937	120.12
516.153	97.12
516.369	95.12
