Data from Circ_1985_H10_HRD10591_00043.txt Node
Date: Wed Jan 03 12:19:31 EST 2024
User: Yrep
Spectrometer: HR+D1059
Trigger mode: 1
Integration Time (sec): 1.000000E-1
Scans to average: 1
Electric dark correction enabled: true
Nonlinearity correction enabled: false
Boxcar width: 0
XAxis mode: Wavelengths
Number of Pixels in Spectrum: 2048
>>>>>Begin Spectral Data<<<<<
223.165	-8.19
223.4	-8.19
223.635	-8.19
223.869	-18.19
224.104	-28.19
224.338	-21.19
224.573	-20.19
224.808	-12.19
225.042	-5.19
225.277	-16.19
225.511	5.81
225.746	3.81
225.98	2.81
226.215	8.81
226.449	20.81
226.683	17.81
226.918	23.81
227.152	45.81
227.387	39.81
227.621	35.81
227.856	40.81
228.09	50.81
228.324	36.81
228.559	61.81
228.793	60.81
229.027	64.81
229.262	53.81
229.496	81.81
229.73	90.81
229.964	75.81
230.199	83.81
230.433	85.81
230.667	63.81
230.901	73.81
231.136	65.81
231.37	86.81
231.604	85.81
231.838	74.81
232.072	79.81
232.306	84.81
232.541	90.81
232.775	74.81
233.009	77.81
233.243	85.81
233.477	89.81
233.711	82.81
233.945	96.81
234.179	87.81
234.413	84.81
234.647	80.81
234.881	93.81
235.115	62.81
235.349	86.81
235.583	95.81
235.817	75.81
236.051	86.81
236.285	94.81
236.519	70.81
236.753	88.81
236.987	76.81
237.221	99.81
237.455	89.81
237.689	88.81
237.922	76.81
238.156	76.81
238.39	91.81
238.624	78.81
238.858	68.81
239.091	79.81
239.325	69.81
239.559	93.81
239.793	75.81
240.027	86.81
240.26	85.81
240.494	78.81
240.728	75.81
240.961	83.81
241.195	80.81
241.429	67.81
241.662	90.81
241.896	106.81
242.13	70.81
242.363	71.81
242.597	86.81
242.83	72.81
243.064	83.81
243.298	73.81
243.531	81.81
243.765	70.81
243.998	83.81
244.232	94.81
244.465	84.81
244.699	87.81
244.932	78.81
245.166	77.81
245.399	81.81
245.633	72.81
245.866	85.81
246.099	75.81
246.333	75.81
246.566	69.81
246.8	76.81
247.033	77.81
247.266	78.81
247.5	64.81
247.733	76.81
247.966	88.81
248.2	88.81
248.433	89.81
248.666	83.81
248.899	97.81
249.133	78.81
249.366	89.81
249.599	91.81
249.832	92.81
250.066	73.81
250.299	83.81
250.532	92.81
250.765	89.81
250.998	73.81
251.231	81.81
251.465	72.81
251.698	89.81
251.931	102.81
252.164	86.81
252.397	81.81
252.63	73.81
252.863	91.81
253.096	85.81
253.329	87.81
253.562	58.81
253.795	74.81
254.028	87.81
254.261	83.81
254.494	94.81
254.727	99.81
254.96	81.81
255.193	86.81
255.426	70.81
255.659	79.81
255.892	84.81
256.124	71.81
256.357	93.81
256.59	86.81
256.823	77.81
257.056	87.81
257.289	76.81
257.521	86.81
257.754	81.81
257.987	78.81
258.22	85.81
258.452	87.81
258.685	82.81
258.918	79.81
259.151	70.81
259.383	78.81
259.616	94.81
259.849	91.81
260.081	72.81
260.314	92.81
260.547	83.81
260.779	87.81
261.012	88.81
261.244	87.81
261.477	84.81
261.71	105.81
261.942	94.81
262.175	115.81
262.407	81.81
262.64	82.81
262.872	96.81
263.105	87.81
263.337	71.81
263.57	77.81
263.802	91.81
264.035	70.81
264.267	88.81
264.499	83.81
264.732	92.81
264.964	73.81
265.197	93.81
265.429	94.81
265.661	68.81
265.894	82.81
266.126	73.81
266.358	84.81
266.591	87.81
266.823	101.81
267.055	87.81
267.287	93.81
267.52	90.81
267.752	87.81
267.984	93.81
268.216	76.81
268.448	94.81
268.681	84.81
268.913	85.81
269.145	89.81
269.377	76.81
269.609	95.81
269.841	99.81
270.073	75.81
270.306	82.81
270.538	77.81
270.77	89.81
271.002	81.81
271.234	92.81
271.466	99.81
271.698	96.81
271.93	85.81
272.162	74.81
272.394	100.81
272.626	85.81
272.858	79.81
273.09	94.81
273.322	91.81
273.553	78.81
273.785	86.81
274.017	76.81
274.249	93.81
274.481	90.81
274.713	92.81
274.945	90.81
275.176	89.81
275.408	85.81
275.64	85.81
275.872	89.81
276.104	79.81
276.335	81.81
276.567	94.81
276.799	107.81
277.031	91.81
277.262	88.81
277.494	94.81
277.726	84.81
277.957	93.81
278.189	94.81
278.421	98.81
278.652	76.81
278.884	81.81
279.115	85.81
279.347	97.81
279.579	86.81
279.81	82.81
280.042	71.81
280.273	102.81
280.505	83.81
280.736	84.81
280.968	82.81
281.199	74.81
281.431	98.81
281.662	82.81
281.894	98.81
282.125	94.81
282.356	105.81
282.588	122.81
282.819	109.81
283.051	97.81
283.282	93.81
283.513	93.81
283.745	92.81
283.976	84.81
284.207	81.81
284.439	92.81
284.67	83.81
284.901	87.81
285.132	96.81
285.364	89.81
285.595	92.81
285.826	88.81
286.057	83.81
286.288	66.81
286.52	85.81
286.751	93.81
286.982	87.81
287.213	91.81
287.444	78.81
287.675	98.81
287.906	95.81
288.138	104.81
288.369	95.81
288.6	71.81
288.831	97.81
289.062	87.81
289.293	89.81
289.524	96.81
289.755	79.81
289.986	78.81
290.217	108.81
290.448	89.81
290.679	91.81
290.91	92.81
291.141	97.81
291.371	100.81
291.602	101.81
291.833	91.81
292.064	84.81
292.295	101.81
292.526	89.81
292.757	98.81
292.987	98.81
293.218	101.81
293.449	93.81
293.68	98.81
293.91	82.81
294.141	89.81
294.372	88.81
294.603	100.81
294.833	84.81
295.064	85.81
295.295	108.81
295.525	99.81
295.756	103.81
295.987	110.81
296.217	129.81
296.448	121.81
296.679	102.81
296.909	85.81
297.14	78.81
297.37	96.81
297.601	85.81
297.831	101.81
298.062	82.81
298.292	81.81
298.523	79.81
298.753	84.81
298.984	95.81
299.214	97.81
299.445	101.81
299.675	97.81
299.905	104.81
300.136	88.81
300.366	87.81
300.597	97.81
300.827	90.81
301.057	85.81
301.288	94.81
301.518	84.81
301.748	90.81
301.979	100.81
302.209	100.81
302.439	89.81
302.669	97.81
302.9	83.81
303.13	89.81
303.36	115.81
303.59	85.81
303.82	107.81
304.051	104.81
304.281	94.81
304.511	89.81
304.741	89.81
304.971	89.81
305.201	93.81
305.431	99.81
305.661	108.81
305.891	101.81
306.121	96.81
306.352	102.81
306.582	86.81
306.812	81.81
307.042	99.81
307.272	99.81
307.502	90.81
307.731	95.81
307.961	94.81
308.191	95.81
308.421	91.81
308.651	87.81
308.881	90.81
309.111	101.81
309.341	86.81
309.571	97.81
309.8	82.81
310.03	99.81
310.26	100.81
310.49	91.81
310.72	80.81
310.949	94.81
311.179	114.81
311.409	102.81
311.639	102.81
311.868	97.81
312.098	92.81
312.328	98.81
312.557	100.81
312.787	98.81
313.017	91.81
313.246	98.81
313.476	102.81
313.706	99.81
313.935	74.81
314.165	100.81
314.394	92.81
314.624	99.81
314.853	99.81
315.083	92.81
315.312	85.81
315.542	98.81
315.771	83.81
316.001	92.81
316.23	91.81
316.46	90.81
316.689	86.81
316.919	105.81
317.148	94.81
317.377	92.81
317.607	94.81
317.836	104.81
318.065	99.81
318.295	96.81
318.524	92.81
318.753	95.81
318.983	88.81
319.212	94.81
319.441	95.81
319.67	106.81
319.9	95.81
320.129	100.81
320.358	97.81
320.587	103.81
320.816	89.81
321.046	105.81
321.275	97.81
321.504	105.81
321.733	109.81
321.962	92.81
322.191	93.81
322.42	94.81
322.649	97.81
322.878	105.81
323.108	119.81
323.337	128.81
323.566	132.81
323.795	146.81
324.024	185.81
324.253	356.81
324.482	742.81
324.71	1533.81
324.939	1975.81
325.168	742.81
325.397	217.81
325.626	140.81
325.855	136.81
326.084	115.81
326.313	134.81
326.542	137.81
326.77	230.81
326.999	428.81
327.228	849.81
327.457	1545.81
327.686	1240.81
327.914	349.81
328.143	179.81
328.372	130.81
328.6	131.81
328.829	111.81
329.058	119.81
329.287	122.81
329.515	107.81
329.744	104.81
329.972	93.81
330.201	115.81
330.43	125.81
330.658	125.81
330.887	130.81
331.115	99.81
331.344	99.81
331.572	96.81
331.801	111.81
332.03	102.81
332.258	80.81
332.486	89.81
332.715	89.81
332.943	99.81
333.172	77.81
333.4	97.81
333.629	102.81
333.857	121.81
334.085	112.81
334.314	117.81
334.542	122.81
334.771	110.81
334.999	99.81
335.227	98.81
335.455	86.81
335.684	108.81
335.912	105.81
336.14	84.81
336.369	118.81
336.597	98.81
336.825	106.81
337.053	103.81
337.281	97.81
337.51	94.81
337.738	103.81
337.966	85.81
338.194	106.81
338.422	94.81
338.65	88.81
338.878	89.81
339.106	85.81
339.334	105.81
339.562	90.81
339.79	81.81
340.018	78.81
340.246	100.81
340.474	98.81
340.702	91.81
340.93	85.81
341.158	85.81
341.386	105.81
341.614	97.81
341.842	85.81
342.07	90.81
342.298	90.81
342.526	100.81
342.754	85.81
342.981	83.81
343.209	78.81
343.437	100.81
343.665	97.81
343.893	106.81
344.12	89.81
344.348	93.81
344.576	101.81
344.804	92.81
345.031	96.81
345.259	98.81
345.487	94.81
345.714	89.81
345.942	86.81
346.17	97.81
346.397	102.81
346.625	94.81
346.853	89.81
347.08	93.81
347.308	103.81
347.535	101.81
347.763	88.81
347.99	103.81
348.218	113.81
348.445	107.81
348.673	111.81
348.9	98.81
349.128	110.81
349.355	96.81
349.583	90.81
349.81	105.81
350.037	84.81
350.265	108.81
350.492	87.81
350.72	79.81
350.947	103.81
351.174	92.81
351.402	120.81
351.629	108.81
351.856	109.81
352.083	101.81
352.311	101.81
352.538	109.81
352.765	105.81
352.992	125.81
353.22	104.81
353.447	100.81
353.674	111.81
353.901	87.81
354.128	95.81
354.355	82.81
354.583	100.81
354.81	109.81
355.037	101.81
355.264	99.81
355.491	86.81
355.718	98.81
355.945	95.81
356.172	102.81
356.399	109.81
356.626	83.81
356.853	79.81
357.08	91.81
357.307	83.81
357.534	102.81
357.761	101.81
357.988	85.81
358.215	85.81
358.441	116.81
358.668	86.81
358.895	84.81
359.122	82.81
359.349	94.81
359.576	106.81
359.802	90.81
360.029	107.81
360.256	114.81
360.483	94.81
360.709	83.81
360.936	79.81
361.163	100.81
361.39	87.81
361.616	86.81
361.843	97.81
362.07	106.81
362.296	101.81
362.523	82.81
362.749	97.81
362.976	98.81
363.203	101.81
363.429	98.81
363.656	79.81
363.882	89.81
364.109	100.81
364.335	85.81
364.562	83.81
364.788	87.81
365.015	107.81
365.241	109.81
365.468	101.81
365.694	101.81
365.92	106.81
366.147	86.81
366.373	91.81
366.599	93.81
366.826	95.81
367.052	94.81
367.278	84.81
367.505	83.81
367.731	87.81
367.957	100.81
368.184	103.81
368.41	102.81
368.636	108.81
368.862	106.81
369.089	99.81
369.315	87.81
369.541	94.81
369.767	90.81
369.993	94.81
370.219	94.81
370.445	79.81
370.672	86.81
370.898	81.81
371.124	92.81
371.35	97.81
371.576	97.81
371.802	90.81
372.028	93.81
372.254	97.81
372.48	100.81
372.706	76.81
372.932	89.81
373.158	81.81
373.384	97.81
373.61	113.81
373.835	88.81
374.061	98.81
374.287	80.81
374.513	87.81
374.739	79.81
374.965	85.81
375.191	91.81
375.416	83.81
375.642	88.81
375.868	98.81
376.094	93.81
376.319	101.81
376.545	98.81
376.771	98.81
376.997	87.81
377.222	90.81
377.448	91.81
377.674	118.81
377.899	98.81
378.125	99.81
378.35	86.81
378.576	98.81
378.802	79.81
379.027	97.81
379.253	95.81
379.478	91.81
379.704	93.81
379.929	111.81
380.155	99.81
380.38	95.81
380.606	86.81
380.831	112.81
381.057	95.81
381.282	97.81
381.507	97.81
381.733	99.81
381.958	98.81
382.184	96.81
382.409	112.81
382.634	107.81
382.86	100.81
383.085	103.81
383.31	91.81
383.535	95.81
383.761	101.81
383.986	103.81
384.211	111.81
384.436	110.81
384.662	106.81
384.887	107.81
385.112	119.81
385.337	110.81
385.562	116.81
385.787	111.81
386.013	92.81
386.238	107.81
386.463	103.81
386.688	97.81
386.913	101.81
387.138	102.81
387.363	105.81
387.588	100.81
387.813	95.81
388.038	110.81
388.263	107.81
388.488	110.81
388.713	101.81
388.938	92.81
389.163	104.81
389.387	100.81
389.612	94.81
389.837	93.81
390.062	87.81
390.287	85.81
390.512	91.81
390.736	92.81
390.961	85.81
391.186	94.81
391.411	89.81
391.636	65.81
391.86	89.81
392.085	86.81
392.31	78.81
392.534	93.81
392.759	93.81
392.984	101.81
393.208	89.81
393.433	99.81
393.658	100.81
393.882	78.81
394.107	89.81
394.331	103.81
394.556	95.81
394.78	87.81
395.005	101.81
395.229	94.81
395.454	77.81
395.678	90.81
395.903	94.81
396.127	96.81
396.352	93.81
396.576	92.81
396.801	94.81
397.025	83.81
397.249	91.81
397.474	92.81
397.698	82.81
397.922	75.81
398.147	92.81
398.371	94.81
398.595	84.81
398.82	79.81
399.044	101.81
399.268	103.81
399.492	103.81
399.717	99.81
399.941	91.81
400.165	104.81
400.389	100.81
400.613	89.81
400.837	99.81
401.062	83.81
401.286	92.81
401.51	79.81
401.734	107.81
401.958	102.81
402.182	130.81
402.406	142.81
402.63	106.81
402.854	94.81
403.078	82.81
403.302	94.81
403.526	93.81
403.75	102.81
403.974	93.81
404.198	103.81
404.422	91.81
404.645	81.81
404.869	78.81
405.093	106.81
405.317	105.81
405.541	106.81
405.765	109.81
405.988	101.81
406.212	159.81
406.436	186.81
406.66	123.81
406.883	94.81
407.107	81.81
407.331	88.81
407.555	100.81
407.778	95.81
408.002	98.81
408.226	87.81
408.449	87.81
408.673	90.81
408.896	97.81
409.12	98.81
409.344	80.81
409.567	84.81
409.791	97.81
410.014	90.81
410.238	107.81
410.461	93.81
410.685	93.81
410.908	107.81
411.132	92.81
411.355	98.81
411.578	84.81
411.802	77.81
412.025	88.81
412.249	90.81
412.472	117.81
412.695	90.81
412.919	97.81
413.142	101.81
413.365	81.81
413.589	100.81
413.812	97.81
414.035	95.81
414.258	101.81
414.482	105.81
414.705	98.81
414.928	105.81
415.151	90.81
415.374	88.81
415.597	87.81
415.821	89.81
416.044	87.81
416.267	94.81
416.49	89.81
416.713	100.81
416.936	83.81
417.159	87.81
417.382	76.81
417.605	92.81
417.828	113.81
418.051	85.81
418.274	92.81
418.497	85.81
418.72	84.81
418.943	90.81
419.166	100.81
419.389	84.81
419.611	98.81
419.834	84.81
420.057	108.81
420.28	83.81
420.503	83.81
420.726	82.81
420.948	81.81
421.171	112.81
421.394	102.81
421.617	85.81
421.839	97.81
422.062	86.81
422.285	86.81
422.507	111.81
422.73	110.81
422.953	96.81
423.175	88.81
423.398	84.81
423.621	86.81
423.843	81.81
424.066	92.81
424.288	87.81
424.511	87.81
424.733	87.81
424.956	87.81
425.178	98.81
425.401	101.81
425.623	111.81
425.846	95.81
426.068	84.81
426.291	64.81
426.513	78.81
426.735	90.81
426.958	91.81
427.18	95.81
427.402	132.81
427.625	136.81
427.847	115.81
428.069	104.81
428.292	85.81
428.514	94.81
428.736	98.81
428.958	71.81
429.181	81.81
429.403	91.81
429.625	87.81
429.847	94.81
430.069	87.81
430.292	83.81
430.514	78.81
430.736	90.81
430.958	85.81
431.18	90.81
431.402	93.81
431.624	89.81
431.846	93.81
432.068	99.81
432.29	94.81
432.512	91.81
432.734	79.81
432.956	83.81
433.178	93.81
433.4	104.81
433.622	85.81
433.844	104.81
434.066	84.81
434.287	101.81
434.509	88.81
434.731	95.81
434.953	77.81
435.175	100.81
435.397	114.81
435.618	89.81
435.84	95.81
436.062	111.81
436.284	93.81
436.505	92.81
436.727	89.81
436.949	83.81
437.17	83.81
437.392	89.81
437.614	89.81
437.835	110.81
438.057	105.81
438.278	101.81
438.5	97.81
438.721	113.81
438.943	109.81
439.165	85.81
439.386	93.81
439.608	83.81
439.829	91.81
440.05	121.81
440.272	116.81
440.493	101.81
440.715	89.81
440.936	82.81
441.158	102.81
441.379	101.81
441.6	92.81
441.822	100.81
442.043	90.81
442.264	87.81
442.486	84.81
442.707	90.81
442.928	105.81
443.149	127.81
443.371	125.81
443.592	101.81
443.813	92.81
444.034	92.81
444.255	86.81
444.476	101.81
444.698	91.81
444.919	95.81
445.14	126.81
445.361	124.81
445.582	120.81
445.803	115.81
446.024	119.81
446.245	114.81
446.466	98.81
446.687	86.81
446.908	98.81
447.129	90.81
447.35	84.81
447.571	93.81
447.792	89.81
448.013	102.81
448.234	89.81
448.455	97.81
448.675	107.81
448.896	106.81
449.117	105.81
449.338	103.81
449.559	133.81
449.779	116.81
450	90.81
450.221	87.81
450.442	88.81
450.662	81.81
450.883	94.81
451.104	94.81
451.324	86.81
451.545	87.81
451.766	91.81
451.986	95.81
452.207	88.81
452.428	99.81
452.648	98.81
452.869	98.81
453.089	94.81
453.31	122.81
453.53	104.81
453.751	97.81
453.971	92.81
454.192	108.81
454.412	103.81
454.633	101.81
454.853	85.81
455.073	78.81
455.294	77.81
455.514	99.81
455.734	89.81
455.955	82.81
456.175	82.81
456.395	86.81
456.616	72.81
456.836	69.81
457.056	77.81
457.276	85.81
457.497	70.81
457.717	95.81
457.937	82.81
458.157	89.81
458.377	81.81
458.598	111.81
458.818	140.81
459.038	136.81
459.258	111.81
459.478	102.81
459.698	75.81
459.918	93.81
460.138	73.81
460.358	95.81
460.578	96.81
460.798	91.81
461.018	91.81
461.238	84.81
461.458	72.81
461.678	78.81
461.898	89.81
462.118	87.81
462.338	87.81
462.558	93.81
462.777	77.81
462.997	81.81
463.217	75.81
463.437	86.81
463.657	93.81
463.876	86.81
464.096	88.81
464.316	100.81
464.536	102.81
464.755	105.81
464.975	106.81
465.195	130.81
465.414	124.81
465.634	94.81
465.854	106.81
466.073	95.81
466.293	92.81
466.512	99.81
466.732	99.81
466.951	95.81
467.171	91.81
467.391	97.81
467.61	97.81
467.829	84.81
468.049	89.81
468.268	106.81
468.488	109.81
468.707	89.81
468.927	94.81
469.146	82.81
469.365	94.81
469.585	97.81
469.804	102.81
470.023	99.81
470.243	94.81
470.462	80.81
470.681	91.81
470.901	88.81
471.12	91.81
471.339	79.81
471.558	97.81
471.777	94.81
471.997	95.81
472.216	100.81
472.435	124.81
472.654	88.81
472.873	86.81
473.092	76.81
473.311	87.81
473.53	79.81
473.749	84.81
473.968	89.81
474.187	93.81
474.406	92.81
474.625	89.81
474.844	83.81
475.063	95.81
475.282	88.81
475.501	93.81
475.72	91.81
475.939	77.81
476.158	100.81
476.377	89.81
476.596	83.81
476.814	81.81
477.033	83.81
477.252	95.81
477.471	96.81
477.69	89.81
477.908	92.81
478.127	84.81
478.346	88.81
478.564	97.81
478.783	91.81
479.002	89.81
479.22	87.81
479.439	93.81
479.658	93.81
479.876	97.81
480.095	83.81
480.313	92.81
480.532	108.81
480.751	93.81
480.969	101.81
481.188	164.81
481.406	137.81
481.624	105.81
481.843	103.81
482.061	89.81
482.28	92.81
482.498	94.81
482.717	83.81
482.935	90.81
483.153	93.81
483.372	92.81
483.59	92.81
483.808	92.81
484.027	95.81
484.245	84.81
484.463	104.81
484.681	101.81
484.9	106.81
485.118	100.81
485.336	107.81
485.554	105.81
485.772	102.81
485.99	112.81
486.209	104.81
486.427	87.81
486.645	107.81
486.863	106.81
487.081	103.81
487.299	98.81
487.517	97.81
487.735	88.81
487.953	97.81
488.171	102.81
488.389	81.81
488.607	109.81
488.825	90.81
489.043	87.81
489.261	91.81
489.479	79.81
489.696	95.81
489.914	94.81
490.132	83.81
490.35	91.81
490.568	86.81
490.786	87.81
491.003	89.81
491.221	113.81
491.439	86.81
491.657	85.81
491.874	96.81
492.092	102.81
492.31	97.81
492.527	90.81
492.745	92.81
492.963	94.81
493.18	107.81
493.398	93.81
493.615	91.81
493.833	101.81
494.05	86.81
494.268	78.81
494.485	99.81
494.703	94.81
494.92	97.81
495.138	102.81
495.355	107.81
495.573	85.81
495.79	95.81
496.008	93.81
496.225	92.81
496.442	77.81
496.66	104.81
496.877	88.81
497.094	85.81
497.312	76.81
497.529	81.81
497.746	85.81
497.963	89.81
498.181	97.81
498.398	91.81
498.615	114.81
498.832	103.81
499.049	95.81
499.267	102.81
499.484	101.81
499.701	103.81
499.918	96.81
500.135	93.81
500.352	89.81
500.569	101.81
500.786	96.81
501.003	93.81
501.22	93.81
501.437	83.81
501.654	79.81
501.871	105.81
502.088	96.81
502.305	95.81
502.522	87.81
502.739	86.81
502.956	81.81
503.172	95.81
503.389	102.81
503.606	101.81
503.823	89.81
504.04	109.81
504.256	103.81
504.473	90.81
504.69	93.81
504.907	105.81
505.123	96.81
505.34	77.81
505.557	81.81
505.773	83.81
505.99	77.81
506.207	89.81
506.423	94.81
506.64	95.81
506.856	96.81
507.073	97.81
507.289	101.81
507.506	105.81
507.722	115.81
507.939	118.81
508.155	86.81
508.372	89.81
508.588	98.81
508.805	105.81
509.021	93.81
509.238	86.81
509.454	99.81
509.67	105.81
509.887	108.81
510.103	121.81
510.319	200.81
510.536	668.81
510.752	1970.81
510.968	545.81
511.184	129.81
511.401	94.81
511.617	91.81
511.833	87.81
512.049	94.81
512.265	93.81
512.481	90.81
512.698	91.81
512.914	94.81
513.13	81.81
513.346	95.81
513.562	100.81
513.778	109.81
513.994	91.81
514.21	101.81
514.426	99.81
514.642	111.81
514.858	100.81
515.074	162.81
