Data from Circ_1985_H10_HRD10591_00016.txt Node
Date: Wed Jan 03 12:19:25 EST 2024
User: Yrep
Spectrometer: HR+D1059
Trigger mode: 1
Integration Time (sec): 1.000000E-1
Scans to average: 1
Electric dark correction enabled: true
Nonlinearity correction enabled: false
Boxcar width: 0
XAxis mode: Wavelengths
Number of Pixels in Spectrum: 2048
>>>>>Begin Spectral Data<<<<<
223.165	-24.06
223.4	-24.06
223.635	-24.06
223.869	-12.06
224.104	-33.06
224.338	-10.06
224.573	-24.06
224.808	-0.06
225.042	-14.06
225.277	-10.06
225.511	8.94
225.746	6.94
225.98	3.94
226.215	23.94
226.449	16.94
226.683	24.94
226.918	27.94
227.152	13.94
227.387	36.94
227.621	38.94
227.856	36.94
228.09	57.94
228.324	50.94
228.559	62.94
228.793	60.94
229.027	51.94
229.262	62.94
229.496	82.94
229.73	91.94
229.964	82.94
230.199	80.94
230.433	71.94
230.667	81.94
230.901	75.94
231.136	77.94
231.37	89.94
231.604	79.94
231.838	75.94
232.072	78.94
232.306	78.94
232.541	91.94
232.775	93.94
233.009	78.94
233.243	80.94
233.477	80.94
233.711	73.94
233.945	90.94
234.179	85.94
234.413	89.94
234.647	77.94
234.881	91.94
235.115	75.94
235.349	80.94
235.583	68.94
235.817	76.94
236.051	75.94
236.285	72.94
236.519	74.94
236.753	58.94
236.987	78.94
237.221	74.94
237.455	75.94
237.689	76.94
237.922	92.94
238.156	75.94
238.39	62.94
238.624	83.94
238.858	84.94
239.091	75.94
239.325	68.94
239.559	81.94
239.793	69.94
240.027	87.94
240.26	97.94
240.494	78.94
240.728	89.94
240.961	81.94
241.195	70.94
241.429	84.94
241.662	74.94
241.896	88.94
242.13	82.94
242.363	62.94
242.597	72.94
242.83	89.94
243.064	85.94
243.298	88.94
243.531	78.94
243.765	84.94
243.998	62.94
244.232	74.94
244.465	82.94
244.699	81.94
244.932	76.94
245.166	68.94
245.399	79.94
245.633	75.94
245.866	82.94
246.099	86.94
246.333	92.94
246.566	78.94
246.8	94.94
247.033	73.94
247.266	78.94
247.5	86.94
247.733	82.94
247.966	83.94
248.2	64.94
248.433	80.94
248.666	90.94
248.899	65.94
249.133	81.94
249.366	90.94
249.599	89.94
249.832	74.94
250.066	75.94
250.299	78.94
250.532	92.94
250.765	88.94
250.998	71.94
251.231	78.94
251.465	80.94
251.698	84.94
251.931	69.94
252.164	75.94
252.397	70.94
252.63	86.94
252.863	96.94
253.096	89.94
253.329	72.94
253.562	60.94
253.795	82.94
254.028	88.94
254.261	76.94
254.494	82.94
254.727	65.94
254.96	83.94
255.193	71.94
255.426	72.94
255.659	75.94
255.892	99.94
256.124	70.94
256.357	91.94
256.59	92.94
256.823	82.94
257.056	70.94
257.289	73.94
257.521	67.94
257.754	75.94
257.987	73.94
258.22	83.94
258.452	76.94
258.685	78.94
258.918	82.94
259.151	88.94
259.383	88.94
259.616	84.94
259.849	64.94
260.081	84.94
260.314	90.94
260.547	87.94
260.779	85.94
261.012	80.94
261.244	81.94
261.477	80.94
261.71	96.94
261.942	105.94
262.175	81.94
262.407	83.94
262.64	86.94
262.872	90.94
263.105	79.94
263.337	95.94
263.57	85.94
263.802	110.94
264.035	93.94
264.267	82.94
264.499	82.94
264.732	91.94
264.964	76.94
265.197	74.94
265.429	85.94
265.661	71.94
265.894	86.94
266.126	88.94
266.358	83.94
266.591	65.94
266.823	83.94
267.055	92.94
267.287	75.94
267.52	80.94
267.752	69.94
267.984	93.94
268.216	87.94
268.448	85.94
268.681	87.94
268.913	79.94
269.145	89.94
269.377	79.94
269.609	94.94
269.841	95.94
270.073	78.94
270.306	85.94
270.538	90.94
270.77	69.94
271.002	89.94
271.234	90.94
271.466	90.94
271.698	84.94
271.93	88.94
272.162	72.94
272.394	86.94
272.626	99.94
272.858	92.94
273.09	79.94
273.322	82.94
273.553	80.94
273.785	92.94
274.017	73.94
274.249	91.94
274.481	84.94
274.713	78.94
274.945	87.94
275.176	82.94
275.408	86.94
275.64	84.94
275.872	84.94
276.104	88.94
276.335	92.94
276.567	80.94
276.799	111.94
277.031	89.94
277.262	90.94
277.494	83.94
277.726	75.94
277.957	82.94
278.189	82.94
278.421	90.94
278.652	91.94
278.884	91.94
279.115	86.94
279.347	75.94
279.579	80.94
279.81	82.94
280.042	87.94
280.273	94.94
280.505	79.94
280.736	85.94
280.968	90.94
281.199	78.94
281.431	93.94
281.662	86.94
281.894	83.94
282.125	90.94
282.356	105.94
282.588	134.94
282.819	103.94
283.051	74.94
283.282	83.94
283.513	94.94
283.745	76.94
283.976	87.94
284.207	83.94
284.439	84.94
284.67	89.94
284.901	90.94
285.132	85.94
285.364	76.94
285.595	80.94
285.826	87.94
286.057	85.94
286.288	76.94
286.52	88.94
286.751	80.94
286.982	83.94
287.213	90.94
287.444	86.94
287.675	74.94
287.906	87.94
288.138	95.94
288.369	83.94
288.6	98.94
288.831	84.94
289.062	99.94
289.293	96.94
289.524	86.94
289.755	85.94
289.986	97.94
290.217	66.94
290.448	72.94
290.679	73.94
290.91	83.94
291.141	82.94
291.371	80.94
291.602	82.94
291.833	96.94
292.064	93.94
292.295	88.94
292.526	89.94
292.757	88.94
292.987	90.94
293.218	85.94
293.449	84.94
293.68	87.94
293.91	94.94
294.141	79.94
294.372	91.94
294.603	73.94
294.833	98.94
295.064	94.94
295.295	83.94
295.525	82.94
295.756	90.94
295.987	97.94
296.217	101.94
296.448	106.94
296.679	100.94
296.909	95.94
297.14	92.94
297.37	101.94
297.601	82.94
297.831	82.94
298.062	83.94
298.292	76.94
298.523	80.94
298.753	80.94
298.984	87.94
299.214	89.94
299.445	103.94
299.675	100.94
299.905	96.94
300.136	90.94
300.366	94.94
300.597	84.94
300.827	88.94
301.057	89.94
301.288	90.94
301.518	78.94
301.748	93.94
301.979	89.94
302.209	84.94
302.439	88.94
302.669	84.94
302.9	100.94
303.13	98.94
303.36	99.94
303.59	86.94
303.82	80.94
304.051	81.94
304.281	86.94
304.511	86.94
304.741	90.94
304.971	78.94
305.201	82.94
305.431	79.94
305.661	84.94
305.891	91.94
306.121	80.94
306.352	101.94
306.582	106.94
306.812	107.94
307.042	97.94
307.272	94.94
307.502	89.94
307.731	92.94
307.961	104.94
308.191	103.94
308.421	86.94
308.651	69.94
308.881	89.94
309.111	99.94
309.341	89.94
309.571	93.94
309.8	90.94
310.03	81.94
310.26	89.94
310.49	95.94
310.72	98.94
310.949	98.94
311.179	93.94
311.409	106.94
311.639	99.94
311.868	85.94
312.098	94.94
312.328	99.94
312.557	86.94
312.787	71.94
313.017	101.94
313.246	72.94
313.476	91.94
313.706	86.94
313.935	87.94
314.165	101.94
314.394	100.94
314.624	102.94
314.853	91.94
315.083	92.94
315.312	84.94
315.542	82.94
315.771	91.94
316.001	88.94
316.23	96.94
316.46	100.94
316.689	92.94
316.919	94.94
317.148	115.94
317.377	87.94
317.607	91.94
317.836	95.94
318.065	96.94
318.295	89.94
318.524	110.94
318.753	91.94
318.983	91.94
319.212	103.94
319.441	105.94
319.67	92.94
319.9	74.94
320.129	90.94
320.358	86.94
320.587	91.94
320.816	92.94
321.046	90.94
321.275	84.94
321.504	98.94
321.733	86.94
321.962	102.94
322.191	106.94
322.42	96.94
322.649	100.94
322.878	102.94
323.108	116.94
323.337	123.94
323.566	115.94
323.795	135.94
324.024	171.94
324.253	303.94
324.482	632.94
324.71	1330.94
324.939	1753.94
325.168	633.94
325.397	199.94
325.626	135.94
325.855	118.94
326.084	118.94
326.313	118.94
326.542	129.94
326.77	196.94
326.999	383.94
327.228	766.94
327.457	1394.94
327.686	1139.94
327.914	310.94
328.143	164.94
328.372	147.94
328.6	107.94
328.829	112.94
329.058	115.94
329.287	116.94
329.515	97.94
329.744	105.94
329.972	105.94
330.201	103.94
330.43	113.94
330.658	85.94
330.887	100.94
331.115	112.94
331.344	97.94
331.572	82.94
331.801	91.94
332.03	118.94
332.258	89.94
332.486	96.94
332.715	79.94
332.943	101.94
333.172	96.94
333.4	88.94
333.629	103.94
333.857	107.94
334.085	106.94
334.314	100.94
334.542	101.94
334.771	96.94
334.999	102.94
335.227	83.94
335.455	110.94
335.684	95.94
335.912	80.94
336.14	116.94
336.369	97.94
336.597	96.94
336.825	88.94
337.053	101.94
337.281	102.94
337.51	79.94
337.738	95.94
337.966	95.94
338.194	91.94
338.422	95.94
338.65	94.94
338.878	90.94
339.106	75.94
339.334	80.94
339.562	85.94
339.79	82.94
340.018	83.94
340.246	92.94
340.474	84.94
340.702	95.94
340.93	91.94
341.158	91.94
341.386	88.94
341.614	96.94
341.842	90.94
342.07	101.94
342.298	91.94
342.526	92.94
342.754	100.94
342.981	92.94
343.209	82.94
343.437	105.94
343.665	84.94
343.893	95.94
344.12	103.94
344.348	94.94
344.576	88.94
344.804	78.94
345.031	103.94
345.259	92.94
345.487	81.94
345.714	98.94
345.942	91.94
346.17	93.94
346.397	94.94
346.625	104.94
346.853	97.94
347.08	102.94
347.308	97.94
347.535	98.94
347.763	105.94
347.99	98.94
348.218	95.94
348.445	103.94
348.673	104.94
348.9	96.94
349.128	122.94
349.355	86.94
349.583	85.94
349.81	89.94
350.037	86.94
350.265	102.94
350.492	102.94
350.72	107.94
350.947	92.94
351.174	88.94
351.402	94.94
351.629	107.94
351.856	107.94
352.083	107.94
352.311	97.94
352.538	104.94
352.765	97.94
352.992	108.94
353.22	106.94
353.447	95.94
353.674	99.94
353.901	114.94
354.128	101.94
354.355	99.94
354.583	108.94
354.81	107.94
355.037	106.94
355.264	90.94
355.491	85.94
355.718	86.94
355.945	100.94
356.172	104.94
356.399	95.94
356.626	97.94
356.853	90.94
357.08	91.94
357.307	89.94
357.534	73.94
357.761	101.94
357.988	94.94
358.215	98.94
358.441	108.94
358.668	97.94
358.895	92.94
359.122	84.94
359.349	90.94
359.576	102.94
359.802	93.94
360.029	90.94
360.256	99.94
360.483	82.94
360.709	80.94
360.936	96.94
361.163	96.94
361.39	106.94
361.616	82.94
361.843	80.94
362.07	100.94
362.296	102.94
362.523	91.94
362.749	73.94
362.976	71.94
363.203	84.94
363.429	96.94
363.656	98.94
363.882	79.94
364.109	95.94
364.335	96.94
364.562	91.94
364.788	87.94
365.015	107.94
365.241	103.94
365.468	95.94
365.694	97.94
365.92	108.94
366.147	85.94
366.373	115.94
366.599	88.94
366.826	86.94
367.052	108.94
367.278	74.94
367.505	94.94
367.731	95.94
367.957	97.94
368.184	94.94
368.41	106.94
368.636	105.94
368.862	114.94
369.089	94.94
369.315	91.94
369.541	67.94
369.767	88.94
369.993	96.94
370.219	101.94
370.445	85.94
370.672	100.94
370.898	96.94
371.124	88.94
371.35	102.94
371.576	80.94
371.802	87.94
372.028	83.94
372.254	86.94
372.48	86.94
372.706	74.94
372.932	100.94
373.158	111.94
373.384	91.94
373.61	100.94
373.835	101.94
374.061	98.94
374.287	92.94
374.513	94.94
374.739	79.94
374.965	99.94
375.191	85.94
375.416	90.94
375.642	89.94
375.868	96.94
376.094	86.94
376.319	82.94
376.545	102.94
376.771	82.94
376.997	90.94
377.222	98.94
377.448	94.94
377.674	99.94
377.899	82.94
378.125	95.94
378.35	110.94
378.576	78.94
378.802	106.94
379.027	94.94
379.253	95.94
379.478	84.94
379.704	91.94
379.929	96.94
380.155	94.94
380.38	99.94
380.606	86.94
380.831	107.94
381.057	86.94
381.282	96.94
381.507	99.94
381.733	105.94
381.958	91.94
382.184	111.94
382.409	94.94
382.634	106.94
382.86	103.94
383.085	106.94
383.31	99.94
383.535	98.94
383.761	121.94
383.986	87.94
384.211	104.94
384.436	101.94
384.662	115.94
384.887	115.94
385.112	115.94
385.337	125.94
385.562	122.94
385.787	117.94
386.013	130.94
386.238	129.94
386.463	119.94
386.688	115.94
386.913	110.94
387.138	118.94
387.363	99.94
387.588	98.94
387.813	116.94
388.038	117.94
388.263	131.94
388.488	125.94
388.713	88.94
388.938	112.94
389.163	100.94
389.387	102.94
389.612	113.94
389.837	82.94
390.062	108.94
390.287	95.94
390.512	92.94
390.736	98.94
390.961	92.94
391.186	90.94
391.411	106.94
391.636	100.94
391.86	91.94
392.085	88.94
392.31	84.94
392.534	84.94
392.759	85.94
392.984	94.94
393.208	101.94
393.433	108.94
393.658	100.94
393.882	84.94
394.107	87.94
394.331	89.94
394.556	87.94
394.78	90.94
395.005	78.94
395.229	95.94
395.454	82.94
395.678	86.94
395.903	88.94
396.127	84.94
396.352	95.94
396.576	96.94
396.801	86.94
397.025	104.94
397.249	91.94
397.474	72.94
397.698	84.94
397.922	80.94
398.147	90.94
398.371	82.94
398.595	100.94
398.82	87.94
399.044	81.94
399.268	110.94
399.492	83.94
399.717	94.94
399.941	102.94
400.165	102.94
400.389	93.94
400.613	66.94
400.837	80.94
401.062	100.94
401.286	93.94
401.51	88.94
401.734	88.94
401.958	98.94
402.182	112.94
402.406	117.94
402.63	99.94
402.854	89.94
403.078	92.94
403.302	90.94
403.526	80.94
403.75	80.94
403.974	80.94
404.198	78.94
404.422	97.94
404.645	82.94
404.869	90.94
405.093	86.94
405.317	83.94
405.541	91.94
405.765	97.94
405.988	101.94
406.212	142.94
406.436	180.94
406.66	127.94
406.883	97.94
407.107	89.94
407.331	93.94
407.555	95.94
407.778	91.94
408.002	92.94
408.226	83.94
408.449	85.94
408.673	91.94
408.896	101.94
409.12	96.94
409.344	97.94
409.567	100.94
409.791	99.94
410.014	110.94
410.238	97.94
410.461	79.94
410.685	97.94
410.908	92.94
411.132	108.94
411.355	92.94
411.578	100.94
411.802	75.94
412.025	95.94
412.249	87.94
412.472	94.94
412.695	80.94
412.919	82.94
413.142	86.94
413.365	95.94
413.589	78.94
413.812	92.94
414.035	89.94
414.258	84.94
414.482	89.94
414.705	93.94
414.928	88.94
415.151	89.94
415.374	100.94
415.597	85.94
415.821	88.94
416.044	94.94
416.267	90.94
416.49	94.94
416.713	90.94
416.936	72.94
417.159	74.94
417.382	90.94
417.605	96.94
417.828	86.94
418.051	105.94
418.274	88.94
418.497	71.94
418.72	92.94
418.943	85.94
419.166	83.94
419.389	92.94
419.611	98.94
419.834	97.94
420.057	90.94
420.28	76.94
420.503	82.94
420.726	94.94
420.948	88.94
421.171	83.94
421.394	96.94
421.617	90.94
421.839	110.94
422.062	98.94
422.285	87.94
422.507	78.94
422.73	106.94
422.953	99.94
423.175	86.94
423.398	78.94
423.621	95.94
423.843	79.94
424.066	96.94
424.288	89.94
424.511	89.94
424.733	102.94
424.956	109.94
425.178	98.94
425.401	92.94
425.623	89.94
425.846	80.94
426.068	91.94
426.291	94.94
426.513	77.94
426.735	83.94
426.958	92.94
427.18	102.94
427.402	120.94
427.625	138.94
427.847	108.94
428.069	95.94
428.292	85.94
428.514	87.94
428.736	75.94
428.958	87.94
429.181	78.94
429.403	83.94
429.625	96.94
429.847	92.94
430.069	98.94
430.292	86.94
430.514	74.94
430.736	78.94
430.958	78.94
431.18	67.94
431.402	82.94
431.624	82.94
431.846	88.94
432.068	80.94
432.29	89.94
432.512	88.94
432.734	78.94
432.956	100.94
433.178	89.94
433.4	87.94
433.622	97.94
433.844	95.94
434.066	82.94
434.287	89.94
434.509	80.94
434.731	75.94
434.953	69.94
435.175	87.94
435.397	71.94
435.618	91.94
435.84	97.94
436.062	107.94
436.284	107.94
436.505	92.94
436.727	99.94
436.949	90.94
437.17	82.94
437.392	80.94
437.614	94.94
437.835	94.94
438.057	104.94
438.278	107.94
438.5	102.94
438.721	103.94
438.943	98.94
439.165	83.94
439.386	106.94
439.608	82.94
439.829	86.94
440.05	98.94
440.272	126.94
440.493	100.94
440.715	92.94
440.936	88.94
441.158	95.94
441.379	85.94
441.6	106.94
441.822	89.94
442.043	87.94
442.264	104.94
442.486	100.94
442.707	76.94
442.928	101.94
443.149	97.94
443.371	110.94
443.592	95.94
443.813	105.94
444.034	97.94
444.255	89.94
444.476	83.94
444.698	88.94
444.919	75.94
445.14	112.94
445.361	118.94
445.582	117.94
445.803	123.94
446.024	114.94
446.245	105.94
446.466	108.94
446.687	85.94
446.908	92.94
447.129	94.94
447.35	96.94
447.571	92.94
447.792	94.94
448.013	86.94
448.234	94.94
448.455	99.94
448.675	95.94
448.896	100.94
449.117	97.94
449.338	102.94
449.559	116.94
449.779	106.94
450	93.94
450.221	81.94
450.442	82.94
450.662	90.94
450.883	80.94
451.104	111.94
451.324	101.94
451.545	70.94
451.766	92.94
451.986	72.94
452.207	86.94
452.428	105.94
452.648	95.94
452.869	91.94
453.089	100.94
453.31	103.94
453.53	88.94
453.751	94.94
453.971	103.94
454.192	92.94
454.412	88.94
454.633	93.94
454.853	83.94
455.073	80.94
455.294	97.94
455.514	86.94
455.734	92.94
455.955	76.94
456.175	90.94
456.395	76.94
456.616	87.94
456.836	90.94
457.056	88.94
457.276	90.94
457.497	82.94
457.717	86.94
457.937	84.94
458.157	83.94
458.377	83.94
458.598	95.94
458.818	116.94
459.038	130.94
459.258	108.94
459.478	82.94
459.698	83.94
459.918	86.94
460.138	82.94
460.358	91.94
460.578	89.94
460.798	88.94
461.018	82.94
461.238	90.94
461.458	93.94
461.678	86.94
461.898	86.94
462.118	79.94
462.338	82.94
462.558	83.94
462.777	75.94
462.997	80.94
463.217	86.94
463.437	92.94
463.657	90.94
463.876	98.94
464.096	87.94
464.316	83.94
464.536	89.94
464.755	100.94
464.975	96.94
465.195	122.94
465.414	115.94
465.634	101.94
465.854	94.94
466.073	95.94
466.293	79.94
466.512	80.94
466.732	88.94
466.951	87.94
467.171	88.94
467.391	74.94
467.61	89.94
467.829	97.94
468.049	90.94
468.268	86.94
468.488	84.94
468.707	90.94
468.927	81.94
469.146	76.94
469.365	92.94
469.585	86.94
469.804	84.94
470.023	89.94
470.243	88.94
470.462	96.94
470.681	87.94
470.901	95.94
471.12	90.94
471.339	86.94
471.558	89.94
471.777	93.94
471.997	98.94
472.216	88.94
472.435	110.94
472.654	89.94
472.873	86.94
473.092	91.94
473.311	82.94
473.53	84.94
473.749	90.94
473.968	96.94
474.187	99.94
474.406	100.94
474.625	88.94
474.844	72.94
475.063	81.94
475.282	66.94
475.501	91.94
475.72	82.94
475.939	87.94
476.158	86.94
476.377	96.94
476.596	89.94
476.814	93.94
477.033	95.94
477.252	77.94
477.471	92.94
477.69	90.94
477.908	84.94
478.127	94.94
478.346	85.94
478.564	99.94
478.783	93.94
479.002	95.94
479.22	89.94
479.439	103.94
479.658	108.94
479.876	82.94
480.095	87.94
480.313	84.94
480.532	86.94
480.751	89.94
480.969	94.94
481.188	109.94
481.406	107.94
481.624	98.94
481.843	82.94
482.061	85.94
482.28	81.94
482.498	90.94
482.717	88.94
482.935	82.94
483.153	87.94
483.372	77.94
483.59	95.94
483.808	89.94
484.027	88.94
484.245	100.94
484.463	92.94
484.681	104.94
484.9	95.94
485.118	87.94
485.336	89.94
485.554	103.94
485.772	98.94
485.99	102.94
486.209	99.94
486.427	100.94
486.645	98.94
486.863	105.94
487.081	101.94
487.299	103.94
487.517	98.94
487.735	77.94
487.953	96.94
488.171	98.94
488.389	86.94
488.607	82.94
488.825	98.94
489.043	70.94
489.261	98.94
489.479	84.94
489.696	92.94
489.914	82.94
490.132	83.94
490.35	94.94
490.568	84.94
490.786	83.94
491.003	88.94
491.221	100.94
491.439	98.94
491.657	96.94
491.874	81.94
492.092	86.94
492.31	89.94
492.527	83.94
492.745	89.94
492.963	84.94
493.18	83.94
493.398	69.94
493.615	90.94
493.833	98.94
494.05	98.94
494.268	104.94
494.485	89.94
494.703	83.94
494.92	80.94
495.138	78.94
495.355	92.94
495.573	95.94
495.79	87.94
496.008	87.94
496.225	84.94
496.442	95.94
496.66	93.94
496.877	106.94
497.094	90.94
497.312	97.94
497.529	93.94
497.746	79.94
497.963	83.94
498.181	91.94
498.398	106.94
498.615	98.94
498.832	92.94
499.049	90.94
499.267	89.94
499.484	76.94
499.701	87.94
499.918	88.94
500.135	84.94
500.352	87.94
500.569	103.94
500.786	85.94
501.003	87.94
501.22	84.94
501.437	75.94
501.654	94.94
501.871	103.94
502.088	100.94
502.305	87.94
502.522	95.94
502.739	98.94
502.956	87.94
503.172	90.94
503.389	100.94
503.606	94.94
503.823	82.94
504.04	94.94
504.256	95.94
504.473	78.94
504.69	93.94
504.907	99.94
505.123	94.94
505.34	95.94
505.557	81.94
505.773	77.94
505.99	71.94
506.207	84.94
506.423	77.94
506.64	84.94
506.856	74.94
507.073	94.94
507.289	92.94
507.506	101.94
507.722	86.94
507.939	86.94
508.155	97.94
508.372	91.94
508.588	78.94
508.805	108.94
509.021	81.94
509.238	98.94
509.454	87.94
509.67	97.94
509.887	95.94
510.103	119.94
510.319	169.94
510.536	526.94
510.752	1577.94
510.968	454.94
511.184	127.94
511.401	89.94
511.617	70.94
511.833	92.94
512.049	81.94
512.265	82.94
512.481	91.94
512.698	90.94
512.914	82.94
513.13	95.94
513.346	85.94
513.562	82.94
513.778	94.94
513.994	87.94
514.21	98.94
514.426	96.94
514.642	122.94
514.858	123.94
515.074	137.94
515.29	313.94
515.506	917.94
515.721	358.94
515.937	133.94
516.153	92.94
516.369	95.94
