Data from Circ_1985_H10_HRD10591_00075.txt Node
Date: Wed Jan 03 12:19:37 EST 2024
User: Yrep
Spectrometer: HR+D1059
Trigger mode: 1
Integration Time (sec): 1.000000E-1
Scans to average: 1
Electric dark correction enabled: true
Nonlinearity correction enabled: false
Boxcar width: 0
XAxis mode: Wavelengths
Number of Pixels in Spectrum: 2048
>>>>>Begin Spectral Data<<<<<
223.165	-27.44
223.4	-27.44
223.635	-27.44
223.869	-15.44
224.104	-15.44
224.338	-21.44
224.573	-15.44
224.808	-7.44
225.042	-11.44
225.277	4.56
225.511	9.56
225.746	10.56
225.98	11.56
226.215	5.56
226.449	3.56
226.683	14.56
226.918	20.56
227.152	33.56
227.387	28.56
227.621	55.56
227.856	44.56
228.09	59.56
228.324	43.56
228.559	56.56
228.793	52.56
229.027	67.56
229.262	76.56
229.496	80.56
229.73	78.56
229.964	75.56
230.199	82.56
230.433	48.56
230.667	82.56
230.901	86.56
231.136	78.56
231.37	92.56
231.604	92.56
231.838	78.56
232.072	76.56
232.306	83.56
232.541	94.56
232.775	88.56
233.009	79.56
233.243	82.56
233.477	76.56
233.711	97.56
233.945	83.56
234.179	81.56
234.413	78.56
234.647	78.56
234.881	80.56
235.115	80.56
235.349	76.56
235.583	80.56
235.817	69.56
236.051	78.56
236.285	82.56
236.519	70.56
236.753	78.56
236.987	78.56
237.221	89.56
237.455	91.56
237.689	63.56
237.922	68.56
238.156	75.56
238.39	87.56
238.624	74.56
238.858	81.56
239.091	76.56
239.325	82.56
239.559	70.56
239.793	87.56
240.027	79.56
240.26	78.56
240.494	74.56
240.728	86.56
240.961	78.56
241.195	79.56
241.429	88.56
241.662	73.56
241.896	64.56
242.13	81.56
242.363	80.56
242.597	86.56
242.83	88.56
243.064	82.56
243.298	100.56
243.531	69.56
243.765	82.56
243.998	82.56
244.232	76.56
244.465	87.56
244.699	82.56
244.932	78.56
245.166	81.56
245.399	85.56
245.633	74.56
245.866	78.56
246.099	72.56
246.333	88.56
246.566	71.56
246.8	71.56
247.033	65.56
247.266	75.56
247.5	76.56
247.733	78.56
247.966	64.56
248.2	84.56
248.433	72.56
248.666	75.56
248.899	72.56
249.133	78.56
249.366	99.56
249.599	107.56
249.832	80.56
250.066	83.56
250.299	83.56
250.532	90.56
250.765	77.56
250.998	82.56
251.231	75.56
251.465	78.56
251.698	72.56
251.931	68.56
252.164	75.56
252.397	79.56
252.63	82.56
252.863	86.56
253.096	78.56
253.329	78.56
253.562	71.56
253.795	80.56
254.028	78.56
254.261	85.56
254.494	81.56
254.727	85.56
254.96	92.56
255.193	95.56
255.426	87.56
255.659	82.56
255.892	90.56
256.124	95.56
256.357	68.56
256.59	82.56
256.823	75.56
257.056	73.56
257.289	93.56
257.521	75.56
257.754	74.56
257.987	69.56
258.22	80.56
258.452	85.56
258.685	87.56
258.918	96.56
259.151	80.56
259.383	89.56
259.616	97.56
259.849	89.56
260.081	74.56
260.314	77.56
260.547	58.56
260.779	80.56
261.012	84.56
261.244	79.56
261.477	86.56
261.71	92.56
261.942	102.56
262.175	112.56
262.407	97.56
262.64	79.56
262.872	81.56
263.105	94.56
263.337	83.56
263.57	80.56
263.802	75.56
264.035	90.56
264.267	72.56
264.499	90.56
264.732	91.56
264.964	73.56
265.197	82.56
265.429	78.56
265.661	82.56
265.894	80.56
266.126	82.56
266.358	82.56
266.591	89.56
266.823	78.56
267.055	72.56
267.287	88.56
267.52	94.56
267.752	98.56
267.984	98.56
268.216	91.56
268.448	80.56
268.681	84.56
268.913	86.56
269.145	86.56
269.377	83.56
269.609	80.56
269.841	95.56
270.073	90.56
270.306	80.56
270.538	73.56
270.77	90.56
271.002	85.56
271.234	93.56
271.466	102.56
271.698	92.56
271.93	82.56
272.162	84.56
272.394	88.56
272.626	82.56
272.858	74.56
273.09	87.56
273.322	86.56
273.553	94.56
273.785	77.56
274.017	83.56
274.249	90.56
274.481	85.56
274.713	85.56
274.945	88.56
275.176	79.56
275.408	96.56
275.64	94.56
275.872	70.56
276.104	84.56
276.335	98.56
276.567	97.56
276.799	112.56
277.031	96.56
277.262	92.56
277.494	94.56
277.726	104.56
277.957	90.56
278.189	84.56
278.421	86.56
278.652	74.56
278.884	101.56
279.115	91.56
279.347	94.56
279.579	88.56
279.81	93.56
280.042	87.56
280.273	97.56
280.505	93.56
280.736	98.56
280.968	71.56
281.199	96.56
281.431	101.56
281.662	93.56
281.894	94.56
282.125	99.56
282.356	121.56
282.588	120.56
282.819	117.56
283.051	78.56
283.282	83.56
283.513	93.56
283.745	81.56
283.976	92.56
284.207	90.56
284.439	80.56
284.67	83.56
284.901	87.56
285.132	96.56
285.364	87.56
285.595	83.56
285.826	79.56
286.057	80.56
286.288	82.56
286.52	71.56
286.751	78.56
286.982	101.56
287.213	95.56
287.444	85.56
287.675	83.56
287.906	82.56
288.138	96.56
288.369	94.56
288.6	90.56
288.831	82.56
289.062	76.56
289.293	89.56
289.524	88.56
289.755	99.56
289.986	92.56
290.217	87.56
290.448	90.56
290.679	98.56
290.91	89.56
291.141	70.56
291.371	81.56
291.602	91.56
291.833	79.56
292.064	85.56
292.295	87.56
292.526	86.56
292.757	79.56
292.987	87.56
293.218	94.56
293.449	94.56
293.68	95.56
293.91	87.56
294.141	87.56
294.372	97.56
294.603	93.56
294.833	102.56
295.064	85.56
295.295	78.56
295.525	90.56
295.756	90.56
295.987	117.56
296.217	121.56
296.448	111.56
296.679	98.56
296.909	92.56
297.14	63.56
297.37	86.56
297.601	71.56
297.831	92.56
298.062	88.56
298.292	89.56
298.523	94.56
298.753	87.56
298.984	84.56
299.214	75.56
299.445	87.56
299.675	100.56
299.905	76.56
300.136	84.56
300.366	83.56
300.597	92.56
300.827	88.56
301.057	102.56
301.288	102.56
301.518	88.56
301.748	79.56
301.979	100.56
302.209	89.56
302.439	92.56
302.669	97.56
302.9	83.56
303.13	87.56
303.36	85.56
303.59	95.56
303.82	114.56
304.051	88.56
304.281	88.56
304.511	89.56
304.741	82.56
304.971	94.56
305.201	91.56
305.431	81.56
305.661	88.56
305.891	87.56
306.121	94.56
306.352	98.56
306.582	82.56
306.812	88.56
307.042	90.56
307.272	89.56
307.502	94.56
307.731	88.56
307.961	102.56
308.191	82.56
308.421	80.56
308.651	96.56
308.881	95.56
309.111	92.56
309.341	84.56
309.571	86.56
309.8	100.56
310.03	99.56
310.26	89.56
310.49	96.56
310.72	87.56
310.949	99.56
311.179	83.56
311.409	89.56
311.639	82.56
311.868	84.56
312.098	97.56
312.328	79.56
312.557	104.56
312.787	98.56
313.017	112.56
313.246	88.56
313.476	97.56
313.706	96.56
313.935	96.56
314.165	86.56
314.394	102.56
314.624	91.56
314.853	84.56
315.083	93.56
315.312	102.56
315.542	99.56
315.771	102.56
316.001	94.56
316.23	85.56
316.46	97.56
316.689	86.56
316.919	77.56
317.148	81.56
317.377	97.56
317.607	99.56
317.836	102.56
318.065	74.56
318.295	78.56
318.524	90.56
318.753	98.56
318.983	102.56
319.212	107.56
319.441	106.56
319.67	73.56
319.9	90.56
320.129	88.56
320.358	106.56
320.587	103.56
320.816	99.56
321.046	97.56
321.275	90.56
321.504	91.56
321.733	89.56
321.962	88.56
322.191	90.56
322.42	108.56
322.649	107.56
322.878	113.56
323.108	118.56
323.337	118.56
323.566	114.56
323.795	144.56
324.024	193.56
324.253	341.56
324.482	732.56
324.71	1539.56
324.939	2022.56
325.168	763.56
325.397	232.56
325.626	150.56
325.855	146.56
326.084	118.56
326.313	135.56
326.542	143.56
326.77	201.56
326.999	432.56
327.228	857.56
327.457	1570.56
327.686	1227.56
327.914	357.56
328.143	168.56
328.372	153.56
328.6	126.56
328.829	114.56
329.058	115.56
329.287	125.56
329.515	110.56
329.744	98.56
329.972	104.56
330.201	137.56
330.43	132.56
330.658	127.56
330.887	116.56
331.115	110.56
331.344	92.56
331.572	91.56
331.801	91.56
332.03	90.56
332.258	109.56
332.486	104.56
332.715	90.56
332.943	94.56
333.172	92.56
333.4	98.56
333.629	104.56
333.857	113.56
334.085	104.56
334.314	117.56
334.542	159.56
334.771	149.56
334.999	107.56
335.227	101.56
335.455	98.56
335.684	96.56
335.912	90.56
336.14	102.56
336.369	99.56
336.597	102.56
336.825	101.56
337.053	108.56
337.281	100.56
337.51	78.56
337.738	92.56
337.966	82.56
338.194	94.56
338.422	109.56
338.65	94.56
338.878	82.56
339.106	83.56
339.334	89.56
339.562	74.56
339.79	95.56
340.018	90.56
340.246	84.56
340.474	85.56
340.702	98.56
340.93	104.56
341.158	80.56
341.386	79.56
341.614	83.56
341.842	82.56
342.07	91.56
342.298	94.56
342.526	99.56
342.754	90.56
342.981	74.56
343.209	92.56
343.437	97.56
343.665	90.56
343.893	96.56
344.12	95.56
344.348	73.56
344.576	94.56
344.804	91.56
345.031	102.56
345.259	98.56
345.487	97.56
345.714	89.56
345.942	81.56
346.17	92.56
346.397	96.56
346.625	84.56
346.853	74.56
347.08	90.56
347.308	94.56
347.535	105.56
347.763	107.56
347.99	96.56
348.218	90.56
348.445	95.56
348.673	102.56
348.9	82.56
349.128	83.56
349.355	112.56
349.583	88.56
349.81	104.56
350.037	79.56
350.265	84.56
350.492	102.56
350.72	92.56
350.947	106.56
351.174	113.56
351.402	96.56
351.629	98.56
351.856	94.56
352.083	105.56
352.311	100.56
352.538	106.56
352.765	111.56
352.992	124.56
353.22	114.56
353.447	101.56
353.674	109.56
353.901	84.56
354.128	95.56
354.355	94.56
354.583	102.56
354.81	96.56
355.037	94.56
355.264	100.56
355.491	106.56
355.718	87.56
355.945	86.56
356.172	80.56
356.399	100.56
356.626	83.56
356.853	105.56
357.08	96.56
357.307	98.56
357.534	94.56
357.761	107.56
357.988	102.56
358.215	78.56
358.441	102.56
358.668	78.56
358.895	92.56
359.122	92.56
359.349	86.56
359.576	83.56
359.802	102.56
360.029	94.56
360.256	103.56
360.483	97.56
360.709	76.56
360.936	89.56
361.163	96.56
361.39	82.56
361.616	93.56
361.843	104.56
362.07	81.56
362.296	87.56
362.523	88.56
362.749	83.56
362.976	101.56
363.203	80.56
363.429	86.56
363.656	78.56
363.882	90.56
364.109	87.56
364.335	72.56
364.562	83.56
364.788	90.56
365.015	80.56
365.241	103.56
365.468	105.56
365.694	100.56
365.92	91.56
366.147	96.56
366.373	88.56
366.599	94.56
366.826	80.56
367.052	84.56
367.278	92.56
367.505	96.56
367.731	95.56
367.957	94.56
368.184	69.56
368.41	94.56
368.636	113.56
368.862	126.56
369.089	92.56
369.315	99.56
369.541	78.56
369.767	86.56
369.993	103.56
370.219	82.56
370.445	88.56
370.672	100.56
370.898	89.56
371.124	82.56
371.35	96.56
371.576	85.56
371.802	64.56
372.028	94.56
372.254	66.56
372.48	92.56
372.706	82.56
372.932	96.56
373.158	89.56
373.384	111.56
373.61	88.56
373.835	75.56
374.061	80.56
374.287	85.56
374.513	85.56
374.739	96.56
374.965	99.56
375.191	94.56
375.416	99.56
375.642	87.56
375.868	83.56
376.094	82.56
376.319	90.56
376.545	82.56
376.771	92.56
376.997	76.56
377.222	85.56
377.448	87.56
377.674	96.56
377.899	98.56
378.125	88.56
378.35	96.56
378.576	80.56
378.802	85.56
379.027	87.56
379.253	84.56
379.478	91.56
379.704	77.56
379.929	96.56
380.155	84.56
380.38	80.56
380.606	84.56
380.831	94.56
381.057	92.56
381.282	82.56
381.507	79.56
381.733	98.56
381.958	84.56
382.184	92.56
382.409	94.56
382.634	95.56
382.86	95.56
383.085	107.56
383.31	91.56
383.535	94.56
383.761	103.56
383.986	110.56
384.211	99.56
384.436	92.56
384.662	103.56
384.887	105.56
385.112	108.56
385.337	98.56
385.562	82.56
385.787	101.56
386.013	97.56
386.238	114.56
386.463	107.56
386.688	99.56
386.913	103.56
387.138	114.56
387.363	98.56
387.588	88.56
387.813	102.56
388.038	97.56
388.263	100.56
388.488	114.56
388.713	102.56
388.938	86.56
389.163	90.56
389.387	93.56
389.612	112.56
389.837	87.56
390.062	98.56
390.287	84.56
390.512	95.56
390.736	84.56
390.961	89.56
391.186	82.56
391.411	91.56
391.636	105.56
391.86	80.56
392.085	86.56
392.31	91.56
392.534	86.56
392.759	80.56
392.984	81.56
393.208	98.56
393.433	102.56
393.658	88.56
393.882	78.56
394.107	83.56
394.331	73.56
394.556	95.56
394.78	96.56
395.005	92.56
395.229	87.56
395.454	82.56
395.678	93.56
395.903	96.56
396.127	94.56
396.352	89.56
396.576	89.56
396.801	95.56
397.025	92.56
397.249	74.56
397.474	99.56
397.698	72.56
397.922	73.56
398.147	92.56
398.371	87.56
398.595	88.56
398.82	84.56
399.044	91.56
399.268	79.56
399.492	102.56
399.717	81.56
399.941	86.56
400.165	96.56
400.389	89.56
400.613	88.56
400.837	107.56
401.062	101.56
401.286	83.56
401.51	82.56
401.734	80.56
401.958	98.56
402.182	107.56
402.406	146.56
402.63	99.56
402.854	94.56
403.078	88.56
403.302	87.56
403.526	67.56
403.75	80.56
403.974	75.56
404.198	86.56
404.422	85.56
404.645	83.56
404.869	106.56
405.093	90.56
405.317	103.56
405.541	95.56
405.765	90.56
405.988	117.56
406.212	160.56
406.436	203.56
406.66	127.56
406.883	107.56
407.107	86.56
407.331	73.56
407.555	90.56
407.778	93.56
408.002	86.56
408.226	84.56
408.449	90.56
408.673	90.56
408.896	90.56
409.12	87.56
409.344	88.56
409.567	79.56
409.791	103.56
410.014	78.56
410.238	113.56
410.461	94.56
410.685	96.56
410.908	91.56
411.132	95.56
411.355	99.56
411.578	85.56
411.802	85.56
412.025	91.56
412.249	98.56
412.472	93.56
412.695	84.56
412.919	103.56
413.142	86.56
413.365	74.56
413.589	99.56
413.812	84.56
414.035	101.56
414.258	90.56
414.482	84.56
414.705	88.56
414.928	87.56
415.151	91.56
415.374	74.56
415.597	89.56
415.821	93.56
416.044	72.56
416.267	97.56
416.49	95.56
416.713	70.56
416.936	74.56
417.159	76.56
417.382	91.56
417.605	84.56
417.828	87.56
418.051	91.56
418.274	91.56
418.497	89.56
418.72	88.56
418.943	88.56
419.166	73.56
419.389	94.56
419.611	86.56
419.834	88.56
420.057	82.56
420.28	95.56
420.503	81.56
420.726	69.56
420.948	87.56
421.171	86.56
421.394	98.56
421.617	85.56
421.839	99.56
422.062	91.56
422.285	95.56
422.507	100.56
422.73	95.56
422.953	76.56
423.175	96.56
423.398	85.56
423.621	82.56
423.843	87.56
424.066	89.56
424.288	94.56
424.511	80.56
424.733	103.56
424.956	106.56
425.178	95.56
425.401	101.56
425.623	105.56
425.846	90.56
426.068	72.56
426.291	88.56
426.513	99.56
426.735	95.56
426.958	78.56
427.18	94.56
427.402	123.56
427.625	147.56
427.847	113.56
428.069	105.56
428.292	86.56
428.514	100.56
428.736	86.56
428.958	82.56
429.181	85.56
429.403	94.56
429.625	88.56
429.847	59.56
430.069	96.56
430.292	98.56
430.514	90.56
430.736	79.56
430.958	78.56
431.18	83.56
431.402	94.56
431.624	80.56
431.846	91.56
432.068	87.56
432.29	76.56
432.512	87.56
432.734	89.56
432.956	76.56
433.178	94.56
433.4	98.56
433.622	89.56
433.844	91.56
434.066	103.56
434.287	95.56
434.509	96.56
434.731	85.56
434.953	80.56
435.175	99.56
435.397	80.56
435.618	92.56
435.84	94.56
436.062	116.56
436.284	107.56
436.505	102.56
436.727	101.56
436.949	91.56
437.17	92.56
437.392	80.56
437.614	98.56
437.835	108.56
438.057	99.56
438.278	96.56
438.5	96.56
438.721	113.56
438.943	104.56
439.165	89.56
439.386	100.56
439.608	90.56
439.829	86.56
440.05	120.56
440.272	130.56
440.493	89.56
440.715	88.56
440.936	93.56
441.158	82.56
441.379	96.56
441.6	75.56
441.822	94.56
442.043	83.56
442.264	86.56
442.486	100.56
442.707	94.56
442.928	85.56
443.149	119.56
443.371	114.56
443.592	103.56
443.813	103.56
444.034	95.56
444.255	98.56
444.476	77.56
444.698	89.56
444.919	94.56
445.14	127.56
445.361	114.56
445.582	101.56
445.803	125.56
446.024	122.56
446.245	123.56
446.466	97.56
446.687	86.56
446.908	87.56
447.129	89.56
447.35	80.56
447.571	84.56
447.792	86.56
448.013	101.56
448.234	100.56
448.455	97.56
448.675	110.56
448.896	113.56
449.117	95.56
449.338	105.56
449.559	129.56
449.779	129.56
450	100.56
450.221	90.56
450.442	78.56
450.662	82.56
450.883	108.56
451.104	107.56
451.324	94.56
451.545	85.56
451.766	78.56
451.986	76.56
452.207	82.56
452.428	90.56
452.648	98.56
452.869	102.56
453.089	90.56
453.31	103.56
453.53	97.56
453.751	82.56
453.971	98.56
454.192	88.56
454.412	81.56
454.633	75.56
454.853	75.56
455.073	93.56
455.294	94.56
455.514	91.56
455.734	88.56
455.955	86.56
456.175	66.56
456.395	73.56
456.616	90.56
456.836	89.56
457.056	81.56
457.276	99.56
457.497	88.56
457.717	88.56
457.937	86.56
458.157	80.56
458.377	81.56
458.598	107.56
458.818	117.56
459.038	130.56
459.258	101.56
459.478	88.56
459.698	78.56
459.918	79.56
460.138	89.56
460.358	78.56
460.578	78.56
460.798	90.56
461.018	89.56
461.238	78.56
461.458	93.56
461.678	94.56
461.898	89.56
462.118	92.56
462.338	88.56
462.558	88.56
462.777	74.56
462.997	86.56
463.217	96.56
463.437	81.56
463.657	65.56
463.876	97.56
464.096	97.56
464.316	82.56
464.536	88.56
464.755	83.56
464.975	97.56
465.195	129.56
465.414	135.56
465.634	91.56
465.854	89.56
466.073	106.56
466.293	81.56
466.512	88.56
466.732	89.56
466.951	97.56
467.171	79.56
467.391	104.56
467.61	102.56
467.829	84.56
468.049	123.56
468.268	88.56
468.488	90.56
468.707	106.56
468.927	88.56
469.146	76.56
469.365	86.56
469.585	90.56
469.804	94.56
470.023	95.56
470.243	92.56
470.462	85.56
470.681	93.56
470.901	91.56
471.12	89.56
471.339	101.56
471.558	95.56
471.777	96.56
471.997	87.56
472.216	147.56
472.435	186.56
472.654	127.56
472.873	97.56
473.092	84.56
473.311	95.56
473.53	101.56
473.749	94.56
473.968	87.56
474.187	89.56
474.406	94.56
474.625	91.56
474.844	89.56
475.063	90.56
475.282	92.56
475.501	93.56
475.72	66.56
475.939	94.56
476.158	88.56
476.377	85.56
476.596	95.56
476.814	95.56
477.033	75.56
477.252	94.56
477.471	70.56
477.69	76.56
477.908	88.56
478.127	98.56
478.346	90.56
478.564	89.56
478.783	80.56
479.002	74.56
479.22	93.56
479.439	105.56
479.658	85.56
479.876	90.56
480.095	92.56
480.313	99.56
480.532	95.56
480.751	96.56
480.969	130.56
481.188	255.56
481.406	180.56
481.624	101.56
481.843	92.56
482.061	98.56
482.28	92.56
482.498	91.56
482.717	89.56
482.935	96.56
483.153	94.56
483.372	81.56
483.59	94.56
483.808	93.56
484.027	83.56
484.245	99.56
484.463	95.56
484.681	99.56
484.9	101.56
485.118	85.56
485.336	96.56
485.554	89.56
485.772	100.56
485.99	114.56
486.209	105.56
486.427	98.56
486.645	88.56
486.863	114.56
487.081	86.56
487.299	105.56
487.517	102.56
487.735	98.56
487.953	108.56
488.171	91.56
488.389	98.56
488.607	91.56
488.825	94.56
489.043	85.56
489.261	88.56
489.479	90.56
489.696	89.56
489.914	81.56
490.132	90.56
490.35	95.56
490.568	93.56
490.786	89.56
491.003	86.56
491.221	97.56
491.439	66.56
491.657	88.56
491.874	95.56
492.092	81.56
492.31	83.56
492.527	99.56
492.745	73.56
492.963	86.56
493.18	98.56
493.398	92.56
493.615	93.56
493.833	108.56
494.05	94.56
494.268	89.56
494.485	91.56
494.703	100.56
494.92	98.56
495.138	96.56
495.355	97.56
495.573	83.56
495.79	105.56
496.008	108.56
496.225	82.56
496.442	99.56
496.66	95.56
496.877	74.56
497.094	87.56
497.312	75.56
497.529	91.56
497.746	89.56
497.963	92.56
498.181	85.56
498.398	82.56
498.615	101.56
498.832	94.56
499.049	101.56
499.267	84.56
499.484	81.56
499.701	87.56
499.918	83.56
500.135	96.56
500.352	104.56
500.569	96.56
500.786	88.56
501.003	82.56
501.22	87.56
501.437	84.56
501.654	88.56
501.871	112.56
502.088	99.56
502.305	99.56
502.522	81.56
502.739	74.56
502.956	100.56
503.172	97.56
503.389	104.56
503.606	105.56
503.823	103.56
504.04	101.56
504.256	102.56
504.473	103.56
504.69	86.56
504.907	91.56
505.123	80.56
505.34	91.56
505.557	88.56
505.773	88.56
505.99	93.56
506.207	95.56
506.423	82.56
506.64	98.56
506.856	82.56
507.073	103.56
507.289	91.56
507.506	92.56
507.722	111.56
507.939	100.56
508.155	99.56
508.372	109.56
508.588	88.56
508.805	84.56
509.021	92.56
509.238	100.56
509.454	103.56
509.67	106.56
509.887	101.56
510.103	123.56
510.319	201.56
510.536	686.56
510.752	2160.56
510.968	582.56
511.184	150.56
511.401	108.56
511.617	99.56
511.833	90.56
512.049	99.56
512.265	102.56
512.481	78.56
512.698	94.56
512.914	95.56
513.13	85.56
513.346	91.56
513.562	95.56
513.778	95.56
513.994	92.56
514.21	104.56
514.426	125.56
514.642	142.56
514.858	106.56
515.074	138.56
515.29	392.56
515.506	1282.56
515.721	458.56
515.937	139.56
516.153	99.56
