Data from Circ_1985_H10_HRD10591_00070.txt Node
Date: Wed Jan 03 12:19:36 EST 2024
User: Yrep
Spectrometer: HR+D1059
Trigger mode: 1
Integration Time (sec): 1.000000E-1
Scans to average: 1
Electric dark correction enabled: true
Nonlinearity correction enabled: false
Boxcar width: 0
XAxis mode: Wavelengths
Number of Pixels in Spectrum: 2048
>>>>>Begin Spectral Data<<<<<
223.165	-38.81
223.4	-38.81
223.635	-38.81
223.869	-10.81
224.104	-13.81
224.338	-22.81
224.573	-12.81
224.808	-17.81
225.042	-9.81
225.277	-8.81
225.511	2.19
225.746	-2.81
225.98	5.19
226.215	13.19
226.449	32.19
226.683	20.19
226.918	35.19
227.152	30.19
227.387	24.19
227.621	35.19
227.856	40.19
228.09	43.19
228.324	54.19
228.559	52.19
228.793	61.19
229.027	78.19
229.262	76.19
229.496	76.19
229.73	87.19
229.964	88.19
230.199	78.19
230.433	77.19
230.667	68.19
230.901	70.19
231.136	68.19
231.37	83.19
231.604	95.19
231.838	88.19
232.072	89.19
232.306	95.19
232.541	92.19
232.775	96.19
233.009	80.19
233.243	94.19
233.477	90.19
233.711	81.19
233.945	91.19
234.179	83.19
234.413	91.19
234.647	81.19
234.881	72.19
235.115	78.19
235.349	84.19
235.583	77.19
235.817	68.19
236.051	78.19
236.285	81.19
236.519	82.19
236.753	74.19
236.987	65.19
237.221	69.19
237.455	93.19
237.689	82.19
237.922	57.19
238.156	73.19
238.39	65.19
238.624	71.19
238.858	85.19
239.091	84.19
239.325	69.19
239.559	91.19
239.793	92.19
240.027	90.19
240.26	78.19
240.494	72.19
240.728	95.19
240.961	66.19
241.195	66.19
241.429	80.19
241.662	96.19
241.896	72.19
242.13	68.19
242.363	73.19
242.597	79.19
242.83	86.19
243.064	89.19
243.298	84.19
243.531	80.19
243.765	68.19
243.998	93.19
244.232	73.19
244.465	77.19
244.699	76.19
244.932	74.19
245.166	82.19
245.399	74.19
245.633	90.19
245.866	81.19
246.099	67.19
246.333	74.19
246.566	82.19
246.8	76.19
247.033	78.19
247.266	68.19
247.5	76.19
247.733	58.19
247.966	67.19
248.2	71.19
248.433	76.19
248.666	87.19
248.899	84.19
249.133	81.19
249.366	82.19
249.599	91.19
249.832	84.19
250.066	86.19
250.299	84.19
250.532	75.19
250.765	74.19
250.998	77.19
251.231	86.19
251.465	80.19
251.698	76.19
251.931	86.19
252.164	75.19
252.397	94.19
252.63	82.19
252.863	92.19
253.096	86.19
253.329	71.19
253.562	64.19
253.795	83.19
254.028	80.19
254.261	98.19
254.494	73.19
254.727	79.19
254.96	90.19
255.193	86.19
255.426	83.19
255.659	84.19
255.892	74.19
256.124	88.19
256.357	83.19
256.59	74.19
256.823	76.19
257.056	82.19
257.289	90.19
257.521	86.19
257.754	83.19
257.987	100.19
258.22	83.19
258.452	69.19
258.685	74.19
258.918	70.19
259.151	93.19
259.383	98.19
259.616	81.19
259.849	86.19
260.081	86.19
260.314	78.19
260.547	74.19
260.779	83.19
261.012	92.19
261.244	90.19
261.477	87.19
261.71	98.19
261.942	100.19
262.175	101.19
262.407	92.19
262.64	76.19
262.872	95.19
263.105	87.19
263.337	90.19
263.57	83.19
263.802	69.19
264.035	96.19
264.267	93.19
264.499	86.19
264.732	88.19
264.964	82.19
265.197	74.19
265.429	80.19
265.661	95.19
265.894	93.19
266.126	89.19
266.358	91.19
266.591	90.19
266.823	75.19
267.055	77.19
267.287	85.19
267.52	70.19
267.752	85.19
267.984	93.19
268.216	81.19
268.448	88.19
268.681	82.19
268.913	81.19
269.145	82.19
269.377	92.19
269.609	75.19
269.841	101.19
270.073	79.19
270.306	96.19
270.538	85.19
270.77	76.19
271.002	86.19
271.234	72.19
271.466	81.19
271.698	85.19
271.93	91.19
272.162	83.19
272.394	80.19
272.626	88.19
272.858	84.19
273.09	108.19
273.322	83.19
273.553	84.19
273.785	86.19
274.017	87.19
274.249	77.19
274.481	86.19
274.713	85.19
274.945	80.19
275.176	84.19
275.408	93.19
275.64	100.19
275.872	75.19
276.104	89.19
276.335	106.19
276.567	108.19
276.799	121.19
277.031	101.19
277.262	73.19
277.494	81.19
277.726	88.19
277.957	73.19
278.189	90.19
278.421	85.19
278.652	86.19
278.884	99.19
279.115	87.19
279.347	88.19
279.579	71.19
279.81	84.19
280.042	83.19
280.273	96.19
280.505	89.19
280.736	84.19
280.968	87.19
281.199	92.19
281.431	82.19
281.662	90.19
281.894	108.19
282.125	110.19
282.356	121.19
282.588	117.19
282.819	105.19
283.051	92.19
283.282	91.19
283.513	99.19
283.745	89.19
283.976	77.19
284.207	102.19
284.439	93.19
284.67	86.19
284.901	96.19
285.132	92.19
285.364	90.19
285.595	93.19
285.826	69.19
286.057	93.19
286.288	94.19
286.52	84.19
286.751	97.19
286.982	89.19
287.213	80.19
287.444	80.19
287.675	88.19
287.906	97.19
288.138	92.19
288.369	106.19
288.6	90.19
288.831	81.19
289.062	96.19
289.293	99.19
289.524	100.19
289.755	85.19
289.986	83.19
290.217	81.19
290.448	96.19
290.679	90.19
290.91	89.19
291.141	81.19
291.371	81.19
291.602	89.19
291.833	88.19
292.064	90.19
292.295	94.19
292.526	103.19
292.757	92.19
292.987	87.19
293.218	96.19
293.449	92.19
293.68	80.19
293.91	88.19
294.141	92.19
294.372	101.19
294.603	86.19
294.833	97.19
295.064	90.19
295.295	80.19
295.525	85.19
295.756	98.19
295.987	103.19
296.217	128.19
296.448	93.19
296.679	96.19
296.909	103.19
297.14	96.19
297.37	102.19
297.601	91.19
297.831	93.19
298.062	82.19
298.292	90.19
298.523	69.19
298.753	93.19
298.984	92.19
299.214	88.19
299.445	90.19
299.675	99.19
299.905	117.19
300.136	95.19
300.366	90.19
300.597	97.19
300.827	85.19
301.057	95.19
301.288	101.19
301.518	84.19
301.748	98.19
301.979	88.19
302.209	89.19
302.439	107.19
302.669	78.19
302.9	90.19
303.13	93.19
303.36	96.19
303.59	85.19
303.82	94.19
304.051	95.19
304.281	100.19
304.511	94.19
304.741	86.19
304.971	87.19
305.201	94.19
305.431	89.19
305.661	97.19
305.891	84.19
306.121	101.19
306.352	102.19
306.582	109.19
306.812	84.19
307.042	97.19
307.272	85.19
307.502	83.19
307.731	91.19
307.961	98.19
308.191	78.19
308.421	88.19
308.651	97.19
308.881	100.19
309.111	88.19
309.341	100.19
309.571	90.19
309.8	94.19
310.03	80.19
310.26	95.19
310.49	89.19
310.72	103.19
310.949	89.19
311.179	98.19
311.409	92.19
311.639	90.19
311.868	100.19
312.098	103.19
312.328	102.19
312.557	92.19
312.787	92.19
313.017	94.19
313.246	91.19
313.476	97.19
313.706	96.19
313.935	92.19
314.165	107.19
314.394	104.19
314.624	104.19
314.853	107.19
315.083	87.19
315.312	91.19
315.542	109.19
315.771	96.19
316.001	92.19
316.23	92.19
316.46	86.19
316.689	92.19
316.919	96.19
317.148	93.19
317.377	101.19
317.607	98.19
317.836	97.19
318.065	104.19
318.295	98.19
318.524	92.19
318.753	97.19
318.983	90.19
319.212	106.19
319.441	105.19
319.67	104.19
319.9	91.19
320.129	101.19
320.358	91.19
320.587	101.19
320.816	90.19
321.046	106.19
321.275	113.19
321.504	91.19
321.733	79.19
321.962	96.19
322.191	87.19
322.42	102.19
322.649	96.19
322.878	106.19
323.108	124.19
323.337	117.19
323.566	125.19
323.795	138.19
324.024	214.19
324.253	374.19
324.482	791.19
324.71	1646.19
324.939	2229.19
325.168	785.19
325.397	255.19
325.626	124.19
325.855	115.19
326.084	131.19
326.313	119.19
326.542	150.19
326.77	242.19
326.999	444.19
327.228	931.19
327.457	1725.19
327.686	1386.19
327.914	382.19
328.143	189.19
328.372	137.19
328.6	116.19
328.829	115.19
329.058	116.19
329.287	107.19
329.515	102.19
329.744	93.19
329.972	113.19
330.201	129.19
330.43	139.19
330.658	123.19
330.887	134.19
331.115	119.19
331.344	93.19
331.572	95.19
331.801	88.19
332.03	83.19
332.258	100.19
332.486	94.19
332.715	102.19
332.943	99.19
333.172	88.19
333.4	101.19
333.629	100.19
333.857	109.19
334.085	123.19
334.314	104.19
334.542	146.19
334.771	141.19
334.999	119.19
335.227	115.19
335.455	102.19
335.684	98.19
335.912	87.19
336.14	89.19
336.369	94.19
336.597	95.19
336.825	98.19
337.053	95.19
337.281	107.19
337.51	108.19
337.738	111.19
337.966	77.19
338.194	92.19
338.422	90.19
338.65	103.19
338.878	80.19
339.106	80.19
339.334	111.19
339.562	98.19
339.79	94.19
340.018	93.19
340.246	94.19
340.474	99.19
340.702	88.19
340.93	84.19
341.158	83.19
341.386	95.19
341.614	86.19
341.842	102.19
342.07	95.19
342.298	101.19
342.526	88.19
342.754	84.19
342.981	82.19
343.209	84.19
343.437	90.19
343.665	91.19
343.893	85.19
344.12	105.19
344.348	77.19
344.576	85.19
344.804	87.19
345.031	100.19
345.259	82.19
345.487	106.19
345.714	100.19
345.942	101.19
346.17	94.19
346.397	84.19
346.625	96.19
346.853	95.19
347.08	92.19
347.308	108.19
347.535	93.19
347.763	106.19
347.99	118.19
348.218	97.19
348.445	90.19
348.673	102.19
348.9	94.19
349.128	100.19
349.355	83.19
349.583	97.19
349.81	101.19
350.037	102.19
350.265	88.19
350.492	94.19
350.72	94.19
350.947	97.19
351.174	108.19
351.402	116.19
351.629	96.19
351.856	96.19
352.083	113.19
352.311	114.19
352.538	109.19
352.765	106.19
352.992	110.19
353.22	110.19
353.447	100.19
353.674	108.19
353.901	89.19
354.128	98.19
354.355	92.19
354.583	115.19
354.81	97.19
355.037	106.19
355.264	85.19
355.491	83.19
355.718	98.19
355.945	96.19
356.172	98.19
356.399	98.19
356.626	93.19
356.853	86.19
357.08	98.19
357.307	98.19
357.534	99.19
357.761	105.19
357.988	98.19
358.215	102.19
358.441	89.19
358.668	91.19
358.895	88.19
359.122	92.19
359.349	83.19
359.576	82.19
359.802	102.19
360.029	119.19
360.256	103.19
360.483	96.19
360.709	94.19
360.936	98.19
361.163	94.19
361.39	96.19
361.616	90.19
361.843	92.19
362.07	96.19
362.296	90.19
362.523	93.19
362.749	90.19
362.976	97.19
363.203	99.19
363.429	92.19
363.656	89.19
363.882	82.19
364.109	76.19
364.335	84.19
364.562	90.19
364.788	104.19
365.015	88.19
365.241	76.19
365.468	94.19
365.694	95.19
365.92	90.19
366.147	97.19
366.373	102.19
366.599	87.19
366.826	94.19
367.052	91.19
367.278	97.19
367.505	97.19
367.731	82.19
367.957	102.19
368.184	107.19
368.41	93.19
368.636	101.19
368.862	117.19
369.089	108.19
369.315	91.19
369.541	94.19
369.767	90.19
369.993	102.19
370.219	80.19
370.445	103.19
370.672	96.19
370.898	93.19
371.124	82.19
371.35	90.19
371.576	99.19
371.802	90.19
372.028	96.19
372.254	94.19
372.48	83.19
372.706	98.19
372.932	95.19
373.158	85.19
373.384	94.19
373.61	91.19
373.835	81.19
374.061	84.19
374.287	92.19
374.513	91.19
374.739	93.19
374.965	88.19
375.191	93.19
375.416	98.19
375.642	97.19
375.868	93.19
376.094	91.19
376.319	91.19
376.545	97.19
376.771	82.19
376.997	89.19
377.222	76.19
377.448	88.19
377.674	92.19
377.899	85.19
378.125	87.19
378.35	96.19
378.576	95.19
378.802	87.19
379.027	88.19
379.253	105.19
379.478	98.19
379.704	97.19
379.929	111.19
380.155	91.19
380.38	91.19
380.606	101.19
380.831	102.19
381.057	92.19
381.282	106.19
381.507	89.19
381.733	77.19
381.958	97.19
382.184	101.19
382.409	88.19
382.634	88.19
382.86	100.19
383.085	106.19
383.31	97.19
383.535	93.19
383.761	93.19
383.986	108.19
384.211	94.19
384.436	102.19
384.662	101.19
384.887	108.19
385.112	94.19
385.337	97.19
385.562	88.19
385.787	110.19
386.013	100.19
386.238	96.19
386.463	93.19
386.688	113.19
386.913	101.19
387.138	108.19
387.363	104.19
387.588	99.19
387.813	92.19
388.038	103.19
388.263	121.19
388.488	114.19
388.713	96.19
388.938	98.19
389.163	105.19
389.387	101.19
389.612	87.19
389.837	101.19
390.062	88.19
390.287	85.19
390.512	93.19
390.736	106.19
390.961	75.19
391.186	106.19
391.411	83.19
391.636	89.19
391.86	81.19
392.085	92.19
392.31	94.19
392.534	96.19
392.759	83.19
392.984	89.19
393.208	95.19
393.433	92.19
393.658	90.19
393.882	77.19
394.107	78.19
394.331	98.19
394.556	91.19
394.78	98.19
395.005	88.19
395.229	92.19
395.454	86.19
395.678	94.19
395.903	78.19
396.127	67.19
396.352	67.19
396.576	92.19
396.801	100.19
397.025	86.19
397.249	92.19
397.474	88.19
397.698	80.19
397.922	84.19
398.147	84.19
398.371	84.19
398.595	86.19
398.82	81.19
399.044	94.19
399.268	101.19
399.492	76.19
399.717	83.19
399.941	86.19
400.165	96.19
400.389	90.19
400.613	85.19
400.837	95.19
401.062	104.19
401.286	83.19
401.51	104.19
401.734	90.19
401.958	101.19
402.182	121.19
402.406	144.19
402.63	128.19
402.854	98.19
403.078	89.19
403.302	87.19
403.526	81.19
403.75	113.19
403.974	88.19
404.198	96.19
404.422	88.19
404.645	86.19
404.869	86.19
405.093	89.19
405.317	101.19
405.541	105.19
405.765	102.19
405.988	115.19
406.212	152.19
406.436	178.19
406.66	120.19
406.883	100.19
407.107	92.19
407.331	97.19
407.555	92.19
407.778	91.19
408.002	102.19
408.226	98.19
408.449	84.19
408.673	94.19
408.896	105.19
409.12	106.19
409.344	93.19
409.567	113.19
409.791	88.19
410.014	94.19
410.238	110.19
410.461	97.19
410.685	94.19
410.908	93.19
411.132	110.19
411.355	97.19
411.578	102.19
411.802	93.19
412.025	99.19
412.249	88.19
412.472	108.19
412.695	100.19
412.919	95.19
413.142	93.19
413.365	88.19
413.589	93.19
413.812	81.19
414.035	99.19
414.258	83.19
414.482	94.19
414.705	92.19
414.928	91.19
415.151	74.19
415.374	80.19
415.597	93.19
415.821	91.19
416.044	93.19
416.267	93.19
416.49	98.19
416.713	92.19
416.936	102.19
417.159	84.19
417.382	92.19
417.605	86.19
417.828	106.19
418.051	90.19
418.274	92.19
418.497	97.19
418.72	80.19
418.943	73.19
419.166	90.19
419.389	77.19
419.611	95.19
419.834	86.19
420.057	75.19
420.28	81.19
420.503	91.19
420.726	94.19
420.948	96.19
421.171	97.19
421.394	90.19
421.617	96.19
421.839	80.19
422.062	77.19
422.285	94.19
422.507	94.19
422.73	108.19
422.953	80.19
423.175	88.19
423.398	94.19
423.621	97.19
423.843	92.19
424.066	82.19
424.288	93.19
424.511	86.19
424.733	86.19
424.956	92.19
425.178	107.19
425.401	90.19
425.623	84.19
425.846	88.19
426.068	97.19
426.291	81.19
426.513	101.19
426.735	93.19
426.958	94.19
427.18	90.19
427.402	117.19
427.625	130.19
427.847	114.19
428.069	118.19
428.292	98.19
428.514	87.19
428.736	80.19
428.958	95.19
429.181	85.19
429.403	86.19
429.625	95.19
429.847	97.19
430.069	106.19
430.292	78.19
430.514	96.19
430.736	94.19
430.958	89.19
431.18	81.19
431.402	87.19
431.624	84.19
431.846	92.19
432.068	93.19
432.29	97.19
432.512	91.19
432.734	84.19
432.956	81.19
433.178	82.19
433.4	92.19
433.622	88.19
433.844	94.19
434.066	104.19
434.287	67.19
434.509	75.19
434.731	89.19
434.953	90.19
435.175	86.19
435.397	89.19
435.618	86.19
435.84	107.19
436.062	125.19
436.284	129.19
436.505	105.19
436.727	104.19
436.949	85.19
437.17	97.19
437.392	92.19
437.614	98.19
437.835	98.19
438.057	97.19
438.278	105.19
438.5	98.19
438.721	117.19
438.943	111.19
439.165	92.19
439.386	88.19
439.608	85.19
439.829	88.19
440.05	116.19
440.272	135.19
440.493	89.19
440.715	90.19
440.936	77.19
441.158	84.19
441.379	74.19
441.6	98.19
441.822	84.19
442.043	94.19
442.264	93.19
442.486	106.19
442.707	84.19
442.928	84.19
443.149	137.19
443.371	128.19
443.592	101.19
443.813	90.19
444.034	106.19
444.255	104.19
444.476	88.19
444.698	101.19
444.919	76.19
445.14	128.19
445.361	117.19
445.582	110.19
445.803	122.19
446.024	127.19
446.245	114.19
446.466	105.19
446.687	95.19
446.908	82.19
447.129	80.19
447.35	93.19
447.571	97.19
447.792	91.19
448.013	100.19
448.234	110.19
448.455	97.19
448.675	117.19
448.896	129.19
449.117	86.19
449.338	104.19
449.559	108.19
449.779	125.19
450	99.19
450.221	82.19
450.442	88.19
450.662	88.19
450.883	105.19
451.104	100.19
451.324	96.19
451.545	87.19
451.766	91.19
451.986	82.19
452.207	91.19
452.428	91.19
452.648	73.19
452.869	104.19
453.089	102.19
453.31	106.19
453.53	95.19
453.751	91.19
453.971	97.19
454.192	105.19
454.412	90.19
454.633	98.19
454.853	84.19
455.073	83.19
455.294	97.19
455.514	98.19
455.734	89.19
455.955	91.19
456.175	100.19
456.395	85.19
456.616	90.19
456.836	92.19
457.056	101.19
457.276	93.19
457.497	79.19
457.717	79.19
457.937	91.19
458.157	86.19
458.377	101.19
458.598	103.19
458.818	121.19
459.038	135.19
459.258	117.19
459.478	104.19
459.698	76.19
459.918	100.19
460.138	86.19
460.358	100.19
460.578	95.19
460.798	102.19
461.018	87.19
461.238	86.19
461.458	83.19
461.678	90.19
461.898	103.19
462.118	98.19
462.338	83.19
462.558	91.19
462.777	96.19
462.997	91.19
463.217	89.19
463.437	85.19
463.657	78.19
463.876	71.19
464.096	88.19
464.316	85.19
464.536	92.19
464.755	83.19
464.975	97.19
465.195	137.19
465.414	131.19
465.634	96.19
465.854	92.19
466.073	89.19
466.293	77.19
466.512	82.19
466.732	88.19
466.951	95.19
467.171	85.19
467.391	99.19
467.61	101.19
467.829	80.19
468.049	123.19
468.268	104.19
468.488	94.19
468.707	81.19
468.927	104.19
469.146	80.19
469.365	96.19
469.585	87.19
469.804	101.19
470.023	86.19
470.243	92.19
470.462	89.19
470.681	111.19
470.901	98.19
471.12	84.19
471.339	90.19
471.558	95.19
471.777	88.19
471.997	86.19
472.216	117.19
472.435	154.19
472.654	101.19
472.873	90.19
473.092	86.19
473.311	95.19
473.53	89.19
473.749	85.19
473.968	81.19
474.187	87.19
474.406	80.19
474.625	97.19
474.844	86.19
475.063	88.19
475.282	81.19
475.501	90.19
475.72	104.19
475.939	86.19
476.158	80.19
476.377	90.19
476.596	77.19
476.814	93.19
477.033	84.19
477.252	106.19
477.471	85.19
477.69	97.19
477.908	88.19
478.127	82.19
478.346	97.19
478.564	93.19
478.783	108.19
479.002	83.19
479.22	91.19
479.439	94.19
479.658	106.19
479.876	89.19
480.095	82.19
480.313	84.19
480.532	90.19
480.751	100.19
480.969	135.19
481.188	231.19
481.406	172.19
481.624	94.19
481.843	90.19
482.061	85.19
482.28	78.19
482.498	94.19
482.717	70.19
482.935	90.19
483.153	86.19
483.372	86.19
483.59	90.19
483.808	89.19
484.027	90.19
484.245	78.19
484.463	81.19
484.681	87.19
484.9	86.19
485.118	87.19
485.336	114.19
485.554	99.19
485.772	100.19
485.99	92.19
486.209	91.19
486.427	90.19
486.645	105.19
486.863	116.19
487.081	102.19
487.299	99.19
487.517	84.19
487.735	107.19
487.953	96.19
488.171	87.19
488.389	106.19
488.607	82.19
488.825	88.19
489.043	82.19
489.261	96.19
489.479	96.19
489.696	94.19
489.914	82.19
490.132	87.19
490.35	99.19
490.568	92.19
490.786	73.19
491.003	78.19
491.221	92.19
491.439	91.19
491.657	98.19
491.874	95.19
492.092	103.19
492.31	88.19
492.527	93.19
492.745	84.19
492.963	74.19
493.18	80.19
493.398	89.19
493.615	90.19
493.833	114.19
494.05	86.19
494.268	97.19
494.485	84.19
494.703	86.19
494.92	95.19
495.138	106.19
495.355	94.19
495.573	97.19
495.79	91.19
496.008	103.19
496.225	94.19
496.442	108.19
496.66	98.19
496.877	94.19
497.094	90.19
497.312	98.19
497.529	98.19
497.746	94.19
497.963	98.19
498.181	96.19
498.398	96.19
498.615	104.19
498.832	97.19
499.049	93.19
499.267	86.19
499.484	80.19
499.701	91.19
499.918	98.19
500.135	103.19
500.352	104.19
500.569	89.19
500.786	99.19
501.003	102.19
501.22	88.19
501.437	92.19
501.654	91.19
501.871	87.19
502.088	102.19
502.305	80.19
502.522	86.19
502.739	97.19
502.956	83.19
503.172	99.19
503.389	94.19
503.606	105.19
503.823	101.19
504.04	88.19
504.256	82.19
504.473	92.19
504.69	84.19
504.907	87.19
505.123	86.19
505.34	90.19
505.557	88.19
505.773	90.19
505.99	89.19
506.207	90.19
506.423	97.19
506.64	93.19
506.856	97.19
507.073	100.19
507.289	104.19
507.506	100.19
507.722	106.19
507.939	92.19
508.155	93.19
508.372	97.19
508.588	87.19
508.805	92.19
509.021	87.19
509.238	89.19
509.454	96.19
509.67	101.19
509.887	96.19
510.103	129.19
510.319	180.19
510.536	649.19
510.752	2026.19
510.968	572.19
511.184	138.19
511.401	113.19
511.617	105.19
511.833	93.19
512.049	104.19
512.265	102.19
512.481	97.19
512.698	92.19
512.914	93.19
513.13	98.19
513.346	92.19
513.562	96.19
513.778	88.19
513.994	77.19
514.21	88.19
514.426	104.19
514.642	116.19
514.858	112.19
515.074	153.19
515.29	378.19
515.506	1202.19
