Data from Circ_1985_H10_HRD10591_00054.txt Node
Date: Wed Jan 03 12:19:33 EST 2024
User: Yrep
Spectrometer: HR+D1059
Trigger mode: 1
Integration Time (sec): 1.000000E-1
Scans to average: 1
Electric dark correction enabled: true
Nonlinearity correction enabled: false
Boxcar width: 0
XAxis mode: Wavelengths
Number of Pixels in Spectrum: 2048
>>>>>Begin Spectral Data<<<<<
223.165	-26.12
223.4	-26.12
223.635	-26.12
223.869	-4.12
224.104	-25.12
224.338	-27.12
224.573	-13.12
224.808	-16.12
225.042	-22.12
225.277	-10.12
225.511	-4.12
225.746	10.88
225.98	13.88
226.215	14.88
226.449	22.88
226.683	14.88
226.918	39.88
227.152	30.88
227.387	26.88
227.621	23.88
227.856	29.88
228.09	38.88
228.324	40.88
228.559	32.88
228.793	56.88
229.027	57.88
229.262	71.88
229.496	56.88
229.73	78.88
229.964	74.88
230.199	66.88
230.433	71.88
230.667	65.88
230.901	89.88
231.136	66.88
231.37	73.88
231.604	78.88
231.838	67.88
232.072	80.88
232.306	88.88
232.541	88.88
232.775	68.88
233.009	80.88
233.243	83.88
233.477	87.88
233.711	70.88
233.945	87.88
234.179	78.88
234.413	84.88
234.647	80.88
234.881	76.88
235.115	82.88
235.349	84.88
235.583	95.88
235.817	73.88
236.051	71.88
236.285	72.88
236.519	86.88
236.753	83.88
236.987	77.88
237.221	80.88
237.455	76.88
237.689	77.88
237.922	82.88
238.156	90.88
238.39	72.88
238.624	69.88
238.858	70.88
239.091	69.88
239.325	83.88
239.559	74.88
239.793	60.88
240.027	74.88
240.26	80.88
240.494	60.88
240.728	86.88
240.961	74.88
241.195	71.88
241.429	70.88
241.662	74.88
241.896	71.88
242.13	90.88
242.363	79.88
242.597	66.88
242.83	78.88
243.064	66.88
243.298	74.88
243.531	77.88
243.765	73.88
243.998	64.88
244.232	76.88
244.465	87.88
244.699	69.88
244.932	77.88
245.166	81.88
245.399	72.88
245.633	55.88
245.866	72.88
246.099	71.88
246.333	75.88
246.566	80.88
246.8	68.88
247.033	70.88
247.266	81.88
247.5	76.88
247.733	77.88
247.966	79.88
248.2	75.88
248.433	84.88
248.666	88.88
248.899	80.88
249.133	85.88
249.366	85.88
249.599	87.88
249.832	84.88
250.066	70.88
250.299	60.88
250.532	83.88
250.765	76.88
250.998	71.88
251.231	69.88
251.465	72.88
251.698	77.88
251.931	76.88
252.164	79.88
252.397	80.88
252.63	68.88
252.863	90.88
253.096	74.88
253.329	78.88
253.562	70.88
253.795	88.88
254.028	65.88
254.261	76.88
254.494	69.88
254.727	74.88
254.96	66.88
255.193	80.88
255.426	72.88
255.659	77.88
255.892	77.88
256.124	91.88
256.357	82.88
256.59	86.88
256.823	74.88
257.056	93.88
257.289	81.88
257.521	80.88
257.754	87.88
257.987	79.88
258.22	83.88
258.452	81.88
258.685	77.88
258.918	84.88
259.151	88.88
259.383	89.88
259.616	71.88
259.849	89.88
260.081	73.88
260.314	84.88
260.547	83.88
260.779	87.88
261.012	89.88
261.244	96.88
261.477	95.88
261.71	88.88
261.942	102.88
262.175	112.88
262.407	78.88
262.64	86.88
262.872	69.88
263.105	81.88
263.337	81.88
263.57	81.88
263.802	83.88
264.035	71.88
264.267	84.88
264.499	79.88
264.732	73.88
264.964	71.88
265.197	99.88
265.429	79.88
265.661	99.88
265.894	82.88
266.126	92.88
266.358	84.88
266.591	82.88
266.823	91.88
267.055	88.88
267.287	82.88
267.52	72.88
267.752	85.88
267.984	68.88
268.216	70.88
268.448	89.88
268.681	87.88
268.913	70.88
269.145	85.88
269.377	100.88
269.609	80.88
269.841	74.88
270.073	86.88
270.306	73.88
270.538	68.88
270.77	65.88
271.002	77.88
271.234	87.88
271.466	78.88
271.698	85.88
271.93	86.88
272.162	83.88
272.394	85.88
272.626	84.88
272.858	87.88
273.09	84.88
273.322	96.88
273.553	77.88
273.785	64.88
274.017	82.88
274.249	73.88
274.481	65.88
274.713	74.88
274.945	88.88
275.176	78.88
275.408	82.88
275.64	87.88
275.872	77.88
276.104	74.88
276.335	108.88
276.567	103.88
276.799	110.88
277.031	83.88
277.262	82.88
277.494	86.88
277.726	100.88
277.957	87.88
278.189	92.88
278.421	94.88
278.652	83.88
278.884	89.88
279.115	79.88
279.347	83.88
279.579	92.88
279.81	78.88
280.042	99.88
280.273	87.88
280.505	88.88
280.736	72.88
280.968	86.88
281.199	87.88
281.431	84.88
281.662	90.88
281.894	90.88
282.125	103.88
282.356	105.88
282.588	118.88
282.819	123.88
283.051	90.88
283.282	80.88
283.513	82.88
283.745	84.88
283.976	98.88
284.207	93.88
284.439	86.88
284.67	83.88
284.901	81.88
285.132	79.88
285.364	85.88
285.595	84.88
285.826	83.88
286.057	89.88
286.288	89.88
286.52	96.88
286.751	74.88
286.982	88.88
287.213	85.88
287.444	82.88
287.675	77.88
287.906	87.88
288.138	99.88
288.369	82.88
288.6	88.88
288.831	86.88
289.062	85.88
289.293	100.88
289.524	75.88
289.755	88.88
289.986	103.88
290.217	84.88
290.448	82.88
290.679	93.88
290.91	90.88
291.141	89.88
291.371	84.88
291.602	88.88
291.833	83.88
292.064	88.88
292.295	96.88
292.526	86.88
292.757	85.88
292.987	79.88
293.218	87.88
293.449	91.88
293.68	82.88
293.91	90.88
294.141	85.88
294.372	91.88
294.603	80.88
294.833	87.88
295.064	91.88
295.295	83.88
295.525	90.88
295.756	97.88
295.987	109.88
296.217	112.88
296.448	115.88
296.679	89.88
296.909	91.88
297.14	90.88
297.37	77.88
297.601	89.88
297.831	99.88
298.062	89.88
298.292	89.88
298.523	96.88
298.753	91.88
298.984	84.88
299.214	92.88
299.445	83.88
299.675	88.88
299.905	99.88
300.136	87.88
300.366	76.88
300.597	77.88
300.827	78.88
301.057	97.88
301.288	91.88
301.518	83.88
301.748	85.88
301.979	103.88
302.209	94.88
302.439	86.88
302.669	89.88
302.9	90.88
303.13	73.88
303.36	100.88
303.59	89.88
303.82	96.88
304.051	90.88
304.281	95.88
304.511	97.88
304.741	86.88
304.971	73.88
305.201	91.88
305.431	84.88
305.661	95.88
305.891	88.88
306.121	93.88
306.352	86.88
306.582	102.88
306.812	92.88
307.042	83.88
307.272	94.88
307.502	94.88
307.731	98.88
307.961	96.88
308.191	101.88
308.421	83.88
308.651	86.88
308.881	84.88
309.111	93.88
309.341	86.88
309.571	95.88
309.8	84.88
310.03	98.88
310.26	88.88
310.49	96.88
310.72	96.88
310.949	95.88
311.179	101.88
311.409	86.88
311.639	99.88
311.868	93.88
312.098	93.88
312.328	92.88
312.557	80.88
312.787	102.88
313.017	106.88
313.246	89.88
313.476	83.88
313.706	98.88
313.935	98.88
314.165	85.88
314.394	93.88
314.624	89.88
314.853	97.88
315.083	90.88
315.312	90.88
315.542	93.88
315.771	87.88
316.001	88.88
316.23	110.88
316.46	75.88
316.689	88.88
316.919	102.88
317.148	78.88
317.377	97.88
317.607	94.88
317.836	84.88
318.065	86.88
318.295	89.88
318.524	91.88
318.753	87.88
318.983	103.88
319.212	98.88
319.441	103.88
319.67	93.88
319.9	97.88
320.129	99.88
320.358	94.88
320.587	100.88
320.816	84.88
321.046	98.88
321.275	93.88
321.504	98.88
321.733	91.88
321.962	111.88
322.191	92.88
322.42	96.88
322.649	104.88
322.878	90.88
323.108	112.88
323.337	111.88
323.566	125.88
323.795	136.88
324.024	168.88
324.253	334.88
324.482	714.88
324.71	1503.88
324.939	1892.88
325.168	706.88
325.397	210.88
325.626	135.88
325.855	114.88
326.084	135.88
326.313	125.88
326.542	157.88
326.77	209.88
326.999	405.88
327.228	825.88
327.457	1516.88
327.686	1176.88
327.914	323.88
328.143	181.88
328.372	152.88
328.6	118.88
328.829	108.88
329.058	96.88
329.287	114.88
329.515	100.88
329.744	98.88
329.972	95.88
330.201	109.88
330.43	126.88
330.658	111.88
330.887	118.88
331.115	117.88
331.344	103.88
331.572	88.88
331.801	97.88
332.03	85.88
332.258	97.88
332.486	85.88
332.715	86.88
332.943	98.88
333.172	88.88
333.4	93.88
333.629	96.88
333.857	108.88
334.085	110.88
334.314	121.88
334.542	132.88
334.771	137.88
334.999	89.88
335.227	96.88
335.455	96.88
335.684	94.88
335.912	87.88
336.14	95.88
336.369	84.88
336.597	79.88
336.825	90.88
337.053	89.88
337.281	88.88
337.51	88.88
337.738	93.88
337.966	96.88
338.194	76.88
338.422	92.88
338.65	80.88
338.878	85.88
339.106	86.88
339.334	85.88
339.562	72.88
339.79	87.88
340.018	92.88
340.246	95.88
340.474	95.88
340.702	77.88
340.93	97.88
341.158	85.88
341.386	94.88
341.614	90.88
341.842	98.88
342.07	99.88
342.298	94.88
342.526	88.88
342.754	89.88
342.981	97.88
343.209	69.88
343.437	76.88
343.665	82.88
343.893	92.88
344.12	92.88
344.348	95.88
344.576	86.88
344.804	98.88
345.031	102.88
345.259	97.88
345.487	89.88
345.714	99.88
345.942	84.88
346.17	88.88
346.397	96.88
346.625	97.88
346.853	109.88
347.08	83.88
347.308	84.88
347.535	77.88
347.763	90.88
347.99	98.88
348.218	96.88
348.445	92.88
348.673	100.88
348.9	101.88
349.128	101.88
349.355	82.88
349.583	82.88
349.81	85.88
350.037	88.88
350.265	109.88
350.492	97.88
350.72	100.88
350.947	92.88
351.174	100.88
351.402	103.88
351.629	109.88
351.856	111.88
352.083	88.88
352.311	100.88
352.538	96.88
352.765	97.88
352.992	109.88
353.22	92.88
353.447	90.88
353.674	96.88
353.901	98.88
354.128	90.88
354.355	82.88
354.583	90.88
354.81	94.88
355.037	92.88
355.264	81.88
355.491	93.88
355.718	96.88
355.945	85.88
356.172	91.88
356.399	94.88
356.626	85.88
356.853	93.88
357.08	83.88
357.307	94.88
357.534	96.88
357.761	104.88
357.988	99.88
358.215	101.88
358.441	113.88
358.668	99.88
358.895	92.88
359.122	82.88
359.349	77.88
359.576	96.88
359.802	92.88
360.029	106.88
360.256	98.88
360.483	95.88
360.709	85.88
360.936	95.88
361.163	90.88
361.39	80.88
361.616	89.88
361.843	96.88
362.07	89.88
362.296	90.88
362.523	90.88
362.749	85.88
362.976	76.88
363.203	97.88
363.429	95.88
363.656	94.88
363.882	91.88
364.109	81.88
364.335	101.88
364.562	100.88
364.788	100.88
365.015	82.88
365.241	103.88
365.468	95.88
365.694	89.88
365.92	83.88
366.147	80.88
366.373	88.88
366.599	86.88
366.826	82.88
367.052	94.88
367.278	97.88
367.505	100.88
367.731	91.88
367.957	99.88
368.184	91.88
368.41	96.88
368.636	101.88
368.862	116.88
369.089	102.88
369.315	75.88
369.541	81.88
369.767	87.88
369.993	81.88
370.219	87.88
370.445	82.88
370.672	96.88
370.898	88.88
371.124	74.88
371.35	93.88
371.576	84.88
371.802	88.88
372.028	81.88
372.254	104.88
372.48	92.88
372.706	84.88
372.932	83.88
373.158	85.88
373.384	82.88
373.61	89.88
373.835	87.88
374.061	74.88
374.287	86.88
374.513	90.88
374.739	83.88
374.965	79.88
375.191	84.88
375.416	79.88
375.642	76.88
375.868	85.88
376.094	82.88
376.319	91.88
376.545	86.88
376.771	83.88
376.997	86.88
377.222	80.88
377.448	84.88
377.674	103.88
377.899	86.88
378.125	92.88
378.35	95.88
378.576	88.88
378.802	97.88
379.027	90.88
379.253	81.88
379.478	93.88
379.704	93.88
379.929	88.88
380.155	94.88
380.38	89.88
380.606	94.88
380.831	100.88
381.057	92.88
381.282	95.88
381.507	91.88
381.733	85.88
381.958	96.88
382.184	95.88
382.409	102.88
382.634	97.88
382.86	105.88
383.085	103.88
383.31	86.88
383.535	92.88
383.761	94.88
383.986	93.88
384.211	73.88
384.436	91.88
384.662	90.88
384.887	111.88
385.112	101.88
385.337	106.88
385.562	95.88
385.787	100.88
386.013	92.88
386.238	104.88
386.463	106.88
386.688	112.88
386.913	104.88
387.138	106.88
387.363	117.88
387.588	103.88
387.813	103.88
388.038	114.88
388.263	114.88
388.488	116.88
388.713	103.88
388.938	98.88
389.163	93.88
389.387	94.88
389.612	91.88
389.837	87.88
390.062	84.88
390.287	92.88
390.512	86.88
390.736	88.88
390.961	91.88
391.186	95.88
391.411	85.88
391.636	102.88
391.86	81.88
392.085	74.88
392.31	74.88
392.534	79.88
392.759	99.88
392.984	89.88
393.208	80.88
393.433	92.88
393.658	89.88
393.882	76.88
394.107	84.88
394.331	82.88
394.556	95.88
394.78	82.88
395.005	85.88
395.229	95.88
395.454	74.88
395.678	84.88
395.903	89.88
396.127	88.88
396.352	77.88
396.576	86.88
396.801	88.88
397.025	73.88
397.249	82.88
397.474	88.88
397.698	96.88
397.922	92.88
398.147	84.88
398.371	76.88
398.595	81.88
398.82	87.88
399.044	70.88
399.268	94.88
399.492	87.88
399.717	86.88
399.941	98.88
400.165	92.88
400.389	101.88
400.613	77.88
400.837	76.88
401.062	96.88
401.286	87.88
401.51	86.88
401.734	83.88
401.958	96.88
402.182	110.88
402.406	134.88
402.63	110.88
402.854	100.88
403.078	88.88
403.302	83.88
403.526	83.88
403.75	81.88
403.974	80.88
404.198	88.88
404.422	81.88
404.645	102.88
404.869	83.88
405.093	92.88
405.317	105.88
405.541	76.88
405.765	91.88
405.988	106.88
406.212	150.88
406.436	189.88
406.66	121.88
406.883	95.88
407.107	86.88
407.331	97.88
407.555	80.88
407.778	85.88
408.002	95.88
408.226	96.88
408.449	85.88
408.673	79.88
408.896	80.88
409.12	73.88
409.344	86.88
409.567	96.88
409.791	76.88
410.014	82.88
410.238	93.88
410.461	86.88
410.685	97.88
410.908	96.88
411.132	112.88
411.355	100.88
411.578	101.88
411.802	81.88
412.025	93.88
412.249	93.88
412.472	90.88
412.695	102.88
412.919	88.88
413.142	63.88
413.365	92.88
413.589	84.88
413.812	78.88
414.035	92.88
414.258	80.88
414.482	71.88
414.705	97.88
414.928	91.88
415.151	69.88
415.374	84.88
415.597	90.88
415.821	73.88
416.044	92.88
416.267	92.88
416.49	79.88
416.713	90.88
416.936	89.88
417.159	80.88
417.382	86.88
417.605	96.88
417.828	96.88
418.051	86.88
418.274	93.88
418.497	80.88
418.72	75.88
418.943	91.88
419.166	94.88
419.389	79.88
419.611	84.88
419.834	95.88
420.057	76.88
420.28	97.88
420.503	84.88
420.726	80.88
420.948	84.88
421.171	67.88
421.394	99.88
421.617	73.88
421.839	93.88
422.062	90.88
422.285	95.88
422.507	95.88
422.73	89.88
422.953	105.88
423.175	82.88
423.398	71.88
423.621	78.88
423.843	83.88
424.066	76.88
424.288	85.88
424.511	90.88
424.733	71.88
424.956	91.88
425.178	84.88
425.401	95.88
425.623	87.88
425.846	58.88
426.068	87.88
426.291	74.88
426.513	83.88
426.735	92.88
426.958	83.88
427.18	99.88
427.402	103.88
427.625	133.88
427.847	105.88
428.069	97.88
428.292	92.88
428.514	93.88
428.736	81.88
428.958	82.88
429.181	92.88
429.403	68.88
429.625	67.88
429.847	80.88
430.069	103.88
430.292	91.88
430.514	80.88
430.736	88.88
430.958	94.88
431.18	84.88
431.402	85.88
431.624	76.88
431.846	86.88
432.068	88.88
432.29	81.88
432.512	90.88
432.734	81.88
432.956	74.88
433.178	86.88
433.4	108.88
433.622	112.88
433.844	95.88
434.066	88.88
434.287	78.88
434.509	95.88
434.731	74.88
434.953	90.88
435.175	88.88
435.397	80.88
435.618	80.88
435.84	99.88
436.062	107.88
436.284	105.88
436.505	115.88
436.727	88.88
436.949	97.88
437.17	80.88
437.392	97.88
437.614	91.88
437.835	95.88
438.057	110.88
438.278	97.88
438.5	99.88
438.721	110.88
438.943	106.88
439.165	88.88
439.386	66.88
439.608	82.88
439.829	98.88
440.05	99.88
440.272	117.88
440.493	90.88
440.715	76.88
440.936	73.88
441.158	94.88
441.379	73.88
441.6	92.88
441.822	72.88
442.043	93.88
442.264	102.88
442.486	88.88
442.707	98.88
442.928	107.88
443.149	110.88
443.371	126.88
443.592	104.88
443.813	105.88
444.034	88.88
444.255	86.88
444.476	73.88
444.698	66.88
444.919	71.88
445.14	138.88
445.361	120.88
445.582	100.88
445.803	117.88
446.024	112.88
446.245	124.88
446.466	95.88
446.687	92.88
446.908	74.88
447.129	98.88
447.35	78.88
447.571	102.88
447.792	97.88
448.013	80.88
448.234	94.88
448.455	105.88
448.675	117.88
448.896	113.88
449.117	89.88
449.338	98.88
449.559	109.88
449.779	121.88
450	92.88
450.221	110.88
450.442	99.88
450.662	86.88
450.883	105.88
451.104	84.88
451.324	89.88
451.545	90.88
451.766	83.88
451.986	88.88
452.207	91.88
452.428	74.88
452.648	91.88
452.869	94.88
453.089	86.88
453.31	96.88
453.53	86.88
453.751	96.88
453.971	94.88
454.192	90.88
454.412	106.88
454.633	83.88
454.853	88.88
455.073	70.88
455.294	74.88
455.514	101.88
455.734	85.88
455.955	82.88
456.175	63.88
456.395	86.88
456.616	93.88
456.836	72.88
457.056	74.88
457.276	79.88
457.497	72.88
457.717	71.88
457.937	84.88
458.157	86.88
458.377	80.88
458.598	88.88
458.818	128.88
459.038	128.88
459.258	100.88
459.478	95.88
459.698	89.88
459.918	84.88
460.138	76.88
460.358	86.88
460.578	86.88
460.798	83.88
461.018	89.88
461.238	86.88
461.458	71.88
461.678	75.88
461.898	94.88
462.118	88.88
462.338	87.88
462.558	85.88
462.777	79.88
462.997	71.88
463.217	74.88
463.437	73.88
463.657	83.88
463.876	88.88
464.096	77.88
464.316	57.88
464.536	99.88
464.755	91.88
464.975	112.88
465.195	141.88
465.414	129.88
465.634	87.88
465.854	80.88
466.073	76.88
466.293	83.88
466.512	77.88
466.732	70.88
466.951	83.88
467.171	80.88
467.391	97.88
467.61	96.88
467.829	87.88
468.049	87.88
468.268	87.88
468.488	88.88
468.707	79.88
468.927	76.88
469.146	80.88
469.365	80.88
469.585	82.88
469.804	80.88
470.023	95.88
470.243	81.88
470.462	91.88
470.681	105.88
470.901	88.88
471.12	88.88
471.339	82.88
471.558	93.88
471.777	96.88
471.997	77.88
472.216	112.88
472.435	143.88
472.654	87.88
472.873	87.88
473.092	78.88
473.311	86.88
473.53	71.88
473.749	90.88
473.968	85.88
474.187	101.88
474.406	89.88
474.625	81.88
474.844	74.88
475.063	84.88
475.282	76.88
475.501	84.88
475.72	82.88
475.939	85.88
476.158	93.88
476.377	82.88
476.596	83.88
476.814	80.88
477.033	86.88
477.252	101.88
477.471	81.88
477.69	80.88
477.908	72.88
478.127	84.88
478.346	77.88
478.564	94.88
478.783	102.88
479.002	84.88
479.22	84.88
479.439	90.88
479.658	86.88
479.876	89.88
480.095	77.88
480.313	87.88
480.532	86.88
480.751	86.88
480.969	101.88
481.188	195.88
481.406	142.88
481.624	86.88
481.843	77.88
482.061	91.88
482.28	87.88
482.498	84.88
482.717	78.88
482.935	80.88
483.153	80.88
483.372	71.88
483.59	74.88
483.808	71.88
484.027	85.88
484.245	85.88
484.463	104.88
484.681	91.88
484.9	79.88
485.118	97.88
485.336	94.88
485.554	98.88
485.772	101.88
485.99	93.88
486.209	88.88
486.427	109.88
486.645	109.88
486.863	99.88
487.081	96.88
487.299	90.88
487.517	77.88
487.735	91.88
487.953	83.88
488.171	98.88
488.389	88.88
488.607	106.88
488.825	100.88
489.043	86.88
489.261	84.88
489.479	89.88
489.696	96.88
489.914	91.88
490.132	82.88
490.35	77.88
490.568	73.88
490.786	76.88
491.003	94.88
491.221	93.88
491.439	80.88
491.657	90.88
491.874	101.88
492.092	85.88
492.31	83.88
492.527	86.88
492.745	80.88
492.963	88.88
493.18	88.88
493.398	85.88
493.615	92.88
493.833	80.88
494.05	69.88
494.268	95.88
494.485	90.88
494.703	88.88
494.92	82.88
495.138	88.88
495.355	82.88
495.573	80.88
495.79	81.88
496.008	96.88
496.225	87.88
496.442	72.88
496.66	94.88
496.877	88.88
497.094	91.88
497.312	94.88
497.529	74.88
497.746	92.88
497.963	78.88
498.181	89.88
498.398	79.88
498.615	73.88
498.832	99.88
499.049	78.88
499.267	76.88
499.484	97.88
499.701	90.88
499.918	80.88
500.135	96.88
500.352	85.88
500.569	82.88
500.786	89.88
501.003	86.88
501.22	92.88
501.437	87.88
501.654	101.88
501.871	95.88
502.088	88.88
502.305	72.88
502.522	64.88
502.739	95.88
502.956	80.88
503.172	81.88
503.389	87.88
503.606	93.88
503.823	81.88
504.04	87.88
504.256	87.88
504.473	92.88
504.69	87.88
504.907	97.88
505.123	88.88
505.34	87.88
505.557	95.88
505.773	97.88
505.99	78.88
506.207	80.88
506.423	82.88
506.64	88.88
506.856	74.88
507.073	84.88
507.289	94.88
507.506	82.88
507.722	97.88
507.939	93.88
508.155	80.88
508.372	93.88
508.588	93.88
508.805	105.88
509.021	94.88
509.238	92.88
509.454	93.88
509.67	89.88
509.887	92.88
510.103	124.88
510.319	177.88
510.536	628.88
510.752	1934.88
510.968	534.88
511.184	133.88
511.401	94.88
511.617	94.88
511.833	89.88
512.049	74.88
512.265	87.88
512.481	92.88
512.698	88.88
512.914	78.88
513.13	105.88
513.346	82.88
513.562	96.88
513.778	81.88
513.994	93.88
514.21	97.88
514.426	102.88
514.642	122.88
514.858	109.88
515.074	146.88
515.29	353.88
515.506	1117.88
515.721	402.88
515.937	124.88
516.153	95.88
516.369	84.88
516.585	95.88
516.801	86.88
517.016	96.88
