Data from Circ_1985_H10_HRD10591_00050.txt Node
Date: Wed Jan 03 12:19:32 EST 2024
User: Yrep
Spectrometer: HR+D1059
Trigger mode: 1
Integration Time (sec): 1.000000E-1
Scans to average: 1
Electric dark correction enabled: true
Nonlinearity correction enabled: false
Boxcar width: 0
XAxis mode: Wavelengths
Number of Pixels in Spectrum: 2048
>>>>>Begin Spectral Data<<<<<
223.165	-24.69
223.4	-24.69
223.635	-24.69
223.869	-21.69
224.104	-12.69
224.338	-12.69
224.573	-24.69
224.808	-8.69
225.042	-3.69
225.277	1.31
225.511	-9.69
225.746	-5.69
225.98	17.31
226.215	18.31
226.449	-1.69
226.683	22.31
226.918	23.31
227.152	43.31
227.387	37.31
227.621	46.31
227.856	46.31
228.09	39.31
228.324	63.31
228.559	54.31
228.793	55.31
229.027	57.31
229.262	64.31
229.496	86.31
229.73	87.31
229.964	94.31
230.199	79.31
230.433	83.31
230.667	76.31
230.901	70.31
231.136	80.31
231.37	68.31
231.604	90.31
231.838	83.31
232.072	82.31
232.306	79.31
232.541	79.31
232.775	91.31
233.009	83.31
233.243	66.31
233.477	82.31
233.711	75.31
233.945	94.31
234.179	74.31
234.413	86.31
234.647	78.31
234.881	82.31
235.115	87.31
235.349	72.31
235.583	78.31
235.817	90.31
236.051	80.31
236.285	71.31
236.519	86.31
236.753	75.31
236.987	72.31
237.221	80.31
237.455	80.31
237.689	70.31
237.922	67.31
238.156	80.31
238.39	75.31
238.624	88.31
238.858	82.31
239.091	81.31
239.325	79.31
239.559	75.31
239.793	81.31
240.027	92.31
240.26	74.31
240.494	88.31
240.728	84.31
240.961	79.31
241.195	80.31
241.429	76.31
241.662	66.31
241.896	86.31
242.13	93.31
242.363	73.31
242.597	93.31
242.83	79.31
243.064	70.31
243.298	80.31
243.531	68.31
243.765	74.31
243.998	73.31
244.232	87.31
244.465	75.31
244.699	78.31
244.932	78.31
245.166	85.31
245.399	83.31
245.633	81.31
245.866	86.31
246.099	69.31
246.333	60.31
246.566	83.31
246.8	54.31
247.033	65.31
247.266	78.31
247.5	78.31
247.733	88.31
247.966	80.31
248.2	68.31
248.433	83.31
248.666	91.31
248.899	84.31
249.133	88.31
249.366	102.31
249.599	108.31
249.832	88.31
250.066	78.31
250.299	84.31
250.532	91.31
250.765	80.31
250.998	67.31
251.231	81.31
251.465	74.31
251.698	70.31
251.931	80.31
252.164	85.31
252.397	64.31
252.63	76.31
252.863	81.31
253.096	95.31
253.329	88.31
253.562	75.31
253.795	91.31
254.028	89.31
254.261	82.31
254.494	86.31
254.727	86.31
254.96	70.31
255.193	90.31
255.426	85.31
255.659	87.31
255.892	76.31
256.124	86.31
256.357	91.31
256.59	89.31
256.823	79.31
257.056	79.31
257.289	85.31
257.521	80.31
257.754	79.31
257.987	82.31
258.22	68.31
258.452	76.31
258.685	74.31
258.918	68.31
259.151	82.31
259.383	92.31
259.616	74.31
259.849	84.31
260.081	79.31
260.314	82.31
260.547	72.31
260.779	80.31
261.012	90.31
261.244	78.31
261.477	87.31
261.71	97.31
261.942	97.31
262.175	112.31
262.407	93.31
262.64	76.31
262.872	98.31
263.105	89.31
263.337	94.31
263.57	75.31
263.802	85.31
264.035	89.31
264.267	74.31
264.499	73.31
264.732	84.31
264.964	93.31
265.197	82.31
265.429	72.31
265.661	73.31
265.894	80.31
266.126	86.31
266.358	81.31
266.591	78.31
266.823	81.31
267.055	91.31
267.287	80.31
267.52	67.31
267.752	75.31
267.984	82.31
268.216	84.31
268.448	87.31
268.681	90.31
268.913	73.31
269.145	91.31
269.377	76.31
269.609	81.31
269.841	87.31
270.073	76.31
270.306	90.31
270.538	87.31
270.77	83.31
271.002	87.31
271.234	86.31
271.466	83.31
271.698	82.31
271.93	78.31
272.162	78.31
272.394	88.31
272.626	91.31
272.858	72.31
273.09	82.31
273.322	79.31
273.553	81.31
273.785	97.31
274.017	82.31
274.249	85.31
274.481	62.31
274.713	76.31
274.945	91.31
275.176	84.31
275.408	93.31
275.64	87.31
275.872	74.31
276.104	88.31
276.335	101.31
276.567	96.31
276.799	97.31
277.031	106.31
277.262	87.31
277.494	76.31
277.726	76.31
277.957	87.31
278.189	88.31
278.421	88.31
278.652	81.31
278.884	82.31
279.115	93.31
279.347	82.31
279.579	91.31
279.81	73.31
280.042	82.31
280.273	83.31
280.505	85.31
280.736	89.31
280.968	91.31
281.199	90.31
281.431	81.31
281.662	83.31
281.894	96.31
282.125	92.31
282.356	108.31
282.588	113.31
282.819	99.31
283.051	88.31
283.282	83.31
283.513	91.31
283.745	87.31
283.976	87.31
284.207	75.31
284.439	95.31
284.67	88.31
284.901	84.31
285.132	78.31
285.364	97.31
285.595	96.31
285.826	92.31
286.057	86.31
286.288	90.31
286.52	96.31
286.751	84.31
286.982	80.31
287.213	101.31
287.444	88.31
287.675	90.31
287.906	97.31
288.138	94.31
288.369	83.31
288.6	101.31
288.831	89.31
289.062	83.31
289.293	100.31
289.524	89.31
289.755	80.31
289.986	90.31
290.217	98.31
290.448	86.31
290.679	95.31
290.91	95.31
291.141	83.31
291.371	89.31
291.602	84.31
291.833	76.31
292.064	75.31
292.295	88.31
292.526	94.31
292.757	96.31
292.987	85.31
293.218	79.31
293.449	86.31
293.68	89.31
293.91	87.31
294.141	82.31
294.372	87.31
294.603	86.31
294.833	84.31
295.064	94.31
295.295	73.31
295.525	94.31
295.756	93.31
295.987	104.31
296.217	118.31
296.448	107.31
296.679	87.31
296.909	76.31
297.14	80.31
297.37	84.31
297.601	86.31
297.831	78.31
298.062	105.31
298.292	99.31
298.523	90.31
298.753	79.31
298.984	92.31
299.214	76.31
299.445	98.31
299.675	87.31
299.905	99.31
300.136	98.31
300.366	89.31
300.597	99.31
300.827	84.31
301.057	95.31
301.288	91.31
301.518	97.31
301.748	79.31
301.979	111.31
302.209	86.31
302.439	95.31
302.669	99.31
302.9	105.31
303.13	85.31
303.36	89.31
303.59	101.31
303.82	101.31
304.051	91.31
304.281	104.31
304.511	94.31
304.741	88.31
304.971	84.31
305.201	94.31
305.431	98.31
305.661	91.31
305.891	73.31
306.121	80.31
306.352	96.31
306.582	99.31
306.812	86.31
307.042	83.31
307.272	96.31
307.502	98.31
307.731	99.31
307.961	95.31
308.191	88.31
308.421	105.31
308.651	89.31
308.881	92.31
309.111	90.31
309.341	91.31
309.571	102.31
309.8	71.31
310.03	90.31
310.26	103.31
310.49	90.31
310.72	94.31
310.949	102.31
311.179	87.31
311.409	73.31
311.639	81.31
311.868	94.31
312.098	88.31
312.328	93.31
312.557	92.31
312.787	88.31
313.017	92.31
313.246	94.31
313.476	98.31
313.706	87.31
313.935	98.31
314.165	71.31
314.394	94.31
314.624	88.31
314.853	104.31
315.083	91.31
315.312	97.31
315.542	97.31
315.771	95.31
316.001	88.31
316.23	89.31
316.46	84.31
316.689	78.31
316.919	86.31
317.148	83.31
317.377	101.31
317.607	88.31
317.836	102.31
318.065	93.31
318.295	99.31
318.524	94.31
318.753	87.31
318.983	89.31
319.212	97.31
319.441	101.31
319.67	96.31
319.9	87.31
320.129	89.31
320.358	91.31
320.587	108.31
320.816	97.31
321.046	86.31
321.275	102.31
321.504	85.31
321.733	98.31
321.962	86.31
322.191	94.31
322.42	100.31
322.649	120.31
322.878	95.31
323.108	103.31
323.337	114.31
323.566	119.31
323.795	126.31
324.024	192.31
324.253	368.31
324.482	738.31
324.71	1500.31
324.939	2051.31
325.168	746.31
325.397	239.31
325.626	132.31
325.855	132.31
326.084	132.31
326.313	126.31
326.542	136.31
326.77	210.31
326.999	430.31
327.228	880.31
327.457	1594.31
327.686	1274.31
327.914	351.31
328.143	174.31
328.372	135.31
328.6	107.31
328.829	113.31
329.058	119.31
329.287	106.31
329.515	98.31
329.744	103.31
329.972	112.31
330.201	112.31
330.43	114.31
330.658	107.31
330.887	125.31
331.115	113.31
331.344	88.31
331.572	92.31
331.801	100.31
332.03	106.31
332.258	98.31
332.486	95.31
332.715	100.31
332.943	90.31
333.172	91.31
333.4	100.31
333.629	101.31
333.857	101.31
334.085	108.31
334.314	105.31
334.542	108.31
334.771	116.31
334.999	103.31
335.227	74.31
335.455	98.31
335.684	109.31
335.912	104.31
336.14	98.31
336.369	91.31
336.597	106.31
336.825	106.31
337.053	100.31
337.281	95.31
337.51	81.31
337.738	89.31
337.966	90.31
338.194	84.31
338.422	91.31
338.65	81.31
338.878	82.31
339.106	91.31
339.334	90.31
339.562	90.31
339.79	91.31
340.018	93.31
340.246	96.31
340.474	91.31
340.702	100.31
340.93	87.31
341.158	75.31
341.386	90.31
341.614	108.31
341.842	99.31
342.07	87.31
342.298	92.31
342.526	85.31
342.754	81.31
342.981	98.31
343.209	93.31
343.437	104.31
343.665	98.31
343.893	98.31
344.12	89.31
344.348	94.31
344.576	89.31
344.804	91.31
345.031	86.31
345.259	88.31
345.487	78.31
345.714	95.31
345.942	102.31
346.17	106.31
346.397	100.31
346.625	85.31
346.853	99.31
347.08	108.31
347.308	80.31
347.535	107.31
347.763	104.31
347.99	100.31
348.218	96.31
348.445	105.31
348.673	100.31
348.9	89.31
349.128	92.31
349.355	84.31
349.583	102.31
349.81	90.31
350.037	82.31
350.265	88.31
350.492	90.31
350.72	95.31
350.947	92.31
351.174	108.31
351.402	103.31
351.629	105.31
351.856	97.31
352.083	89.31
352.311	95.31
352.538	110.31
352.765	109.31
352.992	122.31
353.22	111.31
353.447	107.31
353.674	96.31
353.901	102.31
354.128	89.31
354.355	100.31
354.583	106.31
354.81	102.31
355.037	104.31
355.264	107.31
355.491	97.31
355.718	108.31
355.945	98.31
356.172	82.31
356.399	84.31
356.626	86.31
356.853	96.31
357.08	89.31
357.307	89.31
357.534	91.31
357.761	96.31
357.988	92.31
358.215	102.31
358.441	75.31
358.668	102.31
358.895	101.31
359.122	91.31
359.349	94.31
359.576	80.31
359.802	97.31
360.029	96.31
360.256	97.31
360.483	83.31
360.709	90.31
360.936	87.31
361.163	81.31
361.39	82.31
361.616	103.31
361.843	91.31
362.07	89.31
362.296	84.31
362.523	98.31
362.749	82.31
362.976	90.31
363.203	96.31
363.429	97.31
363.656	95.31
363.882	85.31
364.109	91.31
364.335	113.31
364.562	90.31
364.788	74.31
365.015	98.31
365.241	85.31
365.468	86.31
365.694	87.31
365.92	93.31
366.147	98.31
366.373	76.31
366.599	89.31
366.826	86.31
367.052	85.31
367.278	92.31
367.505	92.31
367.731	89.31
367.957	103.31
368.184	75.31
368.41	97.31
368.636	101.31
368.862	115.31
369.089	105.31
369.315	103.31
369.541	92.31
369.767	86.31
369.993	92.31
370.219	83.31
370.445	83.31
370.672	83.31
370.898	85.31
371.124	90.31
371.35	90.31
371.576	91.31
371.802	91.31
372.028	92.31
372.254	88.31
372.48	79.31
372.706	82.31
372.932	72.31
373.158	87.31
373.384	93.31
373.61	89.31
373.835	86.31
374.061	90.31
374.287	91.31
374.513	98.31
374.739	86.31
374.965	85.31
375.191	87.31
375.416	80.31
375.642	91.31
375.868	103.31
376.094	98.31
376.319	85.31
376.545	86.31
376.771	94.31
376.997	82.31
377.222	87.31
377.448	90.31
377.674	95.31
377.899	103.31
378.125	65.31
378.35	75.31
378.576	92.31
378.802	92.31
379.027	82.31
379.253	92.31
379.478	104.31
379.704	88.31
379.929	97.31
380.155	86.31
380.38	84.31
380.606	84.31
380.831	94.31
381.057	100.31
381.282	91.31
381.507	94.31
381.733	85.31
381.958	96.31
382.184	96.31
382.409	89.31
382.634	106.31
382.86	89.31
383.085	102.31
383.31	99.31
383.535	108.31
383.761	100.31
383.986	94.31
384.211	96.31
384.436	103.31
384.662	99.31
384.887	97.31
385.112	100.31
385.337	107.31
385.562	101.31
385.787	119.31
386.013	113.31
386.238	119.31
386.463	99.31
386.688	120.31
386.913	95.31
387.138	111.31
387.363	105.31
387.588	101.31
387.813	106.31
388.038	105.31
388.263	105.31
388.488	103.31
388.713	98.31
388.938	98.31
389.163	95.31
389.387	107.31
389.612	112.31
389.837	96.31
390.062	103.31
390.287	91.31
390.512	88.31
390.736	96.31
390.961	111.31
391.186	80.31
391.411	97.31
391.636	111.31
391.86	80.31
392.085	94.31
392.31	82.31
392.534	74.31
392.759	80.31
392.984	88.31
393.208	90.31
393.433	103.31
393.658	98.31
393.882	82.31
394.107	83.31
394.331	97.31
394.556	90.31
394.78	85.31
395.005	86.31
395.229	85.31
395.454	93.31
395.678	80.31
395.903	86.31
396.127	94.31
396.352	98.31
396.576	78.31
396.801	82.31
397.025	94.31
397.249	81.31
397.474	94.31
397.698	103.31
397.922	90.31
398.147	85.31
398.371	84.31
398.595	84.31
398.82	95.31
399.044	83.31
399.268	95.31
399.492	96.31
399.717	86.31
399.941	94.31
400.165	90.31
400.389	91.31
400.613	81.31
400.837	80.31
401.062	88.31
401.286	83.31
401.51	74.31
401.734	91.31
401.958	99.31
402.182	108.31
402.406	144.31
402.63	99.31
402.854	92.31
403.078	96.31
403.302	91.31
403.526	91.31
403.75	108.31
403.974	86.31
404.198	92.31
404.422	76.31
404.645	90.31
404.869	86.31
405.093	91.31
405.317	103.31
405.541	107.31
405.765	87.31
405.988	97.31
406.212	144.31
406.436	187.31
406.66	115.31
406.883	86.31
407.107	90.31
407.331	102.31
407.555	96.31
407.778	87.31
408.002	89.31
408.226	91.31
408.449	82.31
408.673	94.31
408.896	87.31
409.12	89.31
409.344	95.31
409.567	88.31
409.791	104.31
410.014	90.31
410.238	113.31
410.461	90.31
410.685	100.31
410.908	97.31
411.132	98.31
411.355	104.31
411.578	88.31
411.802	74.31
412.025	90.31
412.249	86.31
412.472	81.31
412.695	103.31
412.919	82.31
413.142	75.31
413.365	86.31
413.589	95.31
413.812	80.31
414.035	106.31
414.258	86.31
414.482	83.31
414.705	83.31
414.928	89.31
415.151	106.31
415.374	102.31
415.597	94.31
415.821	91.31
416.044	78.31
416.267	86.31
416.49	101.31
416.713	101.31
416.936	79.31
417.159	88.31
417.382	91.31
417.605	83.31
417.828	83.31
418.051	92.31
418.274	83.31
418.497	97.31
418.72	98.31
418.943	85.31
419.166	85.31
419.389	83.31
419.611	87.31
419.834	79.31
420.057	99.31
420.28	79.31
420.503	75.31
420.726	88.31
420.948	91.31
421.171	82.31
421.394	96.31
421.617	87.31
421.839	79.31
422.062	89.31
422.285	91.31
422.507	92.31
422.73	97.31
422.953	85.31
423.175	86.31
423.398	86.31
423.621	90.31
423.843	68.31
424.066	90.31
424.288	83.31
424.511	91.31
424.733	85.31
424.956	88.31
425.178	94.31
425.401	91.31
425.623	92.31
425.846	90.31
426.068	91.31
426.291	86.31
426.513	106.31
426.735	84.31
426.958	92.31
427.18	86.31
427.402	115.31
427.625	132.31
427.847	138.31
428.069	119.31
428.292	104.31
428.514	99.31
428.736	81.31
428.958	92.31
429.181	79.31
429.403	85.31
429.625	90.31
429.847	86.31
430.069	92.31
430.292	87.31
430.514	75.31
430.736	85.31
430.958	80.31
431.18	79.31
431.402	87.31
431.624	81.31
431.846	84.31
432.068	74.31
432.29	86.31
432.512	104.31
432.734	96.31
432.956	98.31
433.178	101.31
433.4	90.31
433.622	96.31
433.844	86.31
434.066	96.31
434.287	95.31
434.509	93.31
434.731	73.31
434.953	88.31
435.175	86.31
435.397	80.31
435.618	82.31
435.84	93.31
436.062	116.31
436.284	101.31
436.505	87.31
436.727	101.31
436.949	73.31
437.17	92.31
437.392	83.31
437.614	85.31
437.835	106.31
438.057	119.31
438.278	111.31
438.5	104.31
438.721	122.31
438.943	107.31
439.165	96.31
439.386	91.31
439.608	87.31
439.829	93.31
440.05	110.31
440.272	124.31
440.493	94.31
440.715	88.31
440.936	81.31
441.158	90.31
441.379	69.31
441.6	86.31
441.822	95.31
442.043	82.31
442.264	94.31
442.486	100.31
442.707	80.31
442.928	101.31
443.149	121.31
443.371	120.31
443.592	102.31
443.813	102.31
444.034	97.31
444.255	87.31
444.476	98.31
444.698	76.31
444.919	76.31
445.14	136.31
445.361	125.31
445.582	101.31
445.803	119.31
446.024	121.31
446.245	116.31
446.466	95.31
446.687	82.31
446.908	82.31
447.129	89.31
447.35	88.31
447.571	83.31
447.792	77.31
448.013	93.31
448.234	88.31
448.455	99.31
448.675	102.31
448.896	104.31
449.117	99.31
449.338	99.31
449.559	118.31
449.779	127.31
450	94.31
450.221	78.31
450.442	89.31
450.662	82.31
450.883	103.31
451.104	99.31
451.324	95.31
451.545	96.31
451.766	83.31
451.986	79.31
452.207	82.31
452.428	85.31
452.648	86.31
452.869	98.31
453.089	98.31
453.31	100.31
453.53	93.31
453.751	96.31
453.971	87.31
454.192	107.31
454.412	95.31
454.633	81.31
454.853	78.31
455.073	78.31
455.294	91.31
455.514	97.31
455.734	82.31
455.955	79.31
456.175	67.31
456.395	62.31
456.616	87.31
456.836	70.31
457.056	89.31
457.276	75.31
457.497	82.31
457.717	81.31
457.937	90.31
458.157	84.31
458.377	98.31
458.598	100.31
458.818	116.31
459.038	132.31
459.258	98.31
459.478	85.31
459.698	100.31
459.918	100.31
460.138	87.31
460.358	83.31
460.578	84.31
460.798	99.31
461.018	99.31
461.238	84.31
461.458	80.31
461.678	86.31
461.898	83.31
462.118	92.31
462.338	98.31
462.558	78.31
462.777	85.31
462.997	93.31
463.217	79.31
463.437	88.31
463.657	95.31
463.876	88.31
464.096	76.31
464.316	80.31
464.536	85.31
464.755	80.31
464.975	99.31
465.195	128.31
465.414	126.31
465.634	88.31
465.854	98.31
466.073	80.31
466.293	92.31
466.512	96.31
466.732	96.31
466.951	83.31
467.171	84.31
467.391	90.31
467.61	108.31
467.829	93.31
468.049	98.31
468.268	98.31
468.488	76.31
468.707	81.31
468.927	90.31
469.146	75.31
469.365	75.31
469.585	90.31
469.804	91.31
470.023	98.31
470.243	75.31
470.462	93.31
470.681	85.31
470.901	90.31
471.12	82.31
471.339	82.31
471.558	84.31
471.777	88.31
471.997	98.31
472.216	110.31
472.435	124.31
472.654	94.31
472.873	92.31
473.092	78.31
473.311	89.31
473.53	80.31
473.749	78.31
473.968	104.31
474.187	103.31
474.406	81.31
474.625	106.31
474.844	86.31
475.063	86.31
475.282	76.31
475.501	90.31
475.72	101.31
475.939	68.31
476.158	86.31
476.377	89.31
476.596	82.31
476.814	82.31
477.033	83.31
477.252	84.31
477.471	88.31
477.69	82.31
477.908	89.31
478.127	107.31
478.346	88.31
478.564	90.31
478.783	87.31
479.002	88.31
479.22	89.31
479.439	85.31
479.658	109.31
479.876	98.31
480.095	90.31
480.313	86.31
480.532	83.31
480.751	102.31
480.969	112.31
481.188	193.31
481.406	147.31
481.624	102.31
481.843	84.31
482.061	78.31
482.28	94.31
482.498	84.31
482.717	99.31
482.935	84.31
483.153	80.31
483.372	87.31
483.59	95.31
483.808	85.31
484.027	80.31
484.245	82.31
484.463	88.31
484.681	103.31
484.9	100.31
485.118	98.31
485.336	104.31
485.554	113.31
485.772	102.31
485.99	102.31
486.209	102.31
486.427	107.31
486.645	103.31
486.863	112.31
487.081	88.31
487.299	80.31
487.517	101.31
487.735	94.31
487.953	92.31
488.171	104.31
488.389	100.31
488.607	95.31
488.825	92.31
489.043	88.31
489.261	81.31
489.479	90.31
489.696	86.31
489.914	83.31
490.132	98.31
490.35	96.31
490.568	87.31
490.786	84.31
491.003	82.31
491.221	82.31
491.439	100.31
491.657	86.31
491.874	92.31
492.092	88.31
492.31	81.31
492.527	84.31
492.745	100.31
492.963	89.31
493.18	94.31
493.398	94.31
493.615	89.31
493.833	97.31
494.05	110.31
494.268	83.31
494.485	79.31
494.703	86.31
494.92	82.31
495.138	88.31
495.355	81.31
495.573	98.31
495.79	94.31
496.008	95.31
496.225	92.31
496.442	78.31
496.66	91.31
496.877	100.31
497.094	95.31
497.312	91.31
497.529	93.31
497.746	91.31
497.963	96.31
498.181	87.31
498.398	89.31
498.615	108.31
498.832	108.31
499.049	88.31
499.267	91.31
499.484	98.31
499.701	94.31
499.918	76.31
500.135	96.31
500.352	91.31
500.569	88.31
500.786	98.31
501.003	109.31
501.22	83.31
501.437	101.31
501.654	116.31
501.871	95.31
502.088	98.31
502.305	96.31
502.522	98.31
502.739	89.31
502.956	84.31
503.172	92.31
503.389	103.31
503.606	87.31
503.823	93.31
504.04	94.31
504.256	89.31
504.473	96.31
504.69	97.31
504.907	97.31
505.123	90.31
505.34	98.31
505.557	86.31
505.773	87.31
505.99	80.31
506.207	97.31
506.423	82.31
506.64	104.31
506.856	93.31
507.073	84.31
507.289	93.31
507.506	102.31
507.722	96.31
507.939	119.31
508.155	103.31
508.372	104.31
508.588	108.31
508.805	111.31
509.021	99.31
509.238	97.31
509.454	91.31
509.67	95.31
509.887	98.31
510.103	110.31
510.319	195.31
510.536	624.31
510.752	1867.31
510.968	514.31
511.184	142.31
511.401	100.31
511.617	95.31
511.833	102.31
512.049	84.31
512.265	94.31
512.481	83.31
512.698	74.31
512.914	79.31
513.13	84.31
513.346	89.31
513.562	99.31
513.778	81.31
513.994	98.31
514.21	106.31
514.426	103.31
514.642	130.31
514.858	114.31
515.074	133.31
515.29	364.31
515.506	1074.31
515.721	412.31
515.937	121.31
516.153	92.31
