Data from Circ_1985_H10_HRD10591_00082.txt Node
Date: Wed Jan 03 12:19:39 EST 2024
User: Yrep
Spectrometer: HR+D1059
Trigger mode: 1
Integration Time (sec): 1.000000E-1
Scans to average: 1
Electric dark correction enabled: true
Nonlinearity correction enabled: false
Boxcar width: 0
XAxis mode: Wavelengths
Number of Pixels in Spectrum: 2048
>>>>>Begin Spectral Data<<<<<
223.165	-21.88
223.4	-21.88
223.635	-21.88
223.869	-17.88
224.104	-17.88
224.338	-14.88
224.573	-33.88
224.808	-6.88
225.042	-5.88
225.277	1.12
225.511	-1.88
225.746	-4.88
225.98	0.12
226.215	22.12
226.449	22.12
226.683	26.12
226.918	26.12
227.152	28.12
227.387	42.12
227.621	44.12
227.856	41.12
228.09	57.12
228.324	62.12
228.559	48.12
228.793	38.12
229.027	55.12
229.262	65.12
229.496	84.12
229.73	100.12
229.964	87.12
230.199	61.12
230.433	74.12
230.667	88.12
230.901	78.12
231.136	69.12
231.37	79.12
231.604	91.12
231.838	78.12
232.072	81.12
232.306	68.12
232.541	74.12
232.775	76.12
233.009	67.12
233.243	81.12
233.477	80.12
233.711	88.12
233.945	90.12
234.179	76.12
234.413	85.12
234.647	90.12
234.881	75.12
235.115	70.12
235.349	78.12
235.583	78.12
235.817	75.12
236.051	84.12
236.285	73.12
236.519	78.12
236.753	95.12
236.987	78.12
237.221	78.12
237.455	67.12
237.689	73.12
237.922	73.12
238.156	66.12
238.39	82.12
238.624	74.12
238.858	75.12
239.091	63.12
239.325	75.12
239.559	78.12
239.793	78.12
240.027	75.12
240.26	92.12
240.494	73.12
240.728	75.12
240.961	75.12
241.195	82.12
241.429	73.12
241.662	78.12
241.896	62.12
242.13	78.12
242.363	83.12
242.597	90.12
242.83	83.12
243.064	74.12
243.298	85.12
243.531	89.12
243.765	90.12
243.998	73.12
244.232	95.12
244.465	98.12
244.699	76.12
244.932	73.12
245.166	85.12
245.399	88.12
245.633	82.12
245.866	76.12
246.099	78.12
246.333	75.12
246.566	80.12
246.8	82.12
247.033	74.12
247.266	84.12
247.5	78.12
247.733	71.12
247.966	74.12
248.2	80.12
248.433	88.12
248.666	75.12
248.899	91.12
249.133	78.12
249.366	78.12
249.599	92.12
249.832	73.12
250.066	80.12
250.299	101.12
250.532	86.12
250.765	83.12
250.998	75.12
251.231	83.12
251.465	78.12
251.698	84.12
251.931	85.12
252.164	79.12
252.397	82.12
252.63	84.12
252.863	66.12
253.096	82.12
253.329	79.12
253.562	81.12
253.795	83.12
254.028	82.12
254.261	78.12
254.494	84.12
254.727	81.12
254.96	87.12
255.193	84.12
255.426	73.12
255.659	92.12
255.892	84.12
256.124	87.12
256.357	78.12
256.59	83.12
256.823	82.12
257.056	84.12
257.289	88.12
257.521	89.12
257.754	83.12
257.987	78.12
258.22	79.12
258.452	72.12
258.685	84.12
258.918	85.12
259.151	83.12
259.383	96.12
259.616	79.12
259.849	82.12
260.081	90.12
260.314	75.12
260.547	86.12
260.779	83.12
261.012	78.12
261.244	90.12
261.477	98.12
261.71	94.12
261.942	103.12
262.175	108.12
262.407	79.12
262.64	95.12
262.872	93.12
263.105	85.12
263.337	79.12
263.57	88.12
263.802	76.12
264.035	92.12
264.267	68.12
264.499	87.12
264.732	86.12
264.964	85.12
265.197	86.12
265.429	87.12
265.661	73.12
265.894	88.12
266.126	73.12
266.358	82.12
266.591	87.12
266.823	84.12
267.055	87.12
267.287	92.12
267.52	76.12
267.752	79.12
267.984	82.12
268.216	96.12
268.448	86.12
268.681	82.12
268.913	86.12
269.145	81.12
269.377	78.12
269.609	85.12
269.841	86.12
270.073	95.12
270.306	90.12
270.538	82.12
270.77	79.12
271.002	80.12
271.234	74.12
271.466	72.12
271.698	76.12
271.93	78.12
272.162	79.12
272.394	90.12
272.626	90.12
272.858	87.12
273.09	87.12
273.322	70.12
273.553	85.12
273.785	76.12
274.017	70.12
274.249	94.12
274.481	75.12
274.713	80.12
274.945	92.12
275.176	83.12
275.408	76.12
275.64	90.12
275.872	83.12
276.104	74.12
276.335	88.12
276.567	98.12
276.799	96.12
277.031	99.12
277.262	95.12
277.494	90.12
277.726	94.12
277.957	78.12
278.189	84.12
278.421	86.12
278.652	92.12
278.884	93.12
279.115	84.12
279.347	86.12
279.579	88.12
279.81	79.12
280.042	94.12
280.273	94.12
280.505	75.12
280.736	97.12
280.968	85.12
281.199	81.12
281.431	88.12
281.662	101.12
281.894	86.12
282.125	95.12
282.356	102.12
282.588	142.12
282.819	105.12
283.051	88.12
283.282	85.12
283.513	100.12
283.745	76.12
283.976	87.12
284.207	77.12
284.439	97.12
284.67	73.12
284.901	97.12
285.132	81.12
285.364	84.12
285.595	86.12
285.826	88.12
286.057	97.12
286.288	88.12
286.52	86.12
286.751	86.12
286.982	70.12
287.213	78.12
287.444	83.12
287.675	89.12
287.906	80.12
288.138	100.12
288.369	82.12
288.6	84.12
288.831	91.12
289.062	88.12
289.293	82.12
289.524	80.12
289.755	81.12
289.986	93.12
290.217	89.12
290.448	86.12
290.679	67.12
290.91	77.12
291.141	76.12
291.371	88.12
291.602	82.12
291.833	95.12
292.064	92.12
292.295	73.12
292.526	83.12
292.757	88.12
292.987	85.12
293.218	103.12
293.449	96.12
293.68	79.12
293.91	82.12
294.141	89.12
294.372	91.12
294.603	81.12
294.833	91.12
295.064	81.12
295.295	90.12
295.525	93.12
295.756	88.12
295.987	112.12
296.217	123.12
296.448	100.12
296.679	105.12
296.909	88.12
297.14	72.12
297.37	101.12
297.601	90.12
297.831	96.12
298.062	77.12
298.292	74.12
298.523	90.12
298.753	82.12
298.984	88.12
299.214	91.12
299.445	81.12
299.675	86.12
299.905	98.12
300.136	88.12
300.366	89.12
300.597	89.12
300.827	101.12
301.057	108.12
301.288	109.12
301.518	89.12
301.748	99.12
301.979	89.12
302.209	79.12
302.439	93.12
302.669	81.12
302.9	93.12
303.13	96.12
303.36	95.12
303.59	110.12
303.82	106.12
304.051	100.12
304.281	100.12
304.511	82.12
304.741	82.12
304.971	86.12
305.201	88.12
305.431	78.12
305.661	102.12
305.891	87.12
306.121	92.12
306.352	96.12
306.582	90.12
306.812	94.12
307.042	97.12
307.272	104.12
307.502	89.12
307.731	91.12
307.961	101.12
308.191	94.12
308.421	102.12
308.651	79.12
308.881	88.12
309.111	84.12
309.341	98.12
309.571	103.12
309.8	94.12
310.03	103.12
310.26	92.12
310.49	96.12
310.72	108.12
310.949	103.12
311.179	90.12
311.409	101.12
311.639	100.12
311.868	106.12
312.098	100.12
312.328	97.12
312.557	95.12
312.787	100.12
313.017	97.12
313.246	98.12
313.476	83.12
313.706	88.12
313.935	94.12
314.165	114.12
314.394	89.12
314.624	91.12
314.853	96.12
315.083	95.12
315.312	98.12
315.542	93.12
315.771	96.12
316.001	91.12
316.23	85.12
316.46	96.12
316.689	88.12
316.919	85.12
317.148	81.12
317.377	76.12
317.607	95.12
317.836	83.12
318.065	97.12
318.295	84.12
318.524	95.12
318.753	100.12
318.983	87.12
319.212	107.12
319.441	97.12
319.67	112.12
319.9	99.12
320.129	100.12
320.358	89.12
320.587	108.12
320.816	85.12
321.046	105.12
321.275	106.12
321.504	91.12
321.733	85.12
321.962	89.12
322.191	93.12
322.42	95.12
322.649	106.12
322.878	126.12
323.108	113.12
323.337	136.12
323.566	115.12
323.795	150.12
324.024	191.12
324.253	382.12
324.482	788.12
324.71	1630.12
324.939	2149.12
325.168	796.12
325.397	230.12
325.626	147.12
325.855	133.12
326.084	122.12
326.313	140.12
326.542	143.12
326.77	208.12
326.999	431.12
327.228	943.12
327.457	1707.12
327.686	1355.12
327.914	358.12
328.143	190.12
328.372	151.12
328.6	120.12
328.829	116.12
329.058	114.12
329.287	116.12
329.515	120.12
329.744	103.12
329.972	123.12
330.201	139.12
330.43	154.12
330.658	128.12
330.887	134.12
331.115	109.12
331.344	101.12
331.572	97.12
331.801	107.12
332.03	96.12
332.258	99.12
332.486	89.12
332.715	99.12
332.943	92.12
333.172	99.12
333.4	90.12
333.629	113.12
333.857	106.12
334.085	115.12
334.314	136.12
334.542	166.12
334.771	156.12
334.999	108.12
335.227	91.12
335.455	100.12
335.684	96.12
335.912	95.12
336.14	103.12
336.369	99.12
336.597	91.12
336.825	102.12
337.053	101.12
337.281	84.12
337.51	78.12
337.738	92.12
337.966	105.12
338.194	83.12
338.422	88.12
338.65	109.12
338.878	94.12
339.106	75.12
339.334	88.12
339.562	84.12
339.79	82.12
340.018	88.12
340.246	102.12
340.474	99.12
340.702	96.12
340.93	80.12
341.158	100.12
341.386	83.12
341.614	94.12
341.842	84.12
342.07	87.12
342.298	91.12
342.526	105.12
342.754	99.12
342.981	93.12
343.209	100.12
343.437	103.12
343.665	96.12
343.893	94.12
344.12	96.12
344.348	106.12
344.576	98.12
344.804	98.12
345.031	80.12
345.259	82.12
345.487	83.12
345.714	91.12
345.942	96.12
346.17	96.12
346.397	83.12
346.625	91.12
346.853	99.12
347.08	90.12
347.308	103.12
347.535	104.12
347.763	100.12
347.99	99.12
348.218	95.12
348.445	103.12
348.673	92.12
348.9	94.12
349.128	84.12
349.355	94.12
349.583	98.12
349.81	90.12
350.037	83.12
350.265	88.12
350.492	88.12
350.72	107.12
350.947	83.12
351.174	107.12
351.402	110.12
351.629	100.12
351.856	97.12
352.083	94.12
352.311	105.12
352.538	110.12
352.765	119.12
352.992	99.12
353.22	104.12
353.447	103.12
353.674	102.12
353.901	116.12
354.128	108.12
354.355	90.12
354.583	91.12
354.81	91.12
355.037	95.12
355.264	113.12
355.491	88.12
355.718	87.12
355.945	94.12
356.172	96.12
356.399	100.12
356.626	94.12
356.853	91.12
357.08	95.12
357.307	89.12
357.534	90.12
357.761	90.12
357.988	97.12
358.215	97.12
358.441	90.12
358.668	90.12
358.895	95.12
359.122	90.12
359.349	83.12
359.576	90.12
359.802	106.12
360.029	113.12
360.256	102.12
360.483	94.12
360.709	90.12
360.936	94.12
361.163	87.12
361.39	92.12
361.616	89.12
361.843	82.12
362.07	90.12
362.296	91.12
362.523	80.12
362.749	94.12
362.976	100.12
363.203	89.12
363.429	89.12
363.656	88.12
363.882	95.12
364.109	95.12
364.335	89.12
364.562	85.12
364.788	82.12
365.015	85.12
365.241	91.12
365.468	116.12
365.694	88.12
365.92	84.12
366.147	85.12
366.373	88.12
366.599	86.12
366.826	95.12
367.052	70.12
367.278	89.12
367.505	80.12
367.731	81.12
367.957	100.12
368.184	76.12
368.41	96.12
368.636	98.12
368.862	115.12
369.089	98.12
369.315	89.12
369.541	76.12
369.767	90.12
369.993	87.12
370.219	93.12
370.445	90.12
370.672	92.12
370.898	87.12
371.124	87.12
371.35	106.12
371.576	85.12
371.802	90.12
372.028	90.12
372.254	82.12
372.48	88.12
372.706	91.12
372.932	85.12
373.158	87.12
373.384	94.12
373.61	93.12
373.835	87.12
374.061	82.12
374.287	93.12
374.513	94.12
374.739	82.12
374.965	89.12
375.191	82.12
375.416	80.12
375.642	76.12
375.868	92.12
376.094	98.12
376.319	94.12
376.545	83.12
376.771	85.12
376.997	97.12
377.222	92.12
377.448	106.12
377.674	87.12
377.899	82.12
378.125	106.12
378.35	78.12
378.576	96.12
378.802	88.12
379.027	86.12
379.253	100.12
379.478	95.12
379.704	100.12
379.929	88.12
380.155	101.12
380.38	92.12
380.606	90.12
380.831	96.12
381.057	82.12
381.282	85.12
381.507	94.12
381.733	107.12
381.958	92.12
382.184	91.12
382.409	104.12
382.634	106.12
382.86	97.12
383.085	94.12
383.31	98.12
383.535	91.12
383.761	104.12
383.986	90.12
384.211	102.12
384.436	106.12
384.662	99.12
384.887	105.12
385.112	105.12
385.337	96.12
385.562	108.12
385.787	105.12
386.013	106.12
386.238	103.12
386.463	94.12
386.688	106.12
386.913	102.12
387.138	92.12
387.363	96.12
387.588	108.12
387.813	103.12
388.038	93.12
388.263	110.12
388.488	113.12
388.713	98.12
388.938	84.12
389.163	89.12
389.387	88.12
389.612	97.12
389.837	81.12
390.062	106.12
390.287	87.12
390.512	99.12
390.736	82.12
390.961	89.12
391.186	105.12
391.411	107.12
391.636	96.12
391.86	90.12
392.085	93.12
392.31	92.12
392.534	95.12
392.759	83.12
392.984	91.12
393.208	82.12
393.433	97.12
393.658	80.12
393.882	89.12
394.107	77.12
394.331	78.12
394.556	74.12
394.78	83.12
395.005	82.12
395.229	82.12
395.454	83.12
395.678	72.12
395.903	104.12
396.127	100.12
396.352	88.12
396.576	83.12
396.801	75.12
397.025	79.12
397.249	98.12
397.474	94.12
397.698	87.12
397.922	82.12
398.147	91.12
398.371	68.12
398.595	92.12
398.82	84.12
399.044	88.12
399.268	79.12
399.492	98.12
399.717	92.12
399.941	89.12
400.165	97.12
400.389	85.12
400.613	76.12
400.837	75.12
401.062	73.12
401.286	78.12
401.51	95.12
401.734	82.12
401.958	96.12
402.182	109.12
402.406	146.12
402.63	112.12
402.854	82.12
403.078	95.12
403.302	88.12
403.526	95.12
403.75	87.12
403.974	80.12
404.198	99.12
404.422	78.12
404.645	74.12
404.869	91.12
405.093	99.12
405.317	99.12
405.541	105.12
405.765	107.12
405.988	119.12
406.212	160.12
406.436	205.12
406.66	137.12
406.883	100.12
407.107	98.12
407.331	94.12
407.555	108.12
407.778	97.12
408.002	86.12
408.226	81.12
408.449	80.12
408.673	82.12
408.896	88.12
409.12	100.12
409.344	87.12
409.567	89.12
409.791	81.12
410.014	96.12
410.238	87.12
410.461	87.12
410.685	101.12
410.908	80.12
411.132	84.12
411.355	103.12
411.578	91.12
411.802	92.12
412.025	91.12
412.249	90.12
412.472	98.12
412.695	95.12
412.919	101.12
413.142	92.12
413.365	82.12
413.589	91.12
413.812	92.12
414.035	87.12
414.258	74.12
414.482	92.12
414.705	99.12
414.928	89.12
415.151	91.12
415.374	102.12
415.597	92.12
415.821	107.12
416.044	85.12
416.267	98.12
416.49	83.12
416.713	86.12
416.936	83.12
417.159	78.12
417.382	85.12
417.605	93.12
417.828	103.12
418.051	82.12
418.274	92.12
418.497	82.12
418.72	86.12
418.943	97.12
419.166	75.12
419.389	104.12
419.611	97.12
419.834	96.12
420.057	102.12
420.28	85.12
420.503	94.12
420.726	84.12
420.948	95.12
421.171	87.12
421.394	90.12
421.617	102.12
421.839	88.12
422.062	98.12
422.285	98.12
422.507	100.12
422.73	92.12
422.953	99.12
423.175	89.12
423.398	87.12
423.621	92.12
423.843	100.12
424.066	92.12
424.288	86.12
424.511	88.12
424.733	84.12
424.956	100.12
425.178	94.12
425.401	104.12
425.623	97.12
425.846	100.12
426.068	104.12
426.291	98.12
426.513	91.12
426.735	91.12
426.958	84.12
427.18	95.12
427.402	136.12
427.625	151.12
427.847	127.12
428.069	112.12
428.292	86.12
428.514	97.12
428.736	87.12
428.958	74.12
429.181	92.12
429.403	87.12
429.625	86.12
429.847	96.12
430.069	94.12
430.292	77.12
430.514	78.12
430.736	83.12
430.958	89.12
431.18	87.12
431.402	91.12
431.624	81.12
431.846	96.12
432.068	87.12
432.29	88.12
432.512	82.12
432.734	85.12
432.956	86.12
433.178	106.12
433.4	97.12
433.622	95.12
433.844	82.12
434.066	91.12
434.287	88.12
434.509	112.12
434.731	88.12
434.953	92.12
435.175	99.12
435.397	89.12
435.618	99.12
435.84	114.12
436.062	126.12
436.284	106.12
436.505	106.12
436.727	91.12
436.949	106.12
437.17	88.12
437.392	89.12
437.614	95.12
437.835	102.12
438.057	113.12
438.278	103.12
438.5	111.12
438.721	111.12
438.943	98.12
439.165	108.12
439.386	90.12
439.608	79.12
439.829	116.12
440.05	119.12
440.272	131.12
440.493	96.12
440.715	98.12
440.936	92.12
441.158	86.12
441.379	85.12
441.6	86.12
441.822	110.12
442.043	83.12
442.264	100.12
442.486	103.12
442.707	98.12
442.928	103.12
443.149	108.12
443.371	115.12
443.592	122.12
443.813	112.12
444.034	113.12
444.255	88.12
444.476	85.12
444.698	80.12
444.919	89.12
445.14	126.12
445.361	113.12
445.582	120.12
445.803	131.12
446.024	134.12
446.245	136.12
446.466	97.12
446.687	95.12
446.908	83.12
447.129	91.12
447.35	82.12
447.571	83.12
447.792	96.12
448.013	95.12
448.234	99.12
448.455	92.12
448.675	113.12
448.896	105.12
449.117	92.12
449.338	102.12
449.559	120.12
449.779	131.12
450	91.12
450.221	86.12
450.442	84.12
450.662	105.12
450.883	97.12
451.104	96.12
451.324	100.12
451.545	92.12
451.766	83.12
451.986	80.12
452.207	92.12
452.428	107.12
452.648	78.12
452.869	115.12
453.089	103.12
453.31	105.12
453.53	87.12
453.751	94.12
453.971	89.12
454.192	111.12
454.412	94.12
454.633	84.12
454.853	84.12
455.073	95.12
455.294	87.12
455.514	114.12
455.734	96.12
455.955	83.12
456.175	78.12
456.395	73.12
456.616	88.12
456.836	98.12
457.056	84.12
457.276	95.12
457.497	82.12
457.717	83.12
457.937	102.12
458.157	75.12
458.377	102.12
458.598	94.12
458.818	134.12
459.038	145.12
459.258	120.12
459.478	97.12
459.698	71.12
459.918	94.12
460.138	85.12
460.358	86.12
460.578	89.12
460.798	101.12
461.018	96.12
461.238	86.12
461.458	67.12
461.678	90.12
461.898	79.12
462.118	84.12
462.338	93.12
462.558	88.12
462.777	81.12
462.997	91.12
463.217	91.12
463.437	74.12
463.657	68.12
463.876	71.12
464.096	90.12
464.316	92.12
464.536	99.12
464.755	100.12
464.975	105.12
465.195	149.12
465.414	127.12
465.634	76.12
465.854	97.12
466.073	99.12
466.293	86.12
466.512	92.12
466.732	89.12
466.951	93.12
467.171	88.12
467.391	96.12
467.61	102.12
467.829	93.12
468.049	113.12
468.268	104.12
468.488	93.12
468.707	95.12
468.927	87.12
469.146	91.12
469.365	93.12
469.585	91.12
469.804	83.12
470.023	95.12
470.243	96.12
470.462	109.12
470.681	102.12
470.901	83.12
471.12	88.12
471.339	82.12
471.558	83.12
471.777	94.12
471.997	90.12
472.216	132.12
472.435	198.12
472.654	113.12
472.873	98.12
473.092	76.12
473.311	96.12
473.53	70.12
473.749	104.12
473.968	83.12
474.187	96.12
474.406	98.12
474.625	85.12
474.844	88.12
475.063	88.12
475.282	86.12
475.501	80.12
475.72	93.12
475.939	96.12
476.158	88.12
476.377	79.12
476.596	88.12
476.814	78.12
477.033	82.12
477.252	90.12
477.471	85.12
477.69	82.12
477.908	87.12
478.127	67.12
478.346	88.12
478.564	95.12
478.783	89.12
479.002	96.12
479.22	89.12
479.439	107.12
479.658	113.12
479.876	98.12
480.095	90.12
480.313	90.12
480.532	96.12
480.751	106.12
480.969	147.12
481.188	296.12
481.406	200.12
481.624	103.12
481.843	90.12
482.061	84.12
482.28	89.12
482.498	88.12
482.717	86.12
482.935	75.12
483.153	87.12
483.372	81.12
483.59	84.12
483.808	87.12
484.027	97.12
484.245	90.12
484.463	99.12
484.681	103.12
484.9	99.12
485.118	106.12
485.336	90.12
485.554	89.12
485.772	103.12
485.99	95.12
486.209	99.12
486.427	110.12
486.645	124.12
486.863	100.12
487.081	103.12
487.299	100.12
487.517	90.12
487.735	80.12
487.953	94.12
488.171	96.12
488.389	97.12
488.607	90.12
488.825	93.12
489.043	93.12
489.261	83.12
489.479	66.12
489.696	88.12
489.914	86.12
490.132	90.12
490.35	90.12
490.568	90.12
490.786	96.12
491.003	98.12
491.221	95.12
491.439	93.12
491.657	89.12
491.874	99.12
492.092	89.12
492.31	91.12
492.527	99.12
492.745	97.12
492.963	96.12
493.18	103.12
493.398	83.12
493.615	92.12
493.833	96.12
494.05	88.12
494.268	97.12
494.485	98.12
494.703	81.12
494.92	86.12
495.138	85.12
495.355	91.12
495.573	102.12
495.79	89.12
496.008	94.12
496.225	88.12
496.442	90.12
496.66	83.12
496.877	85.12
497.094	94.12
497.312	88.12
497.529	100.12
497.746	97.12
497.963	83.12
498.181	85.12
498.398	98.12
498.615	99.12
498.832	96.12
499.049	95.12
499.267	82.12
499.484	104.12
499.701	105.12
499.918	82.12
500.135	91.12
500.352	87.12
500.569	90.12
500.786	90.12
501.003	95.12
501.22	87.12
501.437	91.12
501.654	107.12
501.871	97.12
502.088	74.12
502.305	98.12
502.522	106.12
502.739	87.12
502.956	97.12
503.172	84.12
503.389	97.12
503.606	108.12
503.823	90.12
504.04	86.12
504.256	80.12
504.473	80.12
504.69	97.12
504.907	100.12
505.123	83.12
505.34	81.12
505.557	84.12
505.773	94.12
505.99	96.12
506.207	88.12
506.423	78.12
506.64	99.12
506.856	87.12
507.073	89.12
507.289	87.12
507.506	89.12
507.722	123.12
507.939	104.12
508.155	102.12
508.372	88.12
508.588	100.12
508.805	82.12
509.021	104.12
509.238	94.12
509.454	89.12
509.67	95.12
509.887	109.12
510.103	121.12
510.319	196.12
510.536	678.12
510.752	2126.12
510.968	582.12
511.184	150.12
511.401	107.12
511.617	94.12
511.833	95.12
512.049	85.12
512.265	82.12
512.481	80.12
512.698	94.12
512.914	82.12
513.13	94.12
513.346	91.12
513.562	94.12
513.778	96.12
513.994	99.12
514.21	112.12
514.426	103.12
514.642	107.12
514.858	123.12
515.074	156.12
515.29	391.12
515.506	1246.12
515.721	443.12
515.937	130.12
