Data from Circ_1985_H10_HRD10591_00089.txt Node
Date: Wed Jan 03 12:19:40 EST 2024
User: Yrep
Spectrometer: HR+D1059
Trigger mode: 1
Integration Time (sec): 1.000000E-1
Scans to average: 1
Electric dark correction enabled: true
Nonlinearity correction enabled: false
Boxcar width: 0
XAxis mode: Wavelengths
Number of Pixels in Spectrum: 2048
>>>>>Begin Spectral Data<<<<<
223.165	-13.44
223.4	-13.44
223.635	-13.44
223.869	-11.44
224.104	-22.44
224.338	-14.44
224.573	-9.44
224.808	-21.44
225.042	-8.44
225.277	-11.44
225.511	-6.44
225.746	6.56
225.98	0.56
226.215	18.56
226.449	20.56
226.683	24.56
226.918	23.56
227.152	24.56
227.387	32.56
227.621	42.56
227.856	61.56
228.09	51.56
228.324	44.56
228.559	57.56
228.793	62.56
229.027	67.56
229.262	70.56
229.496	64.56
229.73	91.56
229.964	84.56
230.199	77.56
230.433	83.56
230.667	79.56
230.901	77.56
231.136	71.56
231.37	71.56
231.604	73.56
231.838	75.56
232.072	80.56
232.306	87.56
232.541	71.56
232.775	90.56
233.009	85.56
233.243	80.56
233.477	91.56
233.711	80.56
233.945	80.56
234.179	88.56
234.413	68.56
234.647	85.56
234.881	88.56
235.115	80.56
235.349	74.56
235.583	89.56
235.817	85.56
236.051	90.56
236.285	77.56
236.519	77.56
236.753	85.56
236.987	71.56
237.221	83.56
237.455	72.56
237.689	77.56
237.922	64.56
238.156	64.56
238.39	82.56
238.624	76.56
238.858	76.56
239.091	73.56
239.325	85.56
239.559	89.56
239.793	90.56
240.027	77.56
240.26	64.56
240.494	76.56
240.728	79.56
240.961	83.56
241.195	79.56
241.429	90.56
241.662	79.56
241.896	80.56
242.13	83.56
242.363	74.56
242.597	63.56
242.83	77.56
243.064	67.56
243.298	75.56
243.531	83.56
243.765	85.56
243.998	70.56
244.232	75.56
244.465	68.56
244.699	82.56
244.932	71.56
245.166	83.56
245.399	74.56
245.633	76.56
245.866	76.56
246.099	80.56
246.333	74.56
246.566	77.56
246.8	70.56
247.033	80.56
247.266	67.56
247.5	79.56
247.733	93.56
247.966	86.56
248.2	84.56
248.433	84.56
248.666	76.56
248.899	76.56
249.133	95.56
249.366	99.56
249.599	82.56
249.832	91.56
250.066	96.56
250.299	76.56
250.532	82.56
250.765	90.56
250.998	73.56
251.231	93.56
251.465	74.56
251.698	85.56
251.931	72.56
252.164	87.56
252.397	66.56
252.63	88.56
252.863	80.56
253.096	79.56
253.329	92.56
253.562	85.56
253.795	74.56
254.028	76.56
254.261	69.56
254.494	75.56
254.727	80.56
254.96	79.56
255.193	67.56
255.426	83.56
255.659	76.56
255.892	89.56
256.124	84.56
256.357	80.56
256.59	112.56
256.823	65.56
257.056	89.56
257.289	76.56
257.521	79.56
257.754	77.56
257.987	67.56
258.22	81.56
258.452	72.56
258.685	83.56
258.918	91.56
259.151	95.56
259.383	64.56
259.616	89.56
259.849	83.56
260.081	88.56
260.314	73.56
260.547	73.56
260.779	76.56
261.012	67.56
261.244	82.56
261.477	91.56
261.71	103.56
261.942	109.56
262.175	98.56
262.407	87.56
262.64	97.56
262.872	65.56
263.105	96.56
263.337	87.56
263.57	85.56
263.802	71.56
264.035	65.56
264.267	93.56
264.499	81.56
264.732	88.56
264.964	68.56
265.197	87.56
265.429	90.56
265.661	86.56
265.894	91.56
266.126	102.56
266.358	81.56
266.591	92.56
266.823	83.56
267.055	90.56
267.287	79.56
267.52	79.56
267.752	81.56
267.984	82.56
268.216	81.56
268.448	90.56
268.681	90.56
268.913	90.56
269.145	93.56
269.377	69.56
269.609	105.56
269.841	85.56
270.073	70.56
270.306	85.56
270.538	71.56
270.77	83.56
271.002	89.56
271.234	94.56
271.466	85.56
271.698	90.56
271.93	86.56
272.162	82.56
272.394	80.56
272.626	85.56
272.858	84.56
273.09	91.56
273.322	83.56
273.553	82.56
273.785	87.56
274.017	90.56
274.249	79.56
274.481	84.56
274.713	86.56
274.945	76.56
275.176	95.56
275.408	85.56
275.64	82.56
275.872	93.56
276.104	75.56
276.335	75.56
276.567	94.56
276.799	95.56
277.031	84.56
277.262	91.56
277.494	88.56
277.726	96.56
277.957	84.56
278.189	87.56
278.421	79.56
278.652	93.56
278.884	85.56
279.115	90.56
279.347	86.56
279.579	99.56
279.81	81.56
280.042	83.56
280.273	80.56
280.505	71.56
280.736	80.56
280.968	87.56
281.199	97.56
281.431	71.56
281.662	89.56
281.894	96.56
282.125	90.56
282.356	109.56
282.588	124.56
282.819	109.56
283.051	80.56
283.282	90.56
283.513	88.56
283.745	96.56
283.976	87.56
284.207	87.56
284.439	86.56
284.67	84.56
284.901	85.56
285.132	91.56
285.364	80.56
285.595	84.56
285.826	90.56
286.057	77.56
286.288	75.56
286.52	80.56
286.751	98.56
286.982	93.56
287.213	87.56
287.444	99.56
287.675	86.56
287.906	104.56
288.138	96.56
288.369	80.56
288.6	83.56
288.831	76.56
289.062	95.56
289.293	79.56
289.524	77.56
289.755	81.56
289.986	85.56
290.217	86.56
290.448	91.56
290.679	93.56
290.91	81.56
291.141	85.56
291.371	90.56
291.602	76.56
291.833	91.56
292.064	88.56
292.295	86.56
292.526	87.56
292.757	91.56
292.987	82.56
293.218	97.56
293.449	82.56
293.68	88.56
293.91	91.56
294.141	83.56
294.372	76.56
294.603	86.56
294.833	81.56
295.064	99.56
295.295	84.56
295.525	85.56
295.756	108.56
295.987	103.56
296.217	126.56
296.448	112.56
296.679	85.56
296.909	83.56
297.14	92.56
297.37	79.56
297.601	96.56
297.831	93.56
298.062	97.56
298.292	97.56
298.523	100.56
298.753	95.56
298.984	95.56
299.214	80.56
299.445	83.56
299.675	91.56
299.905	98.56
300.136	90.56
300.366	89.56
300.597	101.56
300.827	91.56
301.057	95.56
301.288	105.56
301.518	80.56
301.748	95.56
301.979	114.56
302.209	89.56
302.439	91.56
302.669	89.56
302.9	81.56
303.13	98.56
303.36	88.56
303.59	105.56
303.82	103.56
304.051	87.56
304.281	91.56
304.511	90.56
304.741	85.56
304.971	97.56
305.201	89.56
305.431	95.56
305.661	99.56
305.891	85.56
306.121	103.56
306.352	105.56
306.582	101.56
306.812	94.56
307.042	85.56
307.272	89.56
307.502	89.56
307.731	85.56
307.961	86.56
308.191	97.56
308.421	92.56
308.651	86.56
308.881	79.56
309.111	87.56
309.341	99.56
309.571	94.56
309.8	86.56
310.03	95.56
310.26	88.56
310.49	97.56
310.72	102.56
310.949	100.56
311.179	89.56
311.409	84.56
311.639	90.56
311.868	92.56
312.098	98.56
312.328	93.56
312.557	104.56
312.787	92.56
313.017	95.56
313.246	92.56
313.476	87.56
313.706	93.56
313.935	92.56
314.165	88.56
314.394	93.56
314.624	95.56
314.853	88.56
315.083	85.56
315.312	91.56
315.542	87.56
315.771	81.56
316.001	96.56
316.23	95.56
316.46	90.56
316.689	86.56
316.919	99.56
317.148	99.56
317.377	82.56
317.607	92.56
317.836	98.56
318.065	85.56
318.295	85.56
318.524	98.56
318.753	88.56
318.983	87.56
319.212	95.56
319.441	108.56
319.67	104.56
319.9	100.56
320.129	93.56
320.358	90.56
320.587	96.56
320.816	93.56
321.046	96.56
321.275	100.56
321.504	77.56
321.733	79.56
321.962	103.56
322.191	99.56
322.42	84.56
322.649	99.56
322.878	120.56
323.108	100.56
323.337	111.56
323.566	113.56
323.795	142.56
324.024	183.56
324.253	331.56
324.482	681.56
324.71	1384.56
324.939	1823.56
325.168	676.56
325.397	197.56
325.626	123.56
325.855	124.56
326.084	129.56
326.313	137.56
326.542	144.56
326.77	204.56
326.999	388.56
327.228	800.56
327.457	1440.56
327.686	1157.56
327.914	328.56
328.143	183.56
328.372	132.56
328.6	121.56
328.829	112.56
329.058	125.56
329.287	115.56
329.515	93.56
329.744	99.56
329.972	106.56
330.201	133.56
330.43	147.56
330.658	135.56
330.887	128.56
331.115	103.56
331.344	92.56
331.572	98.56
331.801	102.56
332.03	90.56
332.258	108.56
332.486	90.56
332.715	102.56
332.943	81.56
333.172	93.56
333.4	96.56
333.629	117.56
333.857	113.56
334.085	120.56
334.314	129.56
334.542	159.56
334.771	160.56
334.999	108.56
335.227	100.56
335.455	95.56
335.684	91.56
335.912	104.56
336.14	98.56
336.369	104.56
336.597	99.56
336.825	86.56
337.053	81.56
337.281	96.56
337.51	92.56
337.738	93.56
337.966	95.56
338.194	93.56
338.422	87.56
338.65	101.56
338.878	83.56
339.106	75.56
339.334	93.56
339.562	91.56
339.79	93.56
340.018	85.56
340.246	79.56
340.474	85.56
340.702	101.56
340.93	92.56
341.158	95.56
341.386	95.56
341.614	96.56
341.842	91.56
342.07	105.56
342.298	102.56
342.526	85.56
342.754	94.56
342.981	85.56
343.209	73.56
343.437	99.56
343.665	95.56
343.893	85.56
344.12	93.56
344.348	88.56
344.576	93.56
344.804	103.56
345.031	76.56
345.259	82.56
345.487	87.56
345.714	95.56
345.942	86.56
346.17	92.56
346.397	91.56
346.625	89.56
346.853	101.56
347.08	97.56
347.308	91.56
347.535	74.56
347.763	89.56
347.99	97.56
348.218	98.56
348.445	100.56
348.673	92.56
348.9	106.56
349.128	95.56
349.355	83.56
349.583	96.56
349.81	99.56
350.037	95.56
350.265	92.56
350.492	90.56
350.72	96.56
350.947	105.56
351.174	108.56
351.402	101.56
351.629	110.56
351.856	99.56
352.083	100.56
352.311	114.56
352.538	104.56
352.765	89.56
352.992	112.56
353.22	113.56
353.447	81.56
353.674	108.56
353.901	100.56
354.128	107.56
354.355	99.56
354.583	110.56
354.81	113.56
355.037	100.56
355.264	90.56
355.491	82.56
355.718	88.56
355.945	102.56
356.172	108.56
356.399	105.56
356.626	90.56
356.853	82.56
357.08	97.56
357.307	92.56
357.534	80.56
357.761	97.56
357.988	104.56
358.215	104.56
358.441	90.56
358.668	91.56
358.895	86.56
359.122	88.56
359.349	75.56
359.576	81.56
359.802	102.56
360.029	106.56
360.256	98.56
360.483	89.56
360.709	83.56
360.936	92.56
361.163	92.56
361.39	89.56
361.616	90.56
361.843	102.56
362.07	85.56
362.296	102.56
362.523	79.56
362.749	91.56
362.976	90.56
363.203	82.56
363.429	104.56
363.656	85.56
363.882	87.56
364.109	102.56
364.335	98.56
364.562	92.56
364.788	88.56
365.015	92.56
365.241	88.56
365.468	92.56
365.694	96.56
365.92	100.56
366.147	98.56
366.373	92.56
366.599	86.56
366.826	96.56
367.052	92.56
367.278	87.56
367.505	76.56
367.731	97.56
367.957	74.56
368.184	91.56
368.41	87.56
368.636	104.56
368.862	104.56
369.089	95.56
369.315	71.56
369.541	106.56
369.767	75.56
369.993	83.56
370.219	91.56
370.445	92.56
370.672	85.56
370.898	100.56
371.124	96.56
371.35	83.56
371.576	94.56
371.802	84.56
372.028	70.56
372.254	88.56
372.48	83.56
372.706	78.56
372.932	79.56
373.158	85.56
373.384	81.56
373.61	86.56
373.835	84.56
374.061	99.56
374.287	84.56
374.513	98.56
374.739	82.56
374.965	100.56
375.191	94.56
375.416	93.56
375.642	85.56
375.868	89.56
376.094	94.56
376.319	85.56
376.545	93.56
376.771	97.56
376.997	96.56
377.222	96.56
377.448	91.56
377.674	90.56
377.899	87.56
378.125	95.56
378.35	102.56
378.576	87.56
378.802	89.56
379.027	99.56
379.253	103.56
379.478	95.56
379.704	99.56
379.929	105.56
380.155	95.56
380.38	93.56
380.606	89.56
380.831	89.56
381.057	91.56
381.282	99.56
381.507	80.56
381.733	96.56
381.958	92.56
382.184	83.56
382.409	90.56
382.634	98.56
382.86	98.56
383.085	95.56
383.31	81.56
383.535	101.56
383.761	101.56
383.986	109.56
384.211	97.56
384.436	97.56
384.662	94.56
384.887	93.56
385.112	86.56
385.337	94.56
385.562	103.56
385.787	107.56
386.013	116.56
386.238	109.56
386.463	88.56
386.688	112.56
386.913	91.56
387.138	117.56
387.363	106.56
387.588	88.56
387.813	94.56
388.038	100.56
388.263	95.56
388.488	103.56
388.713	105.56
388.938	88.56
389.163	103.56
389.387	104.56
389.612	88.56
389.837	88.56
390.062	96.56
390.287	97.56
390.512	100.56
390.736	90.56
390.961	89.56
391.186	78.56
391.411	91.56
391.636	102.56
391.86	80.56
392.085	84.56
392.31	80.56
392.534	91.56
392.759	96.56
392.984	90.56
393.208	81.56
393.433	82.56
393.658	89.56
393.882	87.56
394.107	80.56
394.331	89.56
394.556	96.56
394.78	77.56
395.005	83.56
395.229	92.56
395.454	77.56
395.678	86.56
395.903	97.56
396.127	86.56
396.352	93.56
396.576	67.56
396.801	75.56
397.025	83.56
397.249	81.56
397.474	84.56
397.698	95.56
397.922	79.56
398.147	87.56
398.371	84.56
398.595	89.56
398.82	93.56
399.044	85.56
399.268	73.56
399.492	76.56
399.717	89.56
399.941	84.56
400.165	82.56
400.389	96.56
400.613	90.56
400.837	83.56
401.062	95.56
401.286	85.56
401.51	94.56
401.734	87.56
401.958	86.56
402.182	101.56
402.406	137.56
402.63	107.56
402.854	86.56
403.078	88.56
403.302	84.56
403.526	85.56
403.75	93.56
403.974	94.56
404.198	85.56
404.422	95.56
404.645	87.56
404.869	93.56
405.093	85.56
405.317	92.56
405.541	93.56
405.765	81.56
405.988	100.56
406.212	123.56
406.436	181.56
406.66	123.56
406.883	93.56
407.107	91.56
407.331	92.56
407.555	81.56
407.778	96.56
408.002	98.56
408.226	88.56
408.449	90.56
408.673	83.56
408.896	88.56
409.12	96.56
409.344	93.56
409.567	93.56
409.791	96.56
410.014	90.56
410.238	86.56
410.461	82.56
410.685	92.56
410.908	104.56
411.132	102.56
411.355	87.56
411.578	75.56
411.802	88.56
412.025	85.56
412.249	86.56
412.472	99.56
412.695	108.56
412.919	84.56
413.142	92.56
413.365	90.56
413.589	87.56
413.812	87.56
414.035	83.56
414.258	90.56
414.482	96.56
414.705	74.56
414.928	78.56
415.151	89.56
415.374	85.56
415.597	80.56
415.821	97.56
416.044	88.56
416.267	109.56
416.49	101.56
416.713	91.56
416.936	85.56
417.159	85.56
417.382	103.56
417.605	72.56
417.828	87.56
418.051	90.56
418.274	91.56
418.497	69.56
418.72	82.56
418.943	81.56
419.166	76.56
419.389	98.56
419.611	87.56
419.834	95.56
420.057	88.56
420.28	90.56
420.503	97.56
420.726	80.56
420.948	72.56
421.171	85.56
421.394	85.56
421.617	83.56
421.839	91.56
422.062	87.56
422.285	75.56
422.507	90.56
422.73	103.56
422.953	73.56
423.175	89.56
423.398	95.56
423.621	95.56
423.843	72.56
424.066	83.56
424.288	77.56
424.511	88.56
424.733	100.56
424.956	99.56
425.178	96.56
425.401	91.56
425.623	96.56
425.846	87.56
426.068	93.56
426.291	85.56
426.513	88.56
426.735	101.56
426.958	89.56
427.18	95.56
427.402	132.56
427.625	145.56
427.847	128.56
428.069	120.56
428.292	97.56
428.514	83.56
428.736	96.56
428.958	82.56
429.181	91.56
429.403	91.56
429.625	87.56
429.847	71.56
430.069	97.56
430.292	96.56
430.514	91.56
430.736	73.56
430.958	79.56
431.18	95.56
431.402	74.56
431.624	95.56
431.846	92.56
432.068	79.56
432.29	91.56
432.512	85.56
432.734	89.56
432.956	83.56
433.178	99.56
433.4	99.56
433.622	99.56
433.844	87.56
434.066	96.56
434.287	99.56
434.509	93.56
434.731	88.56
434.953	96.56
435.175	93.56
435.397	87.56
435.618	101.56
435.84	98.56
436.062	95.56
436.284	97.56
436.505	85.56
436.727	93.56
436.949	80.56
437.17	87.56
437.392	85.56
437.614	89.56
437.835	115.56
438.057	109.56
438.278	107.56
438.5	90.56
438.721	107.56
438.943	105.56
439.165	80.56
439.386	87.56
439.608	101.56
439.829	104.56
440.05	104.56
440.272	117.56
440.493	85.56
440.715	83.56
440.936	86.56
441.158	89.56
441.379	82.56
441.6	85.56
441.822	93.56
442.043	86.56
442.264	95.56
442.486	93.56
442.707	96.56
442.928	93.56
443.149	112.56
443.371	121.56
443.592	120.56
443.813	97.56
444.034	97.56
444.255	101.56
444.476	73.56
444.698	83.56
444.919	98.56
445.14	128.56
445.361	99.56
445.582	109.56
445.803	119.56
446.024	109.56
446.245	130.56
446.466	97.56
446.687	83.56
446.908	87.56
447.129	80.56
447.35	87.56
447.571	91.56
447.792	87.56
448.013	95.56
448.234	86.56
448.455	96.56
448.675	97.56
448.896	110.56
449.117	81.56
449.338	86.56
449.559	120.56
449.779	111.56
450	94.56
450.221	73.56
450.442	87.56
450.662	96.56
450.883	100.56
451.104	97.56
451.324	98.56
451.545	87.56
451.766	87.56
451.986	83.56
452.207	97.56
452.428	81.56
452.648	105.56
452.869	101.56
453.089	99.56
453.31	105.56
453.53	91.56
453.751	106.56
453.971	83.56
454.192	95.56
454.412	93.56
454.633	81.56
454.853	92.56
455.073	89.56
455.294	88.56
455.514	103.56
455.734	90.56
455.955	82.56
456.175	89.56
456.395	77.56
456.616	83.56
456.836	90.56
457.056	72.56
457.276	81.56
457.497	78.56
457.717	85.56
457.937	80.56
458.157	72.56
458.377	96.56
458.598	87.56
458.818	124.56
459.038	141.56
459.258	97.56
459.478	96.56
459.698	86.56
459.918	59.56
460.138	85.56
460.358	85.56
460.578	76.56
460.798	90.56
461.018	72.56
461.238	73.56
461.458	82.56
461.678	75.56
461.898	97.56
462.118	93.56
462.338	96.56
462.558	85.56
462.777	80.56
462.997	86.56
463.217	81.56
463.437	87.56
463.657	95.56
463.876	84.56
464.096	82.56
464.316	80.56
464.536	82.56
464.755	83.56
464.975	114.56
465.195	114.56
465.414	140.56
465.634	101.56
465.854	94.56
466.073	89.56
466.293	80.56
466.512	81.56
466.732	95.56
466.951	99.56
467.171	88.56
467.391	95.56
467.61	95.56
467.829	85.56
468.049	104.56
468.268	116.56
468.488	91.56
468.707	70.56
468.927	83.56
469.146	86.56
469.365	82.56
469.585	82.56
469.804	102.56
470.023	101.56
470.243	77.56
470.462	100.56
470.681	95.56
470.901	91.56
471.12	102.56
471.339	90.56
471.558	96.56
471.777	82.56
471.997	101.56
472.216	138.56
472.435	189.56
472.654	92.56
472.873	83.56
473.092	96.56
473.311	78.56
473.53	71.56
473.749	98.56
473.968	112.56
474.187	101.56
474.406	95.56
474.625	84.56
474.844	94.56
475.063	88.56
475.282	88.56
475.501	81.56
475.72	96.56
475.939	101.56
476.158	87.56
476.377	93.56
476.596	92.56
476.814	97.56
477.033	85.56
477.252	83.56
477.471	89.56
477.69	100.56
477.908	88.56
478.127	83.56
478.346	84.56
478.564	87.56
478.783	100.56
479.002	89.56
479.22	97.56
479.439	90.56
479.658	87.56
479.876	82.56
480.095	90.56
480.313	92.56
480.532	95.56
480.751	74.56
480.969	122.56
481.188	278.56
481.406	200.56
481.624	106.56
481.843	79.56
482.061	85.56
482.28	102.56
482.498	86.56
482.717	91.56
482.935	89.56
483.153	85.56
483.372	82.56
483.59	80.56
483.808	88.56
484.027	100.56
484.245	96.56
484.463	96.56
484.681	80.56
484.9	93.56
485.118	88.56
485.336	96.56
485.554	97.56
485.772	93.56
485.99	112.56
486.209	107.56
486.427	100.56
486.645	95.56
486.863	117.56
487.081	93.56
487.299	92.56
487.517	101.56
487.735	90.56
487.953	90.56
488.171	104.56
488.389	102.56
488.607	89.56
488.825	90.56
489.043	91.56
489.261	97.56
489.479	84.56
489.696	83.56
489.914	85.56
490.132	88.56
490.35	91.56
490.568	81.56
490.786	94.56
491.003	80.56
491.221	91.56
491.439	83.56
491.657	90.56
491.874	92.56
492.092	79.56
492.31	96.56
492.527	94.56
492.745	91.56
492.963	87.56
493.18	106.56
493.398	94.56
493.615	91.56
493.833	85.56
494.05	85.56
494.268	80.56
494.485	92.56
494.703	81.56
494.92	88.56
495.138	100.56
495.355	93.56
495.573	101.56
495.79	91.56
496.008	86.56
496.225	81.56
496.442	89.56
496.66	105.56
496.877	90.56
497.094	91.56
497.312	91.56
497.529	82.56
497.746	88.56
497.963	73.56
498.181	81.56
498.398	103.56
498.615	96.56
498.832	90.56
499.049	99.56
499.267	98.56
499.484	93.56
499.701	95.56
499.918	103.56
500.135	84.56
500.352	88.56
500.569	86.56
500.786	96.56
501.003	92.56
501.22	72.56
501.437	86.56
501.654	93.56
501.871	102.56
502.088	93.56
502.305	79.56
502.522	86.56
502.739	87.56
502.956	89.56
503.172	94.56
503.389	87.56
503.606	94.56
503.823	73.56
504.04	103.56
504.256	90.56
504.473	82.56
504.69	79.56
504.907	88.56
505.123	98.56
505.34	102.56
505.557	93.56
505.773	93.56
505.99	98.56
506.207	80.56
506.423	80.56
506.64	86.56
506.856	98.56
507.073	97.56
507.289	90.56
507.506	100.56
507.722	95.56
507.939	91.56
508.155	95.56
508.372	88.56
508.588	99.56
508.805	93.56
509.021	95.56
509.238	79.56
509.454	104.56
509.67	87.56
509.887	94.56
510.103	120.56
510.319	181.56
510.536	593.56
510.752	1787.56
510.968	504.56
511.184	149.56
511.401	116.56
511.617	87.56
511.833	91.56
512.049	85.56
512.265	93.56
512.481	87.56
512.698	87.56
512.914	103.56
513.13	85.56
513.346	83.56
513.562	100.56
513.778	94.56
513.994	106.56
514.21	88.56
514.426	108.56
514.642	114.56
514.858	123.56
515.074	141.56
515.29	321.56
515.506	1016.56
515.721	387.56
515.937	118.56
516.153	104.56
516.369	85.56
516.585	95.56
