Data from Circ_1985_H10_HRD10591_00006.txt Node
Date: Wed Jan 03 12:19:23 EST 2024
User: Yrep
Spectrometer: HR+D1059
Trigger mode: 1
Integration Time (sec): 1.000000E-1
Scans to average: 1
Electric dark correction enabled: true
Nonlinearity correction enabled: false
Boxcar width: 0
XAxis mode: Wavelengths
Number of Pixels in Spectrum: 2048
>>>>>Begin Spectral Data<<<<<
223.165	-19.31
223.4	-19.31
223.635	-19.31
223.869	-14.31
224.104	-9.31
224.338	-14.31
224.573	-7.31
224.808	-6.31
225.042	-11.31
225.277	-3.31
225.511	-5.31
225.746	8.69
225.98	7.69
226.215	-0.31
226.449	13.69
226.683	24.69
226.918	11.69
227.152	24.69
227.387	32.69
227.621	27.69
227.856	57.69
228.09	35.69
228.324	51.69
228.559	58.69
228.793	62.69
229.027	62.69
229.262	66.69
229.496	71.69
229.73	77.69
229.964	84.69
230.199	80.69
230.433	84.69
230.667	70.69
230.901	87.69
231.136	66.69
231.37	75.69
231.604	98.69
231.838	84.69
232.072	76.69
232.306	82.69
232.541	76.69
232.775	75.69
233.009	81.69
233.243	94.69
233.477	71.69
233.711	82.69
233.945	77.69
234.179	89.69
234.413	76.69
234.647	93.69
234.881	75.69
235.115	76.69
235.349	75.69
235.583	85.69
235.817	84.69
236.051	68.69
236.285	75.69
236.519	70.69
236.753	69.69
236.987	77.69
237.221	81.69
237.455	83.69
237.689	70.69
237.922	59.69
238.156	75.69
238.39	82.69
238.624	75.69
238.858	70.69
239.091	66.69
239.325	84.69
239.559	73.69
239.793	77.69
240.027	67.69
240.26	88.69
240.494	78.69
240.728	82.69
240.961	88.69
241.195	77.69
241.429	84.69
241.662	92.69
241.896	76.69
242.13	61.69
242.363	73.69
242.597	80.69
242.83	86.69
243.064	89.69
243.298	82.69
243.531	81.69
243.765	76.69
243.998	90.69
244.232	73.69
244.465	96.69
244.699	96.69
244.932	78.69
245.166	84.69
245.399	75.69
245.633	91.69
245.866	82.69
246.099	62.69
246.333	81.69
246.566	72.69
246.8	77.69
247.033	84.69
247.266	80.69
247.5	82.69
247.733	70.69
247.966	80.69
248.2	84.69
248.433	80.69
248.666	70.69
248.899	88.69
249.133	82.69
249.366	84.69
249.599	91.69
249.832	92.69
250.066	92.69
250.299	71.69
250.532	76.69
250.765	84.69
250.998	77.69
251.231	80.69
251.465	74.69
251.698	85.69
251.931	85.69
252.164	78.69
252.397	92.69
252.63	82.69
252.863	93.69
253.096	86.69
253.329	94.69
253.562	86.69
253.795	92.69
254.028	85.69
254.261	77.69
254.494	76.69
254.727	69.69
254.96	74.69
255.193	90.69
255.426	85.69
255.659	76.69
255.892	102.69
256.124	80.69
256.357	94.69
256.59	83.69
256.823	69.69
257.056	78.69
257.289	81.69
257.521	77.69
257.754	94.69
257.987	90.69
258.22	88.69
258.452	76.69
258.685	84.69
258.918	70.69
259.151	86.69
259.383	80.69
259.616	84.69
259.849	83.69
260.081	83.69
260.314	74.69
260.547	76.69
260.779	78.69
261.012	85.69
261.244	80.69
261.477	101.69
261.71	96.69
261.942	93.69
262.175	103.69
262.407	93.69
262.64	88.69
262.872	89.69
263.105	92.69
263.337	85.69
263.57	89.69
263.802	72.69
264.035	72.69
264.267	90.69
264.499	96.69
264.732	84.69
264.964	92.69
265.197	78.69
265.429	84.69
265.661	80.69
265.894	100.69
266.126	90.69
266.358	81.69
266.591	95.69
266.823	80.69
267.055	84.69
267.287	84.69
267.52	77.69
267.752	85.69
267.984	84.69
268.216	94.69
268.448	83.69
268.681	85.69
268.913	92.69
269.145	82.69
269.377	78.69
269.609	74.69
269.841	89.69
270.073	94.69
270.306	72.69
270.538	84.69
270.77	84.69
271.002	94.69
271.234	81.69
271.466	86.69
271.698	80.69
271.93	89.69
272.162	84.69
272.394	82.69
272.626	70.69
272.858	81.69
273.09	74.69
273.322	82.69
273.553	80.69
273.785	65.69
274.017	80.69
274.249	89.69
274.481	90.69
274.713	70.69
274.945	88.69
275.176	84.69
275.408	86.69
275.64	82.69
275.872	82.69
276.104	80.69
276.335	95.69
276.567	99.69
276.799	91.69
277.031	95.69
277.262	97.69
277.494	99.69
277.726	93.69
277.957	92.69
278.189	86.69
278.421	92.69
278.652	81.69
278.884	90.69
279.115	71.69
279.347	82.69
279.579	85.69
279.81	80.69
280.042	84.69
280.273	86.69
280.505	74.69
280.736	82.69
280.968	86.69
281.199	81.69
281.431	94.69
281.662	86.69
281.894	96.69
282.125	92.69
282.356	110.69
282.588	117.69
282.819	109.69
283.051	74.69
283.282	86.69
283.513	72.69
283.745	91.69
283.976	81.69
284.207	96.69
284.439	86.69
284.67	98.69
284.901	104.69
285.132	94.69
285.364	93.69
285.595	91.69
285.826	84.69
286.057	90.69
286.288	92.69
286.52	80.69
286.751	101.69
286.982	78.69
287.213	80.69
287.444	93.69
287.675	90.69
287.906	90.69
288.138	109.69
288.369	84.69
288.6	84.69
288.831	86.69
289.062	88.69
289.293	81.69
289.524	88.69
289.755	89.69
289.986	97.69
290.217	104.69
290.448	78.69
290.679	96.69
290.91	94.69
291.141	84.69
291.371	67.69
291.602	90.69
291.833	86.69
292.064	86.69
292.295	95.69
292.526	82.69
292.757	83.69
292.987	96.69
293.218	80.69
293.449	93.69
293.68	96.69
293.91	91.69
294.141	84.69
294.372	76.69
294.603	94.69
294.833	86.69
295.064	82.69
295.295	82.69
295.525	96.69
295.756	94.69
295.987	92.69
296.217	124.69
296.448	105.69
296.679	90.69
296.909	82.69
297.14	89.69
297.37	105.69
297.601	82.69
297.831	87.69
298.062	85.69
298.292	106.69
298.523	80.69
298.753	92.69
298.984	73.69
299.214	82.69
299.445	87.69
299.675	90.69
299.905	90.69
300.136	86.69
300.366	97.69
300.597	93.69
300.827	97.69
301.057	86.69
301.288	101.69
301.518	85.69
301.748	94.69
301.979	108.69
302.209	87.69
302.439	87.69
302.669	91.69
302.9	106.69
303.13	102.69
303.36	101.69
303.59	96.69
303.82	104.69
304.051	96.69
304.281	103.69
304.511	87.69
304.741	91.69
304.971	91.69
305.201	91.69
305.431	88.69
305.661	92.69
305.891	96.69
306.121	95.69
306.352	100.69
306.582	98.69
306.812	90.69
307.042	101.69
307.272	101.69
307.502	83.69
307.731	87.69
307.961	100.69
308.191	84.69
308.421	98.69
308.651	92.69
308.881	103.69
309.111	96.69
309.341	99.69
309.571	95.69
309.8	106.69
310.03	87.69
310.26	94.69
310.49	100.69
310.72	92.69
310.949	91.69
311.179	100.69
311.409	92.69
311.639	75.69
311.868	103.69
312.098	88.69
312.328	88.69
312.557	92.69
312.787	90.69
313.017	97.69
313.246	87.69
313.476	74.69
313.706	82.69
313.935	96.69
314.165	91.69
314.394	97.69
314.624	90.69
314.853	96.69
315.083	91.69
315.312	94.69
315.542	92.69
315.771	83.69
316.001	91.69
316.23	104.69
316.46	89.69
316.689	82.69
316.919	104.69
317.148	90.69
317.377	97.69
317.607	109.69
317.836	94.69
318.065	101.69
318.295	100.69
318.524	100.69
318.753	87.69
318.983	110.69
319.212	98.69
319.441	100.69
319.67	111.69
319.9	82.69
320.129	94.69
320.358	86.69
320.587	103.69
320.816	91.69
321.046	94.69
321.275	102.69
321.504	82.69
321.733	98.69
321.962	88.69
322.191	88.69
322.42	86.69
322.649	104.69
322.878	114.69
323.108	114.69
323.337	108.69
323.566	120.69
323.795	140.69
324.024	160.69
324.253	320.69
324.482	676.69
324.71	1361.69
324.939	1799.69
325.168	666.69
325.397	198.69
325.626	132.69
325.855	120.69
326.084	114.69
326.313	129.69
326.542	138.69
326.77	208.69
326.999	372.69
327.228	802.69
327.457	1460.69
327.686	1128.69
327.914	328.69
328.143	168.69
328.372	137.69
328.6	121.69
328.829	101.69
329.058	106.69
329.287	99.69
329.515	100.69
329.744	106.69
329.972	97.69
330.201	92.69
330.43	112.69
330.658	132.69
330.887	125.69
331.115	132.69
331.344	92.69
331.572	90.69
331.801	85.69
332.03	92.69
332.258	93.69
332.486	100.69
332.715	104.69
332.943	112.69
333.172	84.69
333.4	96.69
333.629	88.69
333.857	102.69
334.085	99.69
334.314	102.69
334.542	98.69
334.771	96.69
334.999	101.69
335.227	90.69
335.455	96.69
335.684	92.69
335.912	68.69
336.14	97.69
336.369	96.69
336.597	92.69
336.825	101.69
337.053	86.69
337.281	89.69
337.51	95.69
337.738	105.69
337.966	91.69
338.194	107.69
338.422	106.69
338.65	81.69
338.878	82.69
339.106	101.69
339.334	98.69
339.562	87.69
339.79	92.69
340.018	72.69
340.246	89.69
340.474	96.69
340.702	91.69
340.93	97.69
341.158	88.69
341.386	90.69
341.614	99.69
341.842	97.69
342.07	95.69
342.298	92.69
342.526	93.69
342.754	76.69
342.981	90.69
343.209	81.69
343.437	94.69
343.665	93.69
343.893	116.69
344.12	96.69
344.348	92.69
344.576	86.69
344.804	75.69
345.031	102.69
345.259	98.69
345.487	84.69
345.714	85.69
345.942	96.69
346.17	89.69
346.397	99.69
346.625	92.69
346.853	87.69
347.08	89.69
347.308	83.69
347.535	100.69
347.763	113.69
347.99	88.69
348.218	107.69
348.445	95.69
348.673	92.69
348.9	96.69
349.128	105.69
349.355	95.69
349.583	97.69
349.81	94.69
350.037	104.69
350.265	92.69
350.492	105.69
350.72	106.69
350.947	93.69
351.174	101.69
351.402	100.69
351.629	113.69
351.856	95.69
352.083	106.69
352.311	100.69
352.538	113.69
352.765	110.69
352.992	120.69
353.22	120.69
353.447	110.69
353.674	102.69
353.901	96.69
354.128	102.69
354.355	93.69
354.583	104.69
354.81	99.69
355.037	93.69
355.264	92.69
355.491	107.69
355.718	103.69
355.945	98.69
356.172	97.69
356.399	86.69
356.626	100.69
356.853	110.69
357.08	92.69
357.307	91.69
357.534	92.69
357.761	110.69
357.988	100.69
358.215	101.69
358.441	94.69
358.668	97.69
358.895	103.69
359.122	84.69
359.349	97.69
359.576	88.69
359.802	101.69
360.029	116.69
360.256	89.69
360.483	94.69
360.709	91.69
360.936	89.69
361.163	101.69
361.39	108.69
361.616	80.69
361.843	97.69
362.07	95.69
362.296	82.69
362.523	90.69
362.749	90.69
362.976	88.69
363.203	110.69
363.429	89.69
363.656	81.69
363.882	77.69
364.109	96.69
364.335	95.69
364.562	91.69
364.788	88.69
365.015	81.69
365.241	84.69
365.468	100.69
365.694	88.69
365.92	89.69
366.147	97.69
366.373	92.69
366.599	82.69
366.826	96.69
367.052	91.69
367.278	106.69
367.505	85.69
367.731	93.69
367.957	96.69
368.184	98.69
368.41	88.69
368.636	101.69
368.862	104.69
369.089	97.69
369.315	108.69
369.541	94.69
369.767	92.69
369.993	105.69
370.219	89.69
370.445	86.69
370.672	88.69
370.898	100.69
371.124	70.69
371.35	98.69
371.576	83.69
371.802	96.69
372.028	81.69
372.254	100.69
372.48	89.69
372.706	80.69
372.932	86.69
373.158	87.69
373.384	106.69
373.61	97.69
373.835	91.69
374.061	84.69
374.287	91.69
374.513	97.69
374.739	83.69
374.965	100.69
375.191	82.69
375.416	88.69
375.642	89.69
375.868	65.69
376.094	94.69
376.319	89.69
376.545	93.69
376.771	99.69
376.997	93.69
377.222	93.69
377.448	102.69
377.674	94.69
377.899	98.69
378.125	109.69
378.35	90.69
378.576	94.69
378.802	89.69
379.027	107.69
379.253	95.69
379.478	91.69
379.704	87.69
379.929	84.69
380.155	93.69
380.38	107.69
380.606	94.69
380.831	96.69
381.057	116.69
381.282	86.69
381.507	94.69
381.733	98.69
381.958	117.69
382.184	112.69
382.409	116.69
382.634	93.69
382.86	110.69
383.085	124.69
383.31	93.69
383.535	132.69
383.761	111.69
383.986	116.69
384.211	100.69
384.436	121.69
384.662	130.69
384.887	125.69
385.112	129.69
385.337	124.69
385.562	130.69
385.787	130.69
386.013	128.69
386.238	132.69
386.463	133.69
386.688	140.69
386.913	123.69
387.138	145.69
387.363	118.69
387.588	119.69
387.813	130.69
388.038	140.69
388.263	161.69
388.488	162.69
388.713	114.69
388.938	96.69
389.163	86.69
389.387	101.69
389.612	86.69
389.837	94.69
390.062	97.69
390.287	106.69
390.512	104.69
390.736	94.69
390.961	89.69
391.186	77.69
391.411	92.69
391.636	90.69
391.86	92.69
392.085	83.69
392.31	92.69
392.534	92.69
392.759	90.69
392.984	90.69
393.208	108.69
393.433	132.69
393.658	96.69
393.882	86.69
394.107	93.69
394.331	92.69
394.556	87.69
394.78	91.69
395.005	94.69
395.229	89.69
395.454	90.69
395.678	89.69
395.903	83.69
396.127	96.69
396.352	84.69
396.576	108.69
396.801	97.69
397.025	86.69
397.249	97.69
397.474	87.69
397.698	72.69
397.922	86.69
398.147	78.69
398.371	75.69
398.595	93.69
398.82	83.69
399.044	86.69
399.268	81.69
399.492	96.69
399.717	87.69
399.941	93.69
400.165	84.69
400.389	76.69
400.613	88.69
400.837	78.69
401.062	85.69
401.286	88.69
401.51	94.69
401.734	65.69
401.958	98.69
402.182	101.69
402.406	119.69
402.63	110.69
402.854	90.69
403.078	91.69
403.302	91.69
403.526	92.69
403.75	84.69
403.974	92.69
404.198	101.69
404.422	86.69
404.645	79.69
404.869	90.69
405.093	91.69
405.317	95.69
405.541	97.69
405.765	92.69
405.988	97.69
406.212	160.69
406.436	178.69
406.66	104.69
406.883	94.69
407.107	93.69
407.331	80.69
407.555	99.69
407.778	88.69
408.002	80.69
408.226	90.69
408.449	98.69
408.673	87.69
408.896	86.69
409.12	97.69
409.344	82.69
409.567	89.69
409.791	89.69
410.014	101.69
410.238	93.69
410.461	96.69
410.685	93.69
410.908	110.69
411.132	108.69
411.355	90.69
411.578	91.69
411.802	99.69
412.025	92.69
412.249	104.69
412.472	99.69
412.695	96.69
412.919	92.69
413.142	93.69
413.365	102.69
413.589	72.69
413.812	100.69
414.035	104.69
414.258	104.69
414.482	109.69
414.705	100.69
414.928	104.69
415.151	111.69
415.374	93.69
415.597	87.69
415.821	73.69
416.044	85.69
416.267	96.69
416.49	96.69
416.713	86.69
416.936	84.69
417.159	92.69
417.382	86.69
417.605	103.69
417.828	94.69
418.051	98.69
418.274	98.69
418.497	94.69
418.72	90.69
418.943	86.69
419.166	83.69
419.389	89.69
419.611	101.69
419.834	88.69
420.057	96.69
420.28	83.69
420.503	85.69
420.726	76.69
420.948	86.69
421.171	102.69
421.394	93.69
421.617	88.69
421.839	99.69
422.062	86.69
422.285	85.69
422.507	108.69
422.73	107.69
422.953	94.69
423.175	96.69
423.398	87.69
423.621	92.69
423.843	81.69
424.066	97.69
424.288	93.69
424.511	88.69
424.733	101.69
424.956	88.69
425.178	84.69
425.401	103.69
425.623	93.69
425.846	93.69
426.068	82.69
426.291	78.69
426.513	82.69
426.735	108.69
426.958	88.69
427.18	96.69
427.402	127.69
427.625	122.69
427.847	110.69
428.069	102.69
428.292	90.69
428.514	102.69
428.736	82.69
428.958	91.69
429.181	90.69
429.403	84.69
429.625	86.69
429.847	90.69
430.069	107.69
430.292	93.69
430.514	94.69
430.736	91.69
430.958	94.69
431.18	97.69
431.402	95.69
431.624	96.69
431.846	88.69
432.068	86.69
432.29	102.69
432.512	101.69
432.734	94.69
432.956	87.69
433.178	110.69
433.4	106.69
433.622	92.69
433.844	103.69
434.066	93.69
434.287	90.69
434.509	89.69
434.731	87.69
434.953	85.69
435.175	96.69
435.397	90.69
435.618	94.69
435.84	92.69
436.062	104.69
436.284	107.69
436.505	112.69
436.727	88.69
436.949	84.69
437.17	89.69
437.392	92.69
437.614	81.69
437.835	104.69
438.057	95.69
438.278	84.69
438.5	96.69
438.721	120.69
438.943	109.69
439.165	93.69
439.386	80.69
439.608	100.69
439.829	97.69
440.05	105.69
440.272	146.69
440.493	99.69
440.715	88.69
440.936	86.69
441.158	88.69
441.379	99.69
441.6	88.69
441.822	84.69
442.043	93.69
442.264	97.69
442.486	101.69
442.707	97.69
442.928	97.69
443.149	100.69
443.371	129.69
443.592	103.69
443.813	113.69
444.034	106.69
444.255	89.69
444.476	76.69
444.698	91.69
444.919	109.69
445.14	148.69
445.361	114.69
445.582	112.69
445.803	112.69
446.024	121.69
446.245	118.69
446.466	104.69
446.687	108.69
446.908	89.69
447.129	84.69
447.35	80.69
447.571	74.69
447.792	86.69
448.013	100.69
448.234	100.69
448.455	110.69
448.675	102.69
448.896	119.69
449.117	102.69
449.338	98.69
449.559	114.69
449.779	111.69
450	102.69
450.221	104.69
450.442	84.69
450.662	85.69
450.883	92.69
451.104	113.69
451.324	98.69
451.545	91.69
451.766	84.69
451.986	89.69
452.207	99.69
452.428	89.69
452.648	108.69
452.869	89.69
453.089	96.69
453.31	105.69
453.53	90.69
453.751	94.69
453.971	85.69
454.192	94.69
454.412	70.69
454.633	86.69
454.853	81.69
455.073	90.69
455.294	81.69
455.514	99.69
455.734	99.69
455.955	89.69
456.175	88.69
456.395	82.69
456.616	96.69
456.836	85.69
457.056	87.69
457.276	107.69
457.497	102.69
457.717	97.69
457.937	97.69
458.157	73.69
458.377	85.69
458.598	101.69
458.818	119.69
459.038	128.69
459.258	105.69
459.478	89.69
459.698	87.69
459.918	101.69
460.138	92.69
460.358	92.69
460.578	96.69
460.798	92.69
461.018	96.69
461.238	80.69
461.458	84.69
461.678	91.69
461.898	89.69
462.118	82.69
462.338	90.69
462.558	100.69
462.777	89.69
462.997	79.69
463.217	82.69
463.437	99.69
463.657	84.69
463.876	85.69
464.096	73.69
464.316	78.69
464.536	91.69
464.755	89.69
464.975	81.69
465.195	136.69
465.414	138.69
465.634	104.69
465.854	81.69
466.073	96.69
466.293	87.69
466.512	84.69
466.732	90.69
466.951	78.69
467.171	98.69
467.391	90.69
467.61	85.69
467.829	100.69
468.049	100.69
468.268	92.69
468.488	78.69
468.707	86.69
468.927	90.69
469.146	92.69
469.365	89.69
469.585	98.69
469.804	102.69
470.023	100.69
470.243	95.69
470.462	96.69
470.681	112.69
470.901	93.69
471.12	94.69
471.339	88.69
471.558	96.69
471.777	95.69
471.997	93.69
472.216	93.69
472.435	108.69
472.654	92.69
472.873	83.69
473.092	89.69
473.311	84.69
473.53	92.69
473.749	78.69
473.968	100.69
474.187	105.69
474.406	83.69
474.625	81.69
474.844	89.69
475.063	70.69
475.282	74.69
475.501	94.69
475.72	87.69
475.939	89.69
476.158	98.69
476.377	95.69
476.596	84.69
476.814	90.69
477.033	102.69
477.252	91.69
477.471	96.69
477.69	87.69
477.908	89.69
478.127	94.69
478.346	101.69
478.564	104.69
478.783	108.69
479.002	90.69
479.22	98.69
479.439	108.69
479.658	112.69
479.876	86.69
480.095	96.69
480.313	92.69
480.532	86.69
480.751	101.69
480.969	93.69
481.188	108.69
481.406	108.69
481.624	77.69
481.843	86.69
482.061	86.69
482.28	84.69
482.498	76.69
482.717	93.69
482.935	87.69
483.153	83.69
483.372	94.69
483.59	84.69
483.808	92.69
484.027	89.69
484.245	92.69
484.463	97.69
484.681	90.69
484.9	92.69
485.118	107.69
485.336	94.69
485.554	101.69
485.772	98.69
485.99	100.69
486.209	113.69
486.427	107.69
486.645	116.69
486.863	110.69
487.081	109.69
487.299	97.69
487.517	108.69
487.735	97.69
487.953	97.69
488.171	91.69
488.389	88.69
488.607	98.69
488.825	91.69
489.043	96.69
489.261	88.69
489.479	75.69
489.696	74.69
489.914	86.69
490.132	95.69
490.35	84.69
490.568	88.69
490.786	84.69
491.003	84.69
491.221	101.69
491.439	92.69
491.657	88.69
491.874	91.69
492.092	97.69
492.31	89.69
492.527	86.69
492.745	85.69
492.963	87.69
493.18	92.69
493.398	88.69
493.615	90.69
493.833	89.69
494.05	92.69
494.268	96.69
494.485	98.69
494.703	97.69
494.92	82.69
495.138	88.69
495.355	94.69
495.573	88.69
495.79	96.69
496.008	93.69
496.225	85.69
496.442	94.69
496.66	86.69
496.877	85.69
497.094	101.69
497.312	86.69
497.529	82.69
497.746	98.69
497.963	98.69
498.181	91.69
498.398	102.69
498.615	98.69
498.832	100.69
499.049	92.69
499.267	84.69
499.484	85.69
499.701	80.69
499.918	94.69
500.135	97.69
500.352	100.69
500.569	103.69
500.786	89.69
501.003	93.69
501.22	88.69
501.437	91.69
501.654	100.69
501.871	105.69
502.088	93.69
502.305	84.69
502.522	97.69
502.739	95.69
502.956	78.69
503.172	76.69
503.389	96.69
503.606	93.69
503.823	94.69
504.04	105.69
504.256	91.69
504.473	84.69
504.69	74.69
504.907	95.69
505.123	74.69
505.34	94.69
505.557	94.69
505.773	81.69
505.99	93.69
506.207	87.69
506.423	82.69
506.64	102.69
506.856	97.69
507.073	100.69
507.289	98.69
507.506	93.69
507.722	109.69
507.939	101.69
508.155	84.69
508.372	91.69
508.588	82.69
508.805	91.69
509.021	98.69
509.238	100.69
509.454	95.69
509.67	105.69
509.887	104.69
510.103	108.69
510.319	176.69
510.536	546.69
510.752	1625.69
510.968	485.69
511.184	126.69
511.401	119.69
511.617	97.69
511.833	101.69
512.049	100.69
512.265	85.69
512.481	94.69
512.698	101.69
512.914	93.69
513.13	105.69
513.346	104.69
513.562	106.69
513.778	95.69
513.994	96.69
514.21	106.69
514.426	117.69
514.642	121.69
514.858	116.69
515.074	132.69
515.29	311.69
515.506	916.69
