Data from Circ_1985_H10_HRD10591_00063.txt Node
Date: Wed Jan 03 12:19:35 EST 2024
User: Yrep
Spectrometer: HR+D1059
Trigger mode: 1
Integration Time (sec): 1.000000E-1
Scans to average: 1
Electric dark correction enabled: true
Nonlinearity correction enabled: false
Boxcar width: 0
XAxis mode: Wavelengths
Number of Pixels in Spectrum: 2048
>>>>>Begin Spectral Data<<<<<
223.165	-16.94
223.4	-16.94
223.635	-16.94
223.869	-28.94
224.104	-30.94
224.338	-5.94
224.573	-8.94
224.808	-6.94
225.042	0.06
225.277	1.06
225.511	-5.94
225.746	1.06
225.98	4.06
226.215	9.06
226.449	9.06
226.683	24.06
226.918	27.06
227.152	29.06
227.387	33.06
227.621	36.06
227.856	46.06
228.09	44.06
228.324	57.06
228.559	60.06
228.793	183.06
229.027	424.06
229.262	508.06
229.496	596.06
229.73	742.06
229.964	758.06
230.199	511.06
230.433	479.06
230.667	459.06
230.901	456.06
231.136	435.06
231.37	426.06
231.604	438.06
231.838	458.06
232.072	448.06
232.306	450.06
232.541	459.06
232.775	453.06
233.009	463.06
233.243	455.06
233.477	466.06
233.711	487.06
233.945	493.06
234.179	516.06
234.413	503.06
234.647	511.06
234.881	512.06
235.115	534.06
235.349	556.06
235.583	546.06
235.817	561.06
236.051	620.06
236.285	583.06
236.519	598.06
236.753	694.06
236.987	866.06
237.221	1270.06
237.455	1419.06
237.689	862.06
237.922	720.06
238.156	705.06
238.39	656.06
238.624	625.06
238.858	665.06
239.091	643.06
239.325	671.06
239.559	674.06
239.793	692.06
240.027	737.06
240.26	846.06
240.494	948.06
240.728	915.06
240.961	865.06
241.195	792.06
241.429	786.06
241.662	760.06
241.896	782.06
242.13	770.06
242.363	747.06
242.597	787.06
242.83	814.06
243.064	820.06
243.298	821.06
243.531	838.06
243.765	834.06
243.998	864.06
244.232	850.06
244.465	881.06
244.699	875.06
244.932	886.06
245.166	886.06
245.399	887.06
245.633	897.06
245.866	911.06
246.099	936.06
246.333	927.06
246.566	938.06
246.8	974.06
247.033	1009.06
247.266	1043.06
247.5	1070.06
247.733	1115.06
247.966	1124.06
248.2	1087.06
248.433	1143.06
248.666	1196.06
248.899	1323.06
249.133	1417.06
249.366	1403.06
249.599	1304.06
249.832	1255.06
250.066	1294.06
250.299	1392.06
250.532	1526.06
250.765	1671.06
250.998	1728.06
251.231	1663.06
251.465	1516.06
251.698	1444.06
251.931	1401.06
252.164	1395.06
252.397	1442.06
252.63	1464.06
252.863	1509.06
253.096	1656.06
253.329	1682.06
253.562	1601.06
253.795	1531.06
254.028	1520.06
254.261	1557.06
254.494	1756.06
254.727	2030.06
254.96	2134.06
255.193	1934.06
255.426	1787.06
255.659	1746.06
255.892	1936.06
256.124	2126.06
256.357	1988.06
256.59	1796.06
256.823	1641.06
257.056	1590.06
257.289	1572.06
257.521	1562.06
257.754	1560.06
257.987	1535.06
258.22	1523.06
258.452	1532.06
258.685	1541.06
258.918	1553.06
259.151	1608.06
259.383	1632.06
259.616	1637.06
259.849	1723.06
260.081	1836.06
260.314	2008.06
260.547	1958.06
260.779	1777.06
261.012	1718.06
261.244	1683.06
261.477	1639.06
261.71	1624.06
261.942	1705.06
262.175	1739.06
262.407	1700.06
262.64	1604.06
262.872	1607.06
263.105	1605.06
263.337	1584.06
263.57	1644.06
263.802	1662.06
264.035	1647.06
264.267	1618.06
264.499	1656.06
264.732	1655.06
264.964	1647.06
265.197	1669.06
265.429	1705.06
265.661	1710.06
265.894	1688.06
266.126	1696.06
266.358	1748.06
266.591	1717.06
266.823	1815.06
267.055	1833.06
267.287	1830.06
267.52	1790.06
267.752	1820.06
267.984	1858.06
268.216	1828.06
268.448	1873.06
268.681	1936.06
268.913	1992.06
269.145	2228.06
269.377	2329.06
269.609	2234.06
269.841	2212.06
270.073	2274.06
270.306	2522.06
270.538	2672.06
270.77	2528.06
271.002	2404.06
271.234	2369.06
271.466	2524.06
271.698	2580.06
271.93	2633.06
272.162	2587.06
272.394	2504.06
272.626	2437.06
272.858	2276.06
273.09	2248.06
273.322	2190.06
273.553	2179.06
273.785	2163.06
274.017	2190.06
274.249	2228.06
274.481	2194.06
274.713	2226.06
274.945	2242.06
275.176	2245.06
275.408	2217.06
275.64	2259.06
275.872	2227.06
276.104	2242.06
276.335	2240.06
276.567	2307.06
276.799	2468.06
277.031	2695.06
277.262	2761.06
277.494	2679.06
277.726	2494.06
277.957	2406.06
278.189	2342.06
278.421	2370.06
278.652	2361.06
278.884	2290.06
279.115	2313.06
279.347	2362.06
279.579	2362.06
279.81	2355.06
280.042	2372.06
280.273	2372.06
280.505	2353.06
280.736	2384.06
280.968	2388.06
281.199	2382.06
281.431	2402.06
281.662	2382.06
281.894	2393.06
282.125	2437.06
282.356	2606.06
282.588	2744.06
282.819	2575.06
283.051	2474.06
283.282	2478.06
283.513	2508.06
283.745	2516.06
283.976	2587.06
284.207	2619.06
284.439	2551.06
284.67	2534.06
284.901	2587.06
285.132	2534.06
285.364	2567.06
285.595	2553.06
285.826	2559.06
286.057	2584.06
286.288	2643.06
286.52	2627.06
286.751	2643.06
286.982	2667.06
287.213	2654.06
287.444	2645.06
287.675	2722.06
287.906	2827.06
288.138	2871.06
288.369	2828.06
288.6	2801.06
288.831	2785.06
289.062	2725.06
289.293	2699.06
289.524	2774.06
289.755	2790.06
289.986	2777.06
290.217	2668.06
290.448	2745.06
290.679	2758.06
290.91	2739.06
291.141	2751.06
291.371	2749.06
291.602	2745.06
291.833	2704.06
292.064	2720.06
292.295	2718.06
292.526	2749.06
292.757	2761.06
292.987	2696.06
293.218	2724.06
293.449	2729.06
293.68	2785.06
293.91	2772.06
294.141	2795.06
294.372	2786.06
294.603	2772.06
294.833	2771.06
295.064	2799.06
295.295	2819.06
295.525	2809.06
295.756	2870.06
295.987	2910.06
296.217	3087.06
296.448	3034.06
296.679	2884.06
296.909	2858.06
297.14	2835.06
297.37	2930.06
297.601	2952.06
297.831	2943.06
298.062	2887.06
298.292	3013.06
298.523	2980.06
298.753	2978.06
298.984	3019.06
299.214	3014.06
299.445	3064.06
299.675	2997.06
299.905	3084.06
300.136	3068.06
300.366	3105.06
300.597	3071.06
300.827	3199.06
301.057	3260.06
301.288	3272.06
301.518	3267.06
301.748	3258.06
301.979	3299.06
302.209	3280.06
302.439	3234.06
302.669	3198.06
302.9	3231.06
303.13	3214.06
303.36	3221.06
303.59	3236.06
303.82	3329.06
304.051	3265.06
304.281	3206.06
304.511	3219.06
304.741	3195.06
304.971	3198.06
305.201	3218.06
305.431	3153.06
305.661	3196.06
305.891	3158.06
306.121	3163.06
306.352	3254.06
306.582	3218.06
306.812	3128.06
307.042	3152.06
307.272	3175.06
307.502	3228.06
307.731	3184.06
307.961	3209.06
308.191	3146.06
308.421	3194.06
308.651	3201.06
308.881	3238.06
309.111	3217.06
309.341	3263.06
309.571	3312.06
309.8	3356.06
310.03	3440.06
310.26	3430.06
310.49	3407.06
310.72	3574.06
310.949	3582.06
311.179	3572.06
311.409	3447.06
311.639	3505.06
311.868	3494.06
312.098	3569.06
312.328	3567.06
312.557	3686.06
312.787	3756.06
313.017	3608.06
313.246	3722.06
313.476	3602.06
313.706	3680.06
313.935	3708.06
314.165	3727.06
314.394	3816.06
314.624	3741.06
314.853	3607.06
315.083	3691.06
315.312	3576.06
315.542	3581.06
315.771	3586.06
316.001	3560.06
316.23	3552.06
316.46	3527.06
316.689	3568.06
316.919	3624.06
317.148	3611.06
317.377	3652.06
317.607	3610.06
317.836	3522.06
318.065	3525.06
318.295	3569.06
318.524	3546.06
318.753	3502.06
318.983	3529.06
319.212	3535.06
319.441	3604.06
319.67	3639.06
319.9	3585.06
320.129	3604.06
320.358	3591.06
320.587	3630.06
320.816	3686.06
321.046	3685.06
321.275	3730.06
321.504	3691.06
321.733	3732.06
321.962	3798.06
322.191	3882.06
322.42	3962.06
322.649	4014.06
322.878	4066.06
323.108	4095.06
323.337	4304.06
323.566	4413.06
323.795	4738.06
324.024	5218.06
324.253	6599.06
324.482	9637.06
324.71	14288.06
324.939	15628.06
325.168	10898.06
325.397	6078.06
325.626	5027.06
325.855	4657.06
326.084	4579.06
326.313	4586.06
326.542	4712.06
326.77	5222.06
326.999	6460.06
327.228	9221.06
327.457	13398.06
327.686	12467.06
327.914	6899.06
328.143	5648.06
328.372	5437.06
328.6	5121.06
328.829	4994.06
329.058	5140.06
329.287	5118.06
329.515	4878.06
329.744	4803.06
329.972	4994.06
330.201	5426.06
330.43	5658.06
330.658	5556.06
330.887	5569.06
331.115	5210.06
331.344	4842.06
331.572	4803.06
331.801	4796.06
332.03	4855.06
332.258	4843.06
332.486	4858.06
332.715	5057.06
332.943	5092.06
333.172	5236.06
333.4	5403.06
333.629	5585.06
333.857	5760.06
334.085	5950.06
334.314	6216.06
334.542	6566.06
334.771	6321.06
334.999	5610.06
335.227	5289.06
335.455	5134.06
335.684	5046.06
335.912	4947.06
336.14	4915.06
336.369	4848.06
336.597	4868.06
336.825	4803.06
337.053	4711.06
337.281	4631.06
337.51	4562.06
337.738	4562.06
337.966	4615.06
338.194	4520.06
338.422	4489.06
338.65	4358.06
338.878	4397.06
339.106	4376.06
339.334	4323.06
339.562	4282.06
339.79	4263.06
340.018	4287.06
340.246	4228.06
340.474	4284.06
340.702	4250.06
340.93	4212.06
341.158	4260.06
341.386	4223.06
341.614	4260.06
341.842	4183.06
342.07	4189.06
342.298	4191.06
342.526	4154.06
342.754	4134.06
342.981	4218.06
343.209	4292.06
343.437	4486.06
343.665	4742.06
343.893	4990.06
344.12	5026.06
344.348	4756.06
344.576	4617.06
344.804	4574.06
345.031	4422.06
345.259	4422.06
345.487	4279.06
345.714	4244.06
345.942	4154.06
346.17	4060.06
346.397	4037.06
346.625	4046.06
346.853	3937.06
347.08	4063.06
347.308	4026.06
347.535	4097.06
347.763	4181.06
347.99	4073.06
348.218	4132.06
348.445	4171.06
348.673	4049.06
348.9	4013.06
349.128	3900.06
349.355	3915.06
349.583	3951.06
349.81	3964.06
350.037	3972.06
350.265	3836.06
350.492	3939.06
350.72	3938.06
350.947	3953.06
351.174	4034.06
351.402	4038.06
351.629	3955.06
351.856	3958.06
352.083	4088.06
352.311	4043.06
352.538	4066.06
352.765	4014.06
352.992	3998.06
353.22	3944.06
353.447	3890.06
353.674	3860.06
353.901	3807.06
354.128	3826.06
354.355	3780.06
354.583	3862.06
354.81	3804.06
355.037	3874.06
355.264	3857.06
355.491	3833.06
355.718	3770.06
355.945	3819.06
356.172	3876.06
356.399	3828.06
356.626	3874.06
356.853	3860.06
357.08	3776.06
357.307	3807.06
357.534	3847.06
357.761	3842.06
357.988	3865.06
358.215	3891.06
358.441	3793.06
358.668	3808.06
358.895	3924.06
359.122	3864.06
359.349	3966.06
359.576	4035.06
359.802	4263.06
360.029	4363.06
360.256	4372.06
360.483	4150.06
360.709	3970.06
360.936	3986.06
361.163	4038.06
361.39	4080.06
361.616	4070.06
361.843	4002.06
362.07	4009.06
362.296	4025.06
362.523	3985.06
362.749	4012.06
362.976	3907.06
363.203	3885.06
363.429	3862.06
363.656	3892.06
363.882	3923.06
364.109	3843.06
364.335	3835.06
364.562	3830.06
364.788	3874.06
365.015	3864.06
365.241	3916.06
365.468	3908.06
365.694	3971.06
365.92	3938.06
366.147	3849.06
366.373	3920.06
366.599	3868.06
366.826	3850.06
367.052	3840.06
367.278	3918.06
367.505	3966.06
367.731	3901.06
367.957	3901.06
368.184	4002.06
368.41	3958.06
368.636	4051.06
368.862	4169.06
369.089	4054.06
369.315	4007.06
369.541	3970.06
369.767	3979.06
369.993	4003.06
370.219	4072.06
370.445	4068.06
370.672	4018.06
370.898	4027.06
371.124	4085.06
371.35	4184.06
371.576	4092.06
371.802	4121.06
372.028	4129.06
372.254	4131.06
372.48	4210.06
372.706	4250.06
372.932	4319.06
373.158	4209.06
373.384	4207.06
373.61	4166.06
373.835	4249.06
374.061	4196.06
374.287	4356.06
374.513	4384.06
374.739	4455.06
374.965	4582.06
375.191	4587.06
375.416	4441.06
375.642	4279.06
375.868	4328.06
376.094	4237.06
376.319	4280.06
376.545	4194.06
376.771	4160.06
376.997	4264.06
377.222	4152.06
377.448	4107.06
377.674	4147.06
377.899	4080.06
378.125	4186.06
378.35	4124.06
378.576	4124.06
378.802	4018.06
379.027	4087.06
379.253	4168.06
379.478	4088.06
379.704	4168.06
379.929	4157.06
380.155	4156.06
380.38	4163.06
380.606	4221.06
380.831	4198.06
381.057	4218.06
381.282	4192.06
381.507	4185.06
381.733	4260.06
381.958	4242.06
382.184	4303.06
382.409	4319.06
382.634	4438.06
382.86	4418.06
383.085	4494.06
383.31	4545.06
383.535	4574.06
383.761	4602.06
383.986	4663.06
384.211	4780.06
384.436	4854.06
384.662	4948.06
384.887	5018.06
385.112	4959.06
385.337	4993.06
385.562	5036.06
385.787	5044.06
386.013	5150.06
386.238	5206.06
386.463	5085.06
386.688	5035.06
386.913	5000.06
387.138	4990.06
387.363	4991.06
387.588	4978.06
387.813	4975.06
388.038	4947.06
388.263	4940.06
388.488	5029.06
388.713	4974.06
388.938	4943.06
389.163	4999.06
389.387	4930.06
389.612	4859.06
389.837	4908.06
390.062	4904.06
390.287	4897.06
390.512	4922.06
390.736	4990.06
390.961	5090.06
391.186	5147.06
391.411	5295.06
391.636	5395.06
391.86	5548.06
392.085	5656.06
392.31	5518.06
392.534	5407.06
392.759	5290.06
392.984	5169.06
393.208	5099.06
393.433	5186.06
393.658	5148.06
393.882	5184.06
394.107	5248.06
394.331	5200.06
394.556	5187.06
394.78	5232.06
395.005	5333.06
395.229	5347.06
395.454	5420.06
395.678	5564.06
395.903	5647.06
396.127	5632.06
396.352	5409.06
396.576	5346.06
396.801	5262.06
397.025	5342.06
397.249	5507.06
397.474	5586.06
397.698	5634.06
397.922	5751.06
398.147	5773.06
398.371	5874.06
398.595	5982.06
398.82	6310.06
399.044	6907.06
399.268	7617.06
399.492	8538.06
399.717	9274.06
399.941	8994.06
400.165	8361.06
400.389	7700.06
400.613	6955.06
400.837	6592.06
401.062	6347.06
401.286	6269.06
401.51	6306.06
401.734	6236.06
401.958	6369.06
402.182	6440.06
402.406	6678.06
402.63	6593.06
402.854	6686.06
403.078	6809.06
403.302	6947.06
403.526	7076.06
403.75	7059.06
403.974	7248.06
404.198	7131.06
404.422	7271.06
404.645	7205.06
404.869	7312.06
405.093	7597.06
405.317	7936.06
405.541	7858.06
405.765	7240.06
405.988	7034.06
406.212	7235.06
406.436	7352.06
406.66	7402.06
406.883	7412.06
407.107	8030.06
407.331	8508.06
407.555	8950.06
407.778	8663.06
408.002	8035.06
408.226	7622.06
408.449	7444.06
408.673	7414.06
408.896	7508.06
409.12	7683.06
409.344	7293.06
409.567	6922.06
409.791	6870.06
410.014	6718.06
410.238	6756.06
410.461	6765.06
410.685	6873.06
410.908	6917.06
411.132	7091.06
411.355	7078.06
411.578	6806.06
411.802	6580.06
412.025	6647.06
412.249	6881.06
412.472	7084.06
412.695	7419.06
412.919	6904.06
413.142	6600.06
413.365	6458.06
413.589	6427.06
413.812	6274.06
414.035	6133.06
414.258	6298.06
414.482	6221.06
414.705	6346.06
414.928	6279.06
415.151	6272.06
415.374	6203.06
415.597	6160.06
415.821	6072.06
416.044	6134.06
416.267	6145.06
416.49	6033.06
416.713	5975.06
416.936	6059.06
417.159	6090.06
417.382	6154.06
417.605	6197.06
417.828	6331.06
418.051	6463.06
418.274	6306.06
418.497	6170.06
418.72	6350.06
418.943	6350.06
419.166	6713.06
419.389	7053.06
419.611	6926.06
419.834	6838.06
420.057	6762.06
420.28	6667.06
420.503	6529.06
420.726	6444.06
420.948	6556.06
421.171	6836.06
421.394	6878.06
421.617	6423.06
421.839	6272.06
422.062	6387.06
422.285	6469.06
422.507	7142.06
422.73	7648.06
422.953	7093.06
423.175	6754.06
423.398	6738.06
423.621	6773.06
423.843	7003.06
424.066	6914.06
424.288	6853.06
424.511	7066.06
424.733	7484.06
424.956	7796.06
425.178	7486.06
425.401	7447.06
425.623	7471.06
425.846	6493.06
426.068	6391.06
426.291	6311.06
426.513	6325.06
426.735	6338.06
426.958	6785.06
427.18	7545.06
427.402	8554.06
427.625	8577.06
427.847	7481.06
428.069	6940.06
428.292	6242.06
428.514	5894.06
428.736	5806.06
428.958	5831.06
429.181	5593.06
429.403	5579.06
429.625	5818.06
429.847	6033.06
430.069	6508.06
430.292	6147.06
430.514	5603.06
430.736	5620.06
430.958	5484.06
431.18	5432.06
431.402	5474.06
431.624	5457.06
431.846	5440.06
432.068	5563.06
432.29	5675.06
432.512	5471.06
432.734	5700.06
432.956	5577.06
433.178	5681.06
433.4	5595.06
433.622	5483.06
433.844	5576.06
434.066	5569.06
434.287	5714.06
434.509	5876.06
434.731	6173.06
434.953	6304.06
435.175	6339.06
435.397	6387.06
435.618	6290.06
435.84	6681.06
436.062	7383.06
436.284	7332.06
436.505	6245.06
436.727	5983.06
436.949	5686.06
437.17	5599.06
437.392	5566.06
437.614	5827.06
437.835	6023.06
438.057	6940.06
438.278	7486.06
438.5	7412.06
438.721	8097.06
438.943	7225.06
439.165	6158.06
439.386	5989.06
439.608	6065.06
439.829	6081.06
440.05	6318.06
440.272	6607.06
440.493	6120.06
440.715	5892.06
440.936	5924.06
441.158	5932.06
441.379	6041.06
441.6	6364.06
441.822	6502.06
442.043	6944.06
442.264	7559.06
442.486	7328.06
442.707	6590.06
442.928	6431.06
443.149	6664.06
443.371	6832.06
443.592	7306.06
443.813	8336.06
444.034	8191.06
444.255	7247.06
444.476	7110.06
444.698	7194.06
444.919	7328.06
445.14	7022.06
445.361	6954.06
445.582	7012.06
445.803	7530.06
446.024	8057.06
446.245	7730.06
446.466	6937.06
446.687	6184.06
446.908	5931.06
447.129	5572.06
447.35	5505.06
447.571	5434.06
447.792	5335.06
448.013	5451.06
448.234	5568.06
448.455	6190.06
448.675	7238.06
448.896	7672.06
449.117	6382.06
449.338	6632.06
449.559	7791.06
449.779	7882.06
450	6158.06
450.221	5534.06
450.442	5307.06
450.662	5255.06
450.883	5244.06
451.104	5404.06
451.324	5298.06
451.545	5094.06
451.766	4973.06
451.986	4919.06
452.207	4904.06
452.428	4877.06
452.648	4874.06
452.869	4942.06
453.089	4898.06
453.31	5081.06
453.53	4991.06
453.751	4846.06
453.971	4865.06
454.192	4922.06
454.412	4799.06
454.633	4780.06
454.853	4675.06
455.073	4732.06
455.294	5140.06
455.514	5518.06
455.734	5160.06
455.955	4634.06
456.175	4579.06
456.395	4500.06
456.616	4462.06
456.836	4466.06
457.056	4450.06
457.276	4401.06
457.497	4550.06
457.717	4517.06
457.937	4595.06
458.157	4730.06
458.377	4849.06
458.598	5056.06
458.818	5617.06
459.038	6344.06
459.258	6272.06
459.478	5719.06
459.698	5546.06
459.918	5681.06
460.138	5885.06
460.358	6059.06
460.578	6040.06
460.798	6091.06
461.018	6124.06
461.238	5998.06
461.458	5975.06
461.678	5962.06
461.898	6095.06
462.118	6132.06
462.338	6526.06
462.558	6611.06
462.777	6849.06
462.997	7460.06
463.217	7901.06
463.437	7614.06
463.657	7055.06
463.876	6918.06
464.096	6940.06
464.316	6940.06
464.536	7079.06
464.755	6697.06
464.975	6542.06
465.195	6684.06
465.414	6624.06
465.634	5929.06
465.854	5610.06
466.073	5406.06
466.293	5255.06
466.512	5153.06
466.732	5060.06
466.951	5076.06
467.171	5017.06
467.391	5094.06
467.61	5128.06
467.829	5127.06
468.049	5068.06
468.268	4977.06
468.488	4973.06
468.707	4933.06
468.927	4912.06
469.146	4854.06
469.365	4921.06
469.585	4924.06
469.804	5110.06
470.023	5231.06
470.243	5305.06
470.462	5411.06
470.681	5372.06
470.901	5316.06
471.12	5146.06
471.339	5098.06
471.558	5149.06
471.777	5044.06
471.997	5020.06
472.216	5080.06
472.435	5557.06
472.654	5258.06
472.873	5009.06
473.092	4884.06
473.311	4914.06
473.53	4895.06
473.749	4983.06
473.968	5320.06
474.187	6422.06
474.406	5954.06
474.625	5124.06
474.844	4928.06
475.063	4926.06
475.282	4924.06
475.501	4921.06
475.72	5003.06
475.939	4956.06
476.158	5018.06
476.377	5025.06
476.596	5000.06
476.814	5159.06
477.033	5142.06
477.252	5249.06
477.471	5405.06
477.69	5494.06
477.908	5542.06
478.127	5720.06
478.346	5822.06
478.564	5857.06
478.783	5990.06
479.002	6139.06
479.22	6135.06
479.439	6133.06
479.658	6309.06
479.876	6425.06
480.095	6558.06
480.313	6949.06
480.532	6891.06
480.751	6880.06
480.969	6880.06
481.188	7512.06
481.406	7429.06
481.624	6610.06
481.843	6267.06
482.061	5978.06
482.28	5875.06
482.498	5832.06
482.717	5744.06
482.935	5736.06
483.153	5712.06
483.372	5678.06
483.59	5689.06
483.808	5721.06
484.027	5746.06
484.245	5820.06
484.463	5835.06
484.681	5890.06
484.9	5898.06
485.118	5932.06
485.336	5983.06
485.554	6055.06
485.772	6137.06
485.99	6131.06
486.209	6185.06
486.427	6209.06
486.645	6232.06
486.863	6336.06
487.081	6246.06
487.299	6226.06
487.517	6172.06
487.735	6194.06
487.953	6156.06
