Data from Circ_1985_H10_HRD10591_00069.txt Node
Date: Wed Jan 03 12:19:36 EST 2024
User: Yrep
Spectrometer: HR+D1059
Trigger mode: 1
Integration Time (sec): 1.000000E-1
Scans to average: 1
Electric dark correction enabled: true
Nonlinearity correction enabled: false
Boxcar width: 0
XAxis mode: Wavelengths
Number of Pixels in Spectrum: 2048
>>>>>Begin Spectral Data<<<<<
223.165	-24.25
223.4	-24.25
223.635	-24.25
223.869	-18.25
224.104	-9.25
224.338	-20.25
224.573	-14.25
224.808	-18.25
225.042	-13.25
225.277	-23.25
225.511	13.75
225.746	6.75
225.98	11.75
226.215	9.75
226.449	8.75
226.683	26.75
226.918	26.75
227.152	36.75
227.387	38.75
227.621	43.75
227.856	39.75
228.09	59.75
228.324	59.75
228.559	53.75
228.793	61.75
229.027	56.75
229.262	80.75
229.496	61.75
229.73	84.75
229.964	78.75
230.199	72.75
230.433	72.75
230.667	78.75
230.901	82.75
231.136	73.75
231.37	90.75
231.604	81.75
231.838	89.75
232.072	80.75
232.306	82.75
232.541	80.75
232.775	84.75
233.009	91.75
233.243	67.75
233.477	77.75
233.711	87.75
233.945	78.75
234.179	81.75
234.413	84.75
234.647	57.75
234.881	74.75
235.115	81.75
235.349	72.75
235.583	88.75
235.817	86.75
236.051	75.75
236.285	89.75
236.519	65.75
236.753	69.75
236.987	86.75
237.221	80.75
237.455	98.75
237.689	82.75
237.922	67.75
238.156	66.75
238.39	73.75
238.624	85.75
238.858	73.75
239.091	78.75
239.325	70.75
239.559	86.75
239.793	76.75
240.027	82.75
240.26	72.75
240.494	76.75
240.728	74.75
240.961	76.75
241.195	63.75
241.429	85.75
241.662	62.75
241.896	69.75
242.13	72.75
242.363	61.75
242.597	66.75
242.83	77.75
243.064	85.75
243.298	85.75
243.531	84.75
243.765	75.75
243.998	72.75
244.232	72.75
244.465	71.75
244.699	84.75
244.932	74.75
245.166	72.75
245.399	82.75
245.633	83.75
245.866	76.75
246.099	76.75
246.333	73.75
246.566	74.75
246.8	85.75
247.033	82.75
247.266	85.75
247.5	103.75
247.733	86.75
247.966	74.75
248.2	87.75
248.433	78.75
248.666	59.75
248.899	75.75
249.133	69.75
249.366	83.75
249.599	83.75
249.832	83.75
250.066	63.75
250.299	82.75
250.532	82.75
250.765	75.75
250.998	74.75
251.231	80.75
251.465	80.75
251.698	90.75
251.931	83.75
252.164	83.75
252.397	57.75
252.63	78.75
252.863	74.75
253.096	72.75
253.329	74.75
253.562	64.75
253.795	66.75
254.028	84.75
254.261	76.75
254.494	73.75
254.727	88.75
254.96	82.75
255.193	60.75
255.426	91.75
255.659	86.75
255.892	78.75
256.124	67.75
256.357	95.75
256.59	78.75
256.823	82.75
257.056	82.75
257.289	70.75
257.521	95.75
257.754	75.75
257.987	80.75
258.22	72.75
258.452	89.75
258.685	87.75
258.918	86.75
259.151	90.75
259.383	74.75
259.616	75.75
259.849	78.75
260.081	76.75
260.314	79.75
260.547	82.75
260.779	82.75
261.012	84.75
261.244	85.75
261.477	108.75
261.71	88.75
261.942	103.75
262.175	86.75
262.407	83.75
262.64	76.75
262.872	83.75
263.105	89.75
263.337	88.75
263.57	87.75
263.802	77.75
264.035	72.75
264.267	72.75
264.499	78.75
264.732	85.75
264.964	74.75
265.197	94.75
265.429	81.75
265.661	71.75
265.894	94.75
266.126	85.75
266.358	67.75
266.591	80.75
266.823	79.75
267.055	70.75
267.287	91.75
267.52	76.75
267.752	82.75
267.984	86.75
268.216	74.75
268.448	85.75
268.681	86.75
268.913	94.75
269.145	74.75
269.377	88.75
269.609	101.75
269.841	83.75
270.073	84.75
270.306	90.75
270.538	81.75
270.77	81.75
271.002	73.75
271.234	90.75
271.466	94.75
271.698	78.75
271.93	78.75
272.162	71.75
272.394	82.75
272.626	75.75
272.858	90.75
273.09	92.75
273.322	80.75
273.553	71.75
273.785	86.75
274.017	80.75
274.249	89.75
274.481	79.75
274.713	83.75
274.945	83.75
275.176	75.75
275.408	87.75
275.64	85.75
275.872	80.75
276.104	90.75
276.335	103.75
276.567	95.75
276.799	107.75
277.031	95.75
277.262	96.75
277.494	92.75
277.726	93.75
277.957	84.75
278.189	82.75
278.421	75.75
278.652	73.75
278.884	87.75
279.115	86.75
279.347	86.75
279.579	91.75
279.81	89.75
280.042	80.75
280.273	86.75
280.505	96.75
280.736	79.75
280.968	95.75
281.199	89.75
281.431	97.75
281.662	87.75
281.894	94.75
282.125	103.75
282.356	102.75
282.588	135.75
282.819	99.75
283.051	98.75
283.282	87.75
283.513	86.75
283.745	88.75
283.976	89.75
284.207	87.75
284.439	83.75
284.67	75.75
284.901	74.75
285.132	65.75
285.364	85.75
285.595	97.75
285.826	80.75
286.057	79.75
286.288	91.75
286.52	83.75
286.751	85.75
286.982	80.75
287.213	95.75
287.444	86.75
287.675	99.75
287.906	91.75
288.138	91.75
288.369	95.75
288.6	92.75
288.831	88.75
289.062	92.75
289.293	91.75
289.524	90.75
289.755	87.75
289.986	95.75
290.217	93.75
290.448	95.75
290.679	87.75
290.91	71.75
291.141	92.75
291.371	92.75
291.602	92.75
291.833	81.75
292.064	103.75
292.295	97.75
292.526	79.75
292.757	91.75
292.987	79.75
293.218	86.75
293.449	91.75
293.68	92.75
293.91	96.75
294.141	92.75
294.372	78.75
294.603	81.75
294.833	87.75
295.064	85.75
295.295	96.75
295.525	102.75
295.756	98.75
295.987	108.75
296.217	113.75
296.448	100.75
296.679	92.75
296.909	91.75
297.14	82.75
297.37	86.75
297.601	80.75
297.831	94.75
298.062	98.75
298.292	98.75
298.523	80.75
298.753	91.75
298.984	76.75
299.214	86.75
299.445	88.75
299.675	93.75
299.905	87.75
300.136	97.75
300.366	97.75
300.597	96.75
300.827	100.75
301.057	88.75
301.288	105.75
301.518	102.75
301.748	107.75
301.979	94.75
302.209	88.75
302.439	79.75
302.669	89.75
302.9	100.75
303.13	93.75
303.36	105.75
303.59	107.75
303.82	95.75
304.051	94.75
304.281	87.75
304.511	87.75
304.741	98.75
304.971	83.75
305.201	91.75
305.431	76.75
305.661	78.75
305.891	84.75
306.121	87.75
306.352	95.75
306.582	104.75
306.812	98.75
307.042	104.75
307.272	100.75
307.502	99.75
307.731	75.75
307.961	86.75
308.191	75.75
308.421	92.75
308.651	98.75
308.881	101.75
309.111	81.75
309.341	83.75
309.571	90.75
309.8	100.75
310.03	98.75
310.26	97.75
310.49	98.75
310.72	87.75
310.949	96.75
311.179	88.75
311.409	88.75
311.639	90.75
311.868	92.75
312.098	103.75
312.328	87.75
312.557	77.75
312.787	108.75
313.017	98.75
313.246	89.75
313.476	94.75
313.706	91.75
313.935	96.75
314.165	95.75
314.394	96.75
314.624	98.75
314.853	91.75
315.083	81.75
315.312	85.75
315.542	87.75
315.771	95.75
316.001	103.75
316.23	83.75
316.46	94.75
316.689	82.75
316.919	85.75
317.148	95.75
317.377	86.75
317.607	99.75
317.836	94.75
318.065	97.75
318.295	90.75
318.524	105.75
318.753	96.75
318.983	82.75
319.212	95.75
319.441	90.75
319.67	91.75
319.9	86.75
320.129	95.75
320.358	107.75
320.587	94.75
320.816	88.75
321.046	97.75
321.275	102.75
321.504	97.75
321.733	103.75
321.962	89.75
322.191	113.75
322.42	94.75
322.649	97.75
322.878	101.75
323.108	103.75
323.337	126.75
323.566	137.75
323.795	151.75
324.024	183.75
324.253	344.75
324.482	723.75
324.71	1466.75
324.939	1972.75
325.168	712.75
325.397	224.75
325.626	122.75
325.855	120.75
326.084	120.75
326.313	126.75
326.542	152.75
326.77	213.75
326.999	410.75
327.228	857.75
327.457	1573.75
327.686	1240.75
327.914	360.75
328.143	191.75
328.372	146.75
328.6	126.75
328.829	118.75
329.058	116.75
329.287	121.75
329.515	119.75
329.744	99.75
329.972	98.75
330.201	128.75
330.43	137.75
330.658	108.75
330.887	122.75
331.115	117.75
331.344	99.75
331.572	93.75
331.801	89.75
332.03	97.75
332.258	100.75
332.486	94.75
332.715	94.75
332.943	96.75
333.172	110.75
333.4	89.75
333.629	113.75
333.857	105.75
334.085	117.75
334.314	120.75
334.542	130.75
334.771	140.75
334.999	109.75
335.227	107.75
335.455	84.75
335.684	108.75
335.912	107.75
336.14	99.75
336.369	98.75
336.597	111.75
336.825	87.75
337.053	81.75
337.281	94.75
337.51	90.75
337.738	76.75
337.966	91.75
338.194	124.75
338.422	93.75
338.65	91.75
338.878	98.75
339.106	90.75
339.334	81.75
339.562	87.75
339.79	87.75
340.018	94.75
340.246	90.75
340.474	90.75
340.702	99.75
340.93	94.75
341.158	100.75
341.386	90.75
341.614	108.75
341.842	90.75
342.07	87.75
342.298	90.75
342.526	92.75
342.754	93.75
342.981	84.75
343.209	89.75
343.437	105.75
343.665	78.75
343.893	92.75
344.12	91.75
344.348	83.75
344.576	86.75
344.804	98.75
345.031	98.75
345.259	107.75
345.487	81.75
345.714	90.75
345.942	90.75
346.17	91.75
346.397	97.75
346.625	90.75
346.853	92.75
347.08	83.75
347.308	94.75
347.535	87.75
347.763	96.75
347.99	92.75
348.218	98.75
348.445	93.75
348.673	96.75
348.9	109.75
349.128	96.75
349.355	98.75
349.583	101.75
349.81	98.75
350.037	101.75
350.265	96.75
350.492	91.75
350.72	92.75
350.947	87.75
351.174	115.75
351.402	100.75
351.629	96.75
351.856	103.75
352.083	93.75
352.311	90.75
352.538	107.75
352.765	106.75
352.992	99.75
353.22	96.75
353.447	97.75
353.674	96.75
353.901	101.75
354.128	98.75
354.355	108.75
354.583	106.75
354.81	98.75
355.037	100.75
355.264	94.75
355.491	97.75
355.718	89.75
355.945	95.75
356.172	83.75
356.399	93.75
356.626	91.75
356.853	93.75
357.08	94.75
357.307	108.75
357.534	95.75
357.761	97.75
357.988	88.75
358.215	88.75
358.441	95.75
358.668	106.75
358.895	89.75
359.122	93.75
359.349	89.75
359.576	86.75
359.802	95.75
360.029	111.75
360.256	91.75
360.483	98.75
360.709	96.75
360.936	87.75
361.163	106.75
361.39	94.75
361.616	94.75
361.843	82.75
362.07	89.75
362.296	96.75
362.523	93.75
362.749	95.75
362.976	77.75
363.203	72.75
363.429	87.75
363.656	74.75
363.882	84.75
364.109	83.75
364.335	68.75
364.562	93.75
364.788	106.75
365.015	93.75
365.241	74.75
365.468	102.75
365.694	103.75
365.92	86.75
366.147	89.75
366.373	75.75
366.599	78.75
366.826	84.75
367.052	98.75
367.278	105.75
367.505	91.75
367.731	102.75
367.957	97.75
368.184	79.75
368.41	95.75
368.636	104.75
368.862	107.75
369.089	95.75
369.315	94.75
369.541	99.75
369.767	85.75
369.993	85.75
370.219	102.75
370.445	91.75
370.672	90.75
370.898	90.75
371.124	96.75
371.35	89.75
371.576	89.75
371.802	89.75
372.028	94.75
372.254	92.75
372.48	80.75
372.706	90.75
372.932	88.75
373.158	84.75
373.384	89.75
373.61	94.75
373.835	90.75
374.061	89.75
374.287	99.75
374.513	94.75
374.739	89.75
374.965	101.75
375.191	91.75
375.416	85.75
375.642	86.75
375.868	106.75
376.094	89.75
376.319	94.75
376.545	95.75
376.771	86.75
376.997	90.75
377.222	83.75
377.448	86.75
377.674	100.75
377.899	97.75
378.125	89.75
378.35	90.75
378.576	92.75
378.802	80.75
379.027	71.75
379.253	92.75
379.478	82.75
379.704	98.75
379.929	101.75
380.155	93.75
380.38	104.75
380.606	86.75
380.831	95.75
381.057	100.75
381.282	92.75
381.507	87.75
381.733	93.75
381.958	103.75
382.184	92.75
382.409	114.75
382.634	107.75
382.86	107.75
383.085	85.75
383.31	100.75
383.535	102.75
383.761	97.75
383.986	90.75
384.211	103.75
384.436	91.75
384.662	114.75
384.887	91.75
385.112	114.75
385.337	118.75
385.562	96.75
385.787	110.75
386.013	113.75
386.238	102.75
386.463	96.75
386.688	112.75
386.913	100.75
387.138	116.75
387.363	111.75
387.588	96.75
387.813	104.75
388.038	98.75
388.263	106.75
388.488	107.75
388.713	101.75
388.938	93.75
389.163	97.75
389.387	87.75
389.612	101.75
389.837	99.75
390.062	105.75
390.287	103.75
390.512	88.75
390.736	90.75
390.961	88.75
391.186	90.75
391.411	105.75
391.636	103.75
391.86	92.75
392.085	83.75
392.31	91.75
392.534	69.75
392.759	106.75
392.984	82.75
393.208	89.75
393.433	107.75
393.658	99.75
393.882	87.75
394.107	80.75
394.331	80.75
394.556	74.75
394.78	94.75
395.005	99.75
395.229	79.75
395.454	78.75
395.678	81.75
395.903	86.75
396.127	85.75
396.352	88.75
396.576	84.75
396.801	82.75
397.025	97.75
397.249	81.75
397.474	98.75
397.698	82.75
397.922	90.75
398.147	93.75
398.371	80.75
398.595	93.75
398.82	88.75
399.044	79.75
399.268	77.75
399.492	96.75
399.717	75.75
399.941	97.75
400.165	94.75
400.389	79.75
400.613	82.75
400.837	82.75
401.062	92.75
401.286	74.75
401.51	75.75
401.734	86.75
401.958	80.75
402.182	118.75
402.406	137.75
402.63	105.75
402.854	83.75
403.078	89.75
403.302	95.75
403.526	108.75
403.75	86.75
403.974	82.75
404.198	81.75
404.422	98.75
404.645	75.75
404.869	100.75
405.093	99.75
405.317	89.75
405.541	86.75
405.765	78.75
405.988	106.75
406.212	139.75
406.436	175.75
406.66	131.75
406.883	96.75
407.107	95.75
407.331	87.75
407.555	94.75
407.778	96.75
408.002	86.75
408.226	89.75
408.449	84.75
408.673	87.75
408.896	91.75
409.12	96.75
409.344	86.75
409.567	87.75
409.791	78.75
410.014	84.75
410.238	104.75
410.461	94.75
410.685	95.75
410.908	94.75
411.132	108.75
411.355	95.75
411.578	103.75
411.802	87.75
412.025	92.75
412.249	97.75
412.472	90.75
412.695	96.75
412.919	88.75
413.142	81.75
413.365	93.75
413.589	76.75
413.812	92.75
414.035	105.75
414.258	83.75
414.482	100.75
414.705	97.75
414.928	81.75
415.151	101.75
415.374	89.75
415.597	83.75
415.821	82.75
416.044	96.75
416.267	88.75
416.49	104.75
416.713	82.75
416.936	92.75
417.159	92.75
417.382	81.75
417.605	98.75
417.828	103.75
418.051	88.75
418.274	95.75
418.497	89.75
418.72	79.75
418.943	70.75
419.166	94.75
419.389	90.75
419.611	92.75
419.834	87.75
420.057	90.75
420.28	79.75
420.503	84.75
420.726	82.75
420.948	87.75
421.171	87.75
421.394	99.75
421.617	82.75
421.839	94.75
422.062	81.75
422.285	84.75
422.507	99.75
422.73	98.75
422.953	74.75
423.175	83.75
423.398	90.75
423.621	95.75
423.843	87.75
424.066	98.75
424.288	86.75
424.511	84.75
424.733	91.75
424.956	86.75
425.178	100.75
425.401	94.75
425.623	105.75
425.846	71.75
426.068	86.75
426.291	89.75
426.513	99.75
426.735	94.75
426.958	87.75
427.18	100.75
427.402	114.75
427.625	129.75
427.847	127.75
428.069	115.75
428.292	82.75
428.514	78.75
428.736	82.75
428.958	83.75
429.181	98.75
429.403	96.75
429.625	74.75
429.847	89.75
430.069	106.75
430.292	97.75
430.514	95.75
430.736	92.75
430.958	86.75
431.18	83.75
431.402	87.75
431.624	81.75
431.846	88.75
432.068	96.75
432.29	96.75
432.512	75.75
432.734	83.75
432.956	86.75
433.178	98.75
433.4	94.75
433.622	96.75
433.844	88.75
434.066	79.75
434.287	84.75
434.509	97.75
434.731	88.75
434.953	74.75
435.175	96.75
435.397	75.75
435.618	85.75
435.84	94.75
436.062	118.75
436.284	104.75
436.505	92.75
436.727	102.75
436.949	81.75
437.17	94.75
437.392	81.75
437.614	94.75
437.835	91.75
438.057	99.75
438.278	94.75
438.5	99.75
438.721	127.75
438.943	98.75
439.165	95.75
439.386	98.75
439.608	85.75
439.829	88.75
440.05	103.75
440.272	127.75
440.493	111.75
440.715	98.75
440.936	98.75
441.158	89.75
441.379	86.75
441.6	87.75
441.822	91.75
442.043	84.75
442.264	101.75
442.486	90.75
442.707	78.75
442.928	102.75
443.149	106.75
443.371	112.75
443.592	104.75
443.813	118.75
444.034	105.75
444.255	81.75
444.476	84.75
444.698	85.75
444.919	83.75
445.14	117.75
445.361	125.75
445.582	117.75
445.803	128.75
446.024	123.75
446.245	127.75
446.466	82.75
446.687	99.75
446.908	92.75
447.129	74.75
447.35	78.75
447.571	79.75
447.792	80.75
448.013	107.75
448.234	102.75
448.455	90.75
448.675	109.75
448.896	112.75
449.117	98.75
449.338	106.75
449.559	119.75
449.779	121.75
450	84.75
450.221	87.75
450.442	92.75
450.662	86.75
450.883	96.75
451.104	102.75
451.324	87.75
451.545	85.75
451.766	68.75
451.986	81.75
452.207	94.75
452.428	86.75
452.648	88.75
452.869	100.75
453.089	96.75
453.31	89.75
453.53	86.75
453.751	82.75
453.971	101.75
454.192	102.75
454.412	76.75
454.633	80.75
454.853	76.75
455.073	86.75
455.294	91.75
455.514	107.75
455.734	75.75
455.955	94.75
456.175	98.75
456.395	87.75
456.616	94.75
456.836	85.75
457.056	82.75
457.276	82.75
457.497	78.75
457.717	101.75
457.937	95.75
458.157	82.75
458.377	92.75
458.598	91.75
458.818	124.75
459.038	140.75
459.258	112.75
459.478	80.75
459.698	102.75
459.918	97.75
460.138	88.75
460.358	78.75
460.578	81.75
460.798	82.75
461.018	90.75
461.238	85.75
461.458	83.75
461.678	86.75
461.898	92.75
462.118	104.75
462.338	92.75
462.558	66.75
462.777	98.75
462.997	83.75
463.217	76.75
463.437	94.75
463.657	90.75
463.876	90.75
464.096	90.75
464.316	89.75
464.536	88.75
464.755	69.75
464.975	106.75
465.195	139.75
465.414	135.75
465.634	89.75
465.854	102.75
466.073	84.75
466.293	90.75
466.512	90.75
466.732	85.75
466.951	83.75
467.171	92.75
467.391	86.75
467.61	95.75
467.829	82.75
468.049	92.75
468.268	100.75
468.488	98.75
468.707	89.75
468.927	91.75
469.146	83.75
469.365	89.75
469.585	85.75
469.804	101.75
470.023	84.75
470.243	110.75
470.462	89.75
470.681	95.75
470.901	85.75
471.12	91.75
471.339	82.75
471.558	86.75
471.777	100.75
471.997	93.75
472.216	106.75
472.435	163.75
472.654	102.75
472.873	83.75
473.092	80.75
473.311	90.75
473.53	88.75
473.749	75.75
473.968	96.75
474.187	96.75
474.406	99.75
474.625	86.75
474.844	94.75
475.063	75.75
475.282	80.75
475.501	102.75
475.72	75.75
475.939	82.75
476.158	96.75
476.377	80.75
476.596	92.75
476.814	87.75
477.033	68.75
477.252	96.75
477.471	87.75
477.69	83.75
477.908	93.75
478.127	90.75
478.346	95.75
478.564	88.75
478.783	95.75
479.002	103.75
479.22	79.75
479.439	100.75
479.658	94.75
479.876	91.75
480.095	87.75
480.313	91.75
480.532	88.75
480.751	105.75
480.969	119.75
481.188	220.75
481.406	181.75
481.624	103.75
481.843	97.75
482.061	90.75
482.28	87.75
482.498	99.75
482.717	89.75
482.935	100.75
483.153	94.75
483.372	86.75
483.59	96.75
483.808	97.75
484.027	97.75
484.245	100.75
484.463	96.75
484.681	111.75
484.9	96.75
485.118	82.75
485.336	90.75
485.554	91.75
485.772	97.75
485.99	88.75
486.209	104.75
486.427	104.75
486.645	96.75
486.863	106.75
487.081	98.75
487.299	91.75
487.517	86.75
487.735	94.75
487.953	84.75
488.171	94.75
488.389	103.75
488.607	104.75
488.825	96.75
489.043	82.75
489.261	94.75
489.479	85.75
489.696	90.75
489.914	89.75
490.132	88.75
490.35	79.75
490.568	78.75
490.786	86.75
491.003	85.75
491.221	88.75
491.439	96.75
491.657	81.75
491.874	94.75
492.092	95.75
492.31	92.75
492.527	98.75
492.745	81.75
492.963	79.75
493.18	85.75
493.398	92.75
493.615	95.75
493.833	97.75
494.05	91.75
494.268	87.75
494.485	93.75
494.703	87.75
494.92	88.75
495.138	102.75
495.355	76.75
495.573	82.75
495.79	85.75
496.008	76.75
496.225	104.75
496.442	80.75
496.66	93.75
496.877	91.75
497.094	84.75
497.312	81.75
497.529	89.75
497.746	111.75
497.963	94.75
498.181	92.75
498.398	90.75
498.615	111.75
498.832	103.75
499.049	66.75
499.267	99.75
499.484	88.75
499.701	81.75
499.918	92.75
500.135	101.75
500.352	84.75
500.569	89.75
500.786	92.75
501.003	96.75
501.22	94.75
501.437	96.75
501.654	92.75
501.871	94.75
502.088	95.75
502.305	89.75
502.522	107.75
502.739	87.75
502.956	92.75
503.172	108.75
503.389	88.75
503.606	92.75
503.823	94.75
504.04	96.75
504.256	96.75
504.473	102.75
504.69	100.75
504.907	87.75
505.123	89.75
505.34	94.75
505.557	83.75
505.773	101.75
505.99	86.75
506.207	75.75
506.423	84.75
506.64	83.75
506.856	91.75
507.073	92.75
507.289	91.75
507.506	84.75
507.722	84.75
507.939	94.75
508.155	74.75
508.372	87.75
508.588	90.75
508.805	85.75
509.021	87.75
509.238	99.75
509.454	80.75
509.67	98.75
509.887	93.75
510.103	99.75
510.319	174.75
510.536	590.75
510.752	1764.75
510.968	513.75
511.184	125.75
511.401	112.75
511.617	90.75
511.833	96.75
512.049	95.75
512.265	91.75
512.481	87.75
512.698	98.75
512.914	100.75
513.13	110.75
513.346	100.75
513.562	85.75
513.778	98.75
513.994	107.75
514.21	99.75
514.426	104.75
514.642	101.75
514.858	122.75
515.074	148.75
515.29	336.75
515.506	1032.75
515.721	382.75
515.937	124.75
516.153	99.75
516.369	102.75
