Data from Circ_1985_H10_HRD10591_00027.txt Node
Date: Wed Jan 03 12:19:28 EST 2024
User: Yrep
Spectrometer: HR+D1059
Trigger mode: 1
Integration Time (sec): 1.000000E-1
Scans to average: 1
Electric dark correction enabled: true
Nonlinearity correction enabled: false
Boxcar width: 0
XAxis mode: Wavelengths
Number of Pixels in Spectrum: 2048
>>>>>Begin Spectral Data<<<<<
223.165	-21.81
223.4	-21.81
223.635	-21.81
223.869	-17.81
224.104	-13.81
224.338	-3.81
224.573	-6.81
224.808	-14.81
225.042	-14.81
225.277	-7.81
225.511	-18.81
225.746	2.19
225.98	14.19
226.215	16.19
226.449	17.19
226.683	23.19
226.918	29.19
227.152	18.19
227.387	33.19
227.621	32.19
227.856	50.19
228.09	54.19
228.324	53.19
228.559	64.19
228.793	52.19
229.027	72.19
229.262	69.19
229.496	84.19
229.73	68.19
229.964	83.19
230.199	76.19
230.433	75.19
230.667	75.19
230.901	78.19
231.136	82.19
231.37	72.19
231.604	75.19
231.838	90.19
232.072	88.19
232.306	84.19
232.541	91.19
232.775	75.19
233.009	83.19
233.243	81.19
233.477	85.19
233.711	82.19
233.945	89.19
234.179	75.19
234.413	88.19
234.647	77.19
234.881	79.19
235.115	69.19
235.349	80.19
235.583	92.19
235.817	92.19
236.051	81.19
236.285	60.19
236.519	79.19
236.753	80.19
236.987	66.19
237.221	80.19
237.455	93.19
237.689	74.19
237.922	96.19
238.156	69.19
238.39	64.19
238.624	81.19
238.858	93.19
239.091	72.19
239.325	74.19
239.559	75.19
239.793	94.19
240.027	65.19
240.26	84.19
240.494	83.19
240.728	87.19
240.961	66.19
241.195	80.19
241.429	76.19
241.662	73.19
241.896	86.19
242.13	73.19
242.363	67.19
242.597	85.19
242.83	88.19
243.064	84.19
243.298	76.19
243.531	86.19
243.765	88.19
243.998	76.19
244.232	76.19
244.465	69.19
244.699	77.19
244.932	86.19
245.166	84.19
245.399	82.19
245.633	72.19
245.866	84.19
246.099	87.19
246.333	91.19
246.566	86.19
246.8	78.19
247.033	76.19
247.266	56.19
247.5	67.19
247.733	72.19
247.966	64.19
248.2	84.19
248.433	91.19
248.666	76.19
248.899	91.19
249.133	90.19
249.366	85.19
249.599	88.19
249.832	83.19
250.066	77.19
250.299	76.19
250.532	83.19
250.765	82.19
250.998	75.19
251.231	72.19
251.465	74.19
251.698	84.19
251.931	69.19
252.164	77.19
252.397	87.19
252.63	88.19
252.863	92.19
253.096	67.19
253.329	91.19
253.562	66.19
253.795	80.19
254.028	78.19
254.261	93.19
254.494	81.19
254.727	84.19
254.96	78.19
255.193	76.19
255.426	81.19
255.659	84.19
255.892	75.19
256.124	90.19
256.357	80.19
256.59	84.19
256.823	96.19
257.056	76.19
257.289	73.19
257.521	91.19
257.754	78.19
257.987	77.19
258.22	85.19
258.452	73.19
258.685	96.19
258.918	95.19
259.151	85.19
259.383	88.19
259.616	100.19
259.849	80.19
260.081	84.19
260.314	73.19
260.547	76.19
260.779	85.19
261.012	82.19
261.244	98.19
261.477	76.19
261.71	90.19
261.942	90.19
262.175	100.19
262.407	89.19
262.64	80.19
262.872	80.19
263.105	81.19
263.337	81.19
263.57	85.19
263.802	81.19
264.035	87.19
264.267	81.19
264.499	88.19
264.732	67.19
264.964	71.19
265.197	85.19
265.429	86.19
265.661	85.19
265.894	71.19
266.126	82.19
266.358	84.19
266.591	92.19
266.823	76.19
267.055	88.19
267.287	85.19
267.52	88.19
267.752	84.19
267.984	92.19
268.216	85.19
268.448	90.19
268.681	106.19
268.913	96.19
269.145	77.19
269.377	72.19
269.609	100.19
269.841	86.19
270.073	73.19
270.306	80.19
270.538	94.19
270.77	82.19
271.002	84.19
271.234	100.19
271.466	81.19
271.698	98.19
271.93	85.19
272.162	72.19
272.394	92.19
272.626	76.19
272.858	70.19
273.09	95.19
273.322	80.19
273.553	104.19
273.785	87.19
274.017	88.19
274.249	83.19
274.481	80.19
274.713	84.19
274.945	92.19
275.176	83.19
275.408	82.19
275.64	97.19
275.872	82.19
276.104	94.19
276.335	96.19
276.567	92.19
276.799	101.19
277.031	104.19
277.262	98.19
277.494	86.19
277.726	85.19
277.957	72.19
278.189	90.19
278.421	100.19
278.652	92.19
278.884	90.19
279.115	87.19
279.347	90.19
279.579	100.19
279.81	92.19
280.042	89.19
280.273	80.19
280.505	93.19
280.736	85.19
280.968	80.19
281.199	92.19
281.431	81.19
281.662	80.19
281.894	82.19
282.125	100.19
282.356	111.19
282.588	112.19
282.819	99.19
283.051	84.19
283.282	82.19
283.513	91.19
283.745	102.19
283.976	77.19
284.207	93.19
284.439	104.19
284.67	75.19
284.901	83.19
285.132	95.19
285.364	88.19
285.595	92.19
285.826	86.19
286.057	93.19
286.288	85.19
286.52	80.19
286.751	84.19
286.982	97.19
287.213	100.19
287.444	86.19
287.675	93.19
287.906	82.19
288.138	81.19
288.369	97.19
288.6	85.19
288.831	97.19
289.062	80.19
289.293	117.19
289.524	85.19
289.755	83.19
289.986	84.19
290.217	72.19
290.448	103.19
290.679	94.19
290.91	102.19
291.141	101.19
291.371	85.19
291.602	84.19
291.833	102.19
292.064	96.19
292.295	97.19
292.526	93.19
292.757	97.19
292.987	93.19
293.218	80.19
293.449	86.19
293.68	98.19
293.91	91.19
294.141	89.19
294.372	78.19
294.603	76.19
294.833	84.19
295.064	94.19
295.295	89.19
295.525	94.19
295.756	108.19
295.987	113.19
296.217	125.19
296.448	97.19
296.679	96.19
296.909	107.19
297.14	85.19
297.37	84.19
297.601	95.19
297.831	77.19
298.062	99.19
298.292	90.19
298.523	87.19
298.753	100.19
298.984	97.19
299.214	92.19
299.445	99.19
299.675	99.19
299.905	87.19
300.136	92.19
300.366	81.19
300.597	84.19
300.827	101.19
301.057	95.19
301.288	98.19
301.518	97.19
301.748	102.19
301.979	107.19
302.209	104.19
302.439	88.19
302.669	95.19
302.9	98.19
303.13	97.19
303.36	86.19
303.59	90.19
303.82	107.19
304.051	93.19
304.281	90.19
304.511	100.19
304.741	96.19
304.971	85.19
305.201	97.19
305.431	97.19
305.661	83.19
305.891	91.19
306.121	86.19
306.352	92.19
306.582	98.19
306.812	95.19
307.042	94.19
307.272	92.19
307.502	90.19
307.731	96.19
307.961	83.19
308.191	77.19
308.421	86.19
308.651	105.19
308.881	93.19
309.111	98.19
309.341	82.19
309.571	101.19
309.8	88.19
310.03	86.19
310.26	102.19
310.49	104.19
310.72	84.19
310.949	104.19
311.179	92.19
311.409	102.19
311.639	98.19
311.868	105.19
312.098	98.19
312.328	96.19
312.557	81.19
312.787	104.19
313.017	110.19
313.246	99.19
313.476	97.19
313.706	90.19
313.935	76.19
314.165	95.19
314.394	94.19
314.624	98.19
314.853	111.19
315.083	98.19
315.312	106.19
315.542	99.19
315.771	89.19
316.001	100.19
316.23	81.19
316.46	90.19
316.689	89.19
316.919	80.19
317.148	87.19
317.377	93.19
317.607	88.19
317.836	93.19
318.065	87.19
318.295	91.19
318.524	82.19
318.753	90.19
318.983	91.19
319.212	97.19
319.441	90.19
319.67	95.19
319.9	102.19
320.129	77.19
320.358	111.19
320.587	103.19
320.816	85.19
321.046	94.19
321.275	84.19
321.504	83.19
321.733	100.19
321.962	102.19
322.191	104.19
322.42	102.19
322.649	106.19
322.878	105.19
323.108	101.19
323.337	111.19
323.566	110.19
323.795	130.19
324.024	188.19
324.253	322.19
324.482	700.19
324.71	1414.19
324.939	1836.19
325.168	669.19
325.397	228.19
325.626	146.19
325.855	131.19
326.084	130.19
326.313	124.19
326.542	140.19
326.77	232.19
326.999	407.19
327.228	809.19
327.457	1441.19
327.686	1150.19
327.914	314.19
328.143	182.19
328.372	153.19
328.6	118.19
328.829	98.19
329.058	108.19
329.287	110.19
329.515	104.19
329.744	108.19
329.972	120.19
330.201	108.19
330.43	129.19
330.658	103.19
330.887	109.19
331.115	112.19
331.344	100.19
331.572	108.19
331.801	114.19
332.03	102.19
332.258	87.19
332.486	85.19
332.715	107.19
332.943	104.19
333.172	97.19
333.4	109.19
333.629	106.19
333.857	111.19
334.085	118.19
334.314	113.19
334.542	119.19
334.771	114.19
334.999	102.19
335.227	80.19
335.455	86.19
335.684	106.19
335.912	92.19
336.14	92.19
336.369	104.19
336.597	102.19
336.825	91.19
337.053	104.19
337.281	106.19
337.51	92.19
337.738	94.19
337.966	98.19
338.194	100.19
338.422	98.19
338.65	98.19
338.878	91.19
339.106	89.19
339.334	97.19
339.562	97.19
339.79	87.19
340.018	88.19
340.246	88.19
340.474	95.19
340.702	95.19
340.93	106.19
341.158	88.19
341.386	94.19
341.614	90.19
341.842	81.19
342.07	95.19
342.298	90.19
342.526	87.19
342.754	90.19
342.981	90.19
343.209	91.19
343.437	101.19
343.665	99.19
343.893	101.19
344.12	91.19
344.348	98.19
344.576	74.19
344.804	75.19
345.031	92.19
345.259	98.19
345.487	99.19
345.714	96.19
345.942	96.19
346.17	83.19
346.397	101.19
346.625	100.19
346.853	97.19
347.08	101.19
347.308	92.19
347.535	105.19
347.763	100.19
347.99	100.19
348.218	98.19
348.445	122.19
348.673	89.19
348.9	90.19
349.128	83.19
349.355	95.19
349.583	91.19
349.81	99.19
350.037	90.19
350.265	92.19
350.492	102.19
350.72	106.19
350.947	107.19
351.174	91.19
351.402	103.19
351.629	109.19
351.856	93.19
352.083	112.19
352.311	107.19
352.538	106.19
352.765	89.19
352.992	102.19
353.22	94.19
353.447	111.19
353.674	90.19
353.901	104.19
354.128	102.19
354.355	93.19
354.583	110.19
354.81	89.19
355.037	102.19
355.264	105.19
355.491	102.19
355.718	91.19
355.945	99.19
356.172	86.19
356.399	113.19
356.626	97.19
356.853	102.19
357.08	90.19
357.307	87.19
357.534	90.19
357.761	104.19
357.988	91.19
358.215	100.19
358.441	86.19
358.668	101.19
358.895	92.19
359.122	104.19
359.349	97.19
359.576	88.19
359.802	92.19
360.029	93.19
360.256	92.19
360.483	93.19
360.709	101.19
360.936	81.19
361.163	101.19
361.39	96.19
361.616	88.19
361.843	94.19
362.07	110.19
362.296	98.19
362.523	95.19
362.749	88.19
362.976	89.19
363.203	92.19
363.429	84.19
363.656	88.19
363.882	86.19
364.109	98.19
364.335	92.19
364.562	82.19
364.788	95.19
365.015	98.19
365.241	100.19
365.468	96.19
365.694	102.19
365.92	105.19
366.147	99.19
366.373	93.19
366.599	86.19
366.826	92.19
367.052	89.19
367.278	93.19
367.505	93.19
367.731	87.19
367.957	68.19
368.184	100.19
368.41	105.19
368.636	111.19
368.862	105.19
369.089	98.19
369.315	94.19
369.541	98.19
369.767	102.19
369.993	103.19
370.219	92.19
370.445	84.19
370.672	84.19
370.898	88.19
371.124	88.19
371.35	86.19
371.576	106.19
371.802	107.19
372.028	87.19
372.254	86.19
372.48	98.19
372.706	84.19
372.932	105.19
373.158	87.19
373.384	84.19
373.61	87.19
373.835	92.19
374.061	93.19
374.287	104.19
374.513	97.19
374.739	90.19
374.965	80.19
375.191	75.19
375.416	94.19
375.642	96.19
375.868	95.19
376.094	96.19
376.319	84.19
376.545	82.19
376.771	86.19
376.997	101.19
377.222	96.19
377.448	94.19
377.674	86.19
377.899	90.19
378.125	102.19
378.35	105.19
378.576	88.19
378.802	88.19
379.027	105.19
379.253	97.19
379.478	101.19
379.704	116.19
379.929	94.19
380.155	95.19
380.38	101.19
380.606	99.19
380.831	91.19
381.057	99.19
381.282	88.19
381.507	86.19
381.733	94.19
381.958	106.19
382.184	103.19
382.409	105.19
382.634	104.19
382.86	108.19
383.085	102.19
383.31	97.19
383.535	90.19
383.761	109.19
383.986	107.19
384.211	93.19
384.436	104.19
384.662	108.19
384.887	109.19
385.112	111.19
385.337	115.19
385.562	109.19
385.787	112.19
386.013	108.19
386.238	108.19
386.463	99.19
386.688	112.19
386.913	124.19
387.138	119.19
387.363	123.19
387.588	103.19
387.813	112.19
388.038	110.19
388.263	119.19
388.488	129.19
388.713	92.19
388.938	104.19
389.163	97.19
389.387	103.19
389.612	109.19
389.837	88.19
390.062	97.19
390.287	94.19
390.512	90.19
390.736	81.19
390.961	101.19
391.186	88.19
391.411	102.19
391.636	102.19
391.86	84.19
392.085	104.19
392.31	95.19
392.534	65.19
392.759	94.19
392.984	98.19
393.208	99.19
393.433	102.19
393.658	100.19
393.882	91.19
394.107	83.19
394.331	83.19
394.556	89.19
394.78	91.19
395.005	85.19
395.229	93.19
395.454	93.19
395.678	97.19
395.903	100.19
396.127	84.19
396.352	86.19
396.576	75.19
396.801	77.19
397.025	95.19
397.249	99.19
397.474	92.19
397.698	104.19
397.922	74.19
398.147	68.19
398.371	81.19
398.595	78.19
398.82	90.19
399.044	88.19
399.268	89.19
399.492	82.19
399.717	104.19
399.941	92.19
400.165	89.19
400.389	90.19
400.613	74.19
400.837	83.19
401.062	99.19
401.286	88.19
401.51	81.19
401.734	96.19
401.958	76.19
402.182	123.19
402.406	112.19
402.63	110.19
402.854	98.19
403.078	91.19
403.302	96.19
403.526	80.19
403.75	87.19
403.974	89.19
404.198	86.19
404.422	95.19
404.645	97.19
404.869	78.19
405.093	97.19
405.317	93.19
405.541	94.19
405.765	98.19
405.988	106.19
406.212	132.19
406.436	182.19
406.66	110.19
406.883	93.19
407.107	88.19
407.331	84.19
407.555	89.19
407.778	86.19
408.002	87.19
408.226	101.19
408.449	101.19
408.673	84.19
408.896	78.19
409.12	103.19
409.344	84.19
409.567	84.19
409.791	80.19
410.014	81.19
410.238	92.19
410.461	99.19
410.685	90.19
410.908	91.19
411.132	107.19
411.355	90.19
411.578	91.19
411.802	110.19
412.025	72.19
412.249	93.19
412.472	86.19
412.695	95.19
412.919	82.19
413.142	82.19
413.365	93.19
413.589	103.19
413.812	83.19
414.035	92.19
414.258	92.19
414.482	92.19
414.705	106.19
414.928	87.19
415.151	94.19
415.374	106.19
415.597	96.19
415.821	88.19
416.044	94.19
416.267	101.19
416.49	77.19
416.713	86.19
416.936	86.19
417.159	90.19
417.382	75.19
417.605	91.19
417.828	92.19
418.051	97.19
418.274	89.19
418.497	92.19
418.72	68.19
418.943	98.19
419.166	83.19
419.389	104.19
419.611	78.19
419.834	84.19
420.057	84.19
420.28	77.19
420.503	90.19
420.726	94.19
420.948	81.19
421.171	92.19
421.394	98.19
421.617	99.19
421.839	92.19
422.062	79.19
422.285	86.19
422.507	99.19
422.73	93.19
422.953	78.19
423.175	90.19
423.398	78.19
423.621	89.19
423.843	95.19
424.066	101.19
424.288	88.19
424.511	98.19
424.733	106.19
424.956	92.19
425.178	81.19
425.401	96.19
425.623	99.19
425.846	82.19
426.068	97.19
426.291	80.19
426.513	87.19
426.735	88.19
426.958	96.19
427.18	104.19
427.402	135.19
427.625	128.19
427.847	96.19
428.069	111.19
428.292	103.19
428.514	66.19
428.736	88.19
428.958	72.19
429.181	74.19
429.403	92.19
429.625	88.19
429.847	90.19
430.069	99.19
430.292	93.19
430.514	89.19
430.736	100.19
430.958	102.19
431.18	81.19
431.402	84.19
431.624	91.19
431.846	83.19
432.068	100.19
432.29	95.19
432.512	100.19
432.734	86.19
432.956	88.19
433.178	86.19
433.4	98.19
433.622	110.19
433.844	94.19
434.066	98.19
434.287	88.19
434.509	94.19
434.731	102.19
434.953	89.19
435.175	93.19
435.397	100.19
435.618	91.19
435.84	98.19
436.062	112.19
436.284	96.19
436.505	92.19
436.727	99.19
436.949	92.19
437.17	84.19
437.392	88.19
437.614	101.19
437.835	93.19
438.057	94.19
438.278	102.19
438.5	92.19
438.721	112.19
438.943	106.19
439.165	75.19
439.386	73.19
439.608	73.19
439.829	92.19
440.05	100.19
440.272	119.19
440.493	114.19
440.715	85.19
440.936	82.19
441.158	92.19
441.379	92.19
441.6	100.19
441.822	99.19
442.043	106.19
442.264	98.19
442.486	86.19
442.707	83.19
442.928	101.19
443.149	120.19
443.371	100.19
443.592	101.19
443.813	101.19
444.034	95.19
444.255	92.19
444.476	104.19
444.698	91.19
444.919	94.19
445.14	127.19
445.361	118.19
445.582	102.19
445.803	129.19
446.024	87.19
446.245	123.19
446.466	118.19
446.687	83.19
446.908	85.19
447.129	93.19
447.35	84.19
447.571	93.19
447.792	86.19
448.013	102.19
448.234	104.19
448.455	98.19
448.675	114.19
448.896	121.19
449.117	82.19
449.338	106.19
449.559	115.19
449.779	109.19
450	93.19
450.221	87.19
450.442	86.19
450.662	94.19
450.883	106.19
451.104	116.19
451.324	101.19
451.545	80.19
451.766	91.19
451.986	94.19
452.207	93.19
452.428	97.19
452.648	81.19
452.869	100.19
453.089	94.19
453.31	104.19
453.53	84.19
453.751	95.19
453.971	101.19
454.192	115.19
454.412	80.19
454.633	77.19
454.853	89.19
455.073	78.19
455.294	92.19
455.514	82.19
455.734	96.19
455.955	93.19
456.175	80.19
456.395	94.19
456.616	93.19
456.836	91.19
457.056	93.19
457.276	64.19
457.497	86.19
457.717	91.19
457.937	83.19
458.157	91.19
458.377	93.19
458.598	102.19
458.818	127.19
459.038	132.19
459.258	114.19
459.478	74.19
459.698	82.19
459.918	86.19
460.138	86.19
460.358	87.19
460.578	84.19
460.798	94.19
461.018	94.19
461.238	80.19
461.458	83.19
461.678	82.19
461.898	77.19
462.118	85.19
462.338	102.19
462.558	83.19
462.777	93.19
462.997	91.19
463.217	92.19
463.437	98.19
463.657	85.19
463.876	89.19
464.096	84.19
464.316	104.19
464.536	82.19
464.755	92.19
464.975	101.19
465.195	131.19
465.414	117.19
465.634	88.19
465.854	77.19
466.073	74.19
466.293	83.19
466.512	86.19
466.732	100.19
466.951	96.19
467.171	100.19
467.391	106.19
467.61	96.19
467.829	104.19
468.049	86.19
468.268	104.19
468.488	92.19
468.707	91.19
468.927	90.19
469.146	93.19
469.365	84.19
469.585	99.19
469.804	84.19
470.023	93.19
470.243	88.19
470.462	108.19
470.681	101.19
470.901	96.19
471.12	86.19
471.339	91.19
471.558	83.19
471.777	71.19
471.997	85.19
472.216	100.19
472.435	109.19
472.654	97.19
472.873	99.19
473.092	85.19
473.311	82.19
473.53	85.19
473.749	99.19
473.968	101.19
474.187	90.19
474.406	84.19
474.625	103.19
474.844	99.19
475.063	84.19
475.282	98.19
475.501	93.19
475.72	99.19
475.939	83.19
476.158	77.19
476.377	98.19
476.596	64.19
476.814	96.19
477.033	105.19
477.252	96.19
477.471	100.19
477.69	88.19
477.908	92.19
478.127	96.19
478.346	107.19
478.564	87.19
478.783	89.19
479.002	88.19
479.22	87.19
479.439	80.19
479.658	103.19
479.876	80.19
480.095	78.19
480.313	93.19
480.532	101.19
480.751	98.19
480.969	99.19
481.188	129.19
481.406	124.19
481.624	92.19
481.843	86.19
482.061	91.19
482.28	101.19
482.498	92.19
482.717	88.19
482.935	84.19
483.153	94.19
483.372	104.19
483.59	93.19
483.808	88.19
484.027	96.19
484.245	84.19
484.463	83.19
484.681	91.19
484.9	112.19
485.118	93.19
485.336	98.19
485.554	95.19
485.772	111.19
485.99	109.19
486.209	106.19
486.427	99.19
486.645	121.19
486.863	104.19
487.081	109.19
487.299	97.19
487.517	115.19
487.735	87.19
487.953	89.19
488.171	96.19
488.389	90.19
488.607	96.19
488.825	90.19
489.043	94.19
489.261	88.19
489.479	82.19
489.696	100.19
489.914	81.19
490.132	89.19
490.35	96.19
490.568	90.19
490.786	90.19
491.003	89.19
491.221	92.19
491.439	98.19
491.657	84.19
491.874	76.19
492.092	82.19
492.31	99.19
492.527	82.19
492.745	92.19
492.963	105.19
493.18	87.19
493.398	86.19
493.615	92.19
493.833	97.19
494.05	104.19
494.268	84.19
494.485	88.19
494.703	84.19
494.92	102.19
495.138	94.19
495.355	99.19
495.573	92.19
495.79	88.19
496.008	99.19
496.225	89.19
496.442	82.19
496.66	88.19
496.877	102.19
497.094	96.19
497.312	94.19
497.529	80.19
497.746	101.19
497.963	95.19
498.181	103.19
498.398	96.19
498.615	101.19
498.832	100.19
499.049	89.19
499.267	95.19
499.484	82.19
499.701	78.19
499.918	102.19
500.135	93.19
500.352	105.19
500.569	95.19
500.786	95.19
501.003	91.19
501.22	99.19
501.437	92.19
501.654	107.19
501.871	97.19
502.088	91.19
502.305	93.19
502.522	106.19
502.739	93.19
502.956	95.19
503.172	82.19
503.389	104.19
503.606	102.19
503.823	85.19
504.04	88.19
504.256	97.19
504.473	90.19
504.69	80.19
504.907	84.19
505.123	83.19
505.34	93.19
505.557	85.19
505.773	91.19
505.99	92.19
506.207	96.19
506.423	93.19
506.64	91.19
506.856	91.19
507.073	86.19
507.289	96.19
507.506	95.19
507.722	106.19
507.939	108.19
508.155	94.19
508.372	109.19
508.588	88.19
508.805	93.19
509.021	92.19
509.238	94.19
509.454	99.19
509.67	90.19
509.887	106.19
510.103	109.19
510.319	188.19
510.536	568.19
510.752	1700.19
510.968	484.19
511.184	145.19
511.401	105.19
511.617	98.19
511.833	87.19
512.049	82.19
512.265	97.19
512.481	108.19
512.698	93.19
512.914	87.19
513.13	95.19
513.346	92.19
513.562	100.19
513.778	90.19
513.994	100.19
514.21	86.19
514.426	98.19
514.642	117.19
514.858	98.19
515.074	135.19
515.29	320.19
