Data from Circ_1985_H10_HRD10591_00058.txt Node
Date: Wed Jan 03 12:19:34 EST 2024
User: Yrep
Spectrometer: HR+D1059
Trigger mode: 1
Integration Time (sec): 1.000000E-1
Scans to average: 1
Electric dark correction enabled: true
Nonlinearity correction enabled: false
Boxcar width: 0
XAxis mode: Wavelengths
Number of Pixels in Spectrum: 2048
>>>>>Begin Spectral Data<<<<<
223.165	-17.94
223.4	-17.94
223.635	-17.94
223.869	-17.94
224.104	-16.94
224.338	-13.94
224.573	1.06
224.808	-20.94
225.042	-5.94
225.277	-8.94
225.511	-2.94
225.746	-3.94
225.98	12.06
226.215	1.06
226.449	3.06
226.683	30.06
226.918	33.06
227.152	29.06
227.387	30.06
227.621	42.06
227.856	35.06
228.09	49.06
228.324	54.06
228.559	66.06
228.793	70.06
229.027	60.06
229.262	54.06
229.496	62.06
229.73	77.06
229.964	53.06
230.199	68.06
230.433	65.06
230.667	68.06
230.901	87.06
231.136	77.06
231.37	80.06
231.604	83.06
231.838	89.06
232.072	68.06
232.306	57.06
232.541	68.06
232.775	75.06
233.009	61.06
233.243	75.06
233.477	92.06
233.711	77.06
233.945	72.06
234.179	82.06
234.413	83.06
234.647	85.06
234.881	85.06
235.115	77.06
235.349	75.06
235.583	73.06
235.817	64.06
236.051	79.06
236.285	73.06
236.519	78.06
236.753	66.06
236.987	80.06
237.221	78.06
237.455	93.06
237.689	71.06
237.922	78.06
238.156	83.06
238.39	53.06
238.624	79.06
238.858	68.06
239.091	81.06
239.325	71.06
239.559	75.06
239.793	64.06
240.027	72.06
240.26	65.06
240.494	81.06
240.728	67.06
240.961	81.06
241.195	71.06
241.429	77.06
241.662	54.06
241.896	79.06
242.13	92.06
242.363	73.06
242.597	73.06
242.83	71.06
243.064	70.06
243.298	78.06
243.531	77.06
243.765	79.06
243.998	70.06
244.232	69.06
244.465	77.06
244.699	79.06
244.932	67.06
245.166	77.06
245.399	83.06
245.633	62.06
245.866	68.06
246.099	67.06
246.333	79.06
246.566	84.06
246.8	74.06
247.033	79.06
247.266	92.06
247.5	82.06
247.733	70.06
247.966	75.06
248.2	82.06
248.433	62.06
248.666	87.06
248.899	89.06
249.133	83.06
249.366	93.06
249.599	89.06
249.832	63.06
250.066	75.06
250.299	86.06
250.532	86.06
250.765	79.06
250.998	81.06
251.231	72.06
251.465	73.06
251.698	72.06
251.931	70.06
252.164	73.06
252.397	59.06
252.63	81.06
252.863	77.06
253.096	78.06
253.329	68.06
253.562	76.06
253.795	86.06
254.028	89.06
254.261	86.06
254.494	71.06
254.727	79.06
254.96	60.06
255.193	75.06
255.426	73.06
255.659	70.06
255.892	93.06
256.124	90.06
256.357	83.06
256.59	71.06
256.823	77.06
257.056	77.06
257.289	84.06
257.521	59.06
257.754	81.06
257.987	82.06
258.22	77.06
258.452	75.06
258.685	90.06
258.918	82.06
259.151	85.06
259.383	78.06
259.616	87.06
259.849	87.06
260.081	90.06
260.314	70.06
260.547	87.06
260.779	75.06
261.012	83.06
261.244	78.06
261.477	84.06
261.71	86.06
261.942	103.06
262.175	94.06
262.407	84.06
262.64	80.06
262.872	82.06
263.105	77.06
263.337	80.06
263.57	87.06
263.802	87.06
264.035	81.06
264.267	90.06
264.499	74.06
264.732	80.06
264.964	81.06
265.197	71.06
265.429	71.06
265.661	81.06
265.894	79.06
266.126	77.06
266.358	77.06
266.591	82.06
266.823	69.06
267.055	81.06
267.287	85.06
267.52	82.06
267.752	83.06
267.984	71.06
268.216	85.06
268.448	71.06
268.681	79.06
268.913	75.06
269.145	78.06
269.377	91.06
269.609	83.06
269.841	77.06
270.073	73.06
270.306	76.06
270.538	84.06
270.77	89.06
271.002	76.06
271.234	75.06
271.466	78.06
271.698	86.06
271.93	74.06
272.162	58.06
272.394	81.06
272.626	78.06
272.858	83.06
273.09	83.06
273.322	79.06
273.553	85.06
273.785	73.06
274.017	87.06
274.249	83.06
274.481	76.06
274.713	82.06
274.945	91.06
275.176	79.06
275.408	93.06
275.64	71.06
275.872	91.06
276.104	79.06
276.335	76.06
276.567	81.06
276.799	95.06
277.031	100.06
277.262	70.06
277.494	91.06
277.726	85.06
277.957	82.06
278.189	76.06
278.421	69.06
278.652	89.06
278.884	77.06
279.115	77.06
279.347	85.06
279.579	84.06
279.81	86.06
280.042	78.06
280.273	73.06
280.505	80.06
280.736	85.06
280.968	68.06
281.199	75.06
281.431	83.06
281.662	82.06
281.894	84.06
282.125	102.06
282.356	122.06
282.588	131.06
282.819	101.06
283.051	64.06
283.282	83.06
283.513	75.06
283.745	76.06
283.976	83.06
284.207	77.06
284.439	87.06
284.67	89.06
284.901	81.06
285.132	66.06
285.364	74.06
285.595	78.06
285.826	73.06
286.057	94.06
286.288	75.06
286.52	85.06
286.751	72.06
286.982	89.06
287.213	88.06
287.444	63.06
287.675	91.06
287.906	74.06
288.138	92.06
288.369	78.06
288.6	83.06
288.831	92.06
289.062	101.06
289.293	91.06
289.524	89.06
289.755	85.06
289.986	88.06
290.217	88.06
290.448	94.06
290.679	84.06
290.91	91.06
291.141	63.06
291.371	63.06
291.602	86.06
291.833	81.06
292.064	64.06
292.295	76.06
292.526	92.06
292.757	82.06
292.987	80.06
293.218	91.06
293.449	68.06
293.68	85.06
293.91	91.06
294.141	85.06
294.372	80.06
294.603	92.06
294.833	79.06
295.064	84.06
295.295	77.06
295.525	85.06
295.756	85.06
295.987	114.06
296.217	121.06
296.448	98.06
296.679	98.06
296.909	96.06
297.14	78.06
297.37	66.06
297.601	78.06
297.831	72.06
298.062	78.06
298.292	92.06
298.523	87.06
298.753	83.06
298.984	78.06
299.214	64.06
299.445	77.06
299.675	81.06
299.905	101.06
300.136	83.06
300.366	89.06
300.597	87.06
300.827	91.06
301.057	83.06
301.288	93.06
301.518	87.06
301.748	90.06
301.979	97.06
302.209	92.06
302.439	102.06
302.669	85.06
302.9	81.06
303.13	67.06
303.36	87.06
303.59	96.06
303.82	88.06
304.051	96.06
304.281	78.06
304.511	82.06
304.741	64.06
304.971	92.06
305.201	82.06
305.431	66.06
305.661	75.06
305.891	85.06
306.121	91.06
306.352	97.06
306.582	86.06
306.812	86.06
307.042	79.06
307.272	84.06
307.502	74.06
307.731	77.06
307.961	99.06
308.191	81.06
308.421	91.06
308.651	90.06
308.881	81.06
309.111	83.06
309.341	86.06
309.571	91.06
309.8	85.06
310.03	101.06
310.26	89.06
310.49	85.06
310.72	90.06
310.949	89.06
311.179	95.06
311.409	85.06
311.639	79.06
311.868	89.06
312.098	97.06
312.328	108.06
312.557	95.06
312.787	101.06
313.017	95.06
313.246	94.06
313.476	86.06
313.706	84.06
313.935	96.06
314.165	94.06
314.394	89.06
314.624	100.06
314.853	99.06
315.083	97.06
315.312	86.06
315.542	82.06
315.771	69.06
316.001	83.06
316.23	98.06
316.46	87.06
316.689	81.06
316.919	84.06
317.148	90.06
317.377	83.06
317.607	83.06
317.836	68.06
318.065	89.06
318.295	80.06
318.524	86.06
318.753	81.06
318.983	86.06
319.212	81.06
319.441	95.06
319.67	96.06
319.9	79.06
320.129	87.06
320.358	85.06
320.587	86.06
320.816	92.06
321.046	99.06
321.275	89.06
321.504	89.06
321.733	80.06
321.962	75.06
322.191	93.06
322.42	82.06
322.649	98.06
322.878	98.06
323.108	103.06
323.337	109.06
323.566	130.06
323.795	115.06
324.024	187.06
324.253	366.06
324.482	817.06
324.71	1621.06
324.939	2143.06
325.168	774.06
325.397	242.06
325.626	133.06
325.855	115.06
326.084	116.06
326.313	119.06
326.542	148.06
326.77	214.06
326.999	438.06
327.228	893.06
327.457	1726.06
327.686	1315.06
327.914	364.06
328.143	189.06
328.372	141.06
328.6	139.06
328.829	110.06
329.058	109.06
329.287	119.06
329.515	100.06
329.744	94.06
329.972	92.06
330.201	129.06
330.43	138.06
330.658	119.06
330.887	133.06
331.115	104.06
331.344	91.06
331.572	95.06
331.801	86.06
332.03	92.06
332.258	96.06
332.486	84.06
332.715	81.06
332.943	80.06
333.172	92.06
333.4	98.06
333.629	103.06
333.857	104.06
334.085	111.06
334.314	114.06
334.542	137.06
334.771	133.06
334.999	99.06
335.227	98.06
335.455	110.06
335.684	93.06
335.912	91.06
336.14	113.06
336.369	91.06
336.597	96.06
336.825	94.06
337.053	92.06
337.281	84.06
337.51	76.06
337.738	93.06
337.966	74.06
338.194	93.06
338.422	94.06
338.65	90.06
338.878	109.06
339.106	79.06
339.334	90.06
339.562	84.06
339.79	95.06
340.018	89.06
340.246	87.06
340.474	95.06
340.702	86.06
340.93	92.06
341.158	88.06
341.386	91.06
341.614	93.06
341.842	86.06
342.07	79.06
342.298	86.06
342.526	82.06
342.754	94.06
342.981	79.06
343.209	86.06
343.437	92.06
343.665	89.06
343.893	77.06
344.12	90.06
344.348	79.06
344.576	106.06
344.804	104.06
345.031	96.06
345.259	94.06
345.487	109.06
345.714	90.06
345.942	79.06
346.17	87.06
346.397	91.06
346.625	90.06
346.853	87.06
347.08	84.06
347.308	85.06
347.535	69.06
347.763	91.06
347.99	75.06
348.218	80.06
348.445	95.06
348.673	83.06
348.9	78.06
349.128	79.06
349.355	100.06
349.583	103.06
349.81	91.06
350.037	86.06
350.265	78.06
350.492	79.06
350.72	88.06
350.947	106.06
351.174	100.06
351.402	110.06
351.629	95.06
351.856	103.06
352.083	93.06
352.311	91.06
352.538	100.06
352.765	99.06
352.992	106.06
353.22	113.06
353.447	84.06
353.674	104.06
353.901	95.06
354.128	71.06
354.355	97.06
354.583	97.06
354.81	90.06
355.037	91.06
355.264	87.06
355.491	93.06
355.718	89.06
355.945	102.06
356.172	91.06
356.399	77.06
356.626	99.06
356.853	76.06
357.08	90.06
357.307	89.06
357.534	80.06
357.761	85.06
357.988	92.06
358.215	92.06
358.441	92.06
358.668	91.06
358.895	74.06
359.122	92.06
359.349	85.06
359.576	91.06
359.802	87.06
360.029	87.06
360.256	95.06
360.483	95.06
360.709	98.06
360.936	90.06
361.163	89.06
361.39	89.06
361.616	87.06
361.843	92.06
362.07	85.06
362.296	81.06
362.523	78.06
362.749	87.06
362.976	86.06
363.203	90.06
363.429	72.06
363.656	78.06
363.882	93.06
364.109	99.06
364.335	96.06
364.562	91.06
364.788	73.06
365.015	83.06
365.241	110.06
365.468	92.06
365.694	94.06
365.92	89.06
366.147	79.06
366.373	70.06
366.599	86.06
366.826	83.06
367.052	67.06
367.278	90.06
367.505	103.06
367.731	82.06
367.957	69.06
368.184	82.06
368.41	99.06
368.636	112.06
368.862	107.06
369.089	97.06
369.315	68.06
369.541	82.06
369.767	75.06
369.993	88.06
370.219	81.06
370.445	106.06
370.672	88.06
370.898	73.06
371.124	94.06
371.35	89.06
371.576	87.06
371.802	87.06
372.028	78.06
372.254	82.06
372.48	84.06
372.706	91.06
372.932	87.06
373.158	76.06
373.384	83.06
373.61	81.06
373.835	75.06
374.061	86.06
374.287	83.06
374.513	85.06
374.739	97.06
374.965	92.06
375.191	77.06
375.416	87.06
375.642	81.06
375.868	78.06
376.094	89.06
376.319	91.06
376.545	100.06
376.771	91.06
376.997	93.06
377.222	77.06
377.448	87.06
377.674	73.06
377.899	71.06
378.125	86.06
378.35	80.06
378.576	75.06
378.802	88.06
379.027	100.06
379.253	90.06
379.478	82.06
379.704	91.06
379.929	83.06
380.155	79.06
380.38	93.06
380.606	83.06
380.831	95.06
381.057	100.06
381.282	91.06
381.507	93.06
381.733	86.06
381.958	90.06
382.184	87.06
382.409	100.06
382.634	98.06
382.86	98.06
383.085	113.06
383.31	107.06
383.535	79.06
383.761	91.06
383.986	85.06
384.211	85.06
384.436	94.06
384.662	81.06
384.887	83.06
385.112	98.06
385.337	102.06
385.562	95.06
385.787	107.06
386.013	103.06
386.238	95.06
386.463	98.06
386.688	101.06
386.913	95.06
387.138	103.06
387.363	99.06
387.588	99.06
387.813	95.06
388.038	117.06
388.263	117.06
388.488	102.06
388.713	73.06
388.938	85.06
389.163	79.06
389.387	86.06
389.612	90.06
389.837	85.06
390.062	89.06
390.287	87.06
390.512	86.06
390.736	92.06
390.961	97.06
391.186	86.06
391.411	74.06
391.636	85.06
391.86	85.06
392.085	68.06
392.31	67.06
392.534	81.06
392.759	68.06
392.984	83.06
393.208	94.06
393.433	93.06
393.658	87.06
393.882	79.06
394.107	84.06
394.331	75.06
394.556	77.06
394.78	90.06
395.005	85.06
395.229	70.06
395.454	97.06
395.678	89.06
395.903	90.06
396.127	86.06
396.352	73.06
396.576	84.06
396.801	77.06
397.025	87.06
397.249	81.06
397.474	97.06
397.698	70.06
397.922	76.06
398.147	80.06
398.371	79.06
398.595	93.06
398.82	86.06
399.044	77.06
399.268	83.06
399.492	75.06
399.717	85.06
399.941	81.06
400.165	83.06
400.389	103.06
400.613	87.06
400.837	93.06
401.062	72.06
401.286	78.06
401.51	82.06
401.734	87.06
401.958	94.06
402.182	109.06
402.406	138.06
402.63	111.06
402.854	73.06
403.078	82.06
403.302	85.06
403.526	87.06
403.75	67.06
403.974	74.06
404.198	94.06
404.422	77.06
404.645	73.06
404.869	75.06
405.093	71.06
405.317	87.06
405.541	91.06
405.765	100.06
405.988	111.06
406.212	152.06
406.436	188.06
406.66	111.06
406.883	92.06
407.107	86.06
407.331	87.06
407.555	96.06
407.778	86.06
408.002	94.06
408.226	94.06
408.449	83.06
408.673	90.06
408.896	89.06
409.12	90.06
409.344	95.06
409.567	104.06
409.791	81.06
410.014	95.06
410.238	90.06
410.461	84.06
410.685	91.06
410.908	101.06
411.132	106.06
411.355	97.06
411.578	80.06
411.802	90.06
412.025	87.06
412.249	90.06
412.472	81.06
412.695	93.06
412.919	95.06
413.142	61.06
413.365	81.06
413.589	81.06
413.812	88.06
414.035	95.06
414.258	78.06
414.482	84.06
414.705	106.06
414.928	81.06
415.151	78.06
415.374	82.06
415.597	81.06
415.821	81.06
416.044	87.06
416.267	82.06
416.49	73.06
416.713	76.06
416.936	98.06
417.159	89.06
417.382	80.06
417.605	81.06
417.828	98.06
418.051	86.06
418.274	84.06
418.497	84.06
418.72	85.06
418.943	95.06
419.166	65.06
419.389	76.06
419.611	84.06
419.834	80.06
420.057	81.06
420.28	93.06
420.503	90.06
420.726	70.06
420.948	85.06
421.171	99.06
421.394	86.06
421.617	93.06
421.839	88.06
422.062	78.06
422.285	90.06
422.507	86.06
422.73	90.06
422.953	86.06
423.175	102.06
423.398	74.06
423.621	75.06
423.843	87.06
424.066	96.06
424.288	86.06
424.511	74.06
424.733	90.06
424.956	107.06
425.178	103.06
425.401	87.06
425.623	80.06
425.846	76.06
426.068	78.06
426.291	80.06
426.513	83.06
426.735	79.06
426.958	91.06
427.18	101.06
427.402	110.06
427.625	155.06
427.847	105.06
428.069	98.06
428.292	92.06
428.514	89.06
428.736	94.06
428.958	78.06
429.181	82.06
429.403	86.06
429.625	90.06
429.847	88.06
430.069	97.06
430.292	97.06
430.514	89.06
430.736	79.06
430.958	74.06
431.18	71.06
431.402	89.06
431.624	82.06
431.846	89.06
432.068	85.06
432.29	76.06
432.512	89.06
432.734	65.06
432.956	94.06
433.178	94.06
433.4	86.06
433.622	78.06
433.844	84.06
434.066	94.06
434.287	93.06
434.509	82.06
434.731	85.06
434.953	78.06
435.175	96.06
435.397	66.06
435.618	83.06
435.84	101.06
436.062	99.06
436.284	98.06
436.505	89.06
436.727	93.06
436.949	86.06
437.17	73.06
437.392	73.06
437.614	65.06
437.835	102.06
438.057	93.06
438.278	96.06
438.5	95.06
438.721	112.06
438.943	87.06
439.165	75.06
439.386	89.06
439.608	89.06
439.829	94.06
440.05	110.06
440.272	138.06
440.493	84.06
440.715	81.06
440.936	89.06
441.158	86.06
441.379	87.06
441.6	85.06
441.822	94.06
442.043	79.06
442.264	101.06
442.486	84.06
442.707	82.06
442.928	95.06
443.149	111.06
443.371	109.06
443.592	95.06
443.813	104.06
444.034	83.06
444.255	101.06
444.476	91.06
444.698	90.06
444.919	84.06
445.14	140.06
445.361	112.06
445.582	105.06
445.803	109.06
446.024	122.06
446.245	132.06
446.466	95.06
446.687	82.06
446.908	73.06
447.129	90.06
447.35	94.06
447.571	85.06
447.792	85.06
448.013	86.06
448.234	94.06
448.455	94.06
448.675	95.06
448.896	100.06
449.117	101.06
449.338	103.06
449.559	119.06
449.779	116.06
450	91.06
450.221	94.06
450.442	79.06
450.662	89.06
450.883	90.06
451.104	92.06
451.324	79.06
451.545	89.06
451.766	82.06
451.986	97.06
452.207	77.06
452.428	91.06
452.648	94.06
452.869	91.06
453.089	122.06
453.31	103.06
453.53	77.06
453.751	81.06
453.971	92.06
454.192	99.06
454.412	83.06
454.633	93.06
454.853	81.06
455.073	69.06
455.294	75.06
455.514	92.06
455.734	77.06
455.955	79.06
456.175	79.06
456.395	85.06
456.616	89.06
456.836	75.06
457.056	76.06
457.276	99.06
457.497	77.06
457.717	79.06
457.937	81.06
458.157	80.06
458.377	82.06
458.598	96.06
458.818	133.06
459.038	127.06
459.258	91.06
459.478	89.06
459.698	93.06
459.918	89.06
460.138	86.06
460.358	70.06
460.578	80.06
460.798	76.06
461.018	83.06
461.238	79.06
461.458	62.06
461.678	89.06
461.898	81.06
462.118	97.06
462.338	82.06
462.558	75.06
462.777	77.06
462.997	71.06
463.217	75.06
463.437	75.06
463.657	73.06
463.876	81.06
464.096	76.06
464.316	89.06
464.536	83.06
464.755	81.06
464.975	102.06
465.195	162.06
465.414	160.06
465.634	78.06
465.854	79.06
466.073	85.06
466.293	79.06
466.512	86.06
466.732	82.06
466.951	70.06
467.171	93.06
467.391	102.06
467.61	85.06
467.829	81.06
468.049	93.06
468.268	93.06
468.488	92.06
468.707	80.06
468.927	89.06
469.146	78.06
469.365	70.06
469.585	94.06
469.804	92.06
470.023	94.06
470.243	84.06
470.462	79.06
470.681	96.06
470.901	93.06
471.12	79.06
471.339	85.06
471.558	81.06
471.777	81.06
471.997	103.06
472.216	111.06
472.435	149.06
472.654	95.06
472.873	75.06
473.092	73.06
473.311	81.06
473.53	83.06
473.749	83.06
473.968	101.06
474.187	94.06
474.406	81.06
474.625	89.06
474.844	87.06
475.063	84.06
475.282	101.06
475.501	91.06
475.72	80.06
475.939	82.06
476.158	88.06
476.377	68.06
476.596	80.06
476.814	101.06
477.033	100.06
477.252	76.06
477.471	91.06
477.69	83.06
477.908	71.06
478.127	80.06
478.346	79.06
478.564	94.06
478.783	86.06
479.002	73.06
479.22	94.06
479.439	91.06
479.658	89.06
479.876	91.06
480.095	84.06
480.313	91.06
480.532	84.06
480.751	99.06
480.969	111.06
481.188	208.06
481.406	153.06
481.624	103.06
481.843	81.06
482.061	74.06
482.28	93.06
482.498	102.06
482.717	84.06
482.935	86.06
483.153	83.06
483.372	82.06
483.59	85.06
483.808	87.06
484.027	88.06
484.245	88.06
484.463	89.06
484.681	92.06
484.9	87.06
485.118	94.06
485.336	96.06
485.554	84.06
485.772	103.06
485.99	97.06
486.209	108.06
486.427	105.06
486.645	101.06
486.863	99.06
487.081	102.06
487.299	100.06
487.517	92.06
487.735	86.06
487.953	87.06
488.171	91.06
488.389	100.06
488.607	77.06
488.825	80.06
489.043	100.06
489.261	98.06
489.479	75.06
489.696	84.06
489.914	77.06
490.132	85.06
490.35	83.06
490.568	83.06
490.786	78.06
491.003	78.06
491.221	88.06
491.439	79.06
491.657	72.06
491.874	83.06
492.092	87.06
492.31	76.06
492.527	92.06
492.745	79.06
492.963	102.06
493.18	76.06
493.398	84.06
493.615	95.06
493.833	81.06
494.05	89.06
494.268	86.06
494.485	77.06
494.703	80.06
494.92	84.06
495.138	85.06
495.355	82.06
495.573	86.06
495.79	92.06
496.008	83.06
496.225	89.06
496.442	77.06
496.66	75.06
496.877	79.06
497.094	94.06
497.312	89.06
497.529	91.06
497.746	85.06
497.963	89.06
498.181	75.06
498.398	85.06
498.615	101.06
498.832	102.06
499.049	95.06
499.267	73.06
499.484	80.06
499.701	85.06
499.918	85.06
500.135	93.06
500.352	78.06
500.569	97.06
500.786	86.06
501.003	75.06
501.22	88.06
501.437	87.06
501.654	99.06
501.871	106.06
502.088	101.06
502.305	76.06
502.522	84.06
502.739	70.06
502.956	84.06
503.172	92.06
503.389	91.06
503.606	94.06
503.823	89.06
504.04	90.06
504.256	86.06
504.473	93.06
504.69	80.06
504.907	82.06
505.123	71.06
505.34	91.06
505.557	84.06
505.773	89.06
505.99	86.06
506.207	73.06
506.423	77.06
506.64	84.06
506.856	75.06
507.073	84.06
507.289	85.06
507.506	77.06
507.722	99.06
507.939	101.06
508.155	89.06
508.372	95.06
508.588	88.06
508.805	80.06
509.021	85.06
509.238	109.06
509.454	89.06
509.67	86.06
509.887	103.06
510.103	123.06
510.319	196.06
510.536	677.06
510.752	2147.06
510.968	585.06
511.184	141.06
511.401	109.06
511.617	100.06
511.833	102.06
512.049	96.06
512.265	81.06
512.481	93.06
512.698	89.06
512.914	88.06
513.13	98.06
513.346	93.06
513.562	100.06
513.778	83.06
513.994	84.06
514.21	86.06
514.426	104.06
514.642	127.06
514.858	107.06
515.074	166.06
515.29	397.06
515.506	1258.06
515.721	455.06
515.937	137.06
516.153	107.06
516.369	97.06
516.585	84.06
516.801	101.06
517.016	86.06
517.232	89.06
517.448	87.06
