Data from Circ_1985_H10_HRD10591_00081.txt Node
Date: Wed Jan 03 12:19:38 EST 2024
User: Yrep
Spectrometer: HR+D1059
Trigger mode: 1
Integration Time (sec): 1.000000E-1
Scans to average: 1
Electric dark correction enabled: true
Nonlinearity correction enabled: false
Boxcar width: 0
XAxis mode: Wavelengths
Number of Pixels in Spectrum: 2048
>>>>>Begin Spectral Data<<<<<
223.165	-8.88
223.4	-8.88
223.635	-8.88
223.869	-13.88
224.104	-8.88
224.338	-20.88
224.573	-17.88
224.808	-13.88
225.042	-7.88
225.277	-6.88
225.511	4.12
225.746	1.12
225.98	6.12
226.215	7.12
226.449	11.12
226.683	20.12
226.918	16.12
227.152	33.12
227.387	50.12
227.621	38.12
227.856	55.12
228.09	32.12
228.324	50.12
228.559	65.12
228.793	47.12
229.027	62.12
229.262	69.12
229.496	61.12
229.73	81.12
229.964	80.12
230.199	68.12
230.433	73.12
230.667	80.12
230.901	75.12
231.136	84.12
231.37	86.12
231.604	92.12
231.838	88.12
232.072	80.12
232.306	77.12
232.541	83.12
232.775	81.12
233.009	87.12
233.243	90.12
233.477	75.12
233.711	84.12
233.945	70.12
234.179	73.12
234.413	74.12
234.647	91.12
234.881	88.12
235.115	72.12
235.349	75.12
235.583	80.12
235.817	88.12
236.051	81.12
236.285	78.12
236.519	84.12
236.753	76.12
236.987	84.12
237.221	85.12
237.455	89.12
237.689	90.12
237.922	75.12
238.156	73.12
238.39	80.12
238.624	84.12
238.858	76.12
239.091	72.12
239.325	72.12
239.559	73.12
239.793	76.12
240.027	81.12
240.26	66.12
240.494	69.12
240.728	64.12
240.961	78.12
241.195	75.12
241.429	77.12
241.662	73.12
241.896	80.12
242.13	71.12
242.363	77.12
242.597	74.12
242.83	86.12
243.064	68.12
243.298	66.12
243.531	87.12
243.765	84.12
243.998	68.12
244.232	78.12
244.465	91.12
244.699	68.12
244.932	82.12
245.166	68.12
245.399	84.12
245.633	80.12
245.866	85.12
246.099	73.12
246.333	77.12
246.566	81.12
246.8	89.12
247.033	84.12
247.266	75.12
247.5	70.12
247.733	75.12
247.966	82.12
248.2	95.12
248.433	72.12
248.666	85.12
248.899	84.12
249.133	85.12
249.366	102.12
249.599	104.12
249.832	86.12
250.066	80.12
250.299	77.12
250.532	70.12
250.765	69.12
250.998	74.12
251.231	71.12
251.465	82.12
251.698	86.12
251.931	70.12
252.164	98.12
252.397	75.12
252.63	73.12
252.863	73.12
253.096	84.12
253.329	78.12
253.562	74.12
253.795	74.12
254.028	79.12
254.261	77.12
254.494	86.12
254.727	78.12
254.96	71.12
255.193	84.12
255.426	73.12
255.659	66.12
255.892	82.12
256.124	78.12
256.357	77.12
256.59	88.12
256.823	90.12
257.056	94.12
257.289	89.12
257.521	98.12
257.754	82.12
257.987	92.12
258.22	93.12
258.452	84.12
258.685	89.12
258.918	94.12
259.151	83.12
259.383	86.12
259.616	74.12
259.849	82.12
260.081	89.12
260.314	88.12
260.547	77.12
260.779	85.12
261.012	94.12
261.244	88.12
261.477	83.12
261.71	96.12
261.942	100.12
262.175	97.12
262.407	92.12
262.64	93.12
262.872	82.12
263.105	81.12
263.337	91.12
263.57	82.12
263.802	74.12
264.035	72.12
264.267	89.12
264.499	90.12
264.732	100.12
264.964	85.12
265.197	80.12
265.429	84.12
265.661	68.12
265.894	84.12
266.126	71.12
266.358	88.12
266.591	88.12
266.823	85.12
267.055	86.12
267.287	85.12
267.52	85.12
267.752	98.12
267.984	73.12
268.216	85.12
268.448	99.12
268.681	93.12
268.913	74.12
269.145	86.12
269.377	80.12
269.609	92.12
269.841	95.12
270.073	92.12
270.306	74.12
270.538	82.12
270.77	77.12
271.002	76.12
271.234	98.12
271.466	104.12
271.698	95.12
271.93	80.12
272.162	78.12
272.394	87.12
272.626	75.12
272.858	94.12
273.09	84.12
273.322	76.12
273.553	84.12
273.785	77.12
274.017	84.12
274.249	87.12
274.481	85.12
274.713	70.12
274.945	76.12
275.176	84.12
275.408	86.12
275.64	89.12
275.872	83.12
276.104	84.12
276.335	88.12
276.567	97.12
276.799	117.12
277.031	89.12
277.262	82.12
277.494	93.12
277.726	100.12
277.957	80.12
278.189	95.12
278.421	89.12
278.652	84.12
278.884	78.12
279.115	70.12
279.347	78.12
279.579	81.12
279.81	86.12
280.042	86.12
280.273	101.12
280.505	96.12
280.736	91.12
280.968	87.12
281.199	78.12
281.431	94.12
281.662	79.12
281.894	89.12
282.125	102.12
282.356	108.12
282.588	135.12
282.819	110.12
283.051	86.12
283.282	74.12
283.513	102.12
283.745	86.12
283.976	83.12
284.207	90.12
284.439	103.12
284.67	102.12
284.901	101.12
285.132	85.12
285.364	94.12
285.595	100.12
285.826	78.12
286.057	95.12
286.288	84.12
286.52	90.12
286.751	88.12
286.982	77.12
287.213	86.12
287.444	93.12
287.675	78.12
287.906	83.12
288.138	90.12
288.369	89.12
288.6	104.12
288.831	89.12
289.062	84.12
289.293	88.12
289.524	99.12
289.755	89.12
289.986	70.12
290.217	74.12
290.448	93.12
290.679	96.12
290.91	108.12
291.141	102.12
291.371	84.12
291.602	67.12
291.833	95.12
292.064	80.12
292.295	82.12
292.526	95.12
292.757	86.12
292.987	91.12
293.218	98.12
293.449	84.12
293.68	72.12
293.91	86.12
294.141	98.12
294.372	90.12
294.603	102.12
294.833	86.12
295.064	94.12
295.295	93.12
295.525	83.12
295.756	116.12
295.987	117.12
296.217	145.12
296.448	129.12
296.679	93.12
296.909	89.12
297.14	84.12
297.37	86.12
297.601	85.12
297.831	82.12
298.062	92.12
298.292	92.12
298.523	90.12
298.753	97.12
298.984	79.12
299.214	88.12
299.445	96.12
299.675	86.12
299.905	88.12
300.136	88.12
300.366	98.12
300.597	90.12
300.827	86.12
301.057	87.12
301.288	100.12
301.518	104.12
301.748	97.12
301.979	100.12
302.209	91.12
302.439	94.12
302.669	98.12
302.9	90.12
303.13	93.12
303.36	90.12
303.59	93.12
303.82	103.12
304.051	74.12
304.281	95.12
304.511	76.12
304.741	88.12
304.971	86.12
305.201	91.12
305.431	92.12
305.661	78.12
305.891	92.12
306.121	80.12
306.352	97.12
306.582	89.12
306.812	88.12
307.042	95.12
307.272	94.12
307.502	105.12
307.731	101.12
307.961	91.12
308.191	95.12
308.421	76.12
308.651	84.12
308.881	94.12
309.111	100.12
309.341	94.12
309.571	84.12
309.8	94.12
310.03	95.12
310.26	92.12
310.49	87.12
310.72	106.12
310.949	107.12
311.179	110.12
311.409	108.12
311.639	102.12
311.868	101.12
312.098	97.12
312.328	84.12
312.557	103.12
312.787	103.12
313.017	97.12
313.246	104.12
313.476	88.12
313.706	84.12
313.935	86.12
314.165	97.12
314.394	100.12
314.624	75.12
314.853	104.12
315.083	84.12
315.312	91.12
315.542	93.12
315.771	95.12
316.001	75.12
316.23	92.12
316.46	88.12
316.689	89.12
316.919	101.12
317.148	94.12
317.377	107.12
317.607	86.12
317.836	83.12
318.065	83.12
318.295	87.12
318.524	83.12
318.753	92.12
318.983	102.12
319.212	109.12
319.441	106.12
319.67	102.12
319.9	90.12
320.129	91.12
320.358	98.12
320.587	81.12
320.816	94.12
321.046	91.12
321.275	104.12
321.504	93.12
321.733	91.12
321.962	99.12
322.191	91.12
322.42	101.12
322.649	102.12
322.878	112.12
323.108	116.12
323.337	108.12
323.566	125.12
323.795	141.12
324.024	203.12
324.253	364.12
324.482	776.12
324.71	1574.12
324.939	2092.12
325.168	773.12
325.397	252.12
325.626	149.12
325.855	121.12
326.084	117.12
326.313	105.12
326.542	161.12
326.77	221.12
326.999	449.12
327.228	884.12
327.457	1634.12
327.686	1321.12
327.914	366.12
328.143	180.12
328.372	142.12
328.6	117.12
328.829	113.12
329.058	130.12
329.287	117.12
329.515	101.12
329.744	105.12
329.972	122.12
330.201	135.12
330.43	149.12
330.658	123.12
330.887	125.12
331.115	130.12
331.344	98.12
331.572	85.12
331.801	110.12
332.03	111.12
332.258	92.12
332.486	84.12
332.715	90.12
332.943	104.12
333.172	109.12
333.4	80.12
333.629	98.12
333.857	123.12
334.085	123.12
334.314	146.12
334.542	162.12
334.771	177.12
334.999	103.12
335.227	92.12
335.455	108.12
335.684	106.12
335.912	86.12
336.14	102.12
336.369	110.12
336.597	107.12
336.825	88.12
337.053	110.12
337.281	98.12
337.51	88.12
337.738	99.12
337.966	97.12
338.194	94.12
338.422	88.12
338.65	83.12
338.878	99.12
339.106	105.12
339.334	90.12
339.562	88.12
339.79	106.12
340.018	87.12
340.246	77.12
340.474	99.12
340.702	99.12
340.93	90.12
341.158	96.12
341.386	109.12
341.614	98.12
341.842	96.12
342.07	91.12
342.298	97.12
342.526	92.12
342.754	76.12
342.981	65.12
343.209	89.12
343.437	97.12
343.665	97.12
343.893	88.12
344.12	84.12
344.348	95.12
344.576	93.12
344.804	96.12
345.031	90.12
345.259	96.12
345.487	93.12
345.714	86.12
345.942	86.12
346.17	104.12
346.397	89.12
346.625	106.12
346.853	98.12
347.08	88.12
347.308	90.12
347.535	89.12
347.763	89.12
347.99	107.12
348.218	100.12
348.445	92.12
348.673	99.12
348.9	94.12
349.128	89.12
349.355	89.12
349.583	105.12
349.81	94.12
350.037	105.12
350.265	99.12
350.492	80.12
350.72	102.12
350.947	104.12
351.174	102.12
351.402	98.12
351.629	96.12
351.856	102.12
352.083	83.12
352.311	118.12
352.538	98.12
352.765	112.12
352.992	109.12
353.22	110.12
353.447	115.12
353.674	103.12
353.901	105.12
354.128	101.12
354.355	90.12
354.583	104.12
354.81	100.12
355.037	89.12
355.264	90.12
355.491	92.12
355.718	97.12
355.945	103.12
356.172	88.12
356.399	90.12
356.626	101.12
356.853	75.12
357.08	86.12
357.307	88.12
357.534	84.12
357.761	108.12
357.988	102.12
358.215	88.12
358.441	101.12
358.668	89.12
358.895	97.12
359.122	93.12
359.349	92.12
359.576	99.12
359.802	109.12
360.029	115.12
360.256	112.12
360.483	85.12
360.709	103.12
360.936	100.12
361.163	109.12
361.39	84.12
361.616	96.12
361.843	100.12
362.07	97.12
362.296	84.12
362.523	104.12
362.749	84.12
362.976	90.12
363.203	81.12
363.429	86.12
363.656	88.12
363.882	90.12
364.109	81.12
364.335	81.12
364.562	86.12
364.788	97.12
365.015	88.12
365.241	112.12
365.468	99.12
365.694	99.12
365.92	101.12
366.147	89.12
366.373	100.12
366.599	86.12
366.826	82.12
367.052	97.12
367.278	96.12
367.505	98.12
367.731	97.12
367.957	77.12
368.184	71.12
368.41	95.12
368.636	115.12
368.862	114.12
369.089	96.12
369.315	95.12
369.541	89.12
369.767	96.12
369.993	95.12
370.219	90.12
370.445	82.12
370.672	84.12
370.898	82.12
371.124	96.12
371.35	95.12
371.576	89.12
371.802	72.12
372.028	64.12
372.254	89.12
372.48	104.12
372.706	94.12
372.932	90.12
373.158	89.12
373.384	99.12
373.61	92.12
373.835	96.12
374.061	84.12
374.287	96.12
374.513	87.12
374.739	103.12
374.965	98.12
375.191	90.12
375.416	82.12
375.642	92.12
375.868	90.12
376.094	100.12
376.319	88.12
376.545	97.12
376.771	100.12
376.997	80.12
377.222	85.12
377.448	100.12
377.674	93.12
377.899	86.12
378.125	93.12
378.35	97.12
378.576	83.12
378.802	98.12
379.027	86.12
379.253	93.12
379.478	86.12
379.704	89.12
379.929	91.12
380.155	103.12
380.38	97.12
380.606	86.12
380.831	106.12
381.057	99.12
381.282	94.12
381.507	80.12
381.733	93.12
381.958	97.12
382.184	94.12
382.409	97.12
382.634	111.12
382.86	99.12
383.085	99.12
383.31	105.12
383.535	117.12
383.761	105.12
383.986	106.12
384.211	92.12
384.436	100.12
384.662	101.12
384.887	113.12
385.112	112.12
385.337	100.12
385.562	103.12
385.787	105.12
386.013	116.12
386.238	120.12
386.463	92.12
386.688	109.12
386.913	108.12
387.138	110.12
387.363	99.12
387.588	96.12
387.813	113.12
388.038	111.12
388.263	93.12
388.488	105.12
388.713	99.12
388.938	88.12
389.163	104.12
389.387	103.12
389.612	93.12
389.837	93.12
390.062	91.12
390.287	75.12
390.512	95.12
390.736	88.12
390.961	92.12
391.186	78.12
391.411	97.12
391.636	78.12
391.86	79.12
392.085	94.12
392.31	78.12
392.534	75.12
392.759	92.12
392.984	71.12
393.208	88.12
393.433	102.12
393.658	87.12
393.882	75.12
394.107	80.12
394.331	84.12
394.556	97.12
394.78	95.12
395.005	79.12
395.229	99.12
395.454	96.12
395.678	84.12
395.903	94.12
396.127	89.12
396.352	89.12
396.576	109.12
396.801	83.12
397.025	89.12
397.249	85.12
397.474	97.12
397.698	78.12
397.922	82.12
398.147	100.12
398.371	85.12
398.595	85.12
398.82	80.12
399.044	101.12
399.268	88.12
399.492	89.12
399.717	84.12
399.941	89.12
400.165	106.12
400.389	97.12
400.613	98.12
400.837	92.12
401.062	100.12
401.286	92.12
401.51	94.12
401.734	93.12
401.958	99.12
402.182	113.12
402.406	133.12
402.63	112.12
402.854	104.12
403.078	97.12
403.302	80.12
403.526	91.12
403.75	84.12
403.974	87.12
404.198	77.12
404.422	88.12
404.645	93.12
404.869	85.12
405.093	90.12
405.317	96.12
405.541	88.12
405.765	111.12
405.988	84.12
406.212	152.12
406.436	203.12
406.66	142.12
406.883	108.12
407.107	91.12
407.331	99.12
407.555	102.12
407.778	90.12
408.002	72.12
408.226	95.12
408.449	88.12
408.673	89.12
408.896	100.12
409.12	87.12
409.344	97.12
409.567	105.12
409.791	75.12
410.014	86.12
410.238	98.12
410.461	103.12
410.685	110.12
410.908	98.12
411.132	94.12
411.355	105.12
411.578	105.12
411.802	100.12
412.025	94.12
412.249	94.12
412.472	97.12
412.695	89.12
412.919	90.12
413.142	89.12
413.365	83.12
413.589	89.12
413.812	76.12
414.035	84.12
414.258	88.12
414.482	97.12
414.705	72.12
414.928	94.12
415.151	100.12
415.374	93.12
415.597	92.12
415.821	90.12
416.044	89.12
416.267	83.12
416.49	91.12
416.713	104.12
416.936	97.12
417.159	90.12
417.382	91.12
417.605	92.12
417.828	94.12
418.051	96.12
418.274	83.12
418.497	76.12
418.72	89.12
418.943	90.12
419.166	83.12
419.389	90.12
419.611	78.12
419.834	87.12
420.057	96.12
420.28	88.12
420.503	101.12
420.726	90.12
420.948	68.12
421.171	86.12
421.394	85.12
421.617	74.12
421.839	94.12
422.062	89.12
422.285	96.12
422.507	95.12
422.73	103.12
422.953	84.12
423.175	84.12
423.398	87.12
423.621	77.12
423.843	93.12
424.066	93.12
424.288	88.12
424.511	106.12
424.733	84.12
424.956	103.12
425.178	100.12
425.401	97.12
425.623	90.12
425.846	86.12
426.068	93.12
426.291	94.12
426.513	91.12
426.735	88.12
426.958	86.12
427.18	96.12
427.402	126.12
427.625	140.12
427.847	121.12
428.069	110.12
428.292	90.12
428.514	86.12
428.736	92.12
428.958	76.12
429.181	97.12
429.403	81.12
429.625	86.12
429.847	89.12
430.069	92.12
430.292	90.12
430.514	90.12
430.736	89.12
430.958	99.12
431.18	98.12
431.402	103.12
431.624	77.12
431.846	92.12
432.068	84.12
432.29	102.12
432.512	100.12
432.734	80.12
432.956	82.12
433.178	90.12
433.4	104.12
433.622	88.12
433.844	99.12
434.066	96.12
434.287	86.12
434.509	97.12
434.731	81.12
434.953	86.12
435.175	90.12
435.397	90.12
435.618	95.12
435.84	102.12
436.062	105.12
436.284	96.12
436.505	106.12
436.727	109.12
436.949	96.12
437.17	84.12
437.392	81.12
437.614	99.12
437.835	91.12
438.057	101.12
438.278	106.12
438.5	110.12
438.721	127.12
438.943	105.12
439.165	88.12
439.386	84.12
439.608	81.12
439.829	93.12
440.05	108.12
440.272	135.12
440.493	103.12
440.715	82.12
440.936	89.12
441.158	72.12
441.379	88.12
441.6	72.12
441.822	97.12
442.043	83.12
442.264	98.12
442.486	91.12
442.707	91.12
442.928	100.12
443.149	137.12
443.371	133.12
443.592	109.12
443.813	120.12
444.034	98.12
444.255	83.12
444.476	84.12
444.698	86.12
444.919	93.12
445.14	137.12
445.361	126.12
445.582	115.12
445.803	122.12
446.024	137.12
446.245	129.12
446.466	119.12
446.687	96.12
446.908	113.12
447.129	94.12
447.35	96.12
447.571	89.12
447.792	106.12
448.013	91.12
448.234	93.12
448.455	95.12
448.675	104.12
448.896	105.12
449.117	94.12
449.338	110.12
449.559	135.12
449.779	123.12
450	102.12
450.221	86.12
450.442	85.12
450.662	88.12
450.883	101.12
451.104	89.12
451.324	108.12
451.545	104.12
451.766	86.12
451.986	93.12
452.207	101.12
452.428	91.12
452.648	86.12
452.869	111.12
453.089	96.12
453.31	115.12
453.53	98.12
453.751	96.12
453.971	96.12
454.192	109.12
454.412	86.12
454.633	101.12
454.853	79.12
455.073	75.12
455.294	83.12
455.514	93.12
455.734	84.12
455.955	88.12
456.175	81.12
456.395	85.12
456.616	79.12
456.836	72.12
457.056	80.12
457.276	87.12
457.497	80.12
457.717	85.12
457.937	82.12
458.157	84.12
458.377	104.12
458.598	103.12
458.818	144.12
459.038	144.12
459.258	104.12
459.478	104.12
459.698	85.12
459.918	88.12
460.138	91.12
460.358	77.12
460.578	95.12
460.798	89.12
461.018	81.12
461.238	73.12
461.458	76.12
461.678	89.12
461.898	89.12
462.118	80.12
462.338	96.12
462.558	86.12
462.777	93.12
462.997	75.12
463.217	87.12
463.437	91.12
463.657	94.12
463.876	80.12
464.096	107.12
464.316	86.12
464.536	102.12
464.755	92.12
464.975	106.12
465.195	150.12
465.414	136.12
465.634	95.12
465.854	85.12
466.073	84.12
466.293	88.12
466.512	72.12
466.732	83.12
466.951	95.12
467.171	75.12
467.391	97.12
467.61	89.12
467.829	85.12
468.049	109.12
468.268	119.12
468.488	81.12
468.707	94.12
468.927	84.12
469.146	75.12
469.365	101.12
469.585	93.12
469.804	96.12
470.023	110.12
470.243	84.12
470.462	95.12
470.681	92.12
470.901	88.12
471.12	96.12
471.339	72.12
471.558	89.12
471.777	90.12
471.997	100.12
472.216	136.12
472.435	184.12
472.654	108.12
472.873	92.12
473.092	83.12
473.311	94.12
473.53	84.12
473.749	101.12
473.968	114.12
474.187	92.12
474.406	105.12
474.625	86.12
474.844	94.12
475.063	98.12
475.282	84.12
475.501	80.12
475.72	82.12
475.939	86.12
476.158	83.12
476.377	99.12
476.596	92.12
476.814	103.12
477.033	85.12
477.252	92.12
477.471	89.12
477.69	82.12
477.908	88.12
478.127	100.12
478.346	92.12
478.564	89.12
478.783	89.12
479.002	97.12
479.22	77.12
479.439	97.12
479.658	93.12
479.876	90.12
480.095	96.12
480.313	91.12
480.532	95.12
480.751	92.12
480.969	146.12
481.188	278.12
481.406	189.12
481.624	111.12
481.843	98.12
482.061	88.12
482.28	96.12
482.498	69.12
482.717	107.12
482.935	90.12
483.153	88.12
483.372	100.12
483.59	94.12
483.808	99.12
484.027	102.12
484.245	102.12
484.463	81.12
484.681	101.12
484.9	103.12
485.118	98.12
485.336	112.12
485.554	103.12
485.772	96.12
485.99	106.12
486.209	102.12
486.427	101.12
486.645	103.12
486.863	118.12
487.081	112.12
487.299	106.12
487.517	101.12
487.735	84.12
487.953	98.12
488.171	95.12
488.389	93.12
488.607	96.12
488.825	88.12
489.043	81.12
489.261	103.12
489.479	79.12
489.696	101.12
489.914	99.12
490.132	83.12
490.35	88.12
490.568	101.12
490.786	92.12
491.003	86.12
491.221	92.12
491.439	82.12
491.657	85.12
491.874	94.12
492.092	96.12
492.31	103.12
492.527	99.12
492.745	93.12
492.963	85.12
493.18	86.12
493.398	97.12
493.615	102.12
493.833	102.12
494.05	83.12
494.268	90.12
494.485	101.12
494.703	100.12
494.92	97.12
495.138	93.12
495.355	97.12
495.573	95.12
495.79	100.12
496.008	98.12
496.225	97.12
496.442	99.12
496.66	93.12
496.877	90.12
497.094	92.12
497.312	86.12
497.529	84.12
497.746	97.12
497.963	85.12
498.181	82.12
498.398	92.12
498.615	101.12
498.832	101.12
499.049	94.12
499.267	96.12
499.484	68.12
499.701	94.12
499.918	89.12
500.135	85.12
500.352	104.12
500.569	98.12
500.786	98.12
501.003	102.12
501.22	85.12
501.437	92.12
501.654	94.12
501.871	90.12
502.088	100.12
502.305	78.12
502.522	89.12
502.739	84.12
502.956	88.12
503.172	95.12
503.389	93.12
503.606	103.12
503.823	104.12
504.04	81.12
504.256	100.12
504.473	81.12
504.69	89.12
504.907	104.12
505.123	99.12
505.34	68.12
505.557	90.12
505.773	84.12
505.99	88.12
506.207	92.12
506.423	96.12
506.64	105.12
506.856	89.12
507.073	97.12
507.289	87.12
507.506	87.12
507.722	110.12
507.939	114.12
508.155	99.12
508.372	103.12
508.588	99.12
508.805	77.12
509.021	88.12
509.238	88.12
509.454	88.12
509.67	100.12
509.887	104.12
510.103	114.12
510.319	213.12
510.536	643.12
510.752	2016.12
510.968	565.12
511.184	156.12
511.401	118.12
511.617	93.12
511.833	99.12
512.049	88.12
512.265	84.12
512.481	95.12
512.698	81.12
512.914	88.12
513.13	89.12
513.346	99.12
513.562	97.12
513.778	100.12
513.994	100.12
514.21	98.12
514.426	108.12
514.642	125.12
514.858	109.12
515.074	157.12
515.29	388.12
