Data from Circ_1985_H10_HRD10591_00078.txt Node
Date: Wed Jan 03 12:19:38 EST 2024
User: Yrep
Spectrometer: HR+D1059
Trigger mode: 1
Integration Time (sec): 1.000000E-1
Scans to average: 1
Electric dark correction enabled: true
Nonlinearity correction enabled: false
Boxcar width: 0
XAxis mode: Wavelengths
Number of Pixels in Spectrum: 2048
>>>>>Begin Spectral Data<<<<<
223.165	-16.19
223.4	-16.19
223.635	-16.19
223.869	-11.19
224.104	-28.19
224.338	-25.19
224.573	-26.19
224.808	-11.19
225.042	-9.19
225.277	-8.19
225.511	-5.19
225.746	15.81
225.98	8.81
226.215	10.81
226.449	13.81
226.683	22.81
226.918	30.81
227.152	37.81
227.387	26.81
227.621	42.81
227.856	62.81
228.09	30.81
228.324	55.81
228.559	75.81
228.793	58.81
229.027	57.81
229.262	74.81
229.496	78.81
229.73	85.81
229.964	89.81
230.199	82.81
230.433	84.81
230.667	52.81
230.901	90.81
231.136	75.81
231.37	79.81
231.604	84.81
231.838	88.81
232.072	75.81
232.306	98.81
232.541	87.81
232.775	93.81
233.009	78.81
233.243	83.81
233.477	85.81
233.711	90.81
233.945	99.81
234.179	75.81
234.413	70.81
234.647	76.81
234.881	87.81
235.115	62.81
235.349	78.81
235.583	79.81
235.817	84.81
236.051	74.81
236.285	71.81
236.519	91.81
236.753	73.81
236.987	80.81
237.221	85.81
237.455	86.81
237.689	86.81
237.922	90.81
238.156	82.81
238.39	85.81
238.624	73.81
238.858	87.81
239.091	71.81
239.325	83.81
239.559	75.81
239.793	94.81
240.027	64.81
240.26	82.81
240.494	66.81
240.728	88.81
240.961	77.81
241.195	73.81
241.429	60.81
241.662	67.81
241.896	80.81
242.13	84.81
242.363	84.81
242.597	72.81
242.83	83.81
243.064	72.81
243.298	77.81
243.531	89.81
243.765	91.81
243.998	88.81
244.232	81.81
244.465	78.81
244.699	75.81
244.932	71.81
245.166	80.81
245.399	89.81
245.633	67.81
245.866	74.81
246.099	70.81
246.333	82.81
246.566	67.81
246.8	86.81
247.033	76.81
247.266	72.81
247.5	68.81
247.733	88.81
247.966	85.81
248.2	86.81
248.433	75.81
248.666	88.81
248.899	92.81
249.133	88.81
249.366	84.81
249.599	106.81
249.832	89.81
250.066	96.81
250.299	80.81
250.532	78.81
250.765	87.81
250.998	71.81
251.231	92.81
251.465	98.81
251.698	81.81
251.931	93.81
252.164	81.81
252.397	72.81
252.63	81.81
252.863	92.81
253.096	85.81
253.329	100.81
253.562	82.81
253.795	89.81
254.028	98.81
254.261	99.81
254.494	87.81
254.727	82.81
254.96	73.81
255.193	79.81
255.426	80.81
255.659	80.81
255.892	95.81
256.124	81.81
256.357	77.81
256.59	86.81
256.823	89.81
257.056	82.81
257.289	87.81
257.521	79.81
257.754	86.81
257.987	89.81
258.22	85.81
258.452	85.81
258.685	84.81
258.918	78.81
259.151	80.81
259.383	89.81
259.616	95.81
259.849	84.81
260.081	88.81
260.314	91.81
260.547	86.81
260.779	91.81
261.012	86.81
261.244	66.81
261.477	87.81
261.71	97.81
261.942	94.81
262.175	108.81
262.407	99.81
262.64	77.81
262.872	92.81
263.105	89.81
263.337	91.81
263.57	88.81
263.802	90.81
264.035	88.81
264.267	73.81
264.499	69.81
264.732	75.81
264.964	73.81
265.197	88.81
265.429	71.81
265.661	79.81
265.894	74.81
266.126	83.81
266.358	86.81
266.591	76.81
266.823	86.81
267.055	87.81
267.287	96.81
267.52	79.81
267.752	82.81
267.984	103.81
268.216	87.81
268.448	79.81
268.681	93.81
268.913	79.81
269.145	76.81
269.377	91.81
269.609	75.81
269.841	94.81
270.073	83.81
270.306	87.81
270.538	78.81
270.77	85.81
271.002	96.81
271.234	87.81
271.466	94.81
271.698	97.81
271.93	88.81
272.162	84.81
272.394	111.81
272.626	93.81
272.858	97.81
273.09	84.81
273.322	98.81
273.553	87.81
273.785	83.81
274.017	79.81
274.249	73.81
274.481	78.81
274.713	80.81
274.945	110.81
275.176	97.81
275.408	90.81
275.64	82.81
275.872	98.81
276.104	84.81
276.335	85.81
276.567	93.81
276.799	109.81
277.031	99.81
277.262	93.81
277.494	103.81
277.726	102.81
277.957	87.81
278.189	84.81
278.421	95.81
278.652	74.81
278.884	75.81
279.115	84.81
279.347	83.81
279.579	90.81
279.81	93.81
280.042	83.81
280.273	78.81
280.505	89.81
280.736	106.81
280.968	99.81
281.199	99.81
281.431	88.81
281.662	84.81
281.894	99.81
282.125	100.81
282.356	113.81
282.588	116.81
282.819	126.81
283.051	88.81
283.282	103.81
283.513	98.81
283.745	90.81
283.976	93.81
284.207	82.81
284.439	84.81
284.67	88.81
284.901	91.81
285.132	90.81
285.364	77.81
285.595	86.81
285.826	101.81
286.057	87.81
286.288	90.81
286.52	99.81
286.751	86.81
286.982	88.81
287.213	95.81
287.444	77.81
287.675	91.81
287.906	88.81
288.138	71.81
288.369	95.81
288.6	86.81
288.831	79.81
289.062	101.81
289.293	86.81
289.524	93.81
289.755	76.81
289.986	91.81
290.217	96.81
290.448	91.81
290.679	97.81
290.91	88.81
291.141	104.81
291.371	93.81
291.602	84.81
291.833	79.81
292.064	92.81
292.295	92.81
292.526	96.81
292.757	86.81
292.987	101.81
293.218	103.81
293.449	85.81
293.68	90.81
293.91	82.81
294.141	103.81
294.372	91.81
294.603	86.81
294.833	95.81
295.064	87.81
295.295	104.81
295.525	110.81
295.756	102.81
295.987	107.81
296.217	147.81
296.448	120.81
296.679	98.81
296.909	104.81
297.14	103.81
297.37	99.81
297.601	86.81
297.831	82.81
298.062	86.81
298.292	84.81
298.523	92.81
298.753	86.81
298.984	96.81
299.214	96.81
299.445	88.81
299.675	106.81
299.905	85.81
300.136	100.81
300.366	91.81
300.597	90.81
300.827	99.81
301.057	118.81
301.288	103.81
301.518	98.81
301.748	85.81
301.979	95.81
302.209	92.81
302.439	69.81
302.669	94.81
302.9	86.81
303.13	103.81
303.36	83.81
303.59	107.81
303.82	109.81
304.051	88.81
304.281	94.81
304.511	89.81
304.741	106.81
304.971	99.81
305.201	101.81
305.431	84.81
305.661	103.81
305.891	96.81
306.121	80.81
306.352	99.81
306.582	107.81
306.812	94.81
307.042	79.81
307.272	94.81
307.502	92.81
307.731	91.81
307.961	102.81
308.191	80.81
308.421	100.81
308.651	94.81
308.881	102.81
309.111	98.81
309.341	98.81
309.571	87.81
309.8	100.81
310.03	110.81
310.26	68.81
310.49	110.81
310.72	100.81
310.949	106.81
311.179	87.81
311.409	103.81
311.639	95.81
311.868	92.81
312.098	110.81
312.328	90.81
312.557	89.81
312.787	107.81
313.017	101.81
313.246	100.81
313.476	94.81
313.706	101.81
313.935	87.81
314.165	92.81
314.394	102.81
314.624	106.81
314.853	108.81
315.083	91.81
315.312	99.81
315.542	93.81
315.771	105.81
316.001	78.81
316.23	90.81
316.46	88.81
316.689	96.81
316.919	96.81
317.148	90.81
317.377	92.81
317.607	86.81
317.836	91.81
318.065	95.81
318.295	104.81
318.524	110.81
318.753	95.81
318.983	107.81
319.212	96.81
319.441	95.81
319.67	116.81
319.9	98.81
320.129	94.81
320.358	95.81
320.587	86.81
320.816	96.81
321.046	100.81
321.275	99.81
321.504	103.81
321.733	99.81
321.962	93.81
322.191	93.81
322.42	106.81
322.649	99.81
322.878	115.81
323.108	114.81
323.337	115.81
323.566	129.81
323.795	132.81
324.024	191.81
324.253	350.81
324.482	759.81
324.71	1524.81
324.939	2018.81
325.168	749.81
325.397	226.81
325.626	146.81
325.855	119.81
326.084	119.81
326.313	126.81
326.542	139.81
326.77	207.81
326.999	428.81
327.228	895.81
327.457	1587.81
327.686	1255.81
327.914	342.81
328.143	196.81
328.372	128.81
328.6	134.81
328.829	114.81
329.058	124.81
329.287	127.81
329.515	115.81
329.744	91.81
329.972	119.81
330.201	141.81
330.43	150.81
330.658	139.81
330.887	138.81
331.115	125.81
331.344	104.81
331.572	102.81
331.801	116.81
332.03	95.81
332.258	102.81
332.486	77.81
332.715	91.81
332.943	88.81
333.172	92.81
333.4	94.81
333.629	113.81
333.857	124.81
334.085	125.81
334.314	122.81
334.542	167.81
334.771	164.81
334.999	105.81
335.227	91.81
335.455	89.81
335.684	101.81
335.912	115.81
336.14	113.81
336.369	103.81
336.597	113.81
336.825	94.81
337.053	106.81
337.281	101.81
337.51	90.81
337.738	107.81
337.966	99.81
338.194	104.81
338.422	99.81
338.65	90.81
338.878	104.81
339.106	101.81
339.334	86.81
339.562	86.81
339.79	110.81
340.018	99.81
340.246	87.81
340.474	103.81
340.702	100.81
340.93	95.81
341.158	107.81
341.386	100.81
341.614	120.81
341.842	92.81
342.07	109.81
342.298	104.81
342.526	83.81
342.754	104.81
342.981	101.81
343.209	106.81
343.437	119.81
343.665	85.81
343.893	88.81
344.12	111.81
344.348	93.81
344.576	114.81
344.804	98.81
345.031	101.81
345.259	98.81
345.487	102.81
345.714	100.81
345.942	105.81
346.17	83.81
346.397	83.81
346.625	96.81
346.853	90.81
347.08	86.81
347.308	100.81
347.535	90.81
347.763	97.81
347.99	90.81
348.218	104.81
348.445	104.81
348.673	83.81
348.9	99.81
349.128	93.81
349.355	99.81
349.583	99.81
349.81	95.81
350.037	102.81
350.265	102.81
350.492	95.81
350.72	96.81
350.947	102.81
351.174	112.81
351.402	107.81
351.629	98.81
351.856	118.81
352.083	113.81
352.311	98.81
352.538	112.81
352.765	88.81
352.992	106.81
353.22	105.81
353.447	108.81
353.674	111.81
353.901	100.81
354.128	91.81
354.355	107.81
354.583	104.81
354.81	102.81
355.037	94.81
355.264	95.81
355.491	99.81
355.718	95.81
355.945	91.81
356.172	105.81
356.399	102.81
356.626	102.81
356.853	108.81
357.08	95.81
357.307	75.81
357.534	89.81
357.761	113.81
357.988	106.81
358.215	102.81
358.441	91.81
358.668	80.81
358.895	95.81
359.122	107.81
359.349	104.81
359.576	108.81
359.802	98.81
360.029	116.81
360.256	93.81
360.483	88.81
360.709	72.81
360.936	97.81
361.163	110.81
361.39	98.81
361.616	102.81
361.843	109.81
362.07	92.81
362.296	84.81
362.523	97.81
362.749	101.81
362.976	101.81
363.203	87.81
363.429	102.81
363.656	94.81
363.882	96.81
364.109	94.81
364.335	105.81
364.562	102.81
364.788	95.81
365.015	95.81
365.241	107.81
365.468	102.81
365.694	108.81
365.92	108.81
366.147	106.81
366.373	92.81
366.599	91.81
366.826	99.81
367.052	98.81
367.278	110.81
367.505	90.81
367.731	106.81
367.957	108.81
368.184	92.81
368.41	78.81
368.636	103.81
368.862	116.81
369.089	104.81
369.315	100.81
369.541	94.81
369.767	102.81
369.993	92.81
370.219	91.81
370.445	105.81
370.672	101.81
370.898	104.81
371.124	107.81
371.35	99.81
371.576	100.81
371.802	100.81
372.028	88.81
372.254	96.81
372.48	78.81
372.706	77.81
372.932	95.81
373.158	101.81
373.384	97.81
373.61	94.81
373.835	97.81
374.061	95.81
374.287	87.81
374.513	88.81
374.739	97.81
374.965	86.81
375.191	88.81
375.416	90.81
375.642	103.81
375.868	105.81
376.094	90.81
376.319	106.81
376.545	86.81
376.771	94.81
376.997	96.81
377.222	103.81
377.448	91.81
377.674	93.81
377.899	92.81
378.125	90.81
378.35	93.81
378.576	79.81
378.802	99.81
379.027	86.81
379.253	94.81
379.478	97.81
379.704	84.81
379.929	106.81
380.155	91.81
380.38	93.81
380.606	97.81
380.831	91.81
381.057	92.81
381.282	93.81
381.507	99.81
381.733	114.81
381.958	90.81
382.184	94.81
382.409	105.81
382.634	104.81
382.86	100.81
383.085	104.81
383.31	101.81
383.535	106.81
383.761	104.81
383.986	96.81
384.211	89.81
384.436	111.81
384.662	104.81
384.887	105.81
385.112	117.81
385.337	108.81
385.562	109.81
385.787	115.81
386.013	107.81
386.238	114.81
386.463	114.81
386.688	118.81
386.913	103.81
387.138	109.81
387.363	106.81
387.588	108.81
387.813	113.81
388.038	122.81
388.263	103.81
388.488	126.81
388.713	107.81
388.938	104.81
389.163	100.81
389.387	108.81
389.612	105.81
389.837	101.81
390.062	100.81
390.287	99.81
390.512	101.81
390.736	102.81
390.961	91.81
391.186	102.81
391.411	88.81
391.636	93.81
391.86	90.81
392.085	91.81
392.31	84.81
392.534	77.81
392.759	96.81
392.984	83.81
393.208	101.81
393.433	115.81
393.658	100.81
393.882	87.81
394.107	95.81
394.331	80.81
394.556	75.81
394.78	96.81
395.005	94.81
395.229	94.81
395.454	85.81
395.678	98.81
395.903	92.81
396.127	90.81
396.352	91.81
396.576	80.81
396.801	99.81
397.025	98.81
397.249	94.81
397.474	85.81
397.698	84.81
397.922	91.81
398.147	85.81
398.371	84.81
398.595	101.81
398.82	91.81
399.044	84.81
399.268	94.81
399.492	90.81
399.717	80.81
399.941	98.81
400.165	85.81
400.389	86.81
400.613	88.81
400.837	105.81
401.062	96.81
401.286	95.81
401.51	84.81
401.734	93.81
401.958	115.81
402.182	124.81
402.406	135.81
402.63	118.81
402.854	103.81
403.078	94.81
403.302	101.81
403.526	85.81
403.75	102.81
403.974	94.81
404.198	93.81
404.422	95.81
404.645	88.81
404.869	92.81
405.093	103.81
405.317	98.81
405.541	101.81
405.765	110.81
405.988	112.81
406.212	141.81
406.436	209.81
406.66	126.81
406.883	112.81
407.107	93.81
407.331	84.81
407.555	102.81
407.778	88.81
408.002	88.81
408.226	85.81
408.449	88.81
408.673	104.81
408.896	104.81
409.12	99.81
409.344	86.81
409.567	99.81
409.791	88.81
410.014	86.81
410.238	94.81
410.461	108.81
410.685	100.81
410.908	95.81
411.132	102.81
411.355	106.81
411.578	86.81
411.802	100.81
412.025	84.81
412.249	99.81
412.472	93.81
412.695	95.81
412.919	90.81
413.142	87.81
413.365	88.81
413.589	88.81
413.812	83.81
414.035	83.81
414.258	90.81
414.482	93.81
414.705	92.81
414.928	92.81
415.151	99.81
415.374	91.81
415.597	98.81
415.821	97.81
416.044	94.81
416.267	76.81
416.49	72.81
416.713	104.81
416.936	91.81
417.159	86.81
417.382	78.81
417.605	83.81
417.828	104.81
418.051	96.81
418.274	83.81
418.497	90.81
418.72	88.81
418.943	96.81
419.166	98.81
419.389	95.81
419.611	99.81
419.834	87.81
420.057	91.81
420.28	102.81
420.503	82.81
420.726	98.81
420.948	92.81
421.171	108.81
421.394	96.81
421.617	87.81
421.839	93.81
422.062	95.81
422.285	115.81
422.507	98.81
422.73	100.81
422.953	92.81
423.175	89.81
423.398	93.81
423.621	86.81
423.843	86.81
424.066	100.81
424.288	91.81
424.511	94.81
424.733	102.81
424.956	113.81
425.178	109.81
425.401	94.81
425.623	101.81
425.846	85.81
426.068	104.81
426.291	93.81
426.513	102.81
426.735	94.81
426.958	96.81
427.18	101.81
427.402	126.81
427.625	150.81
427.847	122.81
428.069	106.81
428.292	85.81
428.514	82.81
428.736	102.81
428.958	102.81
429.181	86.81
429.403	105.81
429.625	94.81
429.847	94.81
430.069	99.81
430.292	88.81
430.514	85.81
430.736	88.81
430.958	98.81
431.18	97.81
431.402	95.81
431.624	87.81
431.846	87.81
432.068	106.81
432.29	78.81
432.512	99.81
432.734	80.81
432.956	90.81
433.178	107.81
433.4	115.81
433.622	100.81
433.844	97.81
434.066	117.81
434.287	96.81
434.509	105.81
434.731	74.81
434.953	94.81
435.175	90.81
435.397	99.81
435.618	88.81
435.84	108.81
436.062	109.81
436.284	114.81
436.505	105.81
436.727	98.81
436.949	88.81
437.17	111.81
437.392	103.81
437.614	80.81
437.835	97.81
438.057	125.81
438.278	93.81
438.5	106.81
438.721	114.81
438.943	106.81
439.165	87.81
439.386	88.81
439.608	106.81
439.829	104.81
440.05	120.81
440.272	131.81
440.493	110.81
440.715	95.81
440.936	82.81
441.158	82.81
441.379	100.81
441.6	98.81
441.822	107.81
442.043	111.81
442.264	106.81
442.486	97.81
442.707	88.81
442.928	106.81
443.149	105.81
443.371	125.81
443.592	108.81
443.813	107.81
444.034	110.81
444.255	96.81
444.476	89.81
444.698	86.81
444.919	99.81
445.14	129.81
445.361	134.81
445.582	111.81
445.803	130.81
446.024	123.81
446.245	132.81
446.466	118.81
446.687	90.81
446.908	84.81
447.129	93.81
447.35	97.81
447.571	94.81
447.792	92.81
448.013	92.81
448.234	107.81
448.455	108.81
448.675	121.81
448.896	107.81
449.117	101.81
449.338	99.81
449.559	122.81
449.779	127.81
450	94.81
450.221	91.81
450.442	93.81
450.662	85.81
450.883	115.81
451.104	99.81
451.324	91.81
451.545	76.81
451.766	91.81
451.986	80.81
452.207	100.81
452.428	96.81
452.648	99.81
452.869	111.81
453.089	105.81
453.31	115.81
453.53	94.81
453.751	105.81
453.971	112.81
454.192	111.81
454.412	88.81
454.633	89.81
454.853	88.81
455.073	95.81
455.294	83.81
455.514	89.81
455.734	94.81
455.955	97.81
456.175	107.81
456.395	83.81
456.616	96.81
456.836	102.81
457.056	76.81
457.276	99.81
457.497	91.81
457.717	84.81
457.937	98.81
458.157	88.81
458.377	107.81
458.598	91.81
458.818	131.81
459.038	119.81
459.258	103.81
459.478	90.81
459.698	94.81
459.918	83.81
460.138	88.81
460.358	83.81
460.578	98.81
460.798	100.81
461.018	104.81
461.238	88.81
461.458	103.81
461.678	89.81
461.898	73.81
462.118	94.81
462.338	94.81
462.558	91.81
462.777	97.81
462.997	88.81
463.217	88.81
463.437	99.81
463.657	86.81
463.876	82.81
464.096	91.81
464.316	92.81
464.536	78.81
464.755	83.81
464.975	106.81
465.195	140.81
465.414	139.81
465.634	107.81
465.854	79.81
466.073	82.81
466.293	102.81
466.512	91.81
466.732	91.81
466.951	93.81
467.171	100.81
467.391	102.81
467.61	101.81
467.829	98.81
468.049	123.81
468.268	125.81
468.488	98.81
468.707	90.81
468.927	91.81
469.146	94.81
469.365	94.81
469.585	101.81
469.804	97.81
470.023	104.81
470.243	93.81
470.462	91.81
470.681	116.81
470.901	88.81
471.12	93.81
471.339	100.81
471.558	88.81
471.777	79.81
471.997	104.81
472.216	125.81
472.435	174.81
472.654	107.81
472.873	84.81
473.092	96.81
473.311	103.81
473.53	102.81
473.749	76.81
473.968	77.81
474.187	101.81
474.406	97.81
474.625	108.81
474.844	84.81
475.063	98.81
475.282	94.81
475.501	95.81
475.72	91.81
475.939	100.81
476.158	97.81
476.377	79.81
476.596	87.81
476.814	94.81
477.033	97.81
477.252	86.81
477.471	82.81
477.69	89.81
477.908	89.81
478.127	95.81
478.346	78.81
478.564	84.81
478.783	82.81
479.002	106.81
479.22	99.81
479.439	92.81
479.658	108.81
479.876	94.81
480.095	98.81
480.313	80.81
480.532	94.81
480.751	99.81
480.969	153.81
481.188	271.81
481.406	204.81
481.624	99.81
481.843	90.81
482.061	87.81
482.28	98.81
482.498	96.81
482.717	90.81
482.935	96.81
483.153	95.81
483.372	92.81
483.59	94.81
483.808	90.81
484.027	105.81
484.245	87.81
484.463	93.81
484.681	83.81
484.9	111.81
485.118	85.81
485.336	95.81
485.554	97.81
485.772	104.81
485.99	109.81
486.209	115.81
486.427	98.81
486.645	101.81
486.863	108.81
487.081	102.81
487.299	106.81
487.517	91.81
487.735	90.81
487.953	90.81
488.171	104.81
488.389	99.81
488.607	102.81
488.825	84.81
489.043	106.81
489.261	97.81
489.479	79.81
489.696	79.81
489.914	94.81
490.132	87.81
490.35	94.81
490.568	93.81
490.786	93.81
491.003	83.81
491.221	98.81
491.439	97.81
491.657	103.81
491.874	102.81
492.092	77.81
492.31	92.81
492.527	90.81
492.745	96.81
492.963	92.81
493.18	93.81
493.398	91.81
493.615	89.81
493.833	104.81
494.05	95.81
494.268	91.81
494.485	97.81
494.703	93.81
494.92	84.81
495.138	98.81
495.355	88.81
495.573	102.81
495.79	99.81
496.008	91.81
496.225	105.81
496.442	90.81
496.66	99.81
496.877	90.81
497.094	100.81
497.312	95.81
497.529	84.81
497.746	94.81
497.963	97.81
498.181	90.81
498.398	109.81
498.615	106.81
498.832	111.81
499.049	92.81
499.267	95.81
499.484	90.81
499.701	99.81
499.918	103.81
500.135	92.81
500.352	102.81
500.569	106.81
500.786	93.81
501.003	88.81
501.22	94.81
501.437	94.81
501.654	103.81
501.871	127.81
502.088	92.81
502.305	101.81
502.522	80.81
502.739	91.81
502.956	91.81
503.172	96.81
503.389	80.81
503.606	107.81
503.823	99.81
504.04	98.81
504.256	100.81
504.473	90.81
504.69	94.81
504.907	100.81
505.123	90.81
505.34	82.81
505.557	94.81
505.773	98.81
505.99	87.81
506.207	88.81
506.423	100.81
506.64	91.81
506.856	107.81
507.073	86.81
507.289	99.81
507.506	96.81
507.722	106.81
507.939	102.81
508.155	89.81
508.372	98.81
508.588	89.81
508.805	103.81
509.021	104.81
509.238	111.81
509.454	78.81
509.67	104.81
509.887	118.81
510.103	124.81
510.319	192.81
510.536	648.81
510.752	1966.81
510.968	546.81
511.184	138.81
511.401	107.81
511.617	95.81
511.833	99.81
512.049	80.81
512.265	92.81
512.481	90.81
512.698	87.81
512.914	93.81
513.13	92.81
513.346	96.81
513.562	81.81
513.778	91.81
513.994	95.81
