Data from Circ_1985_H10_HRD10591_00040.txt Node
Date: Wed Jan 03 12:19:30 EST 2024
User: Yrep
Spectrometer: HR+D1059
Trigger mode: 1
Integration Time (sec): 1.000000E-1
Scans to average: 1
Electric dark correction enabled: true
Nonlinearity correction enabled: false
Boxcar width: 0
XAxis mode: Wavelengths
Number of Pixels in Spectrum: 2048
>>>>>Begin Spectral Data<<<<<
223.165	-17.88
223.4	-17.88
223.635	-17.88
223.869	-6.88
224.104	-21.88
224.338	-36.88
224.573	-12.88
224.808	-18.88
225.042	-10.88
225.277	4.12
225.511	3.12
225.746	4.12
225.98	1.12
226.215	27.12
226.449	28.12
226.683	8.12
226.918	24.12
227.152	26.12
227.387	34.12
227.621	47.12
227.856	55.12
228.09	42.12
228.324	51.12
228.559	42.12
228.793	57.12
229.027	56.12
229.262	70.12
229.496	72.12
229.73	69.12
229.964	77.12
230.199	75.12
230.433	64.12
230.667	88.12
230.901	93.12
231.136	82.12
231.37	87.12
231.604	79.12
231.838	70.12
232.072	76.12
232.306	69.12
232.541	79.12
232.775	78.12
233.009	96.12
233.243	91.12
233.477	81.12
233.711	93.12
233.945	81.12
234.179	95.12
234.413	94.12
234.647	86.12
234.881	74.12
235.115	88.12
235.349	94.12
235.583	74.12
235.817	86.12
236.051	81.12
236.285	86.12
236.519	75.12
236.753	78.12
236.987	78.12
237.221	94.12
237.455	86.12
237.689	90.12
237.922	84.12
238.156	83.12
238.39	67.12
238.624	73.12
238.858	66.12
239.091	85.12
239.325	89.12
239.559	77.12
239.793	83.12
240.027	81.12
240.26	77.12
240.494	66.12
240.728	67.12
240.961	85.12
241.195	92.12
241.429	70.12
241.662	76.12
241.896	76.12
242.13	74.12
242.363	87.12
242.597	79.12
242.83	76.12
243.064	63.12
243.298	67.12
243.531	74.12
243.765	91.12
243.998	95.12
244.232	90.12
244.465	67.12
244.699	88.12
244.932	85.12
245.166	68.12
245.399	73.12
245.633	83.12
245.866	87.12
246.099	66.12
246.333	74.12
246.566	76.12
246.8	64.12
247.033	82.12
247.266	79.12
247.5	74.12
247.733	71.12
247.966	86.12
248.2	81.12
248.433	94.12
248.666	80.12
248.899	78.12
249.133	100.12
249.366	89.12
249.599	81.12
249.832	86.12
250.066	84.12
250.299	81.12
250.532	88.12
250.765	74.12
250.998	94.12
251.231	98.12
251.465	85.12
251.698	77.12
251.931	81.12
252.164	77.12
252.397	83.12
252.63	83.12
252.863	66.12
253.096	67.12
253.329	80.12
253.562	84.12
253.795	72.12
254.028	78.12
254.261	89.12
254.494	76.12
254.727	90.12
254.96	98.12
255.193	83.12
255.426	61.12
255.659	88.12
255.892	84.12
256.124	75.12
256.357	88.12
256.59	85.12
256.823	81.12
257.056	88.12
257.289	65.12
257.521	89.12
257.754	85.12
257.987	82.12
258.22	73.12
258.452	81.12
258.685	87.12
258.918	97.12
259.151	103.12
259.383	82.12
259.616	84.12
259.849	92.12
260.081	74.12
260.314	95.12
260.547	86.12
260.779	74.12
261.012	78.12
261.244	85.12
261.477	75.12
261.71	101.12
261.942	101.12
262.175	107.12
262.407	88.12
262.64	74.12
262.872	94.12
263.105	87.12
263.337	89.12
263.57	88.12
263.802	78.12
264.035	91.12
264.267	81.12
264.499	88.12
264.732	83.12
264.964	86.12
265.197	93.12
265.429	73.12
265.661	85.12
265.894	80.12
266.126	84.12
266.358	86.12
266.591	78.12
266.823	65.12
267.055	89.12
267.287	96.12
267.52	89.12
267.752	74.12
267.984	82.12
268.216	96.12
268.448	82.12
268.681	82.12
268.913	98.12
269.145	86.12
269.377	88.12
269.609	104.12
269.841	87.12
270.073	77.12
270.306	83.12
270.538	88.12
270.77	91.12
271.002	99.12
271.234	97.12
271.466	92.12
271.698	96.12
271.93	89.12
272.162	88.12
272.394	89.12
272.626	85.12
272.858	90.12
273.09	77.12
273.322	79.12
273.553	82.12
273.785	75.12
274.017	108.12
274.249	88.12
274.481	83.12
274.713	85.12
274.945	84.12
275.176	94.12
275.408	76.12
275.64	97.12
275.872	83.12
276.104	87.12
276.335	87.12
276.567	103.12
276.799	96.12
277.031	111.12
277.262	88.12
277.494	86.12
277.726	85.12
277.957	90.12
278.189	95.12
278.421	86.12
278.652	98.12
278.884	75.12
279.115	83.12
279.347	87.12
279.579	94.12
279.81	84.12
280.042	85.12
280.273	89.12
280.505	77.12
280.736	93.12
280.968	85.12
281.199	89.12
281.431	87.12
281.662	92.12
281.894	90.12
282.125	89.12
282.356	100.12
282.588	110.12
282.819	99.12
283.051	85.12
283.282	94.12
283.513	78.12
283.745	83.12
283.976	93.12
284.207	83.12
284.439	93.12
284.67	78.12
284.901	88.12
285.132	97.12
285.364	78.12
285.595	85.12
285.826	90.12
286.057	88.12
286.288	86.12
286.52	88.12
286.751	75.12
286.982	87.12
287.213	84.12
287.444	86.12
287.675	79.12
287.906	92.12
288.138	97.12
288.369	89.12
288.6	102.12
288.831	88.12
289.062	74.12
289.293	81.12
289.524	89.12
289.755	94.12
289.986	90.12
290.217	94.12
290.448	98.12
290.679	98.12
290.91	89.12
291.141	85.12
291.371	93.12
291.602	97.12
291.833	99.12
292.064	109.12
292.295	83.12
292.526	92.12
292.757	87.12
292.987	93.12
293.218	93.12
293.449	93.12
293.68	90.12
293.91	89.12
294.141	87.12
294.372	95.12
294.603	88.12
294.833	83.12
295.064	91.12
295.295	87.12
295.525	101.12
295.756	95.12
295.987	109.12
296.217	119.12
296.448	107.12
296.679	98.12
296.909	102.12
297.14	82.12
297.37	83.12
297.601	85.12
297.831	89.12
298.062	86.12
298.292	88.12
298.523	91.12
298.753	87.12
298.984	82.12
299.214	97.12
299.445	95.12
299.675	80.12
299.905	91.12
300.136	88.12
300.366	93.12
300.597	73.12
300.827	90.12
301.057	98.12
301.288	101.12
301.518	95.12
301.748	89.12
301.979	90.12
302.209	89.12
302.439	94.12
302.669	88.12
302.9	83.12
303.13	82.12
303.36	104.12
303.59	91.12
303.82	104.12
304.051	102.12
304.281	90.12
304.511	85.12
304.741	88.12
304.971	95.12
305.201	98.12
305.431	94.12
305.661	97.12
305.891	85.12
306.121	106.12
306.352	114.12
306.582	99.12
306.812	96.12
307.042	88.12
307.272	109.12
307.502	98.12
307.731	93.12
307.961	97.12
308.191	100.12
308.421	84.12
308.651	87.12
308.881	98.12
309.111	105.12
309.341	88.12
309.571	106.12
309.8	83.12
310.03	97.12
310.26	95.12
310.49	99.12
310.72	98.12
310.949	100.12
311.179	105.12
311.409	100.12
311.639	83.12
311.868	85.12
312.098	95.12
312.328	89.12
312.557	86.12
312.787	102.12
313.017	96.12
313.246	93.12
313.476	91.12
313.706	90.12
313.935	79.12
314.165	82.12
314.394	99.12
314.624	101.12
314.853	100.12
315.083	95.12
315.312	86.12
315.542	81.12
315.771	86.12
316.001	92.12
316.23	89.12
316.46	97.12
316.689	73.12
316.919	100.12
317.148	94.12
317.377	95.12
317.607	87.12
317.836	95.12
318.065	77.12
318.295	103.12
318.524	101.12
318.753	92.12
318.983	91.12
319.212	97.12
319.441	114.12
319.67	110.12
319.9	89.12
320.129	85.12
320.358	78.12
320.587	101.12
320.816	100.12
321.046	97.12
321.275	95.12
321.504	90.12
321.733	109.12
321.962	99.12
322.191	94.12
322.42	97.12
322.649	99.12
322.878	110.12
323.108	106.12
323.337	118.12
323.566	125.12
323.795	138.12
324.024	183.12
324.253	348.12
324.482	683.12
324.71	1404.12
324.939	1819.12
325.168	659.12
325.397	220.12
325.626	134.12
325.855	108.12
326.084	131.12
326.313	106.12
326.542	124.12
326.77	201.12
326.999	405.12
327.228	786.12
327.457	1449.12
327.686	1146.12
327.914	321.12
328.143	154.12
328.372	140.12
328.6	133.12
328.829	107.12
329.058	119.12
329.287	119.12
329.515	99.12
329.744	105.12
329.972	122.12
330.201	106.12
330.43	126.12
330.658	105.12
330.887	111.12
331.115	115.12
331.344	105.12
331.572	117.12
331.801	107.12
332.03	106.12
332.258	85.12
332.486	108.12
332.715	101.12
332.943	93.12
333.172	90.12
333.4	87.12
333.629	99.12
333.857	107.12
334.085	92.12
334.314	104.12
334.542	120.12
334.771	124.12
334.999	111.12
335.227	97.12
335.455	99.12
335.684	88.12
335.912	113.12
336.14	100.12
336.369	101.12
336.597	92.12
336.825	110.12
337.053	98.12
337.281	93.12
337.51	72.12
337.738	91.12
337.966	102.12
338.194	90.12
338.422	85.12
338.65	105.12
338.878	86.12
339.106	90.12
339.334	107.12
339.562	94.12
339.79	91.12
340.018	85.12
340.246	82.12
340.474	99.12
340.702	107.12
340.93	95.12
341.158	87.12
341.386	96.12
341.614	101.12
341.842	88.12
342.07	101.12
342.298	99.12
342.526	90.12
342.754	89.12
342.981	89.12
343.209	77.12
343.437	113.12
343.665	86.12
343.893	92.12
344.12	98.12
344.348	100.12
344.576	100.12
344.804	101.12
345.031	97.12
345.259	79.12
345.487	95.12
345.714	94.12
345.942	105.12
346.17	98.12
346.397	83.12
346.625	94.12
346.853	92.12
347.08	111.12
347.308	95.12
347.535	88.12
347.763	106.12
347.99	93.12
348.218	104.12
348.445	98.12
348.673	86.12
348.9	94.12
349.128	85.12
349.355	98.12
349.583	104.12
349.81	101.12
350.037	92.12
350.265	108.12
350.492	104.12
350.72	110.12
350.947	103.12
351.174	120.12
351.402	105.12
351.629	91.12
351.856	94.12
352.083	101.12
352.311	89.12
352.538	94.12
352.765	109.12
352.992	123.12
353.22	104.12
353.447	91.12
353.674	117.12
353.901	104.12
354.128	124.12
354.355	106.12
354.583	105.12
354.81	108.12
355.037	99.12
355.264	105.12
355.491	101.12
355.718	92.12
355.945	96.12
356.172	101.12
356.399	96.12
356.626	108.12
356.853	95.12
357.08	85.12
357.307	100.12
357.534	97.12
357.761	108.12
357.988	98.12
358.215	97.12
358.441	108.12
358.668	97.12
358.895	94.12
359.122	96.12
359.349	87.12
359.576	86.12
359.802	105.12
360.029	108.12
360.256	105.12
360.483	83.12
360.709	97.12
360.936	92.12
361.163	98.12
361.39	95.12
361.616	101.12
361.843	93.12
362.07	89.12
362.296	83.12
362.523	96.12
362.749	89.12
362.976	96.12
363.203	84.12
363.429	95.12
363.656	94.12
363.882	105.12
364.109	101.12
364.335	96.12
364.562	98.12
364.788	85.12
365.015	96.12
365.241	105.12
365.468	95.12
365.694	86.12
365.92	91.12
366.147	93.12
366.373	84.12
366.599	99.12
366.826	98.12
367.052	84.12
367.278	90.12
367.505	79.12
367.731	93.12
367.957	97.12
368.184	91.12
368.41	105.12
368.636	102.12
368.862	105.12
369.089	100.12
369.315	77.12
369.541	101.12
369.767	85.12
369.993	102.12
370.219	112.12
370.445	106.12
370.672	85.12
370.898	98.12
371.124	73.12
371.35	87.12
371.576	92.12
371.802	91.12
372.028	81.12
372.254	93.12
372.48	88.12
372.706	85.12
372.932	90.12
373.158	85.12
373.384	95.12
373.61	95.12
373.835	108.12
374.061	100.12
374.287	94.12
374.513	90.12
374.739	90.12
374.965	93.12
375.191	107.12
375.416	104.12
375.642	83.12
375.868	91.12
376.094	95.12
376.319	97.12
376.545	91.12
376.771	100.12
376.997	91.12
377.222	93.12
377.448	92.12
377.674	91.12
377.899	86.12
378.125	84.12
378.35	99.12
378.576	95.12
378.802	81.12
379.027	95.12
379.253	84.12
379.478	91.12
379.704	95.12
379.929	88.12
380.155	93.12
380.38	95.12
380.606	112.12
380.831	89.12
381.057	100.12
381.282	89.12
381.507	96.12
381.733	94.12
381.958	99.12
382.184	114.12
382.409	94.12
382.634	95.12
382.86	97.12
383.085	100.12
383.31	118.12
383.535	100.12
383.761	100.12
383.986	90.12
384.211	101.12
384.436	99.12
384.662	102.12
384.887	112.12
385.112	110.12
385.337	122.12
385.562	115.12
385.787	99.12
386.013	121.12
386.238	126.12
386.463	115.12
386.688	124.12
386.913	114.12
387.138	110.12
387.363	105.12
387.588	117.12
387.813	110.12
388.038	115.12
388.263	108.12
388.488	117.12
388.713	100.12
388.938	96.12
389.163	102.12
389.387	93.12
389.612	77.12
389.837	110.12
390.062	89.12
390.287	101.12
390.512	99.12
390.736	94.12
390.961	104.12
391.186	81.12
391.411	90.12
391.636	84.12
391.86	95.12
392.085	94.12
392.31	85.12
392.534	85.12
392.759	95.12
392.984	94.12
393.208	95.12
393.433	94.12
393.658	95.12
393.882	87.12
394.107	87.12
394.331	90.12
394.556	81.12
394.78	101.12
395.005	91.12
395.229	82.12
395.454	93.12
395.678	82.12
395.903	94.12
396.127	97.12
396.352	91.12
396.576	92.12
396.801	95.12
397.025	92.12
397.249	77.12
397.474	87.12
397.698	87.12
397.922	98.12
398.147	100.12
398.371	87.12
398.595	97.12
398.82	83.12
399.044	90.12
399.268	103.12
399.492	76.12
399.717	67.12
399.941	96.12
400.165	99.12
400.389	87.12
400.613	80.12
400.837	83.12
401.062	100.12
401.286	90.12
401.51	91.12
401.734	93.12
401.958	99.12
402.182	113.12
402.406	138.12
402.63	113.12
402.854	96.12
403.078	75.12
403.302	81.12
403.526	95.12
403.75	92.12
403.974	93.12
404.198	91.12
404.422	106.12
404.645	88.12
404.869	79.12
405.093	79.12
405.317	94.12
405.541	95.12
405.765	101.12
405.988	119.12
406.212	143.12
406.436	190.12
406.66	128.12
406.883	98.12
407.107	104.12
407.331	103.12
407.555	104.12
407.778	104.12
408.002	104.12
408.226	97.12
408.449	90.12
408.673	97.12
408.896	89.12
409.12	93.12
409.344	97.12
409.567	81.12
409.791	89.12
410.014	102.12
410.238	83.12
410.461	77.12
410.685	93.12
410.908	90.12
411.132	101.12
411.355	97.12
411.578	84.12
411.802	85.12
412.025	94.12
412.249	97.12
412.472	85.12
412.695	94.12
412.919	76.12
413.142	86.12
413.365	87.12
413.589	91.12
413.812	94.12
414.035	86.12
414.258	96.12
414.482	95.12
414.705	103.12
414.928	93.12
415.151	93.12
415.374	92.12
415.597	84.12
415.821	74.12
416.044	95.12
416.267	85.12
416.49	82.12
416.713	81.12
416.936	105.12
417.159	90.12
417.382	96.12
417.605	93.12
417.828	97.12
418.051	99.12
418.274	83.12
418.497	94.12
418.72	94.12
418.943	93.12
419.166	90.12
419.389	98.12
419.611	86.12
419.834	90.12
420.057	90.12
420.28	99.12
420.503	92.12
420.726	96.12
420.948	77.12
421.171	99.12
421.394	98.12
421.617	97.12
421.839	92.12
422.062	107.12
422.285	95.12
422.507	88.12
422.73	95.12
422.953	91.12
423.175	83.12
423.398	92.12
423.621	78.12
423.843	95.12
424.066	90.12
424.288	93.12
424.511	106.12
424.733	98.12
424.956	92.12
425.178	98.12
425.401	97.12
425.623	91.12
425.846	102.12
426.068	94.12
426.291	91.12
426.513	81.12
426.735	92.12
426.958	73.12
427.18	103.12
427.402	115.12
427.625	150.12
427.847	115.12
428.069	111.12
428.292	88.12
428.514	85.12
428.736	89.12
428.958	84.12
429.181	98.12
429.403	100.12
429.625	98.12
429.847	89.12
430.069	104.12
430.292	97.12
430.514	89.12
430.736	91.12
430.958	83.12
431.18	76.12
431.402	81.12
431.624	93.12
431.846	85.12
432.068	81.12
432.29	95.12
432.512	78.12
432.734	92.12
432.956	98.12
433.178	100.12
433.4	113.12
433.622	94.12
433.844	102.12
434.066	92.12
434.287	102.12
434.509	87.12
434.731	101.12
434.953	89.12
435.175	95.12
435.397	94.12
435.618	99.12
435.84	98.12
436.062	101.12
436.284	114.12
436.505	102.12
436.727	99.12
436.949	98.12
437.17	85.12
437.392	94.12
437.614	106.12
437.835	101.12
438.057	106.12
438.278	107.12
438.5	105.12
438.721	119.12
438.943	91.12
439.165	89.12
439.386	82.12
439.608	102.12
439.829	105.12
440.05	121.12
440.272	125.12
440.493	88.12
440.715	96.12
440.936	85.12
441.158	81.12
441.379	98.12
441.6	85.12
441.822	83.12
442.043	89.12
442.264	102.12
442.486	97.12
442.707	93.12
442.928	101.12
443.149	109.12
443.371	127.12
443.592	98.12
443.813	92.12
444.034	97.12
444.255	97.12
444.476	90.12
444.698	86.12
444.919	86.12
445.14	132.12
445.361	113.12
445.582	121.12
445.803	123.12
446.024	125.12
446.245	111.12
446.466	113.12
446.687	93.12
446.908	106.12
447.129	90.12
447.35	86.12
447.571	96.12
447.792	77.12
448.013	87.12
448.234	114.12
448.455	95.12
448.675	109.12
448.896	113.12
449.117	103.12
449.338	105.12
449.559	127.12
449.779	112.12
450	107.12
450.221	78.12
450.442	81.12
450.662	102.12
450.883	97.12
451.104	113.12
451.324	89.12
451.545	94.12
451.766	87.12
451.986	79.12
452.207	102.12
452.428	71.12
452.648	88.12
452.869	112.12
453.089	106.12
453.31	89.12
453.53	91.12
453.751	100.12
453.971	91.12
454.192	103.12
454.412	97.12
454.633	82.12
454.853	83.12
455.073	86.12
455.294	93.12
455.514	84.12
455.734	105.12
455.955	64.12
456.175	72.12
456.395	89.12
456.616	98.12
456.836	89.12
457.056	87.12
457.276	78.12
457.497	89.12
457.717	77.12
457.937	92.12
458.157	87.12
458.377	92.12
458.598	103.12
458.818	127.12
459.038	137.12
459.258	115.12
459.478	94.12
459.698	78.12
459.918	81.12
460.138	89.12
460.358	90.12
460.578	82.12
460.798	86.12
461.018	91.12
461.238	84.12
461.458	78.12
461.678	74.12
461.898	98.12
462.118	93.12
462.338	74.12
462.558	75.12
462.777	71.12
462.997	85.12
463.217	85.12
463.437	76.12
463.657	97.12
463.876	78.12
464.096	89.12
464.316	85.12
464.536	101.12
464.755	99.12
464.975	96.12
465.195	139.12
465.414	141.12
465.634	90.12
465.854	93.12
466.073	88.12
466.293	91.12
466.512	94.12
466.732	86.12
466.951	94.12
467.171	101.12
467.391	89.12
467.61	102.12
467.829	85.12
468.049	95.12
468.268	108.12
468.488	93.12
468.707	85.12
468.927	86.12
469.146	88.12
469.365	85.12
469.585	95.12
469.804	97.12
470.023	94.12
470.243	98.12
470.462	102.12
470.681	89.12
470.901	77.12
471.12	93.12
471.339	93.12
471.558	94.12
471.777	86.12
471.997	88.12
472.216	103.12
472.435	121.12
472.654	90.12
472.873	94.12
473.092	89.12
473.311	87.12
473.53	100.12
473.749	89.12
473.968	96.12
474.187	100.12
474.406	100.12
474.625	104.12
474.844	104.12
475.063	84.12
475.282	86.12
475.501	67.12
475.72	90.12
475.939	82.12
476.158	89.12
476.377	95.12
476.596	87.12
476.814	91.12
477.033	107.12
477.252	84.12
477.471	95.12
477.69	90.12
477.908	99.12
478.127	98.12
478.346	83.12
478.564	87.12
478.783	102.12
479.002	93.12
479.22	84.12
479.439	101.12
479.658	96.12
479.876	90.12
480.095	67.12
480.313	93.12
480.532	97.12
480.751	94.12
480.969	119.12
481.188	167.12
481.406	159.12
481.624	91.12
481.843	101.12
482.061	89.12
482.28	106.12
482.498	77.12
482.717	92.12
482.935	95.12
483.153	87.12
483.372	88.12
483.59	81.12
483.808	79.12
484.027	91.12
484.245	87.12
484.463	85.12
484.681	111.12
484.9	90.12
485.118	92.12
485.336	89.12
485.554	93.12
485.772	97.12
485.99	115.12
486.209	105.12
486.427	97.12
486.645	113.12
486.863	116.12
487.081	101.12
487.299	110.12
487.517	102.12
487.735	95.12
487.953	100.12
488.171	112.12
488.389	102.12
488.607	93.12
488.825	92.12
489.043	93.12
489.261	95.12
489.479	110.12
489.696	81.12
489.914	97.12
490.132	93.12
490.35	92.12
490.568	82.12
490.786	100.12
491.003	94.12
491.221	97.12
491.439	105.12
491.657	97.12
491.874	92.12
492.092	93.12
492.31	82.12
492.527	97.12
492.745	79.12
492.963	88.12
493.18	106.12
493.398	95.12
493.615	87.12
493.833	110.12
494.05	86.12
494.268	74.12
494.485	94.12
494.703	93.12
494.92	94.12
495.138	84.12
495.355	77.12
495.573	94.12
495.79	84.12
496.008	89.12
496.225	87.12
496.442	90.12
496.66	101.12
496.877	106.12
497.094	90.12
497.312	77.12
497.529	105.12
497.746	100.12
497.963	95.12
498.181	113.12
498.398	89.12
498.615	115.12
498.832	102.12
499.049	92.12
499.267	109.12
499.484	101.12
499.701	98.12
499.918	100.12
500.135	97.12
500.352	89.12
500.569	112.12
500.786	101.12
501.003	88.12
501.22	99.12
501.437	118.12
501.654	88.12
501.871	94.12
502.088	93.12
502.305	80.12
502.522	88.12
502.739	95.12
502.956	76.12
503.172	85.12
503.389	86.12
503.606	84.12
503.823	100.12
504.04	92.12
504.256	92.12
504.473	86.12
504.69	87.12
504.907	96.12
505.123	82.12
505.34	91.12
505.557	93.12
505.773	94.12
505.99	93.12
506.207	100.12
506.423	90.12
506.64	86.12
506.856	104.12
507.073	103.12
507.289	89.12
507.506	86.12
507.722	101.12
507.939	109.12
508.155	96.12
508.372	86.12
508.588	97.12
508.805	93.12
509.021	106.12
509.238	93.12
509.454	101.12
509.67	98.12
509.887	109.12
510.103	129.12
510.319	189.12
510.536	600.12
510.752	1798.12
510.968	515.12
511.184	127.12
511.401	110.12
511.617	99.12
511.833	86.12
512.049	101.12
512.265	99.12
512.481	93.12
512.698	104.12
512.914	105.12
513.13	89.12
513.346	98.12
513.562	96.12
513.778	98.12
513.994	100.12
514.21	97.12
514.426	120.12
514.642	118.12
514.858	107.12
515.074	138.12
515.29	347.12
