Data from Circ_1985_H10_HRD10591_00044.txt Node
Date: Wed Jan 03 12:19:31 EST 2024
User: Yrep
Spectrometer: HR+D1059
Trigger mode: 1
Integration Time (sec): 1.000000E-1
Scans to average: 1
Electric dark correction enabled: true
Nonlinearity correction enabled: false
Boxcar width: 0
XAxis mode: Wavelengths
Number of Pixels in Spectrum: 2048
>>>>>Begin Spectral Data<<<<<
223.165	-16.19
223.4	-16.19
223.635	-16.19
223.869	-18.19
224.104	-28.19
224.338	-15.19
224.573	-30.19
224.808	-28.19
225.042	-14.19
225.277	0.81
225.511	7.81
225.746	2.81
225.98	11.81
226.215	16.81
226.449	31.81
226.683	23.81
226.918	24.81
227.152	29.81
227.387	40.81
227.621	39.81
227.856	49.81
228.09	37.81
228.324	59.81
228.559	60.81
228.793	158.81
229.027	436.81
229.262	467.81
229.496	563.81
229.73	705.81
229.964	725.81
230.199	493.81
230.433	463.81
230.667	447.81
230.901	444.81
231.136	423.81
231.37	424.81
231.604	449.81
231.838	442.81
232.072	441.81
232.306	451.81
232.541	462.81
232.775	445.81
233.009	474.81
233.243	458.81
233.477	459.81
233.711	495.81
233.945	475.81
234.179	484.81
234.413	510.81
234.647	489.81
234.881	492.81
235.115	506.81
235.349	532.81
235.583	536.81
235.817	583.81
236.051	581.81
236.285	605.81
236.519	608.81
236.753	651.81
236.987	837.81
237.221	1239.81
237.455	1337.81
237.689	821.81
237.922	705.81
238.156	693.81
238.39	669.81
238.624	631.81
238.858	620.81
239.091	615.81
239.325	620.81
239.559	626.81
239.793	671.81
240.027	715.81
240.26	848.81
240.494	865.81
240.728	895.81
240.961	849.81
241.195	777.81
241.429	748.81
241.662	757.81
241.896	742.81
242.13	771.81
242.363	781.81
242.597	769.81
242.83	780.81
243.064	785.81
243.298	822.81
243.531	846.81
243.765	809.81
243.998	821.81
244.232	843.81
244.465	869.81
244.699	853.81
244.932	898.81
245.166	894.81
245.399	863.81
245.633	857.81
245.866	885.81
246.099	894.81
246.333	900.81
246.566	920.81
246.8	959.81
247.033	975.81
247.266	1011.81
247.5	1042.81
247.733	1100.81
247.966	1084.81
248.2	1079.81
248.433	1117.81
248.666	1169.81
248.899	1298.81
249.133	1336.81
249.366	1339.81
249.599	1259.81
249.832	1174.81
250.066	1196.81
250.299	1280.81
250.532	1397.81
250.765	1488.81
250.998	1633.81
251.231	1580.81
251.465	1445.81
251.698	1399.81
251.931	1385.81
252.164	1340.81
252.397	1339.81
252.63	1397.81
252.863	1492.81
253.096	1569.81
253.329	1624.81
253.562	1588.81
253.795	1499.81
254.028	1509.81
254.261	1552.81
254.494	1702.81
254.727	1952.81
254.96	2053.81
255.193	1880.81
255.426	1689.81
255.659	1656.81
255.892	1714.81
256.124	1777.81
256.357	1734.81
256.59	1592.81
256.823	1535.81
257.056	1500.81
257.289	1492.81
257.521	1527.81
257.754	1491.81
257.987	1499.81
258.22	1512.81
258.452	1498.81
258.685	1475.81
258.918	1517.81
259.151	1558.81
259.383	1610.81
259.616	1609.81
259.849	1664.81
260.081	1811.81
260.314	1930.81
260.547	1884.81
260.779	1746.81
261.012	1692.81
261.244	1676.81
261.477	1605.81
261.71	1625.81
261.942	1725.81
262.175	1687.81
262.407	1616.81
262.64	1609.81
262.872	1569.81
263.105	1590.81
263.337	1589.81
263.57	1631.81
263.802	1638.81
264.035	1606.81
264.267	1604.81
264.499	1587.81
264.732	1609.81
264.964	1631.81
265.197	1627.81
265.429	1630.81
265.661	1642.81
265.894	1667.81
266.126	1633.81
266.358	1688.81
266.591	1729.81
266.823	1775.81
267.055	1755.81
267.287	1778.81
267.52	1787.81
267.752	1765.81
267.984	1790.81
268.216	1800.81
268.448	1850.81
268.681	1927.81
268.913	1980.81
269.145	2196.81
269.377	2209.81
269.609	2182.81
269.841	2109.81
270.073	2269.81
270.306	2459.81
270.538	2581.81
270.77	2459.81
271.002	2328.81
271.234	2319.81
271.466	2447.81
271.698	2566.81
271.93	2527.81
272.162	2534.81
272.394	2469.81
272.626	2426.81
272.858	2279.81
273.09	2148.81
273.322	2163.81
273.553	2120.81
273.785	2132.81
274.017	2089.81
274.249	2195.81
274.481	2139.81
274.713	2177.81
274.945	2154.81
275.176	2163.81
275.408	2156.81
275.64	2171.81
275.872	2139.81
276.104	2164.81
276.335	2208.81
276.567	2279.81
276.799	2386.81
277.031	2584.81
277.262	2684.81
277.494	2595.81
277.726	2501.81
277.957	2371.81
278.189	2331.81
278.421	2322.81
278.652	2309.81
278.884	2289.81
279.115	2221.81
279.347	2275.81
279.579	2282.81
279.81	2285.81
280.042	2295.81
280.273	2340.81
280.505	2297.81
280.736	2313.81
280.968	2335.81
281.199	2353.81
281.431	2358.81
281.662	2378.81
281.894	2380.81
282.125	2433.81
282.356	2594.81
282.588	2644.81
282.819	2531.81
283.051	2436.81
283.282	2429.81
283.513	2442.81
283.745	2533.81
283.976	2491.81
284.207	2542.81
284.439	2508.81
284.67	2516.81
284.901	2536.81
285.132	2537.81
285.364	2506.81
285.595	2540.81
285.826	2518.81
286.057	2522.81
286.288	2509.81
286.52	2497.81
286.751	2595.81
286.982	2566.81
287.213	2621.81
287.444	2570.81
287.675	2700.81
287.906	2749.81
288.138	2816.81
288.369	2703.81
288.6	2762.81
288.831	2749.81
289.062	2692.81
289.293	2711.81
289.524	2691.81
289.755	2674.81
289.986	2657.81
290.217	2748.81
290.448	2691.81
290.679	2678.81
290.91	2659.81
291.141	2665.81
291.371	2608.81
291.602	2676.81
291.833	2672.81
292.064	2685.81
292.295	2748.81
292.526	2757.81
292.757	2723.81
292.987	2725.81
293.218	2720.81
293.449	2733.81
293.68	2662.81
293.91	2677.81
294.141	2656.81
294.372	2721.81
294.603	2715.81
294.833	2759.81
295.064	2768.81
295.295	2767.81
295.525	2800.81
295.756	2804.81
295.987	2872.81
296.217	2979.81
296.448	2979.81
296.679	2849.81
296.909	2795.81
297.14	2850.81
297.37	2935.81
297.601	2930.81
297.831	2925.81
298.062	2905.81
298.292	2954.81
298.523	2959.81
298.753	2983.81
298.984	2936.81
299.214	2908.81
299.445	2931.81
299.675	2955.81
299.905	2999.81
300.136	3013.81
300.366	3005.81
300.597	2994.81
300.827	3140.81
301.057	3181.81
301.288	3158.81
301.518	3131.81
301.748	3199.81
301.979	3195.81
302.209	3223.81
302.439	3185.81
302.669	3177.81
302.9	3191.81
303.13	3155.81
303.36	3197.81
303.59	3190.81
303.82	3218.81
304.051	3190.81
304.281	3196.81
304.511	3144.81
304.741	3162.81
304.971	3151.81
305.201	3132.81
305.431	3085.81
305.661	3147.81
305.891	3088.81
306.121	3075.81
306.352	3188.81
306.582	3151.81
306.812	3093.81
307.042	3107.81
307.272	3132.81
307.502	3135.81
307.731	3128.81
307.961	3159.81
308.191	3156.81
308.421	3153.81
308.651	3144.81
308.881	3167.81
309.111	3179.81
309.341	3200.81
309.571	3244.81
309.8	3259.81
310.03	3319.81
310.26	3357.81
310.49	3375.81
310.72	3447.81
310.949	3479.81
311.179	3508.81
311.409	3433.81
311.639	3349.81
311.868	3424.81
312.098	3460.81
312.328	3515.81
312.557	3562.81
312.787	3656.81
313.017	3612.81
313.246	3547.81
313.476	3503.81
313.706	3523.81
313.935	3630.81
314.165	3756.81
314.394	3687.81
314.624	3675.81
314.853	3542.81
315.083	3583.81
315.312	3547.81
315.542	3517.81
315.771	3457.81
316.001	3471.81
316.23	3487.81
316.46	3538.81
316.689	3504.81
316.919	3556.81
317.148	3539.81
317.377	3557.81
317.607	3478.81
317.836	3488.81
318.065	3452.81
318.295	3468.81
318.524	3507.81
318.753	3498.81
318.983	3494.81
319.212	3419.81
319.441	3544.81
319.67	3506.81
319.9	3500.81
320.129	3440.81
320.358	3507.81
320.587	3561.81
320.816	3567.81
321.046	3590.81
321.275	3601.81
321.504	3606.81
321.733	3629.81
321.962	3723.81
322.191	3777.81
322.42	3861.81
322.649	3951.81
322.878	3987.81
323.108	4005.81
323.337	4154.81
323.566	4342.81
323.795	4558.81
324.024	5015.81
324.253	6307.81
324.482	9338.81
324.71	13856.81
324.939	15557.81
325.168	10426.81
325.397	5924.81
325.626	4871.81
325.855	4555.81
326.084	4426.81
326.313	4539.81
326.542	4629.81
326.77	5087.81
326.999	6201.81
327.228	8865.81
327.457	12801.81
327.686	11922.81
327.914	6532.81
328.143	5324.81
328.372	5073.81
328.6	4864.81
328.829	4806.81
329.058	4931.81
329.287	4870.81
329.515	4735.81
329.744	4580.81
329.972	4701.81
330.201	4827.81
330.43	5001.81
330.658	5036.81
330.887	5250.81
331.115	4986.81
331.344	4670.81
331.572	4565.81
331.801	4733.81
332.03	4707.81
332.258	4632.81
332.486	4692.81
332.715	4782.81
332.943	4978.81
333.172	5127.81
333.4	5276.81
333.629	5377.81
333.857	5467.81
334.085	5455.81
334.314	5623.81
334.542	5658.81
334.771	5568.81
334.999	5213.81
335.227	5053.81
335.455	4912.81
335.684	4894.81
335.912	4813.81
336.14	4731.81
336.369	4719.81
336.597	4729.81
336.825	4648.81
337.053	4610.81
337.281	4515.81
337.51	4514.81
337.738	4529.81
337.966	4449.81
338.194	4442.81
338.422	4361.81
338.65	4285.81
338.878	4284.81
339.106	4279.81
339.334	4296.81
339.562	4220.81
339.79	4159.81
340.018	4163.81
340.246	4135.81
340.474	4142.81
340.702	4161.81
340.93	4167.81
341.158	4176.81
341.386	4185.81
341.614	4068.81
341.842	4170.81
342.07	4115.81
342.298	4108.81
342.526	4031.81
342.754	4046.81
342.981	4048.81
343.209	4225.81
343.437	4463.81
343.665	4687.81
343.893	4921.81
344.12	4925.81
344.348	4796.81
344.576	4504.81
344.804	4407.81
345.031	4322.81
345.259	4319.81
345.487	4178.81
345.714	4130.81
345.942	4028.81
346.17	3947.81
346.397	4014.81
346.625	3987.81
346.853	3916.81
347.08	3939.81
347.308	4009.81
347.535	4036.81
347.763	4008.81
347.99	3966.81
348.218	4051.81
348.445	4023.81
348.673	4001.81
348.9	3899.81
349.128	3862.81
349.355	3857.81
349.583	3837.81
349.81	3798.81
350.037	3810.81
350.265	3808.81
350.492	3860.81
350.72	3801.81
350.947	3895.81
351.174	3907.81
351.402	3926.81
351.629	3916.81
351.856	3926.81
352.083	3969.81
352.311	3930.81
352.538	3972.81
352.765	3954.81
352.992	3885.81
353.22	3845.81
353.447	3799.81
353.674	3780.81
353.901	3753.81
354.128	3778.81
354.355	3775.81
354.583	3746.81
354.81	3740.81
355.037	3780.81
355.264	3765.81
355.491	3665.81
355.718	3768.81
355.945	3798.81
356.172	3775.81
356.399	3778.81
356.626	3749.81
356.853	3786.81
357.08	3776.81
357.307	3730.81
357.534	3760.81
357.761	3740.81
357.988	3783.81
358.215	3825.81
358.441	3862.81
358.668	3783.81
358.895	3814.81
359.122	3871.81
359.349	3903.81
359.576	3956.81
359.802	4168.81
360.029	4207.81
360.256	4214.81
360.483	4119.81
360.709	3924.81
360.936	3968.81
361.163	3980.81
361.39	3968.81
361.616	3957.81
361.843	3929.81
362.07	3934.81
362.296	3927.81
362.523	3926.81
362.749	3929.81
362.976	3848.81
363.203	3829.81
363.429	3814.81
363.656	3823.81
363.882	3800.81
364.109	3807.81
364.335	3789.81
364.562	3832.81
364.788	3790.81
365.015	3860.81
365.241	3764.81
365.468	3872.81
365.694	3869.81
365.92	3816.81
366.147	3805.81
366.373	3836.81
366.599	3799.81
366.826	3798.81
367.052	3759.81
367.278	3868.81
367.505	3871.81
367.731	3857.81
367.957	3862.81
368.184	3885.81
368.41	4012.81
368.636	4021.81
368.862	4068.81
369.089	3939.81
369.315	3913.81
369.541	3911.81
369.767	3962.81
369.993	3944.81
370.219	3935.81
370.445	3951.81
370.672	3983.81
370.898	3986.81
371.124	4057.81
371.35	4129.81
371.576	4027.81
371.802	4058.81
372.028	4093.81
372.254	4057.81
372.48	4132.81
372.706	4203.81
372.932	4326.81
373.158	4199.81
373.384	4129.81
373.61	4112.81
373.835	4090.81
374.061	4141.81
374.287	4199.81
374.513	4287.81
374.739	4421.81
374.965	4478.81
375.191	4503.81
375.416	4414.81
375.642	4310.81
375.868	4299.81
376.094	4240.81
376.319	4185.81
376.545	4181.81
376.771	4143.81
376.997	4108.81
377.222	4152.81
377.448	4057.81
377.674	4082.81
377.899	4042.81
378.125	4059.81
378.35	4075.81
378.576	4048.81
378.802	4005.81
379.027	4066.81
379.253	3994.81
379.478	3977.81
379.704	4063.81
379.929	4110.81
380.155	4143.81
380.38	4071.81
380.606	4157.81
380.831	4065.81
381.057	4115.81
381.282	4081.81
381.507	4087.81
381.733	4206.81
381.958	4155.81
382.184	4226.81
382.409	4253.81
382.634	4305.81
382.86	4361.81
383.085	4406.81
383.31	4415.81
383.535	4481.81
383.761	4484.81
383.986	4591.81
384.211	4744.81
384.436	4785.81
384.662	4844.81
384.887	4928.81
385.112	4899.81
385.337	4957.81
385.562	5048.81
385.787	4986.81
386.013	5083.81
386.238	5066.81
386.463	5019.81
386.688	5061.81
386.913	4926.81
387.138	4940.81
387.363	4940.81
387.588	4821.81
387.813	4887.81
388.038	4865.81
388.263	4900.81
388.488	4979.81
388.713	4879.81
388.938	4882.81
389.163	4848.81
389.387	4879.81
389.612	4863.81
389.837	4812.81
390.062	4777.81
390.287	4816.81
390.512	4842.81
390.736	4916.81
390.961	4969.81
391.186	5064.81
391.411	5184.81
391.636	5352.81
391.86	5368.81
392.085	5478.81
392.31	5390.81
392.534	5292.81
392.759	5241.81
392.984	5194.81
393.208	5133.81
393.433	5122.81
393.658	5089.81
393.882	5068.81
394.107	5165.81
394.331	5162.81
394.556	5170.81
394.78	5223.81
395.005	5220.81
395.229	5253.81
395.454	5424.81
395.678	5563.81
395.903	5511.81
396.127	5550.81
396.352	5395.81
396.576	5179.81
396.801	5212.81
397.025	5240.81
397.249	5334.81
397.474	5467.81
397.698	5539.81
397.922	5623.81
398.147	5753.81
398.371	5780.81
398.595	5934.81
398.82	6243.81
399.044	6817.81
399.268	7483.81
399.492	8576.81
399.717	9206.81
399.941	8883.81
400.165	8243.81
400.389	7579.81
400.613	6855.81
400.837	6461.81
401.062	6323.81
401.286	6234.81
401.51	6191.81
401.734	6161.81
401.958	6347.81
402.182	6382.81
402.406	6518.81
402.63	6488.81
402.854	6647.81
403.078	6744.81
403.302	6852.81
403.526	6934.81
403.75	6975.81
403.974	7056.81
404.198	7081.81
404.422	7194.81
404.645	7057.81
404.869	7062.81
405.093	7303.81
405.317	7471.81
405.541	7535.81
405.765	7093.81
405.988	6900.81
406.212	6936.81
406.436	7137.81
406.66	7284.81
406.883	7260.81
407.107	7918.81
407.331	8379.81
407.555	8828.81
407.778	8493.81
408.002	7831.81
408.226	7407.81
408.449	7443.81
408.673	7166.81
408.896	7357.81
409.12	7459.81
409.344	7087.81
409.567	6799.81
409.791	6821.81
410.014	6664.81
410.238	6561.81
410.461	6650.81
410.685	6703.81
410.908	6758.81
411.132	7021.81
411.355	6903.81
411.578	6636.81
411.802	6475.81
412.025	6506.81
412.249	6589.81
412.472	6769.81
412.695	6817.81
412.919	6469.81
413.142	6286.81
413.365	6249.81
413.589	6228.81
413.812	6100.81
414.035	6022.81
414.258	6074.81
414.482	6099.81
414.705	6203.81
414.928	6139.81
415.151	6133.81
415.374	6088.81
415.597	6066.81
415.821	5916.81
416.044	5990.81
416.267	6017.81
416.49	5973.81
416.713	5903.81
416.936	6003.81
417.159	5899.81
417.382	6017.81
417.605	6093.81
417.828	6122.81
418.051	6326.81
418.274	6162.81
418.497	6086.81
418.72	6139.81
418.943	6187.81
419.166	6532.81
419.389	6961.81
419.611	6903.81
419.834	6625.81
420.057	6533.81
420.28	6388.81
420.503	6247.81
420.726	6312.81
420.948	6327.81
421.171	6650.81
421.394	6669.81
421.617	6204.81
421.839	6182.81
422.062	6297.81
422.285	6374.81
422.507	6997.81
422.73	7452.81
422.953	6943.81
423.175	6641.81
423.398	6611.81
423.621	6551.81
423.843	6797.81
424.066	6842.81
424.288	6771.81
424.511	6873.81
424.733	7275.81
424.956	7699.81
425.178	7195.81
425.401	7337.81
425.623	7282.81
425.846	6387.81
426.068	6305.81
426.291	6240.81
426.513	6108.81
426.735	6327.81
426.958	6642.81
427.18	7357.81
427.402	8375.81
427.625	8329.81
427.847	7151.81
428.069	6617.81
428.292	6114.81
428.514	5728.81
428.736	5681.81
428.958	5695.81
429.181	5481.81
429.403	5490.81
429.625	5663.81
429.847	5963.81
430.069	6429.81
430.292	5967.81
430.514	5487.81
430.736	5536.81
430.958	5371.81
431.18	5447.81
431.402	5324.81
431.624	5324.81
431.846	5488.81
432.068	5380.81
432.29	5570.81
432.512	5435.81
432.734	5508.81
432.956	5488.81
433.178	5512.81
433.4	5462.81
433.622	5436.81
433.844	5514.81
434.066	5507.81
434.287	5556.81
434.509	5769.81
434.731	6108.81
434.953	6183.81
435.175	6253.81
435.397	6288.81
435.618	6272.81
435.84	6494.81
436.062	7269.81
436.284	7130.81
436.505	6152.81
436.727	5899.81
436.949	5676.81
437.17	5586.81
437.392	5470.81
437.614	5621.81
437.835	5994.81
438.057	6791.81
438.278	7338.81
438.5	7266.81
438.721	8024.81
438.943	7059.81
439.165	5993.81
439.386	5868.81
439.608	5896.81
439.829	5948.81
440.05	6151.81
440.272	6441.81
440.493	5991.81
440.715	5808.81
440.936	5809.81
441.158	5795.81
441.379	5865.81
441.6	6237.81
441.822	6487.81
442.043	6810.81
442.264	7413.81
442.486	7109.81
442.707	6438.81
442.928	6322.81
443.149	6494.81
443.371	6675.81
443.592	7211.81
443.813	8043.81
444.034	7927.81
444.255	7076.81
444.476	6929.81
444.698	7035.81
444.919	7248.81
445.14	7015.81
445.361	6801.81
445.582	6902.81
445.803	7319.81
446.024	7836.81
446.245	7522.81
446.466	6889.81
446.687	6047.81
446.908	5767.81
447.129	5493.81
447.35	5402.81
447.571	5409.81
447.792	5172.81
448.013	5383.81
448.234	5458.81
448.455	6043.81
448.675	7127.81
448.896	7551.81
449.117	6297.81
449.338	6487.81
449.559	7569.81
449.779	7644.81
450	6035.81
450.221	5413.81
450.442	5200.81
450.662	5110.81
450.883	5194.81
451.104	5274.81
451.324	5164.81
451.545	5047.81
451.766	4930.81
451.986	4865.81
452.207	4848.81
452.428	4842.81
452.648	4808.81
452.869	4821.81
453.089	4849.81
453.31	4900.81
453.53	4823.81
453.751	4760.81
453.971	4854.81
454.192	4865.81
454.412	4652.81
454.633	4640.81
454.853	4583.81
455.073	4700.81
455.294	5011.81
455.514	5428.81
455.734	5013.81
455.955	4547.81
456.175	4539.81
456.395	4380.81
456.616	4425.81
456.836	4375.81
457.056	4378.81
457.276	4315.81
457.497	4454.81
457.717	4436.81
457.937	4554.81
458.157	4520.81
458.377	4668.81
458.598	5032.81
458.818	5522.81
459.038	6175.81
459.258	6095.81
459.478	5568.81
459.698	5444.81
459.918	5552.81
460.138	5761.81
460.358	6001.81
460.578	5994.81
460.798	6104.81
461.018	6059.81
461.238	5891.81
461.458	5947.81
461.678	5898.81
461.898	6033.81
462.118	6107.81
462.338	6442.81
462.558	6507.81
462.777	6773.81
462.997	7318.81
463.217	7795.81
463.437	7594.81
463.657	7052.81
463.876	6740.81
464.096	6880.81
464.316	6807.81
464.536	6869.81
464.755	6602.81
464.975	6511.81
465.195	6605.81
465.414	6466.81
465.634	5731.81
465.854	5415.81
466.073	5329.81
466.293	5192.81
466.512	5010.81
466.732	4919.81
466.951	4957.81
467.171	4959.81
467.391	5087.81
467.61	5081.81
467.829	4997.81
468.049	4986.81
468.268	4907.81
468.488	4814.81
468.707	4725.81
468.927	4759.81
469.146	4756.81
469.365	4803.81
469.585	4855.81
469.804	5051.81
470.023	5160.81
470.243	5077.81
470.462	5224.81
470.681	5319.81
470.901	5189.81
471.12	5092.81
471.339	5063.81
471.558	4971.81
471.777	4991.81
471.997	4874.81
472.216	4937.81
472.435	5074.81
472.654	4940.81
472.873	4776.81
473.092	4805.81
473.311	4829.81
473.53	4779.81
473.749	4891.81
473.968	5370.81
474.187	6151.81
474.406	5755.81
474.625	5003.81
474.844	4857.81
475.063	4769.81
475.282	4761.81
475.501	4837.81
475.72	4839.81
475.939	4849.81
476.158	4943.81
476.377	4931.81
476.596	4919.81
476.814	5061.81
477.033	5145.81
477.252	5126.81
477.471	5267.81
477.69	5409.81
477.908	5436.81
478.127	5604.81
478.346	5697.81
478.564	5785.81
478.783	5868.81
479.002	6053.81
479.22	5931.81
479.439	6035.81
479.658	6073.81
479.876	6207.81
480.095	6457.81
480.313	6732.81
480.532	6707.81
480.751	6579.81
480.969	6577.81
481.188	6905.81
481.406	6688.81
481.624	6065.81
481.843	5960.81
482.061	5835.81
482.28	5684.81
482.498	5631.81
482.717	5617.81
482.935	5643.81
483.153	5549.81
483.372	5481.81
483.59	5591.81
483.808	5593.81
484.027	5628.81
484.245	5705.81
484.463	5648.81
484.681	5820.81
484.9	5851.81
485.118	5828.81
485.336	5869.81
485.554	5945.81
485.772	6027.81
485.99	5979.81
486.209	5971.81
486.427	6075.81
486.645	6000.81
486.863	6051.81
487.081	6090.81
487.299	6016.81
487.517	5991.81
487.735	5978.81
487.953	5979.81
