Data from Circ_1985_H10_HRD10591_00004.txt Node
Date: Wed Jan 03 12:19:23 EST 2024
User: Yrep
Spectrometer: HR+D1059
Trigger mode: 1
Integration Time (sec): 1.000000E-1
Scans to average: 1
Electric dark correction enabled: true
Nonlinearity correction enabled: false
Boxcar width: 0
XAxis mode: Wavelengths
Number of Pixels in Spectrum: 2048
>>>>>Begin Spectral Data<<<<<
223.165	-17.31
223.4	-17.31
223.635	-17.31
223.869	-14.31
224.104	-11.31
224.338	-10.31
224.573	-8.31
224.808	-15.31
225.042	-12.31
225.277	1.69
225.511	0.69
225.746	-6.31
225.98	10.69
226.215	6.69
226.449	16.69
226.683	20.69
226.918	12.69
227.152	25.69
227.387	40.69
227.621	41.69
227.856	42.69
228.09	61.69
228.324	61.69
228.559	55.69
228.793	70.69
229.027	45.69
229.262	64.69
229.496	68.69
229.73	88.69
229.964	75.69
230.199	67.69
230.433	69.69
230.667	82.69
230.901	83.69
231.136	83.69
231.37	63.69
231.604	83.69
231.838	83.69
232.072	99.69
232.306	85.69
232.541	88.69
232.775	68.69
233.009	71.69
233.243	75.69
233.477	83.69
233.711	77.69
233.945	95.69
234.179	99.69
234.413	86.69
234.647	73.69
234.881	89.69
235.115	84.69
235.349	87.69
235.583	74.69
235.817	87.69
236.051	78.69
236.285	78.69
236.519	87.69
236.753	94.69
236.987	90.69
237.221	97.69
237.455	73.69
237.689	78.69
237.922	82.69
238.156	83.69
238.39	65.69
238.624	65.69
238.858	87.69
239.091	101.69
239.325	90.69
239.559	76.69
239.793	69.69
240.027	81.69
240.26	83.69
240.494	87.69
240.728	76.69
240.961	79.69
241.195	75.69
241.429	74.69
241.662	73.69
241.896	69.69
242.13	65.69
242.363	84.69
242.597	73.69
242.83	99.69
243.064	81.69
243.298	94.69
243.531	84.69
243.765	85.69
243.998	83.69
244.232	93.69
244.465	88.69
244.699	88.69
244.932	69.69
245.166	86.69
245.399	79.69
245.633	77.69
245.866	83.69
246.099	76.69
246.333	85.69
246.566	75.69
246.8	85.69
247.033	71.69
247.266	86.69
247.5	75.69
247.733	83.69
247.966	82.69
248.2	80.69
248.433	83.69
248.666	93.69
248.899	78.69
249.133	94.69
249.366	100.69
249.599	78.69
249.832	52.69
250.066	78.69
250.299	83.69
250.532	91.69
250.765	91.69
250.998	82.69
251.231	91.69
251.465	102.69
251.698	88.69
251.931	86.69
252.164	86.69
252.397	72.69
252.63	81.69
252.863	83.69
253.096	85.69
253.329	105.69
253.562	77.69
253.795	88.69
254.028	91.69
254.261	72.69
254.494	71.69
254.727	76.69
254.96	85.69
255.193	89.69
255.426	78.69
255.659	65.69
255.892	71.69
256.124	81.69
256.357	82.69
256.59	98.69
256.823	76.69
257.056	81.69
257.289	87.69
257.521	83.69
257.754	69.69
257.987	81.69
258.22	85.69
258.452	85.69
258.685	82.69
258.918	78.69
259.151	85.69
259.383	90.69
259.616	82.69
259.849	68.69
260.081	90.69
260.314	81.69
260.547	80.69
260.779	81.69
261.012	76.69
261.244	84.69
261.477	98.69
261.71	90.69
261.942	115.69
262.175	112.69
262.407	97.69
262.64	89.69
262.872	94.69
263.105	83.69
263.337	87.69
263.57	87.69
263.802	74.69
264.035	61.69
264.267	93.69
264.499	83.69
264.732	86.69
264.964	61.69
265.197	104.69
265.429	88.69
265.661	90.69
265.894	94.69
266.126	83.69
266.358	88.69
266.591	96.69
266.823	81.69
267.055	99.69
267.287	93.69
267.52	82.69
267.752	86.69
267.984	78.69
268.216	74.69
268.448	87.69
268.681	96.69
268.913	89.69
269.145	81.69
269.377	93.69
269.609	81.69
269.841	75.69
270.073	93.69
270.306	82.69
270.538	91.69
270.77	91.69
271.002	87.69
271.234	85.69
271.466	86.69
271.698	99.69
271.93	81.69
272.162	87.69
272.394	69.69
272.626	85.69
272.858	75.69
273.09	86.69
273.322	88.69
273.553	91.69
273.785	66.69
274.017	93.69
274.249	89.69
274.481	88.69
274.713	94.69
274.945	80.69
275.176	93.69
275.408	85.69
275.64	100.69
275.872	82.69
276.104	94.69
276.335	77.69
276.567	91.69
276.799	97.69
277.031	103.69
277.262	97.69
277.494	100.69
277.726	84.69
277.957	95.69
278.189	86.69
278.421	89.69
278.652	92.69
278.884	89.69
279.115	98.69
279.347	78.69
279.579	87.69
279.81	99.69
280.042	107.69
280.273	106.69
280.505	90.69
280.736	102.69
280.968	87.69
281.199	88.69
281.431	98.69
281.662	88.69
281.894	80.69
282.125	85.69
282.356	110.69
282.588	118.69
282.819	110.69
283.051	97.69
283.282	87.69
283.513	85.69
283.745	84.69
283.976	97.69
284.207	72.69
284.439	103.69
284.67	90.69
284.901	83.69
285.132	99.69
285.364	110.69
285.595	86.69
285.826	101.69
286.057	99.69
286.288	83.69
286.52	93.69
286.751	97.69
286.982	103.69
287.213	97.69
287.444	91.69
287.675	83.69
287.906	83.69
288.138	96.69
288.369	90.69
288.6	90.69
288.831	82.69
289.062	97.69
289.293	97.69
289.524	87.69
289.755	90.69
289.986	96.69
290.217	98.69
290.448	92.69
290.679	91.69
290.91	91.69
291.141	101.69
291.371	100.69
291.602	94.69
291.833	85.69
292.064	83.69
292.295	82.69
292.526	97.69
292.757	107.69
292.987	98.69
293.218	92.69
293.449	95.69
293.68	94.69
293.91	89.69
294.141	92.69
294.372	73.69
294.603	87.69
294.833	91.69
295.064	82.69
295.295	89.69
295.525	94.69
295.756	95.69
295.987	89.69
296.217	122.69
296.448	121.69
296.679	96.69
296.909	91.69
297.14	87.69
297.37	101.69
297.601	89.69
297.831	93.69
298.062	91.69
298.292	81.69
298.523	105.69
298.753	110.69
298.984	88.69
299.214	103.69
299.445	79.69
299.675	95.69
299.905	99.69
300.136	96.69
300.366	75.69
300.597	95.69
300.827	100.69
301.057	101.69
301.288	93.69
301.518	87.69
301.748	99.69
301.979	104.69
302.209	97.69
302.439	97.69
302.669	89.69
302.9	92.69
303.13	92.69
303.36	97.69
303.59	90.69
303.82	105.69
304.051	101.69
304.281	98.69
304.511	91.69
304.741	92.69
304.971	98.69
305.201	99.69
305.431	95.69
305.661	82.69
305.891	105.69
306.121	87.69
306.352	115.69
306.582	95.69
306.812	84.69
307.042	101.69
307.272	102.69
307.502	95.69
307.731	97.69
307.961	99.69
308.191	82.69
308.421	89.69
308.651	87.69
308.881	85.69
309.111	82.69
309.341	85.69
309.571	99.69
309.8	103.69
310.03	84.69
310.26	101.69
310.49	102.69
310.72	98.69
310.949	103.69
311.179	103.69
311.409	90.69
311.639	89.69
311.868	96.69
312.098	95.69
312.328	89.69
312.557	100.69
312.787	103.69
313.017	80.69
313.246	101.69
313.476	94.69
313.706	100.69
313.935	95.69
314.165	108.69
314.394	99.69
314.624	97.69
314.853	96.69
315.083	95.69
315.312	81.69
315.542	106.69
315.771	98.69
316.001	94.69
316.23	87.69
316.46	87.69
316.689	97.69
316.919	95.69
317.148	82.69
317.377	85.69
317.607	91.69
317.836	78.69
318.065	93.69
318.295	99.69
318.524	95.69
318.753	96.69
318.983	102.69
319.212	105.69
319.441	118.69
319.67	93.69
319.9	102.69
320.129	90.69
320.358	102.69
320.587	86.69
320.816	98.69
321.046	110.69
321.275	93.69
321.504	99.69
321.733	93.69
321.962	94.69
322.191	109.69
322.42	103.69
322.649	100.69
322.878	110.69
323.108	118.69
323.337	106.69
323.566	131.69
323.795	145.69
324.024	186.69
324.253	350.69
324.482	769.69
324.71	1619.69
324.939	2160.69
325.168	777.69
325.397	245.69
325.626	132.69
325.855	127.69
326.084	122.69
326.313	122.69
326.542	149.69
326.77	219.69
326.999	399.69
327.228	907.69
327.457	1672.69
327.686	1323.69
327.914	339.69
328.143	176.69
328.372	125.69
328.6	134.69
328.829	125.69
329.058	124.69
329.287	111.69
329.515	112.69
329.744	99.69
329.972	94.69
330.201	101.69
330.43	125.69
330.658	117.69
330.887	124.69
331.115	108.69
331.344	106.69
331.572	109.69
331.801	109.69
332.03	114.69
332.258	100.69
332.486	91.69
332.715	107.69
332.943	102.69
333.172	82.69
333.4	84.69
333.629	97.69
333.857	113.69
334.085	96.69
334.314	110.69
334.542	101.69
334.771	109.69
334.999	106.69
335.227	107.69
335.455	94.69
335.684	110.69
335.912	91.69
336.14	108.69
336.369	95.69
336.597	93.69
336.825	99.69
337.053	103.69
337.281	109.69
337.51	93.69
337.738	109.69
337.966	94.69
338.194	103.69
338.422	97.69
338.65	101.69
338.878	96.69
339.106	99.69
339.334	88.69
339.562	103.69
339.79	92.69
340.018	90.69
340.246	100.69
340.474	99.69
340.702	93.69
340.93	85.69
341.158	91.69
341.386	89.69
341.614	107.69
341.842	100.69
342.07	92.69
342.298	89.69
342.526	93.69
342.754	88.69
342.981	93.69
343.209	99.69
343.437	84.69
343.665	90.69
343.893	94.69
344.12	97.69
344.348	94.69
344.576	102.69
344.804	88.69
345.031	97.69
345.259	94.69
345.487	82.69
345.714	104.69
345.942	83.69
346.17	101.69
346.397	97.69
346.625	102.69
346.853	75.69
347.08	99.69
347.308	92.69
347.535	95.69
347.763	100.69
347.99	101.69
348.218	103.69
348.445	92.69
348.673	97.69
348.9	101.69
349.128	99.69
349.355	110.69
349.583	94.69
349.81	92.69
350.037	93.69
350.265	113.69
350.492	79.69
350.72	100.69
350.947	106.69
351.174	103.69
351.402	118.69
351.629	98.69
351.856	110.69
352.083	102.69
352.311	110.69
352.538	105.69
352.765	106.69
352.992	105.69
353.22	110.69
353.447	105.69
353.674	107.69
353.901	107.69
354.128	97.69
354.355	109.69
354.583	95.69
354.81	105.69
355.037	108.69
355.264	101.69
355.491	110.69
355.718	87.69
355.945	84.69
356.172	98.69
356.399	111.69
356.626	93.69
356.853	98.69
357.08	103.69
357.307	77.69
357.534	93.69
357.761	90.69
357.988	115.69
358.215	96.69
358.441	105.69
358.668	106.69
358.895	104.69
359.122	98.69
359.349	92.69
359.576	94.69
359.802	97.69
360.029	94.69
360.256	103.69
360.483	93.69
360.709	106.69
360.936	92.69
361.163	109.69
361.39	86.69
361.616	102.69
361.843	98.69
362.07	88.69
362.296	93.69
362.523	104.69
362.749	97.69
362.976	102.69
363.203	92.69
363.429	104.69
363.656	97.69
363.882	90.69
364.109	93.69
364.335	98.69
364.562	78.69
364.788	86.69
365.015	100.69
365.241	98.69
365.468	100.69
365.694	93.69
365.92	99.69
366.147	101.69
366.373	101.69
366.599	93.69
366.826	84.69
367.052	92.69
367.278	100.69
367.505	89.69
367.731	93.69
367.957	91.69
368.184	97.69
368.41	104.69
368.636	117.69
368.862	102.69
369.089	109.69
369.315	111.69
369.541	94.69
369.767	85.69
369.993	91.69
370.219	101.69
370.445	90.69
370.672	86.69
370.898	79.69
371.124	93.69
371.35	89.69
371.576	87.69
371.802	85.69
372.028	85.69
372.254	98.69
372.48	79.69
372.706	82.69
372.932	89.69
373.158	118.69
373.384	99.69
373.61	90.69
373.835	100.69
374.061	92.69
374.287	99.69
374.513	89.69
374.739	88.69
374.965	103.69
375.191	91.69
375.416	86.69
375.642	89.69
375.868	95.69
376.094	93.69
376.319	107.69
376.545	110.69
376.771	105.69
376.997	98.69
377.222	98.69
377.448	98.69
377.674	102.69
377.899	100.69
378.125	91.69
378.35	98.69
378.576	91.69
378.802	101.69
379.027	110.69
379.253	113.69
379.478	99.69
379.704	106.69
379.929	108.69
380.155	115.69
380.38	108.69
380.606	116.69
380.831	112.69
381.057	114.69
381.282	121.69
381.507	110.69
381.733	118.69
381.958	110.69
382.184	112.69
382.409	118.69
382.634	114.69
382.86	122.69
383.085	121.69
383.31	116.69
383.535	130.69
383.761	119.69
383.986	120.69
384.211	117.69
384.436	126.69
384.662	133.69
384.887	133.69
385.112	127.69
385.337	145.69
385.562	133.69
385.787	138.69
386.013	151.69
386.238	151.69
386.463	139.69
386.688	141.69
386.913	136.69
387.138	138.69
387.363	133.69
387.588	119.69
387.813	132.69
388.038	129.69
388.263	166.69
388.488	152.69
388.713	106.69
388.938	91.69
389.163	105.69
389.387	98.69
389.612	103.69
389.837	110.69
390.062	98.69
390.287	89.69
390.512	95.69
390.736	87.69
390.961	98.69
391.186	116.69
391.411	101.69
391.636	87.69
391.86	95.69
392.085	87.69
392.31	108.69
392.534	114.69
392.759	102.69
392.984	97.69
393.208	105.69
393.433	112.69
393.658	100.69
393.882	98.69
394.107	104.69
394.331	94.69
394.556	94.69
394.78	89.69
395.005	97.69
395.229	98.69
395.454	98.69
395.678	96.69
395.903	91.69
396.127	78.69
396.352	89.69
396.576	86.69
396.801	87.69
397.025	94.69
397.249	108.69
397.474	102.69
397.698	102.69
397.922	88.69
398.147	85.69
398.371	88.69
398.595	86.69
398.82	95.69
399.044	92.69
399.268	84.69
399.492	92.69
399.717	97.69
399.941	90.69
400.165	100.69
400.389	102.69
400.613	86.69
400.837	91.69
401.062	86.69
401.286	81.69
401.51	100.69
401.734	91.69
401.958	87.69
402.182	124.69
402.406	137.69
402.63	108.69
402.854	108.69
403.078	92.69
403.302	86.69
403.526	89.69
403.75	87.69
403.974	92.69
404.198	83.69
404.422	92.69
404.645	89.69
404.869	98.69
405.093	107.69
405.317	90.69
405.541	99.69
405.765	110.69
405.988	103.69
406.212	147.69
406.436	193.69
406.66	137.69
406.883	98.69
407.107	111.69
407.331	102.69
407.555	86.69
407.778	102.69
408.002	88.69
408.226	101.69
408.449	89.69
408.673	85.69
408.896	100.69
409.12	90.69
409.344	97.69
409.567	111.69
409.791	99.69
410.014	92.69
410.238	100.69
410.461	85.69
410.685	90.69
410.908	95.69
411.132	119.69
411.355	99.69
411.578	101.69
411.802	97.69
412.025	94.69
412.249	93.69
412.472	97.69
412.695	98.69
412.919	100.69
413.142	86.69
413.365	92.69
413.589	106.69
413.812	102.69
414.035	100.69
414.258	86.69
414.482	106.69
414.705	89.69
414.928	91.69
415.151	99.69
415.374	106.69
415.597	101.69
415.821	99.69
416.044	107.69
416.267	85.69
416.49	93.69
416.713	101.69
416.936	101.69
417.159	85.69
417.382	82.69
417.605	90.69
417.828	98.69
418.051	97.69
418.274	86.69
418.497	93.69
418.72	84.69
418.943	94.69
419.166	83.69
419.389	106.69
419.611	100.69
419.834	98.69
420.057	81.69
420.28	85.69
420.503	98.69
420.726	90.69
420.948	103.69
421.171	90.69
421.394	87.69
421.617	97.69
421.839	81.69
422.062	83.69
422.285	97.69
422.507	99.69
422.73	109.69
422.953	102.69
423.175	95.69
423.398	87.69
423.621	98.69
423.843	89.69
424.066	90.69
424.288	78.69
424.511	92.69
424.733	97.69
424.956	102.69
425.178	93.69
425.401	100.69
425.623	107.69
425.846	97.69
426.068	91.69
426.291	89.69
426.513	92.69
426.735	79.69
426.958	95.69
427.18	109.69
427.402	125.69
427.625	139.69
427.847	110.69
428.069	97.69
428.292	91.69
428.514	77.69
428.736	81.69
428.958	82.69
429.181	93.69
429.403	95.69
429.625	71.69
429.847	89.69
430.069	105.69
430.292	98.69
430.514	105.69
430.736	87.69
430.958	81.69
431.18	83.69
431.402	94.69
431.624	83.69
431.846	89.69
432.068	85.69
432.29	87.69
432.512	79.69
432.734	97.69
432.956	101.69
433.178	105.69
433.4	107.69
433.622	89.69
433.844	92.69
434.066	91.69
434.287	99.69
434.509	105.69
434.731	83.69
434.953	94.69
435.175	98.69
435.397	97.69
435.618	100.69
435.84	109.69
436.062	118.69
436.284	128.69
436.505	98.69
436.727	88.69
436.949	93.69
437.17	87.69
437.392	95.69
437.614	92.69
437.835	101.69
438.057	109.69
438.278	123.69
438.5	102.69
438.721	113.69
438.943	78.69
439.165	102.69
439.386	98.69
439.608	95.69
439.829	102.69
440.05	118.69
440.272	130.69
440.493	105.69
440.715	86.69
440.936	87.69
441.158	90.69
441.379	82.69
441.6	88.69
441.822	94.69
442.043	94.69
442.264	93.69
442.486	103.69
442.707	86.69
442.928	99.69
443.149	120.69
443.371	121.69
443.592	108.69
443.813	108.69
444.034	100.69
444.255	106.69
444.476	88.69
444.698	85.69
444.919	87.69
445.14	141.69
445.361	135.69
445.582	111.69
445.803	123.69
446.024	125.69
446.245	118.69
446.466	109.69
446.687	107.69
446.908	94.69
447.129	97.69
447.35	98.69
447.571	109.69
447.792	90.69
448.013	91.69
448.234	102.69
448.455	93.69
448.675	105.69
448.896	118.69
449.117	103.69
449.338	113.69
449.559	131.69
449.779	113.69
450	107.69
450.221	79.69
450.442	87.69
450.662	92.69
450.883	90.69
451.104	97.69
451.324	79.69
451.545	89.69
451.766	91.69
451.986	85.69
452.207	87.69
452.428	86.69
452.648	98.69
452.869	93.69
453.089	114.69
453.31	122.69
453.53	85.69
453.751	107.69
453.971	102.69
454.192	99.69
454.412	85.69
454.633	97.69
454.853	91.69
455.073	90.69
455.294	88.69
455.514	94.69
455.734	78.69
455.955	93.69
456.175	78.69
456.395	86.69
456.616	73.69
456.836	87.69
457.056	86.69
457.276	94.69
457.497	90.69
457.717	83.69
457.937	94.69
458.157	86.69
458.377	94.69
458.598	99.69
458.818	124.69
459.038	124.69
459.258	97.69
459.478	92.69
459.698	76.69
459.918	83.69
460.138	108.69
460.358	94.69
460.578	96.69
460.798	85.69
461.018	90.69
461.238	81.69
461.458	87.69
461.678	70.69
461.898	82.69
462.118	85.69
462.338	89.69
462.558	88.69
462.777	85.69
462.997	104.69
463.217	85.69
463.437	91.69
463.657	91.69
463.876	100.69
464.096	96.69
464.316	93.69
464.536	93.69
464.755	74.69
464.975	100.69
465.195	122.69
465.414	136.69
465.634	96.69
465.854	93.69
466.073	105.69
466.293	83.69
466.512	80.69
466.732	100.69
466.951	83.69
467.171	88.69
467.391	102.69
467.61	95.69
467.829	100.69
468.049	94.69
468.268	92.69
468.488	90.69
468.707	81.69
468.927	65.69
469.146	85.69
469.365	78.69
469.585	103.69
469.804	104.69
470.023	100.69
470.243	89.69
470.462	101.69
470.681	111.69
470.901	93.69
471.12	75.69
471.339	84.69
471.558	74.69
471.777	78.69
471.997	109.69
472.216	99.69
472.435	110.69
472.654	91.69
472.873	99.69
473.092	87.69
473.311	85.69
473.53	90.69
473.749	90.69
473.968	100.69
474.187	95.69
474.406	92.69
474.625	105.69
474.844	92.69
475.063	82.69
475.282	85.69
475.501	86.69
475.72	107.69
475.939	93.69
476.158	110.69
476.377	100.69
476.596	83.69
476.814	94.69
477.033	101.69
477.252	89.69
477.471	91.69
477.69	89.69
477.908	87.69
478.127	91.69
478.346	98.69
478.564	79.69
478.783	90.69
479.002	74.69
479.22	90.69
479.439	99.69
479.658	105.69
479.876	89.69
480.095	93.69
480.313	97.69
480.532	95.69
480.751	84.69
480.969	87.69
481.188	135.69
481.406	109.69
481.624	85.69
481.843	81.69
482.061	94.69
482.28	96.69
482.498	83.69
482.717	94.69
482.935	72.69
483.153	86.69
483.372	85.69
483.59	83.69
483.808	91.69
484.027	94.69
484.245	102.69
484.463	89.69
484.681	109.69
484.9	95.69
485.118	108.69
485.336	95.69
485.554	113.69
485.772	98.69
485.99	100.69
486.209	118.69
486.427	111.69
486.645	121.69
486.863	124.69
487.081	101.69
487.299	95.69
487.517	98.69
487.735	89.69
487.953	93.69
488.171	106.69
488.389	88.69
488.607	94.69
488.825	100.69
489.043	100.69
489.261	87.69
489.479	99.69
489.696	88.69
489.914	94.69
490.132	86.69
490.35	105.69
490.568	98.69
490.786	89.69
491.003	88.69
491.221	91.69
491.439	105.69
491.657	97.69
491.874	103.69
492.092	97.69
492.31	98.69
492.527	82.69
492.745	87.69
492.963	93.69
493.18	90.69
493.398	100.69
493.615	103.69
493.833	95.69
494.05	86.69
494.268	87.69
494.485	90.69
494.703	95.69
494.92	89.69
495.138	91.69
495.355	101.69
495.573	85.69
495.79	106.69
496.008	90.69
496.225	105.69
496.442	101.69
496.66	91.69
496.877	96.69
497.094	90.69
497.312	94.69
497.529	96.69
497.746	95.69
497.963	88.69
498.181	99.69
498.398	98.69
498.615	101.69
498.832	93.69
499.049	109.69
499.267	95.69
499.484	84.69
499.701	102.69
499.918	78.69
500.135	76.69
500.352	100.69
500.569	94.69
500.786	100.69
501.003	93.69
501.22	79.69
501.437	90.69
501.654	90.69
501.871	107.69
502.088	110.69
502.305	89.69
502.522	107.69
502.739	90.69
502.956	93.69
503.172	92.69
503.389	109.69
503.606	88.69
503.823	109.69
504.04	92.69
504.256	94.69
504.473	91.69
504.69	87.69
504.907	101.69
505.123	109.69
505.34	83.69
505.557	92.69
505.773	89.69
505.99	81.69
506.207	87.69
506.423	82.69
506.64	102.69
506.856	96.69
507.073	101.69
507.289	91.69
507.506	92.69
507.722	105.69
507.939	95.69
508.155	90.69
508.372	93.69
508.588	88.69
508.805	79.69
509.021	103.69
509.238	93.69
509.454	104.69
509.67	107.69
509.887	89.69
510.103	134.69
510.319	189.69
510.536	612.69
510.752	1825.69
510.968	503.69
511.184	149.69
511.401	102.69
511.617	91.69
511.833	100.69
512.049	86.69
512.265	89.69
512.481	101.69
512.698	90.69
512.914	94.69
513.13	88.69
513.346	92.69
513.562	97.69
513.778	103.69
513.994	102.69
514.21	107.69
