Data from Circ_1985_H10_HRD10591_00047.txt Node
Date: Wed Jan 03 12:19:32 EST 2024
User: Yrep
Spectrometer: HR+D1059
Trigger mode: 1
Integration Time (sec): 1.000000E-1
Scans to average: 1
Electric dark correction enabled: true
Nonlinearity correction enabled: false
Boxcar width: 0
XAxis mode: Wavelengths
Number of Pixels in Spectrum: 2048
>>>>>Begin Spectral Data<<<<<
223.165	-11.44
223.4	-11.44
223.635	-11.44
223.869	-24.44
224.104	-25.44
224.338	-3.44
224.573	-6.44
224.808	0.56
225.042	-3.44
225.277	5.56
225.511	-11.44
225.746	-7.44
225.98	7.56
226.215	5.56
226.449	18.56
226.683	19.56
226.918	12.56
227.152	23.56
227.387	43.56
227.621	28.56
227.856	52.56
228.09	44.56
228.324	58.56
228.559	55.56
228.793	56.56
229.027	45.56
229.262	55.56
229.496	70.56
229.73	74.56
229.964	81.56
230.199	73.56
230.433	84.56
230.667	76.56
230.901	67.56
231.136	76.56
231.37	76.56
231.604	76.56
231.838	93.56
232.072	74.56
232.306	75.56
232.541	73.56
232.775	101.56
233.009	76.56
233.243	85.56
233.477	80.56
233.711	86.56
233.945	86.56
234.179	95.56
234.413	81.56
234.647	82.56
234.881	67.56
235.115	85.56
235.349	60.56
235.583	69.56
235.817	74.56
236.051	75.56
236.285	87.56
236.519	81.56
236.753	82.56
236.987	82.56
237.221	72.56
237.455	81.56
237.689	67.56
237.922	78.56
238.156	73.56
238.39	71.56
238.624	79.56
238.858	75.56
239.091	83.56
239.325	73.56
239.559	62.56
239.793	82.56
240.027	67.56
240.26	67.56
240.494	75.56
240.728	79.56
240.961	73.56
241.195	79.56
241.429	83.56
241.662	74.56
241.896	77.56
242.13	71.56
242.363	66.56
242.597	69.56
242.83	76.56
243.064	73.56
243.298	76.56
243.531	84.56
243.765	55.56
243.998	76.56
244.232	75.56
244.465	91.56
244.699	77.56
244.932	86.56
245.166	84.56
245.399	81.56
245.633	69.56
245.866	75.56
246.099	83.56
246.333	81.56
246.566	74.56
246.8	91.56
247.033	71.56
247.266	65.56
247.5	67.56
247.733	87.56
247.966	81.56
248.2	88.56
248.433	87.56
248.666	86.56
248.899	86.56
249.133	88.56
249.366	103.56
249.599	94.56
249.832	76.56
250.066	89.56
250.299	70.56
250.532	79.56
250.765	75.56
250.998	68.56
251.231	89.56
251.465	79.56
251.698	69.56
251.931	81.56
252.164	90.56
252.397	67.56
252.63	81.56
252.863	95.56
253.096	80.56
253.329	75.56
253.562	84.56
253.795	70.56
254.028	83.56
254.261	76.56
254.494	83.56
254.727	75.56
254.96	77.56
255.193	84.56
255.426	84.56
255.659	85.56
255.892	85.56
256.124	84.56
256.357	81.56
256.59	75.56
256.823	89.56
257.056	88.56
257.289	86.56
257.521	80.56
257.754	74.56
257.987	75.56
258.22	80.56
258.452	87.56
258.685	85.56
258.918	87.56
259.151	89.56
259.383	86.56
259.616	82.56
259.849	80.56
260.081	79.56
260.314	69.56
260.547	77.56
260.779	80.56
261.012	86.56
261.244	88.56
261.477	83.56
261.71	83.56
261.942	99.56
262.175	85.56
262.407	79.56
262.64	79.56
262.872	80.56
263.105	90.56
263.337	97.56
263.57	77.56
263.802	77.56
264.035	81.56
264.267	79.56
264.499	76.56
264.732	89.56
264.964	87.56
265.197	91.56
265.429	100.56
265.661	81.56
265.894	74.56
266.126	91.56
266.358	87.56
266.591	81.56
266.823	84.56
267.055	95.56
267.287	95.56
267.52	91.56
267.752	89.56
267.984	79.56
268.216	83.56
268.448	81.56
268.681	85.56
268.913	84.56
269.145	88.56
269.377	83.56
269.609	83.56
269.841	90.56
270.073	86.56
270.306	72.56
270.538	93.56
270.77	89.56
271.002	85.56
271.234	99.56
271.466	81.56
271.698	78.56
271.93	83.56
272.162	83.56
272.394	75.56
272.626	73.56
272.858	93.56
273.09	82.56
273.322	100.56
273.553	88.56
273.785	104.56
274.017	76.56
274.249	80.56
274.481	74.56
274.713	87.56
274.945	73.56
275.176	75.56
275.408	94.56
275.64	94.56
275.872	85.56
276.104	92.56
276.335	80.56
276.567	102.56
276.799	109.56
277.031	86.56
277.262	87.56
277.494	80.56
277.726	74.56
277.957	79.56
278.189	90.56
278.421	105.56
278.652	90.56
278.884	74.56
279.115	83.56
279.347	90.56
279.579	87.56
279.81	78.56
280.042	83.56
280.273	87.56
280.505	81.56
280.736	90.56
280.968	92.56
281.199	75.56
281.431	82.56
281.662	102.56
281.894	108.56
282.125	101.56
282.356	99.56
282.588	127.56
282.819	99.56
283.051	87.56
283.282	82.56
283.513	92.56
283.745	83.56
283.976	75.56
284.207	90.56
284.439	87.56
284.67	71.56
284.901	97.56
285.132	93.56
285.364	90.56
285.595	76.56
285.826	101.56
286.057	99.56
286.288	89.56
286.52	89.56
286.751	83.56
286.982	95.56
287.213	80.56
287.444	92.56
287.675	83.56
287.906	95.56
288.138	85.56
288.369	81.56
288.6	88.56
288.831	86.56
289.062	105.56
289.293	82.56
289.524	91.56
289.755	91.56
289.986	91.56
290.217	82.56
290.448	82.56
290.679	79.56
290.91	98.56
291.141	97.56
291.371	93.56
291.602	77.56
291.833	72.56
292.064	101.56
292.295	73.56
292.526	99.56
292.757	90.56
292.987	82.56
293.218	91.56
293.449	89.56
293.68	75.56
293.91	92.56
294.141	99.56
294.372	89.56
294.603	92.56
294.833	76.56
295.064	104.56
295.295	82.56
295.525	88.56
295.756	104.56
295.987	98.56
296.217	131.56
296.448	120.56
296.679	88.56
296.909	96.56
297.14	86.56
297.37	96.56
297.601	86.56
297.831	95.56
298.062	98.56
298.292	81.56
298.523	93.56
298.753	87.56
298.984	88.56
299.214	78.56
299.445	101.56
299.675	84.56
299.905	89.56
300.136	93.56
300.366	94.56
300.597	92.56
300.827	92.56
301.057	93.56
301.288	86.56
301.518	82.56
301.748	95.56
301.979	94.56
302.209	98.56
302.439	88.56
302.669	92.56
302.9	85.56
303.13	80.56
303.36	98.56
303.59	96.56
303.82	97.56
304.051	100.56
304.281	99.56
304.511	100.56
304.741	87.56
304.971	83.56
305.201	86.56
305.431	89.56
305.661	105.56
305.891	89.56
306.121	91.56
306.352	105.56
306.582	102.56
306.812	101.56
307.042	87.56
307.272	79.56
307.502	90.56
307.731	95.56
307.961	87.56
308.191	86.56
308.421	96.56
308.651	91.56
308.881	92.56
309.111	96.56
309.341	96.56
309.571	83.56
309.8	87.56
310.03	98.56
310.26	103.56
310.49	95.56
310.72	92.56
310.949	96.56
311.179	89.56
311.409	90.56
311.639	87.56
311.868	95.56
312.098	84.56
312.328	84.56
312.557	100.56
312.787	115.56
313.017	86.56
313.246	73.56
313.476	102.56
313.706	96.56
313.935	85.56
314.165	97.56
314.394	93.56
314.624	99.56
314.853	95.56
315.083	99.56
315.312	98.56
315.542	91.56
315.771	95.56
316.001	89.56
316.23	94.56
316.46	92.56
316.689	83.56
316.919	94.56
317.148	95.56
317.377	108.56
317.607	82.56
317.836	89.56
318.065	89.56
318.295	75.56
318.524	97.56
318.753	96.56
318.983	86.56
319.212	96.56
319.441	75.56
319.67	103.56
319.9	94.56
320.129	109.56
320.358	95.56
320.587	92.56
320.816	98.56
321.046	102.56
321.275	86.56
321.504	99.56
321.733	93.56
321.962	75.56
322.191	98.56
322.42	106.56
322.649	96.56
322.878	103.56
323.108	116.56
323.337	107.56
323.566	122.56
323.795	120.56
324.024	172.56
324.253	329.56
324.482	655.56
324.71	1325.56
324.939	1759.56
325.168	658.56
325.397	217.56
325.626	132.56
325.855	127.56
326.084	118.56
326.313	136.56
326.542	145.56
326.77	193.56
326.999	397.56
327.228	764.56
327.457	1385.56
327.686	1125.56
327.914	319.56
328.143	175.56
328.372	128.56
328.6	115.56
328.829	112.56
329.058	102.56
329.287	101.56
329.515	105.56
329.744	97.56
329.972	108.56
330.201	106.56
330.43	120.56
330.658	109.56
330.887	121.56
331.115	111.56
331.344	97.56
331.572	96.56
331.801	93.56
332.03	96.56
332.258	87.56
332.486	96.56
332.715	95.56
332.943	99.56
333.172	101.56
333.4	86.56
333.629	92.56
333.857	101.56
334.085	119.56
334.314	127.56
334.542	127.56
334.771	118.56
334.999	99.56
335.227	102.56
335.455	102.56
335.684	106.56
335.912	94.56
336.14	88.56
336.369	99.56
336.597	99.56
336.825	101.56
337.053	81.56
337.281	95.56
337.51	99.56
337.738	94.56
337.966	92.56
338.194	99.56
338.422	103.56
338.65	98.56
338.878	92.56
339.106	82.56
339.334	97.56
339.562	90.56
339.79	99.56
340.018	87.56
340.246	93.56
340.474	80.56
340.702	87.56
340.93	109.56
341.158	93.56
341.386	92.56
341.614	107.56
341.842	91.56
342.07	92.56
342.298	92.56
342.526	104.56
342.754	99.56
342.981	84.56
343.209	71.56
343.437	102.56
343.665	88.56
343.893	94.56
344.12	85.56
344.348	103.56
344.576	88.56
344.804	85.56
345.031	90.56
345.259	93.56
345.487	100.56
345.714	107.56
345.942	84.56
346.17	92.56
346.397	103.56
346.625	95.56
346.853	94.56
347.08	101.56
347.308	87.56
347.535	101.56
347.763	103.56
347.99	99.56
348.218	103.56
348.445	105.56
348.673	97.56
348.9	91.56
349.128	101.56
349.355	92.56
349.583	93.56
349.81	90.56
350.037	99.56
350.265	107.56
350.492	86.56
350.72	102.56
350.947	103.56
351.174	93.56
351.402	99.56
351.629	95.56
351.856	94.56
352.083	100.56
352.311	108.56
352.538	91.56
352.765	99.56
352.992	110.56
353.22	96.56
353.447	99.56
353.674	91.56
353.901	99.56
354.128	100.56
354.355	104.56
354.583	106.56
354.81	97.56
355.037	93.56
355.264	96.56
355.491	93.56
355.718	92.56
355.945	98.56
356.172	87.56
356.399	100.56
356.626	87.56
356.853	83.56
357.08	95.56
357.307	92.56
357.534	102.56
357.761	89.56
357.988	90.56
358.215	106.56
358.441	104.56
358.668	101.56
358.895	93.56
359.122	95.56
359.349	90.56
359.576	78.56
359.802	97.56
360.029	104.56
360.256	101.56
360.483	90.56
360.709	97.56
360.936	98.56
361.163	82.56
361.39	92.56
361.616	90.56
361.843	95.56
362.07	96.56
362.296	83.56
362.523	81.56
362.749	108.56
362.976	83.56
363.203	97.56
363.429	95.56
363.656	95.56
363.882	86.56
364.109	84.56
364.335	81.56
364.562	87.56
364.788	92.56
365.015	98.56
365.241	92.56
365.468	98.56
365.694	78.56
365.92	97.56
366.147	97.56
366.373	88.56
366.599	88.56
366.826	91.56
367.052	98.56
367.278	101.56
367.505	94.56
367.731	83.56
367.957	84.56
368.184	110.56
368.41	87.56
368.636	96.56
368.862	100.56
369.089	103.56
369.315	86.56
369.541	89.56
369.767	71.56
369.993	101.56
370.219	87.56
370.445	93.56
370.672	88.56
370.898	84.56
371.124	85.56
371.35	84.56
371.576	95.56
371.802	90.56
372.028	95.56
372.254	86.56
372.48	86.56
372.706	95.56
372.932	91.56
373.158	78.56
373.384	83.56
373.61	80.56
373.835	83.56
374.061	102.56
374.287	96.56
374.513	83.56
374.739	92.56
374.965	86.56
375.191	64.56
375.416	74.56
375.642	84.56
375.868	98.56
376.094	100.56
376.319	82.56
376.545	86.56
376.771	97.56
376.997	90.56
377.222	101.56
377.448	100.56
377.674	88.56
377.899	94.56
378.125	86.56
378.35	84.56
378.576	71.56
378.802	93.56
379.027	92.56
379.253	99.56
379.478	88.56
379.704	84.56
379.929	92.56
380.155	95.56
380.38	92.56
380.606	88.56
380.831	81.56
381.057	90.56
381.282	97.56
381.507	79.56
381.733	117.56
381.958	95.56
382.184	97.56
382.409	94.56
382.634	106.56
382.86	108.56
383.085	106.56
383.31	92.56
383.535	94.56
383.761	103.56
383.986	92.56
384.211	78.56
384.436	95.56
384.662	99.56
384.887	94.56
385.112	101.56
385.337	98.56
385.562	108.56
385.787	100.56
386.013	86.56
386.238	110.56
386.463	106.56
386.688	111.56
386.913	96.56
387.138	98.56
387.363	99.56
387.588	95.56
387.813	109.56
388.038	108.56
388.263	110.56
388.488	115.56
388.713	98.56
388.938	88.56
389.163	105.56
389.387	86.56
389.612	98.56
389.837	92.56
390.062	92.56
390.287	97.56
390.512	89.56
390.736	87.56
390.961	83.56
391.186	81.56
391.411	109.56
391.636	92.56
391.86	83.56
392.085	92.56
392.31	90.56
392.534	90.56
392.759	101.56
392.984	80.56
393.208	73.56
393.433	91.56
393.658	96.56
393.882	77.56
394.107	72.56
394.331	87.56
394.556	85.56
394.78	93.56
395.005	106.56
395.229	85.56
395.454	102.56
395.678	79.56
395.903	90.56
396.127	77.56
396.352	83.56
396.576	82.56
396.801	81.56
397.025	91.56
397.249	88.56
397.474	85.56
397.698	94.56
397.922	94.56
398.147	85.56
398.371	83.56
398.595	92.56
398.82	89.56
399.044	87.56
399.268	79.56
399.492	81.56
399.717	90.56
399.941	89.56
400.165	73.56
400.389	106.56
400.613	87.56
400.837	86.56
401.062	82.56
401.286	86.56
401.51	89.56
401.734	97.56
401.958	92.56
402.182	109.56
402.406	159.56
402.63	108.56
402.854	92.56
403.078	91.56
403.302	87.56
403.526	88.56
403.75	90.56
403.974	72.56
404.198	83.56
404.422	97.56
404.645	91.56
404.869	81.56
405.093	105.56
405.317	88.56
405.541	103.56
405.765	92.56
405.988	105.56
406.212	122.56
406.436	163.56
406.66	112.56
406.883	102.56
407.107	108.56
407.331	97.56
407.555	99.56
407.778	102.56
408.002	102.56
408.226	92.56
408.449	97.56
408.673	94.56
408.896	70.56
409.12	98.56
409.344	99.56
409.567	88.56
409.791	74.56
410.014	79.56
410.238	87.56
410.461	90.56
410.685	79.56
410.908	88.56
411.132	103.56
411.355	84.56
411.578	93.56
411.802	82.56
412.025	97.56
412.249	108.56
412.472	75.56
412.695	87.56
412.919	80.56
413.142	90.56
413.365	95.56
413.589	94.56
413.812	92.56
414.035	80.56
414.258	98.56
414.482	83.56
414.705	97.56
414.928	79.56
415.151	97.56
415.374	87.56
415.597	85.56
415.821	82.56
416.044	83.56
416.267	86.56
416.49	91.56
416.713	87.56
416.936	84.56
417.159	76.56
417.382	81.56
417.605	79.56
417.828	81.56
418.051	84.56
418.274	89.56
418.497	80.56
418.72	95.56
418.943	93.56
419.166	94.56
419.389	82.56
419.611	92.56
419.834	93.56
420.057	96.56
420.28	95.56
420.503	87.56
420.726	92.56
420.948	68.56
421.171	87.56
421.394	92.56
421.617	93.56
421.839	95.56
422.062	91.56
422.285	99.56
422.507	92.56
422.73	108.56
422.953	81.56
423.175	87.56
423.398	85.56
423.621	81.56
423.843	85.56
424.066	99.56
424.288	100.56
424.511	82.56
424.733	91.56
424.956	107.56
425.178	84.56
425.401	109.56
425.623	100.56
425.846	81.56
426.068	93.56
426.291	84.56
426.513	95.56
426.735	89.56
426.958	97.56
427.18	90.56
427.402	114.56
427.625	131.56
427.847	115.56
428.069	107.56
428.292	89.56
428.514	84.56
428.736	88.56
428.958	82.56
429.181	86.56
429.403	79.56
429.625	81.56
429.847	80.56
430.069	96.56
430.292	86.56
430.514	79.56
430.736	95.56
430.958	87.56
431.18	82.56
431.402	83.56
431.624	80.56
431.846	71.56
432.068	79.56
432.29	86.56
432.512	86.56
432.734	93.56
432.956	68.56
433.178	99.56
433.4	80.56
433.622	99.56
433.844	90.56
434.066	96.56
434.287	87.56
434.509	91.56
434.731	85.56
434.953	85.56
435.175	81.56
435.397	74.56
435.618	104.56
435.84	91.56
436.062	102.56
436.284	90.56
436.505	95.56
436.727	92.56
436.949	95.56
437.17	87.56
437.392	93.56
437.614	100.56
437.835	106.56
438.057	100.56
438.278	108.56
438.5	83.56
438.721	106.56
438.943	100.56
439.165	81.56
439.386	80.56
439.608	88.56
439.829	97.56
440.05	114.56
440.272	114.56
440.493	93.56
440.715	99.56
440.936	92.56
441.158	93.56
441.379	71.56
441.6	77.56
441.822	99.56
442.043	91.56
442.264	104.56
442.486	91.56
442.707	91.56
442.928	77.56
443.149	112.56
443.371	118.56
443.592	100.56
443.813	99.56
444.034	87.56
444.255	89.56
444.476	85.56
444.698	94.56
444.919	87.56
445.14	127.56
445.361	108.56
445.582	111.56
445.803	121.56
446.024	108.56
446.245	113.56
446.466	102.56
446.687	92.56
446.908	81.56
447.129	77.56
447.35	84.56
447.571	94.56
447.792	81.56
448.013	97.56
448.234	108.56
448.455	90.56
448.675	103.56
448.896	109.56
449.117	106.56
449.338	102.56
449.559	106.56
449.779	97.56
450	101.56
450.221	91.56
450.442	92.56
450.662	81.56
450.883	114.56
451.104	100.56
451.324	89.56
451.545	90.56
451.766	80.56
451.986	83.56
452.207	91.56
452.428	100.56
452.648	97.56
452.869	103.56
453.089	98.56
453.31	91.56
453.53	94.56
453.751	85.56
453.971	109.56
454.192	94.56
454.412	84.56
454.633	81.56
454.853	73.56
455.073	83.56
455.294	91.56
455.514	84.56
455.734	76.56
455.955	72.56
456.175	85.56
456.395	71.56
456.616	65.56
456.836	95.56
457.056	84.56
457.276	78.56
457.497	71.56
457.717	84.56
457.937	88.56
458.157	81.56
458.377	85.56
458.598	107.56
458.818	128.56
459.038	120.56
459.258	99.56
459.478	73.56
459.698	85.56
459.918	79.56
460.138	85.56
460.358	77.56
460.578	103.56
460.798	77.56
461.018	81.56
461.238	100.56
461.458	78.56
461.678	98.56
461.898	82.56
462.118	78.56
462.338	79.56
462.558	71.56
462.777	70.56
462.997	96.56
463.217	75.56
463.437	86.56
463.657	97.56
463.876	82.56
464.096	87.56
464.316	92.56
464.536	91.56
464.755	96.56
464.975	111.56
465.195	140.56
465.414	126.56
465.634	95.56
465.854	87.56
466.073	84.56
466.293	87.56
466.512	114.56
466.732	89.56
466.951	86.56
467.171	88.56
467.391	83.56
467.61	95.56
467.829	106.56
468.049	99.56
468.268	96.56
468.488	102.56
468.707	88.56
468.927	81.56
469.146	94.56
469.365	99.56
469.585	91.56
469.804	94.56
470.023	84.56
470.243	89.56
470.462	106.56
470.681	106.56
470.901	83.56
471.12	87.56
471.339	85.56
471.558	97.56
471.777	97.56
471.997	73.56
472.216	103.56
472.435	147.56
472.654	94.56
472.873	83.56
473.092	88.56
473.311	72.56
473.53	86.56
473.749	73.56
473.968	107.56
474.187	98.56
474.406	91.56
474.625	86.56
474.844	81.56
475.063	87.56
475.282	83.56
475.501	99.56
475.72	94.56
475.939	83.56
476.158	68.56
476.377	90.56
476.596	85.56
476.814	93.56
477.033	85.56
477.252	84.56
477.471	77.56
477.69	74.56
477.908	90.56
478.127	85.56
478.346	103.56
478.564	84.56
478.783	94.56
479.002	89.56
479.22	88.56
479.439	104.56
479.658	111.56
479.876	91.56
480.095	85.56
480.313	101.56
480.532	96.56
480.751	77.56
480.969	106.56
481.188	174.56
481.406	141.56
481.624	99.56
481.843	79.56
482.061	76.56
482.28	89.56
482.498	107.56
482.717	85.56
482.935	88.56
483.153	87.56
483.372	73.56
483.59	91.56
483.808	77.56
484.027	89.56
484.245	104.56
484.463	92.56
484.681	89.56
484.9	103.56
485.118	95.56
485.336	109.56
485.554	97.56
485.772	114.56
485.99	101.56
486.209	100.56
486.427	93.56
486.645	104.56
486.863	104.56
487.081	96.56
487.299	93.56
487.517	97.56
487.735	89.56
487.953	93.56
488.171	82.56
488.389	101.56
488.607	108.56
488.825	105.56
489.043	102.56
489.261	106.56
489.479	83.56
489.696	91.56
489.914	91.56
490.132	101.56
490.35	96.56
490.568	89.56
490.786	86.56
491.003	99.56
491.221	99.56
491.439	91.56
491.657	97.56
491.874	82.56
492.092	80.56
492.31	86.56
492.527	105.56
492.745	105.56
492.963	84.56
493.18	92.56
493.398	100.56
493.615	112.56
493.833	99.56
494.05	101.56
494.268	102.56
494.485	93.56
494.703	97.56
494.92	98.56
495.138	82.56
495.355	90.56
495.573	99.56
495.79	90.56
496.008	93.56
496.225	105.56
496.442	82.56
496.66	88.56
496.877	88.56
497.094	84.56
497.312	79.56
497.529	86.56
497.746	93.56
497.963	88.56
498.181	85.56
498.398	86.56
498.615	110.56
498.832	117.56
499.049	102.56
499.267	91.56
499.484	85.56
499.701	90.56
499.918	89.56
500.135	89.56
500.352	96.56
500.569	77.56
500.786	77.56
501.003	90.56
501.22	94.56
501.437	81.56
501.654	86.56
501.871	104.56
502.088	71.56
502.305	83.56
502.522	95.56
502.739	80.56
502.956	95.56
503.172	86.56
503.389	91.56
503.606	90.56
503.823	89.56
504.04	87.56
504.256	89.56
504.473	78.56
504.69	79.56
504.907	72.56
505.123	71.56
505.34	86.56
505.557	98.56
505.773	88.56
505.99	87.56
506.207	83.56
506.423	94.56
506.64	71.56
506.856	82.56
507.073	89.56
507.289	97.56
507.506	93.56
507.722	106.56
507.939	89.56
508.155	99.56
508.372	98.56
508.588	97.56
508.805	84.56
509.021	74.56
509.238	104.56
509.454	93.56
509.67	100.56
509.887	93.56
510.103	119.56
510.319	180.56
510.536	598.56
510.752	1736.56
510.968	508.56
511.184	116.56
511.401	85.56
511.617	82.56
511.833	87.56
512.049	103.56
512.265	103.56
512.481	106.56
512.698	91.56
512.914	99.56
513.13	94.56
513.346	86.56
513.562	88.56
513.778	99.56
513.994	99.56
514.21	92.56
514.426	92.56
514.642	116.56
514.858	102.56
515.074	139.56
515.29	321.56
515.506	1009.56
515.721	374.56
515.937	126.56
516.153	105.56
516.369	108.56
