Data from Circ_1985_H10_HRD10591_00037.txt Node
Date: Wed Jan 03 12:19:30 EST 2024
User: Yrep
Spectrometer: HR+D1059
Trigger mode: 1
Integration Time (sec): 1.000000E-1
Scans to average: 1
Electric dark correction enabled: true
Nonlinearity correction enabled: false
Boxcar width: 0
XAxis mode: Wavelengths
Number of Pixels in Spectrum: 2048
>>>>>Begin Spectral Data<<<<<
223.165	-15.06
223.4	-15.06
223.635	-15.06
223.869	-17.06
224.104	-20.06
224.338	-12.06
224.573	-22.06
224.808	-21.06
225.042	-4.06
225.277	8.94
225.511	-7.06
225.746	7.94
225.98	7.94
226.215	12.94
226.449	16.94
226.683	20.94
226.918	12.94
227.152	29.94
227.387	39.94
227.621	53.94
227.856	47.94
228.09	39.94
228.324	67.94
228.559	69.94
228.793	160.94
229.027	419.94
229.262	483.94
229.496	554.94
229.73	711.94
229.964	710.94
230.199	515.94
230.433	475.94
230.667	443.94
230.901	432.94
231.136	426.94
231.37	434.94
231.604	445.94
231.838	449.94
232.072	424.94
232.306	459.94
232.541	460.94
232.775	449.94
233.009	469.94
233.243	477.94
233.477	465.94
233.711	488.94
233.945	485.94
234.179	511.94
234.413	501.94
234.647	494.94
234.881	490.94
235.115	508.94
235.349	547.94
235.583	556.94
235.817	558.94
236.051	597.94
236.285	590.94
236.519	610.94
236.753	669.94
236.987	841.94
237.221	1220.94
237.455	1380.94
237.689	833.94
237.922	710.94
238.156	694.94
238.39	664.94
238.624	617.94
238.858	624.94
239.091	644.94
239.325	632.94
239.559	649.94
239.793	682.94
240.027	722.94
240.26	832.94
240.494	884.94
240.728	860.94
240.961	839.94
241.195	785.94
241.429	736.94
241.662	752.94
241.896	747.94
242.13	746.94
242.363	738.94
242.597	750.94
242.83	835.94
243.064	802.94
243.298	810.94
243.531	788.94
243.765	823.94
243.998	825.94
244.232	849.94
244.465	861.94
244.699	896.94
244.932	866.94
245.166	873.94
245.399	916.94
245.633	867.94
245.866	867.94
246.099	899.94
246.333	923.94
246.566	921.94
246.8	970.94
247.033	984.94
247.266	1018.94
247.5	1059.94
247.733	1075.94
247.966	1106.94
248.2	1080.94
248.433	1121.94
248.666	1191.94
248.899	1260.94
249.133	1391.94
249.366	1368.94
249.599	1277.94
249.832	1205.94
250.066	1212.94
250.299	1249.94
250.532	1372.94
250.765	1504.94
250.998	1667.94
251.231	1589.94
251.465	1452.94
251.698	1367.94
251.931	1380.94
252.164	1363.94
252.397	1359.94
252.63	1404.94
252.863	1470.94
253.096	1585.94
253.329	1669.94
253.562	1573.94
253.795	1504.94
254.028	1499.94
254.261	1534.94
254.494	1681.94
254.727	1969.94
254.96	2076.94
255.193	1843.94
255.426	1696.94
255.659	1632.94
255.892	1708.94
256.124	1747.94
256.357	1697.94
256.59	1619.94
256.823	1505.94
257.056	1477.94
257.289	1527.94
257.521	1498.94
257.754	1495.94
257.987	1524.94
258.22	1503.94
258.452	1485.94
258.685	1504.94
258.918	1520.94
259.151	1561.94
259.383	1619.94
259.616	1621.94
259.849	1681.94
260.081	1785.94
260.314	2027.94
260.547	1891.94
260.779	1799.94
261.012	1702.94
261.244	1658.94
261.477	1622.94
261.71	1676.94
261.942	1671.94
262.175	1684.94
262.407	1658.94
262.64	1579.94
262.872	1635.94
263.105	1585.94
263.337	1585.94
263.57	1638.94
263.802	1612.94
264.035	1593.94
264.267	1624.94
264.499	1603.94
264.732	1633.94
264.964	1640.94
265.197	1627.94
265.429	1666.94
265.661	1658.94
265.894	1671.94
266.126	1681.94
266.358	1693.94
266.591	1723.94
266.823	1800.94
267.055	1800.94
267.287	1814.94
267.52	1789.94
267.752	1791.94
267.984	1780.94
268.216	1837.94
268.448	1851.94
268.681	1910.94
268.913	2032.94
269.145	2130.94
269.377	2240.94
269.609	2163.94
269.841	2146.94
270.073	2256.94
270.306	2461.94
270.538	2561.94
270.77	2497.94
271.002	2386.94
271.234	2315.94
271.466	2414.94
271.698	2517.94
271.93	2551.94
272.162	2551.94
272.394	2443.94
272.626	2404.94
272.858	2240.94
273.09	2218.94
273.322	2182.94
273.553	2106.94
273.785	2168.94
274.017	2150.94
274.249	2185.94
274.481	2144.94
274.713	2160.94
274.945	2217.94
275.176	2197.94
275.408	2193.94
275.64	2184.94
275.872	2166.94
276.104	2192.94
276.335	2207.94
276.567	2273.94
276.799	2402.94
277.031	2566.94
277.262	2691.94
277.494	2614.94
277.726	2485.94
277.957	2418.94
278.189	2307.94
278.421	2294.94
278.652	2275.94
278.884	2275.94
279.115	2247.94
279.347	2285.94
279.579	2299.94
279.81	2288.94
280.042	2295.94
280.273	2324.94
280.505	2351.94
280.736	2311.94
280.968	2266.94
281.199	2342.94
281.431	2314.94
281.662	2337.94
281.894	2351.94
282.125	2397.94
282.356	2527.94
282.588	2635.94
282.819	2530.94
283.051	2450.94
283.282	2453.94
283.513	2480.94
283.745	2554.94
283.976	2526.94
284.207	2521.94
284.439	2521.94
284.67	2490.94
284.901	2549.94
285.132	2519.94
285.364	2540.94
285.595	2554.94
285.826	2475.94
286.057	2551.94
286.288	2570.94
286.52	2545.94
286.751	2635.94
286.982	2630.94
287.213	2613.94
287.444	2614.94
287.675	2681.94
287.906	2748.94
288.138	2788.94
288.369	2784.94
288.6	2731.94
288.831	2743.94
289.062	2680.94
289.293	2740.94
289.524	2750.94
289.755	2694.94
289.986	2677.94
290.217	2719.94
290.448	2670.94
290.679	2714.94
290.91	2727.94
291.141	2674.94
291.371	2684.94
291.602	2716.94
291.833	2680.94
292.064	2722.94
292.295	2723.94
292.526	2707.94
292.757	2746.94
292.987	2666.94
293.218	2727.94
293.449	2739.94
293.68	2719.94
293.91	2777.94
294.141	2723.94
294.372	2727.94
294.603	2743.94
294.833	2780.94
295.064	2763.94
295.295	2753.94
295.525	2796.94
295.756	2839.94
295.987	2844.94
296.217	3007.94
296.448	2966.94
296.679	2842.94
296.909	2835.94
297.14	2840.94
297.37	2874.94
297.601	2925.94
297.831	2880.94
298.062	2915.94
298.292	2915.94
298.523	2930.94
298.753	3012.94
298.984	2968.94
299.214	3031.94
299.445	2977.94
299.675	3012.94
299.905	3004.94
300.136	3018.94
300.366	3013.94
300.597	3009.94
300.827	3151.94
301.057	3170.94
301.288	3202.94
301.518	3127.94
301.748	3167.94
301.979	3209.94
302.209	3202.94
302.439	3224.94
302.669	3147.94
302.9	3168.94
303.13	3131.94
303.36	3159.94
303.59	3189.94
303.82	3250.94
304.051	3171.94
304.281	3164.94
304.511	3181.94
304.741	3134.94
304.971	3153.94
305.201	3096.94
305.431	3114.94
305.661	3129.94
305.891	3101.94
306.121	3147.94
306.352	3163.94
306.582	3161.94
306.812	3099.94
307.042	3128.94
307.272	3146.94
307.502	3110.94
307.731	3114.94
307.961	3108.94
308.191	3119.94
308.421	3098.94
308.651	3161.94
308.881	3130.94
309.111	3135.94
309.341	3175.94
309.571	3274.94
309.8	3302.94
310.03	3391.94
310.26	3363.94
310.49	3435.94
310.72	3498.94
310.949	3512.94
311.179	3539.94
311.409	3415.94
311.639	3416.94
311.868	3440.94
312.098	3446.94
312.328	3532.94
312.557	3654.94
312.787	3674.94
313.017	3619.94
313.246	3560.94
313.476	3546.94
313.706	3575.94
313.935	3687.94
314.165	3685.94
314.394	3702.94
314.624	3629.94
314.853	3582.94
315.083	3577.94
315.312	3535.94
315.542	3520.94
315.771	3471.94
316.001	3466.94
316.23	3475.94
316.46	3437.94
316.689	3543.94
316.919	3577.94
317.148	3569.94
317.377	3544.94
317.607	3522.94
317.836	3530.94
318.065	3538.94
318.295	3451.94
318.524	3461.94
318.753	3456.94
318.983	3539.94
319.212	3430.94
319.441	3531.94
319.67	3579.94
319.9	3533.94
320.129	3544.94
320.358	3520.94
320.587	3543.94
320.816	3565.94
321.046	3683.94
321.275	3669.94
321.504	3643.94
321.733	3623.94
321.962	3724.94
322.191	3742.94
322.42	3877.94
322.649	3891.94
322.878	3961.94
323.108	4065.94
323.337	4126.94
323.566	4268.94
323.795	4561.94
324.024	5002.94
324.253	6338.94
324.482	9129.94
324.71	13680.94
324.939	15424.94
325.168	10287.94
325.397	5876.94
325.626	4843.94
325.855	4497.94
326.084	4384.94
326.313	4459.94
326.542	4579.94
326.77	4981.94
326.999	6128.94
327.228	8685.94
327.457	12646.94
327.686	11785.94
327.914	6554.94
328.143	5338.94
328.372	5051.94
328.6	4795.94
328.829	4725.94
329.058	4914.94
329.287	4844.94
329.515	4644.94
329.744	4593.94
329.972	4642.94
330.201	4831.94
330.43	5039.94
330.658	5119.94
330.887	5208.94
331.115	4933.94
331.344	4709.94
331.572	4612.94
331.801	4719.94
332.03	4697.94
332.258	4715.94
332.486	4689.94
332.715	4834.94
332.943	4978.94
333.172	5114.94
333.4	5174.94
333.629	5327.94
333.857	5455.94
334.085	5477.94
334.314	5537.94
334.542	5598.94
334.771	5548.94
334.999	5193.94
335.227	5017.94
335.455	4985.94
335.684	4816.94
335.912	4815.94
336.14	4705.94
336.369	4700.94
336.597	4817.94
336.825	4728.94
337.053	4681.94
337.281	4520.94
337.51	4508.94
337.738	4501.94
337.966	4473.94
338.194	4424.94
338.422	4328.94
338.65	4283.94
338.878	4322.94
339.106	4322.94
339.334	4269.94
339.562	4253.94
339.79	4150.94
340.018	4167.94
340.246	4114.94
340.474	4213.94
340.702	4191.94
340.93	4140.94
341.158	4251.94
341.386	4138.94
341.614	4207.94
341.842	4114.94
342.07	4058.94
342.298	4154.94
342.526	4048.94
342.754	4080.94
342.981	4092.94
343.209	4213.94
343.437	4420.94
343.665	4676.94
343.893	4941.94
344.12	4963.94
344.348	4731.94
344.576	4540.94
344.804	4476.94
345.031	4354.94
345.259	4327.94
345.487	4151.94
345.714	4104.94
345.942	4049.94
346.17	4063.94
346.397	4027.94
346.625	3993.94
346.853	3945.94
347.08	3935.94
347.308	3973.94
347.535	4077.94
347.763	4071.94
347.99	4051.94
348.218	4076.94
348.445	4045.94
348.673	4011.94
348.9	3927.94
349.128	3873.94
349.355	3822.94
349.583	3842.94
349.81	3872.94
350.037	3797.94
350.265	3847.94
350.492	3856.94
350.72	3871.94
350.947	3891.94
351.174	3952.94
351.402	4008.94
351.629	3886.94
351.856	3882.94
352.083	3959.94
352.311	3988.94
352.538	4006.94
352.765	3924.94
352.992	3932.94
353.22	3879.94
353.447	3863.94
353.674	3845.94
353.901	3771.94
354.128	3755.94
354.355	3752.94
354.583	3755.94
354.81	3796.94
355.037	3816.94
355.264	3783.94
355.491	3764.94
355.718	3732.94
355.945	3783.94
356.172	3834.94
356.399	3844.94
356.626	3755.94
356.853	3744.94
357.08	3727.94
357.307	3758.94
357.534	3763.94
357.761	3783.94
357.988	3778.94
358.215	3785.94
358.441	3834.94
358.668	3763.94
358.895	3843.94
359.122	3893.94
359.349	3961.94
359.576	3980.94
359.802	4159.94
360.029	4211.94
360.256	4237.94
360.483	4116.94
360.709	3949.94
360.936	3936.94
361.163	3905.94
361.39	3939.94
361.616	3956.94
361.843	3903.94
362.07	3920.94
362.296	3856.94
362.523	3892.94
362.749	3951.94
362.976	3936.94
363.203	3846.94
363.429	3826.94
363.656	3881.94
363.882	3845.94
364.109	3772.94
364.335	3818.94
364.562	3778.94
364.788	3818.94
365.015	3806.94
365.241	3834.94
365.468	3870.94
365.694	3874.94
365.92	3882.94
366.147	3818.94
366.373	3803.94
366.599	3824.94
366.826	3759.94
367.052	3802.94
367.278	3847.94
367.505	3860.94
367.731	3820.94
367.957	3884.94
368.184	3868.94
368.41	3922.94
368.636	3992.94
368.862	4056.94
369.089	3983.94
369.315	3908.94
369.541	3911.94
369.767	4010.94
369.993	3995.94
370.219	3948.94
370.445	4004.94
370.672	4037.94
370.898	4041.94
371.124	4081.94
371.35	4120.94
371.576	4130.94
371.802	4056.94
372.028	4002.94
372.254	4104.94
372.48	4124.94
372.706	4282.94
372.932	4265.94
373.158	4247.94
373.384	4175.94
373.61	4073.94
373.835	4166.94
374.061	4122.94
374.287	4289.94
374.513	4312.94
374.739	4383.94
374.965	4500.94
375.191	4547.94
375.416	4420.94
375.642	4288.94
375.868	4307.94
376.094	4235.94
376.319	4136.94
376.545	4174.94
376.771	4115.94
376.997	4114.94
377.222	4062.94
377.448	4103.94
377.674	4134.94
377.899	4067.94
378.125	4109.94
378.35	4043.94
378.576	4067.94
378.802	4056.94
379.027	4068.94
379.253	4042.94
379.478	4056.94
379.704	4066.94
379.929	4064.94
380.155	4077.94
380.38	4080.94
380.606	4148.94
380.831	4094.94
381.057	4113.94
381.282	4143.94
381.507	4164.94
381.733	4184.94
381.958	4214.94
382.184	4292.94
382.409	4332.94
382.634	4316.94
382.86	4364.94
383.085	4395.94
383.31	4458.94
383.535	4543.94
383.761	4539.94
383.986	4658.94
384.211	4743.94
384.436	4807.94
384.662	4868.94
384.887	4930.94
385.112	4913.94
385.337	5007.94
385.562	5032.94
385.787	4995.94
386.013	5117.94
386.238	5090.94
386.463	5104.94
386.688	5015.94
386.913	4912.94
387.138	4934.94
387.363	4964.94
387.588	4842.94
387.813	4876.94
388.038	4884.94
388.263	4953.94
388.488	5032.94
388.713	5002.94
388.938	4900.94
389.163	4827.94
389.387	4845.94
389.612	4868.94
389.837	4919.94
390.062	4840.94
390.287	4812.94
390.512	4822.94
390.736	4908.94
390.961	5031.94
391.186	5103.94
391.411	5199.94
391.636	5333.94
391.86	5508.94
392.085	5524.94
392.31	5407.94
392.534	5377.94
392.759	5198.94
392.984	5164.94
393.208	5174.94
393.433	5195.94
393.658	5151.94
393.882	5144.94
394.107	5124.94
394.331	5170.94
394.556	5155.94
394.78	5171.94
395.005	5231.94
395.229	5179.94
395.454	5448.94
395.678	5494.94
395.903	5576.94
396.127	5624.94
396.352	5384.94
396.576	5293.94
396.801	5263.94
397.025	5322.94
397.249	5418.94
397.474	5489.94
397.698	5561.94
397.922	5666.94
398.147	5741.94
398.371	5822.94
398.595	5947.94
398.82	6227.94
399.044	6792.94
399.268	7663.94
399.492	8616.94
399.717	9152.94
399.941	8897.94
400.165	8280.94
400.389	7661.94
400.613	6938.94
400.837	6422.94
401.062	6292.94
401.286	6221.94
401.51	6119.94
401.734	6205.94
401.958	6314.94
402.182	6428.94
402.406	6547.94
402.63	6570.94
402.854	6648.94
403.078	6837.94
403.302	6980.94
403.526	7039.94
403.75	7071.94
403.974	7123.94
404.198	7060.94
404.422	7163.94
404.645	7031.94
404.869	7034.94
405.093	7237.94
405.317	7491.94
405.541	7446.94
405.765	7002.94
405.988	6969.94
406.212	7067.94
406.436	7300.94
406.66	7308.94
406.883	7260.94
407.107	8008.94
407.331	8369.94
407.555	8845.94
407.778	8565.94
408.002	7863.94
408.226	7482.94
408.449	7383.94
408.673	7261.94
408.896	7404.94
409.12	7479.94
409.344	7201.94
409.567	6890.94
409.791	6820.94
410.014	6682.94
410.238	6680.94
410.461	6696.94
410.685	6808.94
410.908	6789.94
411.132	6994.94
411.355	6952.94
411.578	6592.94
411.802	6480.94
412.025	6428.94
412.249	6603.94
412.472	6789.94
412.695	6859.94
412.919	6492.94
413.142	6316.94
413.365	6223.94
413.589	6200.94
413.812	6160.94
414.035	5991.94
414.258	6035.94
414.482	6081.94
414.705	6184.94
414.928	6116.94
415.151	6063.94
415.374	6095.94
415.597	6043.94
415.821	5958.94
416.044	5999.94
416.267	5940.94
416.49	5886.94
416.713	5919.94
416.936	6004.94
417.159	5983.94
417.382	6083.94
417.605	6044.94
417.828	6180.94
418.051	6341.94
418.274	6212.94
418.497	6088.94
418.72	6206.94
418.943	6169.94
419.166	6577.94
419.389	7056.94
419.611	6855.94
419.834	6597.94
420.057	6517.94
420.28	6431.94
420.503	6266.94
420.726	6192.94
420.948	6331.94
421.171	6636.94
421.394	6626.94
421.617	6272.94
421.839	6189.94
422.062	6336.94
422.285	6441.94
422.507	7039.94
422.73	7456.94
422.953	7001.94
423.175	6705.94
423.398	6646.94
423.621	6627.94
423.843	6782.94
424.066	6849.94
424.288	6758.94
424.511	7010.94
424.733	7349.94
424.956	7723.94
425.178	7281.94
425.401	7489.94
425.623	7269.94
425.846	6444.94
426.068	6329.94
426.291	6233.94
426.513	6226.94
426.735	6263.94
426.958	6689.94
427.18	7341.94
427.402	8319.94
427.625	8313.94
427.847	7194.94
428.069	6573.94
428.292	6118.94
428.514	5707.94
428.736	5704.94
428.958	5738.94
429.181	5560.94
429.403	5513.94
429.625	5699.94
429.847	5946.94
430.069	6412.94
430.292	5971.94
430.514	5584.94
430.736	5535.94
430.958	5541.94
431.18	5427.94
431.402	5411.94
431.624	5345.94
431.846	5469.94
432.068	5429.94
432.29	5603.94
432.512	5504.94
432.734	5591.94
432.956	5507.94
433.178	5546.94
433.4	5521.94
433.622	5514.94
433.844	5537.94
434.066	5483.94
434.287	5651.94
434.509	5783.94
434.731	6062.94
434.953	6115.94
435.175	6265.94
435.397	6369.94
435.618	6234.94
435.84	6576.94
436.062	7308.94
436.284	7099.94
436.505	6179.94
436.727	5847.94
436.949	5600.94
437.17	5586.94
437.392	5509.94
437.614	5663.94
437.835	6006.94
438.057	6771.94
438.278	7319.94
438.5	7319.94
438.721	8038.94
438.943	7089.94
439.165	6021.94
439.386	5911.94
439.608	5885.94
439.829	5988.94
440.05	6262.94
440.272	6406.94
440.493	5991.94
440.715	5809.94
440.936	5771.94
441.158	5826.94
441.379	5867.94
441.6	6256.94
441.822	6453.94
442.043	6873.94
442.264	7514.94
442.486	7232.94
442.707	6565.94
442.928	6356.94
443.149	6579.94
443.371	6637.94
443.592	7178.94
443.813	8067.94
444.034	8024.94
444.255	7116.94
444.476	7033.94
444.698	7137.94
444.919	7273.94
445.14	6978.94
445.361	6854.94
445.582	6874.94
445.803	7236.94
446.024	7871.94
446.245	7496.94
446.466	6905.94
446.687	6082.94
446.908	5819.94
447.129	5578.94
447.35	5416.94
447.571	5414.94
447.792	5227.94
448.013	5402.94
448.234	5522.94
448.455	6049.94
448.675	7123.94
448.896	7469.94
449.117	6313.94
449.338	6437.94
449.559	7628.94
449.779	7647.94
450	6048.94
450.221	5421.94
450.442	5303.94
450.662	5203.94
450.883	5227.94
451.104	5269.94
451.324	5138.94
451.545	5068.94
451.766	4928.94
451.986	4796.94
452.207	4874.94
452.428	4780.94
452.648	4821.94
452.869	4794.94
453.089	4876.94
453.31	4958.94
453.53	4873.94
453.751	4787.94
453.971	4801.94
454.192	4809.94
454.412	4679.94
454.633	4713.94
454.853	4710.94
455.073	4644.94
455.294	5029.94
455.514	5428.94
455.734	4944.94
455.955	4513.94
456.175	4516.94
456.395	4372.94
456.616	4452.94
456.836	4447.94
457.056	4444.94
457.276	4316.94
457.497	4552.94
457.717	4422.94
457.937	4584.94
458.157	4631.94
458.377	4705.94
458.598	4997.94
458.818	5565.94
459.038	6179.94
459.258	6057.94
459.478	5613.94
459.698	5417.94
459.918	5586.94
460.138	5840.94
460.358	6004.94
460.578	5973.94
460.798	6119.94
461.018	6100.94
461.238	5869.94
461.458	5896.94
461.678	5866.94
461.898	6004.94
462.118	6120.94
462.338	6400.94
462.558	6553.94
462.777	6848.94
462.997	7381.94
463.217	7833.94
463.437	7602.94
463.657	6955.94
463.876	6814.94
464.096	6833.94
464.316	6852.94
464.536	6852.94
464.755	6678.94
464.975	6522.94
465.195	6529.94
465.414	6483.94
465.634	5786.94
465.854	5474.94
466.073	5338.94
466.293	5167.94
466.512	5114.94
466.732	4908.94
466.951	4915.94
467.171	4945.94
467.391	5059.94
467.61	5039.94
467.829	5011.94
468.049	4956.94
468.268	4875.94
468.488	4761.94
468.707	4711.94
468.927	4755.94
469.146	4809.94
469.365	4793.94
469.585	4860.94
469.804	5019.94
470.023	5166.94
470.243	5161.94
470.462	5254.94
470.681	5315.94
470.901	5210.94
471.12	5033.94
471.339	5012.94
471.558	5042.94
471.777	4959.94
471.997	4879.94
472.216	4919.94
472.435	5050.94
472.654	4911.94
472.873	4751.94
473.092	4757.94
473.311	4745.94
473.53	4748.94
473.749	4895.94
473.968	5266.94
474.187	6226.94
474.406	5735.94
474.625	5063.94
474.844	4829.94
475.063	4804.94
475.282	4740.94
475.501	4861.94
475.72	4863.94
475.939	4898.94
476.158	4949.94
476.377	5000.94
476.596	4949.94
476.814	5126.94
477.033	5101.94
477.252	5209.94
477.471	5334.94
477.69	5431.94
477.908	5514.94
478.127	5613.94
478.346	5703.94
478.564	5756.94
478.783	5823.94
479.002	6008.94
479.22	5984.94
479.439	6032.94
479.658	6161.94
479.876	6287.94
480.095	6432.94
480.313	6779.94
480.532	6795.94
480.751	6614.94
480.969	6514.94
481.188	6883.94
481.406	6564.94
481.624	6212.94
481.843	5943.94
482.061	5773.94
482.28	5780.94
482.498	5639.94
482.717	5688.94
482.935	5543.94
483.153	5558.94
483.372	5584.94
483.59	5574.94
483.808	5590.94
484.027	5597.94
484.245	5631.94
484.463	5698.94
484.681	5721.94
484.9	5767.94
485.118	5866.94
485.336	5945.94
485.554	6047.94
485.772	5919.94
485.99	5938.94
486.209	6044.94
486.427	6078.94
486.645	6009.94
486.863	6174.94
487.081	6100.94
487.299	6010.94
487.517	6076.94
487.735	5972.94
487.953	6017.94
