Data from Circ_1985_H10_HRD10591_00018.txt Node
Date: Wed Jan 03 12:19:26 EST 2024
User: Yrep
Spectrometer: HR+D1059
Trigger mode: 1
Integration Time (sec): 1.000000E-1
Scans to average: 1
Electric dark correction enabled: true
Nonlinearity correction enabled: false
Boxcar width: 0
XAxis mode: Wavelengths
Number of Pixels in Spectrum: 2048
>>>>>Begin Spectral Data<<<<<
223.165	-21.69
223.4	-21.69
223.635	-21.69
223.869	-16.69
224.104	-27.69
224.338	-2.69
224.573	-15.69
224.808	-15.69
225.042	-14.69
225.277	-18.69
225.511	5.31
225.746	2.31
225.98	-1.69
226.215	15.31
226.449	12.31
226.683	27.31
226.918	35.31
227.152	37.31
227.387	37.31
227.621	36.31
227.856	50.31
228.09	50.31
228.324	50.31
228.559	53.31
228.793	56.31
229.027	56.31
229.262	66.31
229.496	69.31
229.73	73.31
229.964	73.31
230.199	62.31
230.433	69.31
230.667	80.31
230.901	78.31
231.136	65.31
231.37	73.31
231.604	74.31
231.838	73.31
232.072	79.31
232.306	80.31
232.541	74.31
232.775	77.31
233.009	90.31
233.243	63.31
233.477	80.31
233.711	80.31
233.945	68.31
234.179	91.31
234.413	82.31
234.647	79.31
234.881	92.31
235.115	85.31
235.349	82.31
235.583	75.31
235.817	69.31
236.051	78.31
236.285	82.31
236.519	83.31
236.753	81.31
236.987	82.31
237.221	67.31
237.455	87.31
237.689	89.31
237.922	59.31
238.156	66.31
238.39	62.31
238.624	73.31
238.858	85.31
239.091	88.31
239.325	64.31
239.559	72.31
239.793	68.31
240.027	67.31
240.26	73.31
240.494	90.31
240.728	72.31
240.961	82.31
241.195	97.31
241.429	70.31
241.662	70.31
241.896	68.31
242.13	71.31
242.363	67.31
242.597	78.31
242.83	73.31
243.064	74.31
243.298	74.31
243.531	80.31
243.765	80.31
243.998	75.31
244.232	96.31
244.465	89.31
244.699	79.31
244.932	71.31
245.166	80.31
245.399	79.31
245.633	82.31
245.866	86.31
246.099	75.31
246.333	74.31
246.566	84.31
246.8	72.31
247.033	79.31
247.266	67.31
247.5	83.31
247.733	84.31
247.966	66.31
248.2	64.31
248.433	63.31
248.666	73.31
248.899	76.31
249.133	92.31
249.366	82.31
249.599	87.31
249.832	86.31
250.066	88.31
250.299	70.31
250.532	81.31
250.765	85.31
250.998	72.31
251.231	69.31
251.465	73.31
251.698	72.31
251.931	87.31
252.164	81.31
252.397	86.31
252.63	88.31
252.863	80.31
253.096	68.31
253.329	88.31
253.562	75.31
253.795	93.31
254.028	76.31
254.261	79.31
254.494	78.31
254.727	81.31
254.96	84.31
255.193	92.31
255.426	65.31
255.659	73.31
255.892	90.31
256.124	97.31
256.357	78.31
256.59	72.31
256.823	75.31
257.056	72.31
257.289	84.31
257.521	72.31
257.754	73.31
257.987	72.31
258.22	90.31
258.452	80.31
258.685	84.31
258.918	84.31
259.151	79.31
259.383	84.31
259.616	82.31
259.849	84.31
260.081	69.31
260.314	82.31
260.547	83.31
260.779	80.31
261.012	100.31
261.244	83.31
261.477	88.31
261.71	90.31
261.942	111.31
262.175	110.31
262.407	92.31
262.64	83.31
262.872	86.31
263.105	76.31
263.337	83.31
263.57	66.31
263.802	81.31
264.035	78.31
264.267	84.31
264.499	75.31
264.732	81.31
264.964	74.31
265.197	83.31
265.429	88.31
265.661	86.31
265.894	89.31
266.126	79.31
266.358	66.31
266.591	78.31
266.823	84.31
267.055	76.31
267.287	92.31
267.52	92.31
267.752	99.31
267.984	82.31
268.216	89.31
268.448	82.31
268.681	85.31
268.913	84.31
269.145	88.31
269.377	83.31
269.609	94.31
269.841	107.31
270.073	84.31
270.306	78.31
270.538	73.31
270.77	75.31
271.002	82.31
271.234	92.31
271.466	103.31
271.698	93.31
271.93	73.31
272.162	88.31
272.394	79.31
272.626	90.31
272.858	95.31
273.09	110.31
273.322	88.31
273.553	71.31
273.785	83.31
274.017	84.31
274.249	67.31
274.481	80.31
274.713	79.31
274.945	100.31
275.176	92.31
275.408	86.31
275.64	80.31
275.872	92.31
276.104	94.31
276.335	92.31
276.567	102.31
276.799	86.31
277.031	95.31
277.262	102.31
277.494	91.31
277.726	87.31
277.957	82.31
278.189	88.31
278.421	73.31
278.652	76.31
278.884	82.31
279.115	87.31
279.347	70.31
279.579	80.31
279.81	64.31
280.042	76.31
280.273	95.31
280.505	92.31
280.736	97.31
280.968	90.31
281.199	86.31
281.431	72.31
281.662	96.31
281.894	89.31
282.125	94.31
282.356	119.31
282.588	108.31
282.819	100.31
283.051	85.31
283.282	82.31
283.513	71.31
283.745	74.31
283.976	76.31
284.207	78.31
284.439	89.31
284.67	101.31
284.901	82.31
285.132	80.31
285.364	75.31
285.595	75.31
285.826	91.31
286.057	102.31
286.288	76.31
286.52	80.31
286.751	76.31
286.982	84.31
287.213	84.31
287.444	91.31
287.675	64.31
287.906	98.31
288.138	88.31
288.369	77.31
288.6	86.31
288.831	96.31
289.062	80.31
289.293	86.31
289.524	78.31
289.755	72.31
289.986	88.31
290.217	99.31
290.448	93.31
290.679	86.31
290.91	80.31
291.141	91.31
291.371	96.31
291.602	95.31
291.833	81.31
292.064	81.31
292.295	73.31
292.526	80.31
292.757	103.31
292.987	82.31
293.218	91.31
293.449	67.31
293.68	96.31
293.91	82.31
294.141	87.31
294.372	88.31
294.603	86.31
294.833	100.31
295.064	87.31
295.295	89.31
295.525	90.31
295.756	101.31
295.987	119.31
296.217	119.31
296.448	99.31
296.679	93.31
296.909	90.31
297.14	82.31
297.37	91.31
297.601	86.31
297.831	99.31
298.062	93.31
298.292	112.31
298.523	94.31
298.753	86.31
298.984	84.31
299.214	87.31
299.445	105.31
299.675	92.31
299.905	94.31
300.136	99.31
300.366	98.31
300.597	80.31
300.827	73.31
301.057	86.31
301.288	97.31
301.518	97.31
301.748	88.31
301.979	111.31
302.209	96.31
302.439	79.31
302.669	99.31
302.9	82.31
303.13	97.31
303.36	89.31
303.59	93.31
303.82	97.31
304.051	95.31
304.281	82.31
304.511	84.31
304.741	81.31
304.971	78.31
305.201	78.31
305.431	95.31
305.661	92.31
305.891	102.31
306.121	96.31
306.352	102.31
306.582	102.31
306.812	89.31
307.042	90.31
307.272	100.31
307.502	84.31
307.731	91.31
307.961	93.31
308.191	87.31
308.421	104.31
308.651	90.31
308.881	88.31
309.111	86.31
309.341	98.31
309.571	87.31
309.8	103.31
310.03	91.31
310.26	99.31
310.49	110.31
310.72	97.31
310.949	96.31
311.179	116.31
311.409	83.31
311.639	92.31
311.868	91.31
312.098	88.31
312.328	102.31
312.557	94.31
312.787	92.31
313.017	102.31
313.246	87.31
313.476	99.31
313.706	98.31
313.935	100.31
314.165	94.31
314.394	114.31
314.624	80.31
314.853	91.31
315.083	97.31
315.312	95.31
315.542	89.31
315.771	94.31
316.001	99.31
316.23	84.31
316.46	84.31
316.689	95.31
316.919	91.31
317.148	92.31
317.377	90.31
317.607	96.31
317.836	104.31
318.065	95.31
318.295	92.31
318.524	93.31
318.753	111.31
318.983	85.31
319.212	98.31
319.441	94.31
319.67	99.31
319.9	82.31
320.129	90.31
320.358	78.31
320.587	98.31
320.816	99.31
321.046	93.31
321.275	97.31
321.504	72.31
321.733	88.31
321.962	108.31
322.191	95.31
322.42	101.31
322.649	104.31
322.878	99.31
323.108	96.31
323.337	129.31
323.566	119.31
323.795	134.31
324.024	179.31
324.253	342.31
324.482	679.31
324.71	1422.31
324.939	1923.31
325.168	698.31
325.397	215.31
325.626	130.31
325.855	124.31
326.084	131.31
326.313	134.31
326.542	130.31
326.77	192.31
326.999	402.31
327.228	816.31
327.457	1462.31
327.686	1184.31
327.914	314.31
328.143	179.31
328.372	129.31
328.6	96.31
328.829	118.31
329.058	98.31
329.287	108.31
329.515	108.31
329.744	100.31
329.972	113.31
330.201	106.31
330.43	88.31
330.658	106.31
330.887	111.31
331.115	105.31
331.344	95.31
331.572	113.31
331.801	107.31
332.03	96.31
332.258	94.31
332.486	100.31
332.715	89.31
332.943	94.31
333.172	109.31
333.4	97.31
333.629	108.31
333.857	103.31
334.085	86.31
334.314	105.31
334.542	104.31
334.771	109.31
334.999	93.31
335.227	108.31
335.455	103.31
335.684	91.31
335.912	112.31
336.14	104.31
336.369	105.31
336.597	113.31
336.825	84.31
337.053	96.31
337.281	108.31
337.51	95.31
337.738	96.31
337.966	91.31
338.194	102.31
338.422	101.31
338.65	98.31
338.878	88.31
339.106	97.31
339.334	88.31
339.562	84.31
339.79	84.31
340.018	97.31
340.246	85.31
340.474	91.31
340.702	111.31
340.93	94.31
341.158	91.31
341.386	89.31
341.614	85.31
341.842	96.31
342.07	92.31
342.298	106.31
342.526	91.31
342.754	86.31
342.981	99.31
343.209	86.31
343.437	104.31
343.665	96.31
343.893	87.31
344.12	87.31
344.348	99.31
344.576	82.31
344.804	82.31
345.031	100.31
345.259	76.31
345.487	94.31
345.714	100.31
345.942	82.31
346.17	91.31
346.397	82.31
346.625	82.31
346.853	92.31
347.08	91.31
347.308	104.31
347.535	89.31
347.763	103.31
347.99	106.31
348.218	96.31
348.445	105.31
348.673	101.31
348.9	93.31
349.128	85.31
349.355	82.31
349.583	92.31
349.81	92.31
350.037	90.31
350.265	80.31
350.492	92.31
350.72	96.31
350.947	87.31
351.174	104.31
351.402	105.31
351.629	78.31
351.856	87.31
352.083	98.31
352.311	102.31
352.538	95.31
352.765	112.31
352.992	110.31
353.22	119.31
353.447	106.31
353.674	92.31
353.901	95.31
354.128	94.31
354.355	110.31
354.583	105.31
354.81	107.31
355.037	94.31
355.264	85.31
355.491	108.31
355.718	91.31
355.945	96.31
356.172	97.31
356.399	86.31
356.626	91.31
356.853	93.31
357.08	99.31
357.307	87.31
357.534	87.31
357.761	96.31
357.988	97.31
358.215	107.31
358.441	96.31
358.668	102.31
358.895	84.31
359.122	88.31
359.349	88.31
359.576	87.31
359.802	85.31
360.029	77.31
360.256	98.31
360.483	91.31
360.709	91.31
360.936	91.31
361.163	95.31
361.39	85.31
361.616	86.31
361.843	91.31
362.07	95.31
362.296	97.31
362.523	97.31
362.749	92.31
362.976	87.31
363.203	101.31
363.429	91.31
363.656	94.31
363.882	101.31
364.109	81.31
364.335	92.31
364.562	86.31
364.788	90.31
365.015	102.31
365.241	85.31
365.468	95.31
365.694	75.31
365.92	93.31
366.147	86.31
366.373	90.31
366.599	72.31
366.826	94.31
367.052	94.31
367.278	87.31
367.505	97.31
367.731	93.31
367.957	92.31
368.184	86.31
368.41	91.31
368.636	106.31
368.862	99.31
369.089	110.31
369.315	93.31
369.541	70.31
369.767	90.31
369.993	89.31
370.219	92.31
370.445	82.31
370.672	97.31
370.898	91.31
371.124	104.31
371.35	88.31
371.576	74.31
371.802	90.31
372.028	81.31
372.254	94.31
372.48	89.31
372.706	87.31
372.932	87.31
373.158	92.31
373.384	103.31
373.61	105.31
373.835	94.31
374.061	88.31
374.287	88.31
374.513	106.31
374.739	83.31
374.965	89.31
375.191	97.31
375.416	96.31
375.642	91.31
375.868	96.31
376.094	88.31
376.319	84.31
376.545	88.31
376.771	79.31
376.997	88.31
377.222	103.31
377.448	96.31
377.674	98.31
377.899	83.31
378.125	96.31
378.35	94.31
378.576	89.31
378.802	85.31
379.027	105.31
379.253	79.31
379.478	82.31
379.704	95.31
379.929	95.31
380.155	82.31
380.38	102.31
380.606	97.31
380.831	99.31
381.057	96.31
381.282	103.31
381.507	108.31
381.733	105.31
381.958	99.31
382.184	105.31
382.409	112.31
382.634	115.31
382.86	108.31
383.085	107.31
383.31	101.31
383.535	105.31
383.761	103.31
383.986	111.31
384.211	106.31
384.436	111.31
384.662	114.31
384.887	108.31
385.112	118.31
385.337	121.31
385.562	121.31
385.787	124.31
386.013	114.31
386.238	128.31
386.463	109.31
386.688	112.31
386.913	113.31
387.138	130.31
387.363	108.31
387.588	99.31
387.813	102.31
388.038	120.31
388.263	143.31
388.488	122.31
388.713	91.31
388.938	95.31
389.163	104.31
389.387	90.31
389.612	90.31
389.837	88.31
390.062	97.31
390.287	97.31
390.512	87.31
390.736	91.31
390.961	102.31
391.186	104.31
391.411	107.31
391.636	89.31
391.86	84.31
392.085	81.31
392.31	97.31
392.534	94.31
392.759	75.31
392.984	88.31
393.208	83.31
393.433	93.31
393.658	96.31
393.882	79.31
394.107	99.31
394.331	92.31
394.556	99.31
394.78	91.31
395.005	84.31
395.229	76.31
395.454	101.31
395.678	85.31
395.903	97.31
396.127	90.31
396.352	102.31
396.576	85.31
396.801	101.31
397.025	97.31
397.249	94.31
397.474	70.31
397.698	82.31
397.922	82.31
398.147	91.31
398.371	62.31
398.595	88.31
398.82	86.31
399.044	94.31
399.268	98.31
399.492	73.31
399.717	80.31
399.941	93.31
400.165	87.31
400.389	100.31
400.613	96.31
400.837	103.31
401.062	88.31
401.286	82.31
401.51	98.31
401.734	81.31
401.958	100.31
402.182	107.31
402.406	124.31
402.63	108.31
402.854	74.31
403.078	74.31
403.302	85.31
403.526	101.31
403.75	93.31
403.974	83.31
404.198	77.31
404.422	88.31
404.645	86.31
404.869	90.31
405.093	102.31
405.317	88.31
405.541	78.31
405.765	106.31
405.988	104.31
406.212	127.31
406.436	179.31
406.66	118.31
406.883	104.31
407.107	94.31
407.331	98.31
407.555	102.31
407.778	87.31
408.002	85.31
408.226	78.31
408.449	76.31
408.673	103.31
408.896	94.31
409.12	100.31
409.344	92.31
409.567	91.31
409.791	96.31
410.014	107.31
410.238	96.31
410.461	98.31
410.685	100.31
410.908	84.31
411.132	98.31
411.355	102.31
411.578	106.31
411.802	89.31
412.025	79.31
412.249	88.31
412.472	81.31
412.695	87.31
412.919	88.31
413.142	98.31
413.365	90.31
413.589	102.31
413.812	97.31
414.035	85.31
414.258	100.31
414.482	91.31
414.705	81.31
414.928	91.31
415.151	80.31
415.374	91.31
415.597	90.31
415.821	84.31
416.044	101.31
416.267	85.31
416.49	88.31
416.713	83.31
416.936	95.31
417.159	82.31
417.382	95.31
417.605	94.31
417.828	86.31
418.051	95.31
418.274	89.31
418.497	80.31
418.72	84.31
418.943	87.31
419.166	90.31
419.389	94.31
419.611	97.31
419.834	89.31
420.057	100.31
420.28	79.31
420.503	79.31
420.726	86.31
420.948	92.31
421.171	91.31
421.394	101.31
421.617	98.31
421.839	84.31
422.062	98.31
422.285	90.31
422.507	99.31
422.73	105.31
422.953	99.31
423.175	84.31
423.398	87.31
423.621	79.31
423.843	75.31
424.066	87.31
424.288	92.31
424.511	90.31
424.733	98.31
424.956	105.31
425.178	106.31
425.401	104.31
425.623	92.31
425.846	78.31
426.068	89.31
426.291	91.31
426.513	86.31
426.735	89.31
426.958	95.31
427.18	85.31
427.402	121.31
427.625	136.31
427.847	107.31
428.069	102.31
428.292	74.31
428.514	95.31
428.736	98.31
428.958	94.31
429.181	103.31
429.403	80.31
429.625	95.31
429.847	92.31
430.069	111.31
430.292	97.31
430.514	78.31
430.736	84.31
430.958	80.31
431.18	82.31
431.402	85.31
431.624	81.31
431.846	102.31
432.068	97.31
432.29	74.31
432.512	80.31
432.734	91.31
432.956	108.31
433.178	82.31
433.4	75.31
433.622	89.31
433.844	84.31
434.066	93.31
434.287	85.31
434.509	81.31
434.731	102.31
434.953	86.31
435.175	89.31
435.397	99.31
435.618	90.31
435.84	97.31
436.062	105.31
436.284	105.31
436.505	89.31
436.727	85.31
436.949	87.31
437.17	89.31
437.392	83.31
437.614	108.31
437.835	109.31
438.057	104.31
438.278	102.31
438.5	89.31
438.721	124.31
438.943	100.31
439.165	89.31
439.386	86.31
439.608	90.31
439.829	81.31
440.05	109.31
440.272	113.31
440.493	102.31
440.715	83.31
440.936	80.31
441.158	98.31
441.379	88.31
441.6	91.31
441.822	85.31
442.043	73.31
442.264	109.31
442.486	95.31
442.707	82.31
442.928	97.31
443.149	124.31
443.371	111.31
443.592	107.31
443.813	108.31
444.034	101.31
444.255	85.31
444.476	82.31
444.698	88.31
444.919	97.31
445.14	139.31
445.361	105.31
445.582	112.31
445.803	119.31
446.024	115.31
446.245	107.31
446.466	105.31
446.687	85.31
446.908	90.31
447.129	87.31
447.35	72.31
447.571	93.31
447.792	81.31
448.013	103.31
448.234	108.31
448.455	104.31
448.675	98.31
448.896	106.31
449.117	105.31
449.338	97.31
449.559	115.31
449.779	111.31
450	73.31
450.221	84.31
450.442	86.31
450.662	90.31
450.883	102.31
451.104	103.31
451.324	94.31
451.545	94.31
451.766	89.31
451.986	90.31
452.207	98.31
452.428	82.31
452.648	90.31
452.869	101.31
453.089	108.31
453.31	110.31
453.53	80.31
453.751	70.31
453.971	73.31
454.192	85.31
454.412	90.31
454.633	89.31
454.853	95.31
455.073	84.31
455.294	79.31
455.514	92.31
455.734	89.31
455.955	86.31
456.175	79.31
456.395	98.31
456.616	83.31
456.836	77.31
457.056	79.31
457.276	82.31
457.497	90.31
457.717	94.31
457.937	81.31
458.157	83.31
458.377	88.31
458.598	94.31
458.818	129.31
459.038	136.31
459.258	96.31
459.478	80.31
459.698	81.31
459.918	80.31
460.138	95.31
460.358	91.31
460.578	73.31
460.798	88.31
461.018	94.31
461.238	75.31
461.458	95.31
461.678	86.31
461.898	92.31
462.118	91.31
462.338	76.31
462.558	89.31
462.777	82.31
462.997	85.31
463.217	86.31
463.437	96.31
463.657	91.31
463.876	99.31
464.096	85.31
464.316	91.31
464.536	90.31
464.755	94.31
464.975	105.31
465.195	131.31
465.414	121.31
465.634	102.31
465.854	91.31
466.073	83.31
466.293	87.31
466.512	93.31
466.732	83.31
466.951	82.31
467.171	80.31
467.391	95.31
467.61	98.31
467.829	84.31
468.049	89.31
468.268	91.31
468.488	90.31
468.707	72.31
468.927	88.31
469.146	91.31
469.365	81.31
469.585	83.31
469.804	81.31
470.023	85.31
470.243	105.31
470.462	95.31
470.681	104.31
470.901	94.31
471.12	89.31
471.339	95.31
471.558	80.31
471.777	91.31
471.997	89.31
472.216	100.31
472.435	114.31
472.654	98.31
472.873	90.31
473.092	78.31
473.311	84.31
473.53	82.31
473.749	85.31
473.968	101.31
474.187	94.31
474.406	97.31
474.625	98.31
474.844	76.31
475.063	87.31
475.282	86.31
475.501	100.31
475.72	86.31
475.939	85.31
476.158	81.31
476.377	88.31
476.596	78.31
476.814	87.31
477.033	87.31
477.252	83.31
477.471	81.31
477.69	84.31
477.908	87.31
478.127	82.31
478.346	91.31
478.564	88.31
478.783	82.31
479.002	89.31
479.22	82.31
479.439	85.31
479.658	91.31
479.876	103.31
480.095	95.31
480.313	100.31
480.532	91.31
480.751	95.31
480.969	99.31
481.188	127.31
481.406	114.31
481.624	82.31
481.843	73.31
482.061	88.31
482.28	86.31
482.498	76.31
482.717	85.31
482.935	92.31
483.153	81.31
483.372	92.31
483.59	98.31
483.808	83.31
484.027	98.31
484.245	96.31
484.463	87.31
484.681	89.31
484.9	92.31
485.118	85.31
485.336	102.31
485.554	99.31
485.772	102.31
485.99	119.31
486.209	108.31
486.427	113.31
486.645	99.31
486.863	106.31
487.081	98.31
487.299	98.31
487.517	103.31
487.735	74.31
487.953	90.31
488.171	84.31
488.389	92.31
488.607	85.31
488.825	98.31
489.043	88.31
489.261	83.31
489.479	86.31
489.696	79.31
489.914	79.31
490.132	104.31
490.35	108.31
490.568	90.31
490.786	82.31
491.003	83.31
491.221	76.31
491.439	95.31
491.657	100.31
491.874	87.31
492.092	78.31
492.31	90.31
492.527	87.31
492.745	76.31
492.963	89.31
493.18	108.31
493.398	90.31
493.615	83.31
493.833	102.31
494.05	94.31
494.268	86.31
494.485	86.31
494.703	90.31
494.92	85.31
495.138	84.31
495.355	78.31
495.573	92.31
495.79	101.31
496.008	98.31
496.225	81.31
496.442	93.31
496.66	98.31
496.877	88.31
497.094	90.31
497.312	94.31
497.529	86.31
497.746	87.31
497.963	89.31
498.181	84.31
498.398	91.31
498.615	93.31
498.832	104.31
499.049	90.31
499.267	94.31
499.484	94.31
499.701	82.31
499.918	72.31
500.135	95.31
500.352	95.31
500.569	74.31
500.786	86.31
501.003	82.31
501.22	90.31
501.437	85.31
501.654	89.31
501.871	97.31
502.088	89.31
502.305	86.31
502.522	102.31
502.739	81.31
502.956	92.31
503.172	85.31
503.389	94.31
503.606	84.31
503.823	73.31
504.04	84.31
504.256	90.31
504.473	87.31
504.69	104.31
504.907	88.31
505.123	94.31
505.34	76.31
505.557	75.31
505.773	90.31
505.99	94.31
506.207	85.31
506.423	105.31
506.64	89.31
506.856	88.31
507.073	87.31
507.289	93.31
507.506	78.31
507.722	94.31
507.939	105.31
508.155	95.31
508.372	88.31
508.588	86.31
508.805	84.31
509.021	94.31
509.238	87.31
509.454	98.31
509.67	84.31
509.887	97.31
510.103	105.31
510.319	180.31
510.536	557.31
510.752	1687.31
510.968	480.31
511.184	124.31
511.401	105.31
511.617	94.31
511.833	100.31
512.049	92.31
512.265	96.31
512.481	106.31
512.698	100.31
512.914	87.31
513.13	81.31
513.346	85.31
513.562	92.31
513.778	99.31
513.994	91.31
514.21	103.31
514.426	98.31
514.642	121.31
514.858	108.31
515.074	144.31
515.29	322.31
515.506	971.31
515.721	358.31
515.937	135.31
