Data from Circ_1985_H10_HRD10591_00013.txt Node
Date: Wed Jan 03 12:19:25 EST 2024
User: Yrep
Spectrometer: HR+D1059
Trigger mode: 1
Integration Time (sec): 1.000000E-1
Scans to average: 1
Electric dark correction enabled: true
Nonlinearity correction enabled: false
Boxcar width: 0
XAxis mode: Wavelengths
Number of Pixels in Spectrum: 2048
>>>>>Begin Spectral Data<<<<<
223.165	-9.19
223.4	-9.19
223.635	-9.19
223.869	-16.19
224.104	-28.19
224.338	-5.19
224.573	-5.19
224.808	-14.19
225.042	-21.19
225.277	-3.19
225.511	-15.19
225.746	-3.19
225.98	18.81
226.215	18.81
226.449	18.81
226.683	22.81
226.918	16.81
227.152	24.81
227.387	31.81
227.621	35.81
227.856	42.81
228.09	45.81
228.324	44.81
228.559	46.81
228.793	56.81
229.027	59.81
229.262	75.81
229.496	83.81
229.73	69.81
229.964	84.81
230.199	80.81
230.433	77.81
230.667	84.81
230.901	80.81
231.136	74.81
231.37	75.81
231.604	82.81
231.838	97.81
232.072	85.81
232.306	81.81
232.541	73.81
232.775	81.81
233.009	86.81
233.243	91.81
233.477	84.81
233.711	83.81
233.945	88.81
234.179	98.81
234.413	84.81
234.647	69.81
234.881	90.81
235.115	76.81
235.349	70.81
235.583	81.81
235.817	85.81
236.051	82.81
236.285	65.81
236.519	72.81
236.753	78.81
236.987	83.81
237.221	76.81
237.455	88.81
237.689	72.81
237.922	55.81
238.156	71.81
238.39	74.81
238.624	73.81
238.858	89.81
239.091	80.81
239.325	80.81
239.559	69.81
239.793	74.81
240.027	88.81
240.26	80.81
240.494	76.81
240.728	84.81
240.961	81.81
241.195	75.81
241.429	74.81
241.662	82.81
241.896	75.81
242.13	67.81
242.363	70.81
242.597	75.81
242.83	74.81
243.064	75.81
243.298	76.81
243.531	76.81
243.765	65.81
243.998	70.81
244.232	77.81
244.465	82.81
244.699	81.81
244.932	80.81
245.166	75.81
245.399	84.81
245.633	82.81
245.866	69.81
246.099	56.81
246.333	80.81
246.566	76.81
246.8	76.81
247.033	71.81
247.266	82.81
247.5	85.81
247.733	83.81
247.966	92.81
248.2	84.81
248.433	90.81
248.666	84.81
248.899	80.81
249.133	84.81
249.366	93.81
249.599	100.81
249.832	86.81
250.066	91.81
250.299	85.81
250.532	75.81
250.765	82.81
250.998	88.81
251.231	82.81
251.465	67.81
251.698	90.81
251.931	83.81
252.164	86.81
252.397	88.81
252.63	82.81
252.863	102.81
253.096	83.81
253.329	75.81
253.562	90.81
253.795	85.81
254.028	80.81
254.261	80.81
254.494	74.81
254.727	85.81
254.96	84.81
255.193	80.81
255.426	77.81
255.659	92.81
255.892	96.81
256.124	70.81
256.357	80.81
256.59	90.81
256.823	84.81
257.056	86.81
257.289	96.81
257.521	81.81
257.754	77.81
257.987	80.81
258.22	81.81
258.452	80.81
258.685	89.81
258.918	78.81
259.151	91.81
259.383	77.81
259.616	73.81
259.849	88.81
260.081	86.81
260.314	86.81
260.547	68.81
260.779	85.81
261.012	89.81
261.244	85.81
261.477	95.81
261.71	84.81
261.942	96.81
262.175	92.81
262.407	78.81
262.64	84.81
262.872	89.81
263.105	89.81
263.337	81.81
263.57	93.81
263.802	80.81
264.035	84.81
264.267	75.81
264.499	84.81
264.732	78.81
264.964	87.81
265.197	72.81
265.429	87.81
265.661	79.81
265.894	91.81
266.126	80.81
266.358	70.81
266.591	82.81
266.823	82.81
267.055	92.81
267.287	78.81
267.52	74.81
267.752	86.81
267.984	81.81
268.216	75.81
268.448	83.81
268.681	92.81
268.913	89.81
269.145	80.81
269.377	82.81
269.609	81.81
269.841	95.81
270.073	98.81
270.306	93.81
270.538	83.81
270.77	69.81
271.002	95.81
271.234	72.81
271.466	92.81
271.698	89.81
271.93	70.81
272.162	81.81
272.394	85.81
272.626	84.81
272.858	78.81
273.09	84.81
273.322	92.81
273.553	73.81
273.785	85.81
274.017	101.81
274.249	81.81
274.481	86.81
274.713	91.81
274.945	103.81
275.176	89.81
275.408	99.81
275.64	88.81
275.872	83.81
276.104	87.81
276.335	87.81
276.567	87.81
276.799	96.81
277.031	87.81
277.262	86.81
277.494	94.81
277.726	95.81
277.957	78.81
278.189	90.81
278.421	77.81
278.652	92.81
278.884	100.81
279.115	96.81
279.347	89.81
279.579	90.81
279.81	84.81
280.042	101.81
280.273	84.81
280.505	76.81
280.736	82.81
280.968	90.81
281.199	80.81
281.431	90.81
281.662	91.81
281.894	86.81
282.125	101.81
282.356	102.81
282.588	108.81
282.819	104.81
283.051	88.81
283.282	84.81
283.513	84.81
283.745	88.81
283.976	95.81
284.207	98.81
284.439	77.81
284.67	79.81
284.901	82.81
285.132	105.81
285.364	94.81
285.595	94.81
285.826	84.81
286.057	100.81
286.288	85.81
286.52	90.81
286.751	97.81
286.982	97.81
287.213	81.81
287.444	89.81
287.675	100.81
287.906	93.81
288.138	82.81
288.369	97.81
288.6	77.81
288.831	78.81
289.062	99.81
289.293	86.81
289.524	98.81
289.755	85.81
289.986	86.81
290.217	93.81
290.448	69.81
290.679	89.81
290.91	94.81
291.141	91.81
291.371	105.81
291.602	89.81
291.833	91.81
292.064	88.81
292.295	84.81
292.526	77.81
292.757	79.81
292.987	99.81
293.218	91.81
293.449	92.81
293.68	88.81
293.91	99.81
294.141	87.81
294.372	90.81
294.603	97.81
294.833	101.81
295.064	88.81
295.295	78.81
295.525	82.81
295.756	89.81
295.987	108.81
296.217	125.81
296.448	118.81
296.679	83.81
296.909	88.81
297.14	91.81
297.37	82.81
297.601	93.81
297.831	89.81
298.062	68.81
298.292	104.81
298.523	101.81
298.753	82.81
298.984	77.81
299.214	88.81
299.445	101.81
299.675	85.81
299.905	74.81
300.136	109.81
300.366	89.81
300.597	93.81
300.827	91.81
301.057	83.81
301.288	100.81
301.518	96.81
301.748	89.81
301.979	87.81
302.209	90.81
302.439	93.81
302.669	89.81
302.9	98.81
303.13	72.81
303.36	87.81
303.59	107.81
303.82	101.81
304.051	98.81
304.281	89.81
304.511	75.81
304.741	85.81
304.971	82.81
305.201	86.81
305.431	85.81
305.661	78.81
305.891	80.81
306.121	102.81
306.352	113.81
306.582	98.81
306.812	95.81
307.042	91.81
307.272	96.81
307.502	85.81
307.731	94.81
307.961	88.81
308.191	96.81
308.421	84.81
308.651	101.81
308.881	85.81
309.111	75.81
309.341	90.81
309.571	101.81
309.8	86.81
310.03	100.81
310.26	91.81
310.49	96.81
310.72	84.81
310.949	99.81
311.179	88.81
311.409	88.81
311.639	84.81
311.868	100.81
312.098	100.81
312.328	87.81
312.557	108.81
312.787	116.81
313.017	83.81
313.246	100.81
313.476	99.81
313.706	97.81
313.935	89.81
314.165	93.81
314.394	103.81
314.624	90.81
314.853	94.81
315.083	84.81
315.312	100.81
315.542	101.81
315.771	86.81
316.001	80.81
316.23	101.81
316.46	90.81
316.689	93.81
316.919	103.81
317.148	97.81
317.377	96.81
317.607	85.81
317.836	87.81
318.065	92.81
318.295	81.81
318.524	93.81
318.753	115.81
318.983	88.81
319.212	90.81
319.441	109.81
319.67	91.81
319.9	84.81
320.129	102.81
320.358	90.81
320.587	99.81
320.816	105.81
321.046	96.81
321.275	93.81
321.504	92.81
321.733	105.81
321.962	91.81
322.191	109.81
322.42	103.81
322.649	97.81
322.878	104.81
323.108	117.81
323.337	120.81
323.566	114.81
323.795	143.81
324.024	176.81
324.253	329.81
324.482	716.81
324.71	1457.81
324.939	1961.81
325.168	699.81
325.397	217.81
325.626	144.81
325.855	122.81
326.084	115.81
326.313	104.81
326.542	118.81
326.77	207.81
326.999	398.81
327.228	854.81
327.457	1575.81
327.686	1232.81
327.914	321.81
328.143	164.81
328.372	126.81
328.6	115.81
328.829	115.81
329.058	108.81
329.287	106.81
329.515	100.81
329.744	119.81
329.972	92.81
330.201	106.81
330.43	115.81
330.658	112.81
330.887	118.81
331.115	107.81
331.344	109.81
331.572	101.81
331.801	83.81
332.03	94.81
332.258	86.81
332.486	97.81
332.715	91.81
332.943	91.81
333.172	81.81
333.4	89.81
333.629	116.81
333.857	109.81
334.085	93.81
334.314	99.81
334.542	96.81
334.771	114.81
334.999	102.81
335.227	88.81
335.455	84.81
335.684	93.81
335.912	115.81
336.14	101.81
336.369	89.81
336.597	103.81
336.825	88.81
337.053	98.81
337.281	101.81
337.51	101.81
337.738	101.81
337.966	89.81
338.194	96.81
338.422	99.81
338.65	102.81
338.878	91.81
339.106	88.81
339.334	81.81
339.562	94.81
339.79	94.81
340.018	96.81
340.246	96.81
340.474	92.81
340.702	92.81
340.93	107.81
341.158	95.81
341.386	78.81
341.614	87.81
341.842	94.81
342.07	90.81
342.298	99.81
342.526	104.81
342.754	102.81
342.981	105.81
343.209	103.81
343.437	97.81
343.665	89.81
343.893	93.81
344.12	108.81
344.348	106.81
344.576	109.81
344.804	85.81
345.031	102.81
345.259	101.81
345.487	92.81
345.714	90.81
345.942	116.81
346.17	100.81
346.397	91.81
346.625	92.81
346.853	92.81
347.08	85.81
347.308	97.81
347.535	80.81
347.763	91.81
347.99	93.81
348.218	76.81
348.445	102.81
348.673	91.81
348.9	94.81
349.128	102.81
349.355	105.81
349.583	103.81
349.81	93.81
350.037	109.81
350.265	92.81
350.492	100.81
350.72	89.81
350.947	91.81
351.174	116.81
351.402	100.81
351.629	105.81
351.856	100.81
352.083	102.81
352.311	97.81
352.538	115.81
352.765	112.81
352.992	103.81
353.22	99.81
353.447	94.81
353.674	94.81
353.901	92.81
354.128	96.81
354.355	92.81
354.583	115.81
354.81	107.81
355.037	100.81
355.264	108.81
355.491	90.81
355.718	101.81
355.945	93.81
356.172	95.81
356.399	89.81
356.626	85.81
356.853	93.81
357.08	105.81
357.307	86.81
357.534	99.81
357.761	94.81
357.988	92.81
358.215	107.81
358.441	90.81
358.668	94.81
358.895	97.81
359.122	93.81
359.349	92.81
359.576	95.81
359.802	105.81
360.029	101.81
360.256	114.81
360.483	93.81
360.709	94.81
360.936	90.81
361.163	96.81
361.39	96.81
361.616	86.81
361.843	88.81
362.07	96.81
362.296	82.81
362.523	99.81
362.749	91.81
362.976	88.81
363.203	93.81
363.429	93.81
363.656	102.81
363.882	85.81
364.109	83.81
364.335	89.81
364.562	100.81
364.788	103.81
365.015	93.81
365.241	93.81
365.468	100.81
365.694	84.81
365.92	97.81
366.147	91.81
366.373	102.81
366.599	96.81
366.826	95.81
367.052	88.81
367.278	89.81
367.505	83.81
367.731	101.81
367.957	92.81
368.184	87.81
368.41	90.81
368.636	105.81
368.862	107.81
369.089	101.81
369.315	93.81
369.541	99.81
369.767	86.81
369.993	84.81
370.219	93.81
370.445	91.81
370.672	75.81
370.898	91.81
371.124	91.81
371.35	90.81
371.576	97.81
371.802	98.81
372.028	87.81
372.254	83.81
372.48	98.81
372.706	113.81
372.932	92.81
373.158	92.81
373.384	102.81
373.61	90.81
373.835	87.81
374.061	82.81
374.287	93.81
374.513	90.81
374.739	78.81
374.965	103.81
375.191	92.81
375.416	97.81
375.642	98.81
375.868	94.81
376.094	109.81
376.319	82.81
376.545	93.81
376.771	92.81
376.997	85.81
377.222	91.81
377.448	97.81
377.674	90.81
377.899	107.81
378.125	84.81
378.35	85.81
378.576	104.81
378.802	94.81
379.027	95.81
379.253	86.81
379.478	100.81
379.704	97.81
379.929	91.81
380.155	109.81
380.38	92.81
380.606	90.81
380.831	96.81
381.057	111.81
381.282	98.81
381.507	103.81
381.733	95.81
381.958	108.81
382.184	113.81
382.409	110.81
382.634	116.81
382.86	109.81
383.085	120.81
383.31	121.81
383.535	124.81
383.761	105.81
383.986	108.81
384.211	88.81
384.436	106.81
384.662	105.81
384.887	125.81
385.112	116.81
385.337	111.81
385.562	116.81
385.787	122.81
386.013	125.81
386.238	119.81
386.463	115.81
386.688	111.81
386.913	128.81
387.138	126.81
387.363	117.81
387.588	102.81
387.813	126.81
388.038	109.81
388.263	139.81
388.488	131.81
388.713	117.81
388.938	100.81
389.163	112.81
389.387	93.81
389.612	91.81
389.837	92.81
390.062	91.81
390.287	92.81
390.512	108.81
390.736	93.81
390.961	81.81
391.186	97.81
391.411	87.81
391.636	98.81
391.86	87.81
392.085	86.81
392.31	89.81
392.534	86.81
392.759	83.81
392.984	84.81
393.208	97.81
393.433	120.81
393.658	112.81
393.882	94.81
394.107	98.81
394.331	75.81
394.556	93.81
394.78	90.81
395.005	80.81
395.229	83.81
395.454	86.81
395.678	83.81
395.903	72.81
396.127	78.81
396.352	90.81
396.576	101.81
396.801	99.81
397.025	109.81
397.249	89.81
397.474	82.81
397.698	92.81
397.922	97.81
398.147	94.81
398.371	74.81
398.595	94.81
398.82	96.81
399.044	101.81
399.268	91.81
399.492	98.81
399.717	100.81
399.941	89.81
400.165	85.81
400.389	86.81
400.613	90.81
400.837	86.81
401.062	91.81
401.286	91.81
401.51	93.81
401.734	90.81
401.958	94.81
402.182	107.81
402.406	133.81
402.63	105.81
402.854	100.81
403.078	94.81
403.302	93.81
403.526	93.81
403.75	105.81
403.974	97.81
404.198	94.81
404.422	85.81
404.645	89.81
404.869	81.81
405.093	83.81
405.317	102.81
405.541	91.81
405.765	104.81
405.988	109.81
406.212	138.81
406.436	181.81
406.66	128.81
406.883	94.81
407.107	95.81
407.331	91.81
407.555	96.81
407.778	102.81
408.002	96.81
408.226	107.81
408.449	91.81
408.673	77.81
408.896	91.81
409.12	91.81
409.344	84.81
409.567	85.81
409.791	101.81
410.014	98.81
410.238	94.81
410.461	81.81
410.685	85.81
410.908	96.81
411.132	113.81
411.355	89.81
411.578	90.81
411.802	81.81
412.025	105.81
412.249	97.81
412.472	97.81
412.695	94.81
412.919	98.81
413.142	90.81
413.365	86.81
413.589	85.81
413.812	100.81
414.035	98.81
414.258	91.81
414.482	99.81
414.705	97.81
414.928	85.81
415.151	105.81
415.374	107.81
415.597	75.81
415.821	94.81
416.044	97.81
416.267	82.81
416.49	88.81
416.713	89.81
416.936	88.81
417.159	66.81
417.382	97.81
417.605	80.81
417.828	112.81
418.051	101.81
418.274	110.81
418.497	95.81
418.72	98.81
418.943	91.81
419.166	88.81
419.389	85.81
419.611	100.81
419.834	85.81
420.057	90.81
420.28	77.81
420.503	73.81
420.726	97.81
420.948	83.81
421.171	101.81
421.394	91.81
421.617	89.81
421.839	101.81
422.062	100.81
422.285	100.81
422.507	101.81
422.73	105.81
422.953	96.81
423.175	94.81
423.398	87.81
423.621	76.81
423.843	80.81
424.066	96.81
424.288	83.81
424.511	89.81
424.733	105.81
424.956	111.81
425.178	102.81
425.401	93.81
425.623	89.81
425.846	100.81
426.068	97.81
426.291	102.81
426.513	98.81
426.735	93.81
426.958	87.81
427.18	107.81
427.402	114.81
427.625	146.81
427.847	109.81
428.069	109.81
428.292	101.81
428.514	82.81
428.736	87.81
428.958	74.81
429.181	84.81
429.403	78.81
429.625	95.81
429.847	77.81
430.069	99.81
430.292	100.81
430.514	91.81
430.736	73.81
430.958	85.81
431.18	101.81
431.402	88.81
431.624	85.81
431.846	86.81
432.068	89.81
432.29	95.81
432.512	94.81
432.734	91.81
432.956	93.81
433.178	96.81
433.4	102.81
433.622	95.81
433.844	92.81
434.066	85.81
434.287	100.81
434.509	89.81
434.731	97.81
434.953	90.81
435.175	105.81
435.397	104.81
435.618	92.81
435.84	112.81
436.062	101.81
436.284	109.81
436.505	108.81
436.727	96.81
436.949	106.81
437.17	100.81
437.392	96.81
437.614	97.81
437.835	101.81
438.057	91.81
438.278	104.81
438.5	96.81
438.721	109.81
438.943	98.81
439.165	95.81
439.386	74.81
439.608	86.81
439.829	104.81
440.05	115.81
440.272	121.81
440.493	97.81
440.715	90.81
440.936	104.81
441.158	85.81
441.379	99.81
441.6	96.81
441.822	105.81
442.043	97.81
442.264	91.81
442.486	101.81
442.707	92.81
442.928	88.81
443.149	112.81
443.371	133.81
443.592	107.81
443.813	115.81
444.034	100.81
444.255	92.81
444.476	90.81
444.698	78.81
444.919	105.81
445.14	141.81
445.361	121.81
445.582	97.81
445.803	109.81
446.024	110.81
446.245	118.81
446.466	110.81
446.687	92.81
446.908	91.81
447.129	100.81
447.35	101.81
447.571	99.81
447.792	98.81
448.013	78.81
448.234	91.81
448.455	90.81
448.675	101.81
448.896	112.81
449.117	108.81
449.338	108.81
449.559	115.81
449.779	123.81
450	110.81
450.221	84.81
450.442	88.81
450.662	104.81
450.883	102.81
451.104	104.81
451.324	104.81
451.545	75.81
451.766	92.81
451.986	90.81
452.207	96.81
452.428	92.81
452.648	78.81
452.869	102.81
453.089	106.81
453.31	98.81
453.53	80.81
453.751	100.81
453.971	97.81
454.192	100.81
454.412	92.81
454.633	96.81
454.853	82.81
455.073	75.81
455.294	89.81
455.514	100.81
455.734	88.81
455.955	84.81
456.175	90.81
456.395	96.81
456.616	74.81
456.836	96.81
457.056	93.81
457.276	98.81
457.497	87.81
457.717	88.81
457.937	77.81
458.157	80.81
458.377	90.81
458.598	101.81
458.818	120.81
459.038	130.81
459.258	101.81
459.478	91.81
459.698	98.81
459.918	104.81
460.138	87.81
460.358	101.81
460.578	93.81
460.798	109.81
461.018	96.81
461.238	93.81
461.458	82.81
461.678	73.81
461.898	80.81
462.118	86.81
462.338	85.81
462.558	88.81
462.777	86.81
462.997	85.81
463.217	92.81
463.437	75.81
463.657	84.81
463.876	94.81
464.096	94.81
464.316	95.81
464.536	98.81
464.755	100.81
464.975	101.81
465.195	136.81
465.414	129.81
465.634	91.81
465.854	72.81
466.073	95.81
466.293	88.81
466.512	78.81
466.732	82.81
466.951	86.81
467.171	88.81
467.391	94.81
467.61	101.81
467.829	94.81
468.049	96.81
468.268	103.81
468.488	94.81
468.707	91.81
468.927	89.81
469.146	92.81
469.365	85.81
469.585	84.81
469.804	93.81
470.023	85.81
470.243	79.81
470.462	78.81
470.681	105.81
470.901	92.81
471.12	105.81
471.339	88.81
471.558	82.81
471.777	88.81
471.997	87.81
472.216	102.81
472.435	107.81
472.654	101.81
472.873	101.81
473.092	103.81
473.311	89.81
473.53	83.81
473.749	102.81
473.968	94.81
474.187	94.81
474.406	91.81
474.625	99.81
474.844	77.81
475.063	84.81
475.282	75.81
475.501	77.81
475.72	97.81
475.939	92.81
476.158	81.81
476.377	74.81
476.596	88.81
476.814	89.81
477.033	98.81
477.252	99.81
477.471	91.81
477.69	104.81
477.908	94.81
478.127	106.81
478.346	76.81
478.564	100.81
478.783	94.81
479.002	99.81
479.22	77.81
479.439	97.81
479.658	104.81
479.876	93.81
480.095	90.81
480.313	91.81
480.532	104.81
480.751	101.81
480.969	96.81
481.188	108.81
481.406	107.81
481.624	87.81
481.843	70.81
482.061	89.81
482.28	102.81
482.498	86.81
482.717	92.81
482.935	77.81
483.153	104.81
483.372	86.81
483.59	91.81
483.808	101.81
484.027	98.81
484.245	91.81
484.463	96.81
484.681	96.81
484.9	96.81
485.118	107.81
485.336	96.81
485.554	107.81
485.772	102.81
485.99	105.81
486.209	114.81
486.427	122.81
486.645	117.81
486.863	115.81
487.081	109.81
487.299	88.81
487.517	103.81
487.735	104.81
487.953	107.81
488.171	90.81
488.389	100.81
488.607	109.81
488.825	97.81
489.043	101.81
489.261	87.81
489.479	88.81
489.696	89.81
489.914	84.81
490.132	90.81
490.35	80.81
490.568	94.81
490.786	93.81
491.003	81.81
491.221	90.81
491.439	91.81
491.657	89.81
491.874	84.81
492.092	90.81
492.31	93.81
492.527	85.81
492.745	80.81
492.963	84.81
493.18	92.81
493.398	90.81
493.615	99.81
493.833	86.81
494.05	87.81
494.268	98.81
494.485	92.81
494.703	83.81
494.92	90.81
495.138	85.81
495.355	100.81
495.573	98.81
495.79	82.81
496.008	91.81
496.225	94.81
496.442	104.81
496.66	99.81
496.877	88.81
497.094	100.81
497.312	92.81
497.529	96.81
497.746	86.81
497.963	82.81
498.181	101.81
498.398	111.81
498.615	105.81
498.832	96.81
499.049	94.81
499.267	83.81
499.484	99.81
499.701	90.81
499.918	83.81
500.135	89.81
500.352	94.81
500.569	97.81
500.786	93.81
501.003	81.81
501.22	78.81
501.437	90.81
501.654	102.81
501.871	108.81
502.088	93.81
502.305	93.81
502.522	81.81
502.739	100.81
502.956	93.81
503.172	82.81
503.389	93.81
503.606	100.81
503.823	93.81
504.04	87.81
504.256	100.81
504.473	87.81
504.69	78.81
504.907	96.81
505.123	80.81
505.34	76.81
505.557	101.81
505.773	86.81
505.99	82.81
506.207	88.81
506.423	99.81
506.64	86.81
506.856	101.81
507.073	90.81
507.289	92.81
507.506	86.81
507.722	85.81
507.939	102.81
508.155	95.81
508.372	100.81
508.588	92.81
508.805	99.81
509.021	85.81
509.238	94.81
509.454	96.81
509.67	89.81
509.887	97.81
510.103	116.81
510.319	180.81
510.536	548.81
510.752	1666.81
510.968	494.81
511.184	132.81
511.401	88.81
511.617	101.81
511.833	83.81
512.049	95.81
512.265	90.81
512.481	94.81
512.698	83.81
512.914	82.81
513.13	103.81
513.346	100.81
513.562	99.81
513.778	90.81
513.994	109.81
514.21	110.81
514.426	120.81
514.642	114.81
514.858	118.81
515.074	140.81
