Data from Circ_1985_H10_HRD10591_00038.txt Node
Date: Wed Jan 03 12:19:30 EST 2024
User: Yrep
Spectrometer: HR+D1059
Trigger mode: 1
Integration Time (sec): 1.000000E-1
Scans to average: 1
Electric dark correction enabled: true
Nonlinearity correction enabled: false
Boxcar width: 0
XAxis mode: Wavelengths
Number of Pixels in Spectrum: 2048
>>>>>Begin Spectral Data<<<<<
223.165	-23.44
223.4	-23.44
223.635	-23.44
223.869	-21.44
224.104	-19.44
224.338	-26.44
224.573	-5.44
224.808	-20.44
225.042	-4.44
225.277	-7.44
225.511	5.56
225.746	-1.44
225.98	5.56
226.215	14.56
226.449	12.56
226.683	20.56
226.918	34.56
227.152	36.56
227.387	30.56
227.621	42.56
227.856	35.56
228.09	52.56
228.324	52.56
228.559	72.56
228.793	41.56
229.027	39.56
229.262	70.56
229.496	66.56
229.73	88.56
229.964	61.56
230.199	74.56
230.433	88.56
230.667	76.56
230.901	84.56
231.136	74.56
231.37	86.56
231.604	71.56
231.838	67.56
232.072	76.56
232.306	75.56
232.541	83.56
232.775	74.56
233.009	89.56
233.243	94.56
233.477	68.56
233.711	84.56
233.945	73.56
234.179	77.56
234.413	82.56
234.647	97.56
234.881	78.56
235.115	74.56
235.349	88.56
235.583	89.56
235.817	70.56
236.051	68.56
236.285	88.56
236.519	72.56
236.753	81.56
236.987	82.56
237.221	94.56
237.455	78.56
237.689	91.56
237.922	97.56
238.156	92.56
238.39	73.56
238.624	90.56
238.858	80.56
239.091	83.56
239.325	70.56
239.559	80.56
239.793	84.56
240.027	81.56
240.26	92.56
240.494	84.56
240.728	73.56
240.961	60.56
241.195	73.56
241.429	66.56
241.662	90.56
241.896	96.56
242.13	85.56
242.363	72.56
242.597	80.56
242.83	73.56
243.064	81.56
243.298	80.56
243.531	76.56
243.765	84.56
243.998	77.56
244.232	90.56
244.465	97.56
244.699	84.56
244.932	77.56
245.166	69.56
245.399	75.56
245.633	80.56
245.866	101.56
246.099	88.56
246.333	75.56
246.566	84.56
246.8	84.56
247.033	87.56
247.266	90.56
247.5	93.56
247.733	72.56
247.966	86.56
248.2	79.56
248.433	77.56
248.666	84.56
248.899	86.56
249.133	76.56
249.366	84.56
249.599	91.56
249.832	90.56
250.066	78.56
250.299	66.56
250.532	77.56
250.765	70.56
250.998	78.56
251.231	84.56
251.465	75.56
251.698	81.56
251.931	84.56
252.164	84.56
252.397	76.56
252.63	90.56
252.863	92.56
253.096	96.56
253.329	68.56
253.562	76.56
253.795	89.56
254.028	82.56
254.261	89.56
254.494	85.56
254.727	84.56
254.96	91.56
255.193	89.56
255.426	68.56
255.659	82.56
255.892	77.56
256.124	87.56
256.357	86.56
256.59	80.56
256.823	81.56
257.056	77.56
257.289	77.56
257.521	85.56
257.754	74.56
257.987	82.56
258.22	86.56
258.452	73.56
258.685	83.56
258.918	77.56
259.151	84.56
259.383	80.56
259.616	79.56
259.849	84.56
260.081	103.56
260.314	82.56
260.547	66.56
260.779	76.56
261.012	96.56
261.244	97.56
261.477	80.56
261.71	76.56
261.942	106.56
262.175	101.56
262.407	98.56
262.64	97.56
262.872	68.56
263.105	101.56
263.337	84.56
263.57	68.56
263.802	76.56
264.035	91.56
264.267	84.56
264.499	76.56
264.732	82.56
264.964	89.56
265.197	80.56
265.429	74.56
265.661	81.56
265.894	90.56
266.126	72.56
266.358	94.56
266.591	81.56
266.823	86.56
267.055	98.56
267.287	96.56
267.52	80.56
267.752	80.56
267.984	81.56
268.216	94.56
268.448	84.56
268.681	94.56
268.913	80.56
269.145	74.56
269.377	84.56
269.609	82.56
269.841	80.56
270.073	89.56
270.306	94.56
270.538	93.56
270.77	91.56
271.002	93.56
271.234	86.56
271.466	83.56
271.698	84.56
271.93	77.56
272.162	92.56
272.394	106.56
272.626	78.56
272.858	82.56
273.09	81.56
273.322	85.56
273.553	88.56
273.785	82.56
274.017	82.56
274.249	91.56
274.481	85.56
274.713	90.56
274.945	97.56
275.176	90.56
275.408	94.56
275.64	97.56
275.872	90.56
276.104	89.56
276.335	91.56
276.567	88.56
276.799	98.56
277.031	113.56
277.262	97.56
277.494	84.56
277.726	79.56
277.957	81.56
278.189	96.56
278.421	84.56
278.652	102.56
278.884	78.56
279.115	98.56
279.347	84.56
279.579	79.56
279.81	90.56
280.042	96.56
280.273	85.56
280.505	69.56
280.736	91.56
280.968	74.56
281.199	90.56
281.431	98.56
281.662	84.56
281.894	94.56
282.125	91.56
282.356	113.56
282.588	131.56
282.819	126.56
283.051	77.56
283.282	98.56
283.513	95.56
283.745	89.56
283.976	80.56
284.207	87.56
284.439	90.56
284.67	96.56
284.901	97.56
285.132	97.56
285.364	95.56
285.595	70.56
285.826	88.56
286.057	93.56
286.288	87.56
286.52	83.56
286.751	69.56
286.982	80.56
287.213	85.56
287.444	96.56
287.675	93.56
287.906	88.56
288.138	83.56
288.369	98.56
288.6	98.56
288.831	95.56
289.062	90.56
289.293	90.56
289.524	89.56
289.755	74.56
289.986	86.56
290.217	86.56
290.448	80.56
290.679	80.56
290.91	96.56
291.141	100.56
291.371	84.56
291.602	84.56
291.833	94.56
292.064	92.56
292.295	88.56
292.526	109.56
292.757	80.56
292.987	73.56
293.218	80.56
293.449	89.56
293.68	87.56
293.91	86.56
294.141	80.56
294.372	80.56
294.603	79.56
294.833	89.56
295.064	98.56
295.295	90.56
295.525	98.56
295.756	87.56
295.987	107.56
296.217	127.56
296.448	111.56
296.679	99.56
296.909	94.56
297.14	76.56
297.37	97.56
297.601	92.56
297.831	86.56
298.062	83.56
298.292	83.56
298.523	80.56
298.753	92.56
298.984	81.56
299.214	89.56
299.445	74.56
299.675	87.56
299.905	90.56
300.136	100.56
300.366	89.56
300.597	87.56
300.827	92.56
301.057	91.56
301.288	112.56
301.518	85.56
301.748	97.56
301.979	86.56
302.209	89.56
302.439	77.56
302.669	92.56
302.9	86.56
303.13	88.56
303.36	87.56
303.59	103.56
303.82	102.56
304.051	87.56
304.281	92.56
304.511	91.56
304.741	102.56
304.971	82.56
305.201	96.56
305.431	74.56
305.661	91.56
305.891	99.56
306.121	108.56
306.352	105.56
306.582	95.56
306.812	93.56
307.042	86.56
307.272	76.56
307.502	99.56
307.731	110.56
307.961	90.56
308.191	103.56
308.421	94.56
308.651	91.56
308.881	85.56
309.111	98.56
309.341	91.56
309.571	87.56
309.8	101.56
310.03	97.56
310.26	87.56
310.49	87.56
310.72	109.56
310.949	99.56
311.179	105.56
311.409	88.56
311.639	85.56
311.868	88.56
312.098	80.56
312.328	104.56
312.557	99.56
312.787	91.56
313.017	91.56
313.246	103.56
313.476	105.56
313.706	94.56
313.935	109.56
314.165	105.56
314.394	96.56
314.624	86.56
314.853	93.56
315.083	80.56
315.312	97.56
315.542	97.56
315.771	101.56
316.001	103.56
316.23	91.56
316.46	86.56
316.689	77.56
316.919	97.56
317.148	98.56
317.377	100.56
317.607	91.56
317.836	80.56
318.065	102.56
318.295	101.56
318.524	84.56
318.753	95.56
318.983	95.56
319.212	110.56
319.441	105.56
319.67	99.56
319.9	115.56
320.129	93.56
320.358	97.56
320.587	105.56
320.816	99.56
321.046	102.56
321.275	86.56
321.504	104.56
321.733	95.56
321.962	98.56
322.191	112.56
322.42	103.56
322.649	98.56
322.878	98.56
323.108	114.56
323.337	101.56
323.566	124.56
323.795	138.56
324.024	193.56
324.253	349.56
324.482	725.56
324.71	1463.56
324.939	1915.56
325.168	713.56
325.397	207.56
325.626	133.56
325.855	135.56
326.084	123.56
326.313	137.56
326.542	158.56
326.77	213.56
326.999	419.56
327.228	828.56
327.457	1561.56
327.686	1210.56
327.914	327.56
328.143	188.56
328.372	137.56
328.6	127.56
328.829	94.56
329.058	114.56
329.287	135.56
329.515	117.56
329.744	105.56
329.972	106.56
330.201	110.56
330.43	116.56
330.658	123.56
330.887	128.56
331.115	117.56
331.344	91.56
331.572	104.56
331.801	105.56
332.03	91.56
332.258	97.56
332.486	103.56
332.715	102.56
332.943	93.56
333.172	101.56
333.4	94.56
333.629	108.56
333.857	121.56
334.085	96.56
334.314	110.56
334.542	118.56
334.771	119.56
334.999	89.56
335.227	93.56
335.455	104.56
335.684	105.56
335.912	99.56
336.14	99.56
336.369	114.56
336.597	92.56
336.825	89.56
337.053	101.56
337.281	97.56
337.51	88.56
337.738	102.56
337.966	96.56
338.194	101.56
338.422	93.56
338.65	86.56
338.878	107.56
339.106	99.56
339.334	104.56
339.562	82.56
339.79	91.56
340.018	103.56
340.246	87.56
340.474	95.56
340.702	99.56
340.93	90.56
341.158	99.56
341.386	91.56
341.614	88.56
341.842	106.56
342.07	100.56
342.298	92.56
342.526	90.56
342.754	93.56
342.981	75.56
343.209	94.56
343.437	91.56
343.665	89.56
343.893	90.56
344.12	102.56
344.348	95.56
344.576	88.56
344.804	90.56
345.031	94.56
345.259	102.56
345.487	98.56
345.714	92.56
345.942	96.56
346.17	96.56
346.397	82.56
346.625	77.56
346.853	95.56
347.08	86.56
347.308	85.56
347.535	88.56
347.763	111.56
347.99	96.56
348.218	112.56
348.445	93.56
348.673	89.56
348.9	89.56
349.128	87.56
349.355	94.56
349.583	102.56
349.81	109.56
350.037	106.56
350.265	103.56
350.492	94.56
350.72	100.56
350.947	96.56
351.174	111.56
351.402	113.56
351.629	116.56
351.856	118.56
352.083	121.56
352.311	113.56
352.538	112.56
352.765	103.56
352.992	120.56
353.22	107.56
353.447	108.56
353.674	102.56
353.901	92.56
354.128	98.56
354.355	102.56
354.583	99.56
354.81	100.56
355.037	82.56
355.264	96.56
355.491	100.56
355.718	99.56
355.945	118.56
356.172	100.56
356.399	107.56
356.626	87.56
356.853	86.56
357.08	114.56
357.307	92.56
357.534	93.56
357.761	106.56
357.988	99.56
358.215	104.56
358.441	93.56
358.668	99.56
358.895	102.56
359.122	87.56
359.349	83.56
359.576	89.56
359.802	101.56
360.029	107.56
360.256	106.56
360.483	99.56
360.709	88.56
360.936	107.56
361.163	102.56
361.39	103.56
361.616	106.56
361.843	83.56
362.07	94.56
362.296	103.56
362.523	86.56
362.749	94.56
362.976	90.56
363.203	86.56
363.429	98.56
363.656	93.56
363.882	72.56
364.109	78.56
364.335	87.56
364.562	92.56
364.788	88.56
365.015	87.56
365.241	101.56
365.468	110.56
365.694	99.56
365.92	97.56
366.147	95.56
366.373	95.56
366.599	93.56
366.826	91.56
367.052	101.56
367.278	93.56
367.505	74.56
367.731	99.56
367.957	81.56
368.184	91.56
368.41	103.56
368.636	107.56
368.862	110.56
369.089	97.56
369.315	90.56
369.541	88.56
369.767	98.56
369.993	98.56
370.219	100.56
370.445	90.56
370.672	93.56
370.898	86.56
371.124	85.56
371.35	102.56
371.576	90.56
371.802	84.56
372.028	85.56
372.254	83.56
372.48	99.56
372.706	93.56
372.932	98.56
373.158	100.56
373.384	97.56
373.61	100.56
373.835	88.56
374.061	113.56
374.287	93.56
374.513	96.56
374.739	96.56
374.965	94.56
375.191	90.56
375.416	86.56
375.642	100.56
375.868	96.56
376.094	86.56
376.319	91.56
376.545	87.56
376.771	103.56
376.997	99.56
377.222	89.56
377.448	82.56
377.674	81.56
377.899	95.56
378.125	95.56
378.35	106.56
378.576	73.56
378.802	100.56
379.027	95.56
379.253	88.56
379.478	101.56
379.704	107.56
379.929	101.56
380.155	90.56
380.38	109.56
380.606	110.56
380.831	98.56
381.057	119.56
381.282	92.56
381.507	79.56
381.733	114.56
381.958	101.56
382.184	102.56
382.409	116.56
382.634	92.56
382.86	99.56
383.085	98.56
383.31	103.56
383.535	122.56
383.761	112.56
383.986	109.56
384.211	94.56
384.436	99.56
384.662	103.56
384.887	110.56
385.112	113.56
385.337	103.56
385.562	115.56
385.787	110.56
386.013	117.56
386.238	113.56
386.463	96.56
386.688	102.56
386.913	104.56
387.138	110.56
387.363	100.56
387.588	108.56
387.813	100.56
388.038	124.56
388.263	111.56
388.488	121.56
388.713	95.56
388.938	90.56
389.163	88.56
389.387	104.56
389.612	95.56
389.837	113.56
390.062	94.56
390.287	108.56
390.512	89.56
390.736	91.56
390.961	94.56
391.186	93.56
391.411	107.56
391.636	89.56
391.86	95.56
392.085	95.56
392.31	78.56
392.534	101.56
392.759	89.56
392.984	99.56
393.208	88.56
393.433	98.56
393.658	95.56
393.882	100.56
394.107	90.56
394.331	100.56
394.556	93.56
394.78	92.56
395.005	83.56
395.229	98.56
395.454	83.56
395.678	80.56
395.903	94.56
396.127	93.56
396.352	94.56
396.576	88.56
396.801	97.56
397.025	84.56
397.249	88.56
397.474	97.56
397.698	112.56
397.922	90.56
398.147	87.56
398.371	88.56
398.595	86.56
398.82	80.56
399.044	86.56
399.268	81.56
399.492	88.56
399.717	97.56
399.941	96.56
400.165	96.56
400.389	96.56
400.613	94.56
400.837	83.56
401.062	88.56
401.286	90.56
401.51	95.56
401.734	97.56
401.958	99.56
402.182	120.56
402.406	139.56
402.63	111.56
402.854	85.56
403.078	88.56
403.302	90.56
403.526	82.56
403.75	86.56
403.974	93.56
404.198	105.56
404.422	93.56
404.645	99.56
404.869	93.56
405.093	107.56
405.317	97.56
405.541	106.56
405.765	102.56
405.988	100.56
406.212	151.56
406.436	176.56
406.66	130.56
406.883	108.56
407.107	90.56
407.331	105.56
407.555	90.56
407.778	82.56
408.002	90.56
408.226	89.56
408.449	84.56
408.673	94.56
408.896	75.56
409.12	101.56
409.344	93.56
409.567	92.56
409.791	91.56
410.014	91.56
410.238	91.56
410.461	92.56
410.685	91.56
410.908	113.56
411.132	112.56
411.355	84.56
411.578	94.56
411.802	90.56
412.025	82.56
412.249	98.56
412.472	91.56
412.695	105.56
412.919	97.56
413.142	93.56
413.365	81.56
413.589	96.56
413.812	94.56
414.035	96.56
414.258	100.56
414.482	92.56
414.705	92.56
414.928	94.56
415.151	93.56
415.374	105.56
415.597	91.56
415.821	80.56
416.044	83.56
416.267	82.56
416.49	85.56
416.713	73.56
416.936	110.56
417.159	102.56
417.382	92.56
417.605	88.56
417.828	94.56
418.051	97.56
418.274	92.56
418.497	92.56
418.72	89.56
418.943	90.56
419.166	94.56
419.389	106.56
419.611	94.56
419.834	80.56
420.057	98.56
420.28	92.56
420.503	99.56
420.726	93.56
420.948	99.56
421.171	97.56
421.394	108.56
421.617	88.56
421.839	93.56
422.062	77.56
422.285	84.56
422.507	84.56
422.73	107.56
422.953	90.56
423.175	88.56
423.398	86.56
423.621	93.56
423.843	77.56
424.066	102.56
424.288	70.56
424.511	95.56
424.733	90.56
424.956	112.56
425.178	107.56
425.401	108.56
425.623	90.56
425.846	91.56
426.068	95.56
426.291	108.56
426.513	96.56
426.735	99.56
426.958	86.56
427.18	107.56
427.402	115.56
427.625	148.56
427.847	117.56
428.069	119.56
428.292	89.56
428.514	105.56
428.736	100.56
428.958	82.56
429.181	90.56
429.403	93.56
429.625	93.56
429.847	94.56
430.069	98.56
430.292	78.56
430.514	84.56
430.736	76.56
430.958	90.56
431.18	82.56
431.402	100.56
431.624	90.56
431.846	86.56
432.068	98.56
432.29	87.56
432.512	90.56
432.734	74.56
432.956	89.56
433.178	106.56
433.4	106.56
433.622	92.56
433.844	102.56
434.066	81.56
434.287	96.56
434.509	67.56
434.731	103.56
434.953	107.56
435.175	87.56
435.397	81.56
435.618	84.56
435.84	92.56
436.062	112.56
436.284	109.56
436.505	91.56
436.727	96.56
436.949	84.56
437.17	87.56
437.392	76.56
437.614	86.56
437.835	113.56
438.057	131.56
438.278	95.56
438.5	104.56
438.721	118.56
438.943	93.56
439.165	86.56
439.386	82.56
439.608	91.56
439.829	95.56
440.05	116.56
440.272	127.56
440.493	85.56
440.715	88.56
440.936	90.56
441.158	90.56
441.379	89.56
441.6	100.56
441.822	93.56
442.043	100.56
442.264	98.56
442.486	94.56
442.707	81.56
442.928	101.56
443.149	131.56
443.371	121.56
443.592	82.56
443.813	101.56
444.034	92.56
444.255	82.56
444.476	87.56
444.698	86.56
444.919	106.56
445.14	140.56
445.361	108.56
445.582	94.56
445.803	118.56
446.024	123.56
446.245	120.56
446.466	103.56
446.687	80.56
446.908	92.56
447.129	88.56
447.35	92.56
447.571	90.56
447.792	88.56
448.013	98.56
448.234	99.56
448.455	109.56
448.675	100.56
448.896	109.56
449.117	102.56
449.338	106.56
449.559	118.56
449.779	117.56
450	101.56
450.221	77.56
450.442	101.56
450.662	100.56
450.883	111.56
451.104	98.56
451.324	98.56
451.545	102.56
451.766	95.56
451.986	89.56
452.207	81.56
452.428	84.56
452.648	99.56
452.869	102.56
453.089	116.56
453.31	108.56
453.53	88.56
453.751	98.56
453.971	110.56
454.192	101.56
454.412	96.56
454.633	82.56
454.853	89.56
455.073	82.56
455.294	93.56
455.514	104.56
455.734	88.56
455.955	93.56
456.175	88.56
456.395	85.56
456.616	86.56
456.836	83.56
457.056	77.56
457.276	91.56
457.497	75.56
457.717	71.56
457.937	85.56
458.157	85.56
458.377	84.56
458.598	113.56
458.818	134.56
459.038	133.56
459.258	120.56
459.478	92.56
459.698	76.56
459.918	77.56
460.138	88.56
460.358	85.56
460.578	81.56
460.798	92.56
461.018	88.56
461.238	87.56
461.458	84.56
461.678	84.56
461.898	69.56
462.118	104.56
462.338	75.56
462.558	84.56
462.777	93.56
462.997	95.56
463.217	83.56
463.437	89.56
463.657	82.56
463.876	89.56
464.096	101.56
464.316	110.56
464.536	100.56
464.755	88.56
464.975	91.56
465.195	139.56
465.414	122.56
465.634	99.56
465.854	95.56
466.073	108.56
466.293	84.56
466.512	77.56
466.732	84.56
466.951	95.56
467.171	89.56
467.391	86.56
467.61	94.56
467.829	87.56
468.049	106.56
468.268	92.56
468.488	83.56
468.707	77.56
468.927	78.56
469.146	80.56
469.365	85.56
469.585	98.56
469.804	96.56
470.023	103.56
470.243	90.56
470.462	102.56
470.681	99.56
470.901	94.56
471.12	83.56
471.339	98.56
471.558	85.56
471.777	97.56
471.997	89.56
472.216	96.56
472.435	131.56
472.654	101.56
472.873	101.56
473.092	89.56
473.311	84.56
473.53	89.56
473.749	83.56
473.968	99.56
474.187	104.56
474.406	101.56
474.625	103.56
474.844	86.56
475.063	96.56
475.282	91.56
475.501	102.56
475.72	85.56
475.939	96.56
476.158	105.56
476.377	88.56
476.596	76.56
476.814	95.56
477.033	88.56
477.252	95.56
477.471	86.56
477.69	93.56
477.908	87.56
478.127	79.56
478.346	74.56
478.564	83.56
478.783	88.56
479.002	90.56
479.22	97.56
479.439	106.56
479.658	85.56
479.876	85.56
480.095	94.56
480.313	101.56
480.532	89.56
480.751	98.56
480.969	101.56
481.188	182.56
481.406	164.56
481.624	98.56
481.843	85.56
482.061	92.56
482.28	83.56
482.498	98.56
482.717	88.56
482.935	81.56
483.153	97.56
483.372	92.56
483.59	83.56
483.808	90.56
484.027	88.56
484.245	93.56
484.463	91.56
484.681	98.56
484.9	92.56
485.118	110.56
485.336	94.56
485.554	114.56
485.772	108.56
485.99	101.56
486.209	122.56
486.427	110.56
486.645	118.56
486.863	103.56
487.081	100.56
487.299	95.56
487.517	94.56
487.735	82.56
487.953	78.56
488.171	96.56
488.389	105.56
488.607	101.56
488.825	95.56
489.043	113.56
489.261	89.56
489.479	94.56
489.696	86.56
489.914	72.56
490.132	83.56
490.35	92.56
490.568	104.56
490.786	104.56
491.003	96.56
491.221	108.56
491.439	95.56
491.657	96.56
491.874	90.56
492.092	89.56
492.31	86.56
492.527	89.56
492.745	82.56
492.963	108.56
493.18	84.56
493.398	95.56
493.615	107.56
493.833	114.56
494.05	82.56
494.268	99.56
494.485	74.56
494.703	80.56
494.92	92.56
495.138	80.56
495.355	93.56
495.573	100.56
495.79	92.56
496.008	97.56
496.225	94.56
496.442	82.56
496.66	89.56
496.877	92.56
497.094	100.56
497.312	92.56
497.529	101.56
497.746	86.56
497.963	92.56
498.181	85.56
498.398	89.56
498.615	98.56
498.832	100.56
499.049	98.56
499.267	84.56
499.484	98.56
499.701	83.56
499.918	88.56
500.135	96.56
500.352	97.56
500.569	102.56
500.786	87.56
501.003	84.56
501.22	91.56
501.437	105.56
501.654	88.56
501.871	96.56
502.088	92.56
502.305	87.56
502.522	94.56
502.739	82.56
502.956	95.56
503.172	90.56
503.389	84.56
503.606	103.56
503.823	105.56
504.04	86.56
504.256	88.56
504.473	92.56
504.69	89.56
504.907	105.56
505.123	82.56
505.34	92.56
505.557	88.56
505.773	100.56
505.99	93.56
506.207	86.56
506.423	86.56
506.64	87.56
506.856	89.56
507.073	93.56
507.289	88.56
507.506	100.56
507.722	90.56
507.939	94.56
508.155	99.56
508.372	93.56
508.588	94.56
508.805	103.56
509.021	109.56
509.238	92.56
509.454	92.56
509.67	100.56
509.887	114.56
510.103	118.56
510.319	172.56
510.536	643.56
510.752	1856.56
510.968	528.56
511.184	140.56
511.401	105.56
511.617	98.56
511.833	97.56
512.049	77.56
512.265	92.56
512.481	88.56
512.698	91.56
512.914	108.56
513.13	87.56
513.346	87.56
513.562	101.56
513.778	94.56
513.994	91.56
514.21	92.56
514.426	99.56
514.642	125.56
514.858	90.56
515.074	156.56
