Data from Circ_1985_H10_HRD10591_00042.txt Node
Date: Wed Jan 03 12:19:31 EST 2024
User: Yrep
Spectrometer: HR+D1059
Trigger mode: 1
Integration Time (sec): 1.000000E-1
Scans to average: 1
Electric dark correction enabled: true
Nonlinearity correction enabled: false
Boxcar width: 0
XAxis mode: Wavelengths
Number of Pixels in Spectrum: 2048
>>>>>Begin Spectral Data<<<<<
223.165	-8.5
223.4	-8.5
223.635	-8.5
223.869	-24.5
224.104	-21.5
224.338	-18.5
224.573	-17.5
224.808	-16.5
225.042	-10.5
225.277	17.5
225.511	-0.5
225.746	1.5
225.98	14.5
226.215	7.5
226.449	13.5
226.683	18.5
226.918	17.5
227.152	27.5
227.387	52.5
227.621	32.5
227.856	34.5
228.09	40.5
228.324	35.5
228.559	69.5
228.793	64.5
229.027	61.5
229.262	60.5
229.496	67.5
229.73	63.5
229.964	59.5
230.199	74.5
230.433	63.5
230.667	74.5
230.901	85.5
231.136	73.5
231.37	72.5
231.604	78.5
231.838	71.5
232.072	79.5
232.306	75.5
232.541	74.5
232.775	84.5
233.009	79.5
233.243	71.5
233.477	90.5
233.711	93.5
233.945	96.5
234.179	84.5
234.413	77.5
234.647	81.5
234.881	82.5
235.115	90.5
235.349	83.5
235.583	85.5
235.817	67.5
236.051	81.5
236.285	74.5
236.519	64.5
236.753	83.5
236.987	67.5
237.221	90.5
237.455	69.5
237.689	91.5
237.922	81.5
238.156	70.5
238.39	66.5
238.624	87.5
238.858	70.5
239.091	88.5
239.325	78.5
239.559	78.5
239.793	78.5
240.027	87.5
240.26	69.5
240.494	70.5
240.728	98.5
240.961	73.5
241.195	77.5
241.429	89.5
241.662	78.5
241.896	74.5
242.13	81.5
242.363	81.5
242.597	69.5
242.83	80.5
243.064	77.5
243.298	83.5
243.531	71.5
243.765	49.5
243.998	72.5
244.232	77.5
244.465	74.5
244.699	87.5
244.932	77.5
245.166	82.5
245.399	86.5
245.633	78.5
245.866	71.5
246.099	85.5
246.333	59.5
246.566	77.5
246.8	91.5
247.033	86.5
247.266	85.5
247.5	79.5
247.733	67.5
247.966	73.5
248.2	74.5
248.433	83.5
248.666	71.5
248.899	69.5
249.133	76.5
249.366	87.5
249.599	82.5
249.832	85.5
250.066	77.5
250.299	73.5
250.532	74.5
250.765	74.5
250.998	70.5
251.231	84.5
251.465	82.5
251.698	87.5
251.931	79.5
252.164	74.5
252.397	73.5
252.63	85.5
252.863	82.5
253.096	71.5
253.329	86.5
253.562	84.5
253.795	85.5
254.028	90.5
254.261	84.5
254.494	65.5
254.727	85.5
254.96	81.5
255.193	84.5
255.426	81.5
255.659	79.5
255.892	98.5
256.124	85.5
256.357	81.5
256.59	67.5
256.823	85.5
257.056	60.5
257.289	83.5
257.521	90.5
257.754	72.5
257.987	87.5
258.22	79.5
258.452	77.5
258.685	74.5
258.918	70.5
259.151	73.5
259.383	71.5
259.616	67.5
259.849	95.5
260.081	90.5
260.314	72.5
260.547	70.5
260.779	83.5
261.012	73.5
261.244	81.5
261.477	94.5
261.71	89.5
261.942	104.5
262.175	106.5
262.407	83.5
262.64	89.5
262.872	87.5
263.105	78.5
263.337	94.5
263.57	89.5
263.802	90.5
264.035	83.5
264.267	93.5
264.499	76.5
264.732	74.5
264.964	79.5
265.197	90.5
265.429	90.5
265.661	84.5
265.894	83.5
266.126	80.5
266.358	89.5
266.591	90.5
266.823	87.5
267.055	73.5
267.287	87.5
267.52	71.5
267.752	74.5
267.984	82.5
268.216	80.5
268.448	97.5
268.681	72.5
268.913	87.5
269.145	77.5
269.377	81.5
269.609	77.5
269.841	79.5
270.073	86.5
270.306	85.5
270.538	66.5
270.77	82.5
271.002	91.5
271.234	73.5
271.466	90.5
271.698	85.5
271.93	101.5
272.162	86.5
272.394	78.5
272.626	88.5
272.858	72.5
273.09	81.5
273.322	88.5
273.553	78.5
273.785	91.5
274.017	91.5
274.249	82.5
274.481	75.5
274.713	79.5
274.945	59.5
275.176	87.5
275.408	78.5
275.64	66.5
275.872	88.5
276.104	87.5
276.335	86.5
276.567	100.5
276.799	107.5
277.031	93.5
277.262	80.5
277.494	87.5
277.726	89.5
277.957	81.5
278.189	89.5
278.421	98.5
278.652	78.5
278.884	81.5
279.115	86.5
279.347	77.5
279.579	72.5
279.81	82.5
280.042	85.5
280.273	98.5
280.505	105.5
280.736	96.5
280.968	99.5
281.199	90.5
281.431	80.5
281.662	69.5
281.894	88.5
282.125	81.5
282.356	87.5
282.588	104.5
282.819	103.5
283.051	89.5
283.282	87.5
283.513	89.5
283.745	90.5
283.976	86.5
284.207	90.5
284.439	80.5
284.67	87.5
284.901	92.5
285.132	84.5
285.364	74.5
285.595	77.5
285.826	77.5
286.057	88.5
286.288	76.5
286.52	78.5
286.751	83.5
286.982	93.5
287.213	76.5
287.444	73.5
287.675	91.5
287.906	101.5
288.138	85.5
288.369	76.5
288.6	92.5
288.831	79.5
289.062	88.5
289.293	94.5
289.524	93.5
289.755	91.5
289.986	70.5
290.217	86.5
290.448	90.5
290.679	82.5
290.91	81.5
291.141	78.5
291.371	79.5
291.602	84.5
291.833	100.5
292.064	85.5
292.295	74.5
292.526	99.5
292.757	90.5
292.987	79.5
293.218	94.5
293.449	83.5
293.68	91.5
293.91	87.5
294.141	96.5
294.372	100.5
294.603	85.5
294.833	87.5
295.064	90.5
295.295	78.5
295.525	85.5
295.756	89.5
295.987	93.5
296.217	114.5
296.448	86.5
296.679	92.5
296.909	75.5
297.14	77.5
297.37	93.5
297.601	90.5
297.831	90.5
298.062	74.5
298.292	83.5
298.523	95.5
298.753	86.5
298.984	80.5
299.214	82.5
299.445	79.5
299.675	85.5
299.905	102.5
300.136	86.5
300.366	94.5
300.597	88.5
300.827	97.5
301.057	90.5
301.288	87.5
301.518	86.5
301.748	102.5
301.979	95.5
302.209	83.5
302.439	87.5
302.669	83.5
302.9	89.5
303.13	98.5
303.36	86.5
303.59	102.5
303.82	88.5
304.051	107.5
304.281	87.5
304.511	75.5
304.741	82.5
304.971	82.5
305.201	78.5
305.431	84.5
305.661	81.5
305.891	87.5
306.121	94.5
306.352	99.5
306.582	95.5
306.812	82.5
307.042	89.5
307.272	87.5
307.502	93.5
307.731	91.5
307.961	101.5
308.191	91.5
308.421	90.5
308.651	93.5
308.881	91.5
309.111	87.5
309.341	71.5
309.571	97.5
309.8	77.5
310.03	93.5
310.26	92.5
310.49	100.5
310.72	88.5
310.949	84.5
311.179	101.5
311.409	87.5
311.639	81.5
311.868	89.5
312.098	100.5
312.328	99.5
312.557	91.5
312.787	99.5
313.017	103.5
313.246	95.5
313.476	82.5
313.706	85.5
313.935	81.5
314.165	70.5
314.394	93.5
314.624	78.5
314.853	85.5
315.083	91.5
315.312	97.5
315.542	79.5
315.771	82.5
316.001	100.5
316.23	81.5
316.46	89.5
316.689	83.5
316.919	88.5
317.148	90.5
317.377	93.5
317.607	89.5
317.836	87.5
318.065	93.5
318.295	94.5
318.524	79.5
318.753	77.5
318.983	85.5
319.212	79.5
319.441	95.5
319.67	99.5
319.9	87.5
320.129	89.5
320.358	83.5
320.587	80.5
320.816	81.5
321.046	95.5
321.275	90.5
321.504	79.5
321.733	81.5
321.962	86.5
322.191	96.5
322.42	91.5
322.649	102.5
322.878	107.5
323.108	118.5
323.337	117.5
323.566	105.5
323.795	120.5
324.024	173.5
324.253	310.5
324.482	648.5
324.71	1297.5
324.939	1735.5
325.168	649.5
325.397	191.5
325.626	136.5
325.855	122.5
326.084	123.5
326.313	117.5
326.542	137.5
326.77	198.5
326.999	366.5
327.228	746.5
327.457	1370.5
327.686	1074.5
327.914	308.5
328.143	157.5
328.372	124.5
328.6	115.5
328.829	108.5
329.058	99.5
329.287	96.5
329.515	104.5
329.744	102.5
329.972	103.5
330.201	110.5
330.43	118.5
330.658	105.5
330.887	115.5
331.115	103.5
331.344	84.5
331.572	87.5
331.801	97.5
332.03	96.5
332.258	85.5
332.486	95.5
332.715	87.5
332.943	91.5
333.172	101.5
333.4	97.5
333.629	101.5
333.857	98.5
334.085	103.5
334.314	107.5
334.542	117.5
334.771	111.5
334.999	87.5
335.227	106.5
335.455	95.5
335.684	92.5
335.912	96.5
336.14	90.5
336.369	87.5
336.597	75.5
336.825	89.5
337.053	97.5
337.281	85.5
337.51	81.5
337.738	96.5
337.966	83.5
338.194	73.5
338.422	91.5
338.65	97.5
338.878	81.5
339.106	100.5
339.334	87.5
339.562	84.5
339.79	70.5
340.018	68.5
340.246	83.5
340.474	83.5
340.702	102.5
340.93	87.5
341.158	88.5
341.386	91.5
341.614	83.5
341.842	85.5
342.07	74.5
342.298	84.5
342.526	83.5
342.754	92.5
342.981	85.5
343.209	86.5
343.437	106.5
343.665	86.5
343.893	80.5
344.12	94.5
344.348	75.5
344.576	87.5
344.804	91.5
345.031	85.5
345.259	102.5
345.487	81.5
345.714	86.5
345.942	110.5
346.17	86.5
346.397	100.5
346.625	88.5
346.853	79.5
347.08	91.5
347.308	83.5
347.535	93.5
347.763	102.5
347.99	71.5
348.218	80.5
348.445	99.5
348.673	80.5
348.9	94.5
349.128	106.5
349.355	94.5
349.583	87.5
349.81	87.5
350.037	78.5
350.265	98.5
350.492	94.5
350.72	79.5
350.947	92.5
351.174	101.5
351.402	99.5
351.629	102.5
351.856	103.5
352.083	85.5
352.311	89.5
352.538	113.5
352.765	94.5
352.992	115.5
353.22	111.5
353.447	103.5
353.674	81.5
353.901	92.5
354.128	83.5
354.355	83.5
354.583	100.5
354.81	99.5
355.037	91.5
355.264	97.5
355.491	87.5
355.718	87.5
355.945	88.5
356.172	93.5
356.399	89.5
356.626	102.5
356.853	86.5
357.08	89.5
357.307	95.5
357.534	82.5
357.761	83.5
357.988	101.5
358.215	98.5
358.441	98.5
358.668	97.5
358.895	82.5
359.122	78.5
359.349	82.5
359.576	71.5
359.802	91.5
360.029	93.5
360.256	101.5
360.483	87.5
360.709	78.5
360.936	97.5
361.163	95.5
361.39	91.5
361.616	94.5
361.843	89.5
362.07	84.5
362.296	81.5
362.523	82.5
362.749	89.5
362.976	77.5
363.203	87.5
363.429	97.5
363.656	92.5
363.882	73.5
364.109	87.5
364.335	88.5
364.562	100.5
364.788	85.5
365.015	99.5
365.241	99.5
365.468	113.5
365.694	105.5
365.92	96.5
366.147	82.5
366.373	86.5
366.599	94.5
366.826	85.5
367.052	95.5
367.278	83.5
367.505	80.5
367.731	80.5
367.957	98.5
368.184	93.5
368.41	89.5
368.636	98.5
368.862	89.5
369.089	91.5
369.315	89.5
369.541	86.5
369.767	95.5
369.993	85.5
370.219	102.5
370.445	89.5
370.672	89.5
370.898	68.5
371.124	87.5
371.35	72.5
371.576	93.5
371.802	86.5
372.028	78.5
372.254	92.5
372.48	94.5
372.706	90.5
372.932	85.5
373.158	89.5
373.384	106.5
373.61	90.5
373.835	91.5
374.061	75.5
374.287	85.5
374.513	111.5
374.739	83.5
374.965	89.5
375.191	99.5
375.416	89.5
375.642	89.5
375.868	85.5
376.094	94.5
376.319	84.5
376.545	74.5
376.771	97.5
376.997	86.5
377.222	81.5
377.448	96.5
377.674	98.5
377.899	96.5
378.125	93.5
378.35	93.5
378.576	73.5
378.802	89.5
379.027	85.5
379.253	102.5
379.478	83.5
379.704	86.5
379.929	94.5
380.155	88.5
380.38	85.5
380.606	94.5
380.831	106.5
381.057	105.5
381.282	99.5
381.507	100.5
381.733	103.5
381.958	93.5
382.184	78.5
382.409	95.5
382.634	89.5
382.86	100.5
383.085	106.5
383.31	97.5
383.535	96.5
383.761	86.5
383.986	105.5
384.211	99.5
384.436	104.5
384.662	101.5
384.887	97.5
385.112	112.5
385.337	104.5
385.562	97.5
385.787	101.5
386.013	104.5
386.238	122.5
386.463	109.5
386.688	104.5
386.913	104.5
387.138	120.5
387.363	88.5
387.588	105.5
387.813	101.5
388.038	105.5
388.263	103.5
388.488	99.5
388.713	104.5
388.938	99.5
389.163	103.5
389.387	90.5
389.612	84.5
389.837	85.5
390.062	82.5
390.287	100.5
390.512	87.5
390.736	87.5
390.961	91.5
391.186	99.5
391.411	97.5
391.636	84.5
391.86	85.5
392.085	98.5
392.31	95.5
392.534	85.5
392.759	68.5
392.984	90.5
393.208	90.5
393.433	100.5
393.658	98.5
393.882	95.5
394.107	77.5
394.331	88.5
394.556	79.5
394.78	87.5
395.005	84.5
395.229	81.5
395.454	86.5
395.678	98.5
395.903	87.5
396.127	91.5
396.352	110.5
396.576	88.5
396.801	81.5
397.025	93.5
397.249	100.5
397.474	88.5
397.698	88.5
397.922	92.5
398.147	90.5
398.371	95.5
398.595	83.5
398.82	82.5
399.044	86.5
399.268	80.5
399.492	68.5
399.717	77.5
399.941	85.5
400.165	83.5
400.389	85.5
400.613	82.5
400.837	91.5
401.062	74.5
401.286	94.5
401.51	81.5
401.734	84.5
401.958	85.5
402.182	108.5
402.406	134.5
402.63	102.5
402.854	87.5
403.078	79.5
403.302	93.5
403.526	84.5
403.75	80.5
403.974	84.5
404.198	86.5
404.422	75.5
404.645	99.5
404.869	89.5
405.093	89.5
405.317	91.5
405.541	89.5
405.765	86.5
405.988	98.5
406.212	145.5
406.436	155.5
406.66	102.5
406.883	73.5
407.107	83.5
407.331	90.5
407.555	91.5
407.778	93.5
408.002	84.5
408.226	82.5
408.449	85.5
408.673	93.5
408.896	87.5
409.12	93.5
409.344	94.5
409.567	92.5
409.791	80.5
410.014	97.5
410.238	100.5
410.461	81.5
410.685	100.5
410.908	86.5
411.132	99.5
411.355	92.5
411.578	94.5
411.802	97.5
412.025	95.5
412.249	77.5
412.472	90.5
412.695	89.5
412.919	89.5
413.142	83.5
413.365	92.5
413.589	87.5
413.812	87.5
414.035	93.5
414.258	107.5
414.482	81.5
414.705	89.5
414.928	87.5
415.151	83.5
415.374	77.5
415.597	70.5
415.821	72.5
416.044	85.5
416.267	83.5
416.49	79.5
416.713	96.5
416.936	89.5
417.159	85.5
417.382	95.5
417.605	87.5
417.828	81.5
418.051	85.5
418.274	99.5
418.497	90.5
418.72	106.5
418.943	93.5
419.166	91.5
419.389	77.5
419.611	89.5
419.834	106.5
420.057	90.5
420.28	94.5
420.503	86.5
420.726	78.5
420.948	79.5
421.171	87.5
421.394	87.5
421.617	87.5
421.839	90.5
422.062	91.5
422.285	86.5
422.507	102.5
422.73	95.5
422.953	86.5
423.175	66.5
423.398	61.5
423.621	92.5
423.843	83.5
424.066	93.5
424.288	94.5
424.511	102.5
424.733	99.5
424.956	96.5
425.178	102.5
425.401	98.5
425.623	91.5
425.846	97.5
426.068	81.5
426.291	97.5
426.513	88.5
426.735	85.5
426.958	87.5
427.18	74.5
427.402	122.5
427.625	129.5
427.847	104.5
428.069	90.5
428.292	95.5
428.514	93.5
428.736	87.5
428.958	94.5
429.181	82.5
429.403	93.5
429.625	81.5
429.847	84.5
430.069	88.5
430.292	94.5
430.514	94.5
430.736	90.5
430.958	81.5
431.18	81.5
431.402	73.5
431.624	80.5
431.846	80.5
432.068	98.5
432.29	79.5
432.512	93.5
432.734	89.5
432.956	99.5
433.178	90.5
433.4	105.5
433.622	70.5
433.844	83.5
434.066	82.5
434.287	79.5
434.509	81.5
434.731	79.5
434.953	83.5
435.175	87.5
435.397	106.5
435.618	94.5
435.84	100.5
436.062	110.5
436.284	112.5
436.505	81.5
436.727	78.5
436.949	88.5
437.17	86.5
437.392	72.5
437.614	103.5
437.835	111.5
438.057	90.5
438.278	90.5
438.5	89.5
438.721	92.5
438.943	88.5
439.165	80.5
439.386	84.5
439.608	91.5
439.829	92.5
440.05	98.5
440.272	116.5
440.493	87.5
440.715	72.5
440.936	98.5
441.158	81.5
441.379	87.5
441.6	77.5
441.822	81.5
442.043	80.5
442.264	89.5
442.486	88.5
442.707	88.5
442.928	75.5
443.149	106.5
443.371	102.5
443.592	98.5
443.813	97.5
444.034	113.5
444.255	75.5
444.476	87.5
444.698	82.5
444.919	73.5
445.14	128.5
445.361	107.5
445.582	111.5
445.803	107.5
446.024	112.5
446.245	122.5
446.466	96.5
446.687	66.5
446.908	85.5
447.129	100.5
447.35	72.5
447.571	74.5
447.792	96.5
448.013	93.5
448.234	99.5
448.455	80.5
448.675	83.5
448.896	112.5
449.117	91.5
449.338	102.5
449.559	103.5
449.779	123.5
450	74.5
450.221	84.5
450.442	86.5
450.662	77.5
450.883	101.5
451.104	89.5
451.324	85.5
451.545	103.5
451.766	77.5
451.986	75.5
452.207	79.5
452.428	81.5
452.648	85.5
452.869	105.5
453.089	93.5
453.31	98.5
453.53	92.5
453.751	94.5
453.971	82.5
454.192	112.5
454.412	84.5
454.633	87.5
454.853	86.5
455.073	85.5
455.294	98.5
455.514	90.5
455.734	87.5
455.955	83.5
456.175	83.5
456.395	85.5
456.616	81.5
456.836	94.5
457.056	83.5
457.276	102.5
457.497	86.5
457.717	91.5
457.937	80.5
458.157	87.5
458.377	95.5
458.598	87.5
458.818	99.5
459.038	129.5
459.258	96.5
459.478	88.5
459.698	89.5
459.918	89.5
460.138	73.5
460.358	85.5
460.578	85.5
460.798	90.5
461.018	95.5
461.238	81.5
461.458	81.5
461.678	75.5
461.898	84.5
462.118	71.5
462.338	75.5
462.558	82.5
462.777	78.5
462.997	97.5
463.217	97.5
463.437	88.5
463.657	87.5
463.876	93.5
464.096	83.5
464.316	86.5
464.536	93.5
464.755	89.5
464.975	114.5
465.195	123.5
465.414	126.5
465.634	81.5
465.854	87.5
466.073	87.5
466.293	88.5
466.512	91.5
466.732	82.5
466.951	90.5
467.171	85.5
467.391	74.5
467.61	88.5
467.829	95.5
468.049	89.5
468.268	99.5
468.488	87.5
468.707	88.5
468.927	81.5
469.146	81.5
469.365	78.5
469.585	85.5
469.804	102.5
470.023	81.5
470.243	91.5
470.462	100.5
470.681	88.5
470.901	93.5
471.12	89.5
471.339	74.5
471.558	78.5
471.777	93.5
471.997	94.5
472.216	104.5
472.435	133.5
472.654	99.5
472.873	90.5
473.092	82.5
473.311	81.5
473.53	63.5
473.749	94.5
473.968	93.5
474.187	98.5
474.406	99.5
474.625	84.5
474.844	85.5
475.063	91.5
475.282	83.5
475.501	81.5
475.72	93.5
475.939	82.5
476.158	90.5
476.377	83.5
476.596	91.5
476.814	77.5
477.033	90.5
477.252	85.5
477.471	72.5
477.69	100.5
477.908	98.5
478.127	81.5
478.346	95.5
478.564	94.5
478.783	93.5
479.002	84.5
479.22	92.5
479.439	91.5
479.658	81.5
479.876	82.5
480.095	85.5
480.313	89.5
480.532	97.5
480.751	103.5
480.969	104.5
481.188	154.5
481.406	141.5
481.624	89.5
481.843	83.5
482.061	87.5
482.28	93.5
482.498	96.5
482.717	86.5
482.935	100.5
483.153	83.5
483.372	74.5
483.59	77.5
483.808	81.5
484.027	90.5
484.245	113.5
484.463	83.5
484.681	77.5
484.9	87.5
485.118	89.5
485.336	92.5
485.554	93.5
485.772	92.5
485.99	101.5
486.209	106.5
486.427	113.5
486.645	118.5
486.863	99.5
487.081	96.5
487.299	91.5
487.517	96.5
487.735	89.5
487.953	91.5
488.171	91.5
488.389	80.5
488.607	69.5
488.825	88.5
489.043	104.5
489.261	95.5
489.479	90.5
489.696	88.5
489.914	86.5
490.132	88.5
490.35	78.5
490.568	92.5
490.786	81.5
491.003	89.5
491.221	98.5
491.439	94.5
491.657	87.5
491.874	89.5
492.092	75.5
492.31	104.5
492.527	83.5
492.745	89.5
492.963	93.5
493.18	93.5
493.398	91.5
493.615	93.5
493.833	97.5
494.05	89.5
494.268	86.5
494.485	86.5
494.703	99.5
494.92	93.5
495.138	93.5
495.355	77.5
495.573	79.5
495.79	95.5
496.008	90.5
496.225	102.5
496.442	72.5
496.66	100.5
496.877	81.5
497.094	90.5
497.312	71.5
497.529	83.5
497.746	96.5
497.963	88.5
498.181	96.5
498.398	99.5
498.615	101.5
498.832	97.5
499.049	78.5
499.267	87.5
499.484	102.5
499.701	107.5
499.918	95.5
500.135	81.5
500.352	80.5
500.569	94.5
500.786	87.5
501.003	80.5
501.22	80.5
501.437	79.5
501.654	91.5
501.871	86.5
502.088	93.5
502.305	77.5
502.522	86.5
502.739	99.5
502.956	79.5
503.172	85.5
503.389	84.5
503.606	104.5
503.823	86.5
504.04	104.5
504.256	88.5
504.473	80.5
504.69	93.5
504.907	93.5
505.123	90.5
505.34	91.5
505.557	83.5
505.773	101.5
505.99	89.5
506.207	99.5
506.423	83.5
506.64	92.5
506.856	87.5
507.073	83.5
507.289	91.5
507.506	105.5
507.722	105.5
507.939	103.5
508.155	95.5
508.372	89.5
508.588	96.5
508.805	86.5
509.021	98.5
509.238	85.5
509.454	90.5
509.67	91.5
509.887	91.5
510.103	107.5
510.319	159.5
510.536	514.5
510.752	1591.5
510.968	450.5
511.184	123.5
511.401	109.5
511.617	99.5
511.833	77.5
512.049	93.5
512.265	82.5
512.481	80.5
512.698	85.5
512.914	89.5
513.13	105.5
513.346	84.5
513.562	99.5
513.778	100.5
513.994	85.5
514.21	93.5
514.426	91.5
514.642	115.5
514.858	110.5
515.074	119.5
515.29	308.5
515.506	857.5
515.721	340.5
515.937	142.5
516.153	99.5
516.369	96.5
516.585	89.5
516.801	89.5
517.016	104.5
517.232	101.5
517.448	89.5
517.664	102.5
517.879	99.5
518.095	97.5
518.311	102.5
518.527	89.5
518.742	81.5
518.958	83.5
519.173	93.5
519.389	96.5
519.605	90.5
519.82	100.5
520.036	90.5
520.251	98.5
520.467	112.5
520.682	90.5
520.898	103.5
521.113	107.5
521.329	118.5
521.544	146.5
521.76	354.5
521.975	1423.5
522.19	895.5
522.406	212.5
522.621	103.5
522.836	92.5
523.052	91.5
523.267	95.5
523.482	85.5
523.698	100.5
523.913	117.5
524.128	104.5
524.343	86.5
524.559	97.5
524.774	91.5
524.989	88.5
525.204	99.5
525.419	79.5
525.634	86.5
525.849	83.5
526.064	93.5
526.28	86.5
526.495	85.5
526.71	80.5
526.925	89.5
527.14	83.5
527.355	98.5
527.57	96.5
527.785	92.5
527.999	84.5
528.214	85.5
528.429	98.5
528.644	84.5
528.859	82.5
529.074	90.5
529.289	96.5
529.503	117.5
529.718	86.5
529.933	85.5
530.148	79.5
530.363	78.5
530.577	93.5
530.792	85.5
531.007	89.5
531.221	89.5
531.436	87.5
531.651	91.5
531.865	101.5
532.08	85.5
532.295	72.5
532.509	83.5
532.724	85.5
532.938	83.5
533.153	97.5
533.367	88.5
533.582	96.5
533.796	91.5
534.011	99.5
534.225	92.5
534.44	82.5
534.654	87.5
534.868	104.5
535.083	101.5
535.297	86.5
535.511	92.5
535.726	96.5
535.94	86.5
536.154	79.5
536.369	92.5
536.583	87.5
536.797	83.5
537.011	100.5
