Data from Circ_1985_H10_HRD10591_00085.txt Node
Date: Wed Jan 03 12:19:39 EST 2024
User: Yrep
Spectrometer: HR+D1059
Trigger mode: 1
Integration Time (sec): 1.000000E-1
Scans to average: 1
Electric dark correction enabled: true
Nonlinearity correction enabled: false
Boxcar width: 0
XAxis mode: Wavelengths
Number of Pixels in Spectrum: 2048
>>>>>Begin Spectral Data<<<<<
223.165	-26.44
223.4	-26.44
223.635	-26.44
223.869	-22.44
224.104	-19.44
224.338	-10.44
224.573	-8.44
224.808	-0.44
225.042	-7.44
225.277	-3.44
225.511	-7.44
225.746	-4.44
225.98	14.56
226.215	5.56
226.449	20.56
226.683	19.56
226.918	22.56
227.152	27.56
227.387	24.56
227.621	22.56
227.856	35.56
228.09	60.56
228.324	54.56
228.559	52.56
228.793	40.56
229.027	62.56
229.262	67.56
229.496	69.56
229.73	72.56
229.964	90.56
230.199	76.56
230.433	76.56
230.667	81.56
230.901	62.56
231.136	72.56
231.37	65.56
231.604	69.56
231.838	89.56
232.072	73.56
232.306	80.56
232.541	77.56
232.775	69.56
233.009	81.56
233.243	78.56
233.477	71.56
233.711	82.56
233.945	93.56
234.179	82.56
234.413	83.56
234.647	81.56
234.881	66.56
235.115	78.56
235.349	76.56
235.583	71.56
235.817	77.56
236.051	80.56
236.285	75.56
236.519	64.56
236.753	76.56
236.987	70.56
237.221	87.56
237.455	78.56
237.689	68.56
237.922	60.56
238.156	68.56
238.39	73.56
238.624	70.56
238.858	69.56
239.091	78.56
239.325	66.56
239.559	94.56
239.793	74.56
240.027	71.56
240.26	61.56
240.494	72.56
240.728	74.56
240.961	59.56
241.195	80.56
241.429	86.56
241.662	76.56
241.896	66.56
242.13	72.56
242.363	78.56
242.597	72.56
242.83	80.56
243.064	80.56
243.298	74.56
243.531	72.56
243.765	83.56
243.998	81.56
244.232	72.56
244.465	64.56
244.699	71.56
244.932	78.56
245.166	82.56
245.399	68.56
245.633	65.56
245.866	69.56
246.099	89.56
246.333	74.56
246.566	78.56
246.8	77.56
247.033	76.56
247.266	84.56
247.5	91.56
247.733	73.56
247.966	76.56
248.2	62.56
248.433	81.56
248.666	88.56
248.899	77.56
249.133	94.56
249.366	78.56
249.599	87.56
249.832	74.56
250.066	73.56
250.299	79.56
250.532	74.56
250.765	84.56
250.998	76.56
251.231	80.56
251.465	73.56
251.698	75.56
251.931	62.56
252.164	87.56
252.397	78.56
252.63	84.56
252.863	84.56
253.096	79.56
253.329	78.56
253.562	86.56
253.795	77.56
254.028	70.56
254.261	74.56
254.494	73.56
254.727	74.56
254.96	83.56
255.193	79.56
255.426	73.56
255.659	68.56
255.892	82.56
256.124	67.56
256.357	74.56
256.59	79.56
256.823	89.56
257.056	72.56
257.289	84.56
257.521	80.56
257.754	79.56
257.987	88.56
258.22	66.56
258.452	76.56
258.685	76.56
258.918	77.56
259.151	79.56
259.383	83.56
259.616	66.56
259.849	76.56
260.081	88.56
260.314	79.56
260.547	71.56
260.779	83.56
261.012	82.56
261.244	71.56
261.477	88.56
261.71	89.56
261.942	111.56
262.175	96.56
262.407	75.56
262.64	75.56
262.872	82.56
263.105	74.56
263.337	89.56
263.57	86.56
263.802	79.56
264.035	90.56
264.267	92.56
264.499	82.56
264.732	89.56
264.964	84.56
265.197	81.56
265.429	82.56
265.661	89.56
265.894	85.56
266.126	72.56
266.358	69.56
266.591	81.56
266.823	85.56
267.055	77.56
267.287	85.56
267.52	78.56
267.752	83.56
267.984	84.56
268.216	78.56
268.448	85.56
268.681	81.56
268.913	95.56
269.145	89.56
269.377	98.56
269.609	82.56
269.841	88.56
270.073	81.56
270.306	90.56
270.538	86.56
270.77	85.56
271.002	82.56
271.234	90.56
271.466	90.56
271.698	102.56
271.93	89.56
272.162	85.56
272.394	93.56
272.626	87.56
272.858	87.56
273.09	89.56
273.322	89.56
273.553	95.56
273.785	72.56
274.017	82.56
274.249	81.56
274.481	71.56
274.713	83.56
274.945	78.56
275.176	88.56
275.408	95.56
275.64	99.56
275.872	86.56
276.104	103.56
276.335	96.56
276.567	96.56
276.799	102.56
277.031	114.56
277.262	91.56
277.494	78.56
277.726	85.56
277.957	80.56
278.189	78.56
278.421	81.56
278.652	87.56
278.884	94.56
279.115	84.56
279.347	77.56
279.579	84.56
279.81	87.56
280.042	80.56
280.273	80.56
280.505	94.56
280.736	82.56
280.968	82.56
281.199	88.56
281.431	95.56
281.662	74.56
281.894	94.56
282.125	95.56
282.356	124.56
282.588	134.56
282.819	103.56
283.051	88.56
283.282	88.56
283.513	92.56
283.745	81.56
283.976	89.56
284.207	83.56
284.439	83.56
284.67	93.56
284.901	82.56
285.132	85.56
285.364	74.56
285.595	85.56
285.826	88.56
286.057	83.56
286.288	94.56
286.52	90.56
286.751	89.56
286.982	84.56
287.213	71.56
287.444	80.56
287.675	96.56
287.906	89.56
288.138	89.56
288.369	85.56
288.6	92.56
288.831	88.56
289.062	87.56
289.293	88.56
289.524	87.56
289.755	93.56
289.986	97.56
290.217	83.56
290.448	72.56
290.679	92.56
290.91	80.56
291.141	69.56
291.371	78.56
291.602	73.56
291.833	70.56
292.064	81.56
292.295	89.56
292.526	91.56
292.757	74.56
292.987	82.56
293.218	86.56
293.449	92.56
293.68	100.56
293.91	93.56
294.141	81.56
294.372	85.56
294.603	80.56
294.833	78.56
295.064	80.56
295.295	79.56
295.525	91.56
295.756	104.56
295.987	114.56
296.217	128.56
296.448	123.56
296.679	99.56
296.909	100.56
297.14	84.56
297.37	84.56
297.601	95.56
297.831	83.56
298.062	95.56
298.292	82.56
298.523	88.56
298.753	83.56
298.984	80.56
299.214	66.56
299.445	96.56
299.675	84.56
299.905	91.56
300.136	101.56
300.366	84.56
300.597	97.56
300.827	89.56
301.057	99.56
301.288	92.56
301.518	89.56
301.748	90.56
301.979	100.56
302.209	79.56
302.439	95.56
302.669	73.56
302.9	90.56
303.13	76.56
303.36	84.56
303.59	102.56
303.82	110.56
304.051	88.56
304.281	94.56
304.511	87.56
304.741	92.56
304.971	78.56
305.201	83.56
305.431	100.56
305.661	97.56
305.891	88.56
306.121	77.56
306.352	95.56
306.582	95.56
306.812	97.56
307.042	93.56
307.272	73.56
307.502	103.56
307.731	96.56
307.961	92.56
308.191	85.56
308.421	94.56
308.651	94.56
308.881	79.56
309.111	81.56
309.341	92.56
309.571	92.56
309.8	80.56
310.03	96.56
310.26	75.56
310.49	96.56
310.72	101.56
310.949	108.56
311.179	108.56
311.409	87.56
311.639	90.56
311.868	93.56
312.098	92.56
312.328	83.56
312.557	100.56
312.787	100.56
313.017	85.56
313.246	90.56
313.476	83.56
313.706	87.56
313.935	93.56
314.165	103.56
314.394	88.56
314.624	84.56
314.853	87.56
315.083	92.56
315.312	102.56
315.542	94.56
315.771	89.56
316.001	84.56
316.23	96.56
316.46	107.56
316.689	98.56
316.919	83.56
317.148	78.56
317.377	105.56
317.607	90.56
317.836	85.56
318.065	92.56
318.295	98.56
318.524	78.56
318.753	93.56
318.983	102.56
319.212	101.56
319.441	90.56
319.67	100.56
319.9	85.56
320.129	101.56
320.358	93.56
320.587	88.56
320.816	89.56
321.046	101.56
321.275	89.56
321.504	95.56
321.733	82.56
321.962	95.56
322.191	108.56
322.42	103.56
322.649	109.56
322.878	101.56
323.108	112.56
323.337	105.56
323.566	119.56
323.795	142.56
324.024	204.56
324.253	370.56
324.482	814.56
324.71	1631.56
324.939	2199.56
325.168	802.56
325.397	236.56
325.626	153.56
325.855	138.56
326.084	126.56
326.313	138.56
326.542	151.56
326.77	226.56
326.999	458.56
327.228	940.56
327.457	1744.56
327.686	1356.56
327.914	350.56
328.143	196.56
328.372	162.56
328.6	132.56
328.829	109.56
329.058	123.56
329.287	125.56
329.515	103.56
329.744	111.56
329.972	100.56
330.201	126.56
330.43	143.56
330.658	118.56
330.887	127.56
331.115	104.56
331.344	96.56
331.572	87.56
331.801	119.56
332.03	95.56
332.258	111.56
332.486	86.56
332.715	93.56
332.943	81.56
333.172	90.56
333.4	91.56
333.629	104.56
333.857	111.56
334.085	115.56
334.314	121.56
334.542	167.56
334.771	160.56
334.999	109.56
335.227	106.56
335.455	103.56
335.684	103.56
335.912	105.56
336.14	102.56
336.369	88.56
336.597	85.56
336.825	89.56
337.053	83.56
337.281	101.56
337.51	104.56
337.738	92.56
337.966	94.56
338.194	96.56
338.422	83.56
338.65	97.56
338.878	96.56
339.106	76.56
339.334	81.56
339.562	85.56
339.79	89.56
340.018	88.56
340.246	95.56
340.474	93.56
340.702	89.56
340.93	93.56
341.158	99.56
341.386	80.56
341.614	94.56
341.842	78.56
342.07	84.56
342.298	93.56
342.526	91.56
342.754	92.56
342.981	81.56
343.209	89.56
343.437	96.56
343.665	70.56
343.893	78.56
344.12	88.56
344.348	95.56
344.576	85.56
344.804	81.56
345.031	95.56
345.259	79.56
345.487	87.56
345.714	103.56
345.942	87.56
346.17	79.56
346.397	93.56
346.625	77.56
346.853	99.56
347.08	92.56
347.308	88.56
347.535	83.56
347.763	79.56
347.99	85.56
348.218	99.56
348.445	77.56
348.673	105.56
348.9	78.56
349.128	100.56
349.355	92.56
349.583	99.56
349.81	81.56
350.037	90.56
350.265	100.56
350.492	93.56
350.72	102.56
350.947	101.56
351.174	115.56
351.402	110.56
351.629	100.56
351.856	84.56
352.083	99.56
352.311	111.56
352.538	104.56
352.765	116.56
352.992	96.56
353.22	113.56
353.447	96.56
353.674	87.56
353.901	80.56
354.128	104.56
354.355	100.56
354.583	98.56
354.81	108.56
355.037	110.56
355.264	106.56
355.491	91.56
355.718	90.56
355.945	88.56
356.172	87.56
356.399	87.56
356.626	99.56
356.853	86.56
357.08	98.56
357.307	79.56
357.534	94.56
357.761	97.56
357.988	95.56
358.215	96.56
358.441	98.56
358.668	83.56
358.895	92.56
359.122	84.56
359.349	83.56
359.576	93.56
359.802	90.56
360.029	112.56
360.256	103.56
360.483	90.56
360.709	87.56
360.936	97.56
361.163	96.56
361.39	89.56
361.616	90.56
361.843	88.56
362.07	88.56
362.296	96.56
362.523	99.56
362.749	75.56
362.976	87.56
363.203	82.56
363.429	91.56
363.656	78.56
363.882	80.56
364.109	87.56
364.335	90.56
364.562	93.56
364.788	80.56
365.015	92.56
365.241	104.56
365.468	101.56
365.694	94.56
365.92	102.56
366.147	88.56
366.373	92.56
366.599	84.56
366.826	80.56
367.052	88.56
367.278	74.56
367.505	86.56
367.731	86.56
367.957	89.56
368.184	74.56
368.41	73.56
368.636	96.56
368.862	102.56
369.089	98.56
369.315	84.56
369.541	82.56
369.767	90.56
369.993	92.56
370.219	94.56
370.445	92.56
370.672	78.56
370.898	86.56
371.124	93.56
371.35	96.56
371.576	92.56
371.802	84.56
372.028	89.56
372.254	80.56
372.48	84.56
372.706	94.56
372.932	104.56
373.158	68.56
373.384	98.56
373.61	88.56
373.835	88.56
374.061	101.56
374.287	91.56
374.513	88.56
374.739	89.56
374.965	88.56
375.191	79.56
375.416	97.56
375.642	88.56
375.868	90.56
376.094	85.56
376.319	85.56
376.545	82.56
376.771	99.56
376.997	97.56
377.222	86.56
377.448	101.56
377.674	82.56
377.899	88.56
378.125	82.56
378.35	95.56
378.576	82.56
378.802	100.56
379.027	101.56
379.253	92.56
379.478	93.56
379.704	97.56
379.929	99.56
380.155	85.56
380.38	88.56
380.606	98.56
380.831	99.56
381.057	91.56
381.282	87.56
381.507	99.56
381.733	98.56
381.958	97.56
382.184	85.56
382.409	103.56
382.634	102.56
382.86	104.56
383.085	98.56
383.31	105.56
383.535	96.56
383.761	81.56
383.986	102.56
384.211	97.56
384.436	93.56
384.662	88.56
384.887	95.56
385.112	91.56
385.337	97.56
385.562	90.56
385.787	88.56
386.013	102.56
386.238	96.56
386.463	103.56
386.688	106.56
386.913	110.56
387.138	118.56
387.363	100.56
387.588	90.56
387.813	114.56
388.038	102.56
388.263	108.56
388.488	107.56
388.713	86.56
388.938	98.56
389.163	84.56
389.387	86.56
389.612	93.56
389.837	91.56
390.062	81.56
390.287	92.56
390.512	94.56
390.736	95.56
390.961	94.56
391.186	98.56
391.411	94.56
391.636	81.56
391.86	80.56
392.085	73.56
392.31	72.56
392.534	82.56
392.759	90.56
392.984	84.56
393.208	78.56
393.433	97.56
393.658	103.56
393.882	91.56
394.107	81.56
394.331	92.56
394.556	81.56
394.78	85.56
395.005	69.56
395.229	100.56
395.454	82.56
395.678	71.56
395.903	95.56
396.127	89.56
396.352	81.56
396.576	69.56
396.801	69.56
397.025	88.56
397.249	94.56
397.474	82.56
397.698	83.56
397.922	100.56
398.147	88.56
398.371	72.56
398.595	89.56
398.82	81.56
399.044	69.56
399.268	87.56
399.492	72.56
399.717	88.56
399.941	89.56
400.165	94.56
400.389	71.56
400.613	83.56
400.837	86.56
401.062	81.56
401.286	80.56
401.51	88.56
401.734	94.56
401.958	95.56
402.182	105.56
402.406	136.56
402.63	113.56
402.854	98.56
403.078	96.56
403.302	89.56
403.526	88.56
403.75	74.56
403.974	101.56
404.198	87.56
404.422	94.56
404.645	98.56
404.869	88.56
405.093	96.56
405.317	74.56
405.541	87.56
405.765	90.56
405.988	106.56
406.212	149.56
406.436	185.56
406.66	125.56
406.883	102.56
407.107	87.56
407.331	97.56
407.555	105.56
407.778	97.56
408.002	81.56
408.226	84.56
408.449	92.56
408.673	82.56
408.896	110.56
409.12	77.56
409.344	65.56
409.567	74.56
409.791	88.56
410.014	87.56
410.238	88.56
410.461	104.56
410.685	99.56
410.908	93.56
411.132	97.56
411.355	95.56
411.578	100.56
411.802	89.56
412.025	91.56
412.249	104.56
412.472	92.56
412.695	105.56
412.919	87.56
413.142	73.56
413.365	78.56
413.589	78.56
413.812	94.56
414.035	91.56
414.258	97.56
414.482	98.56
414.705	85.56
414.928	70.56
415.151	98.56
415.374	90.56
415.597	93.56
415.821	78.56
416.044	76.56
416.267	106.56
416.49	95.56
416.713	96.56
416.936	90.56
417.159	71.56
417.382	88.56
417.605	81.56
417.828	89.56
418.051	86.56
418.274	77.56
418.497	87.56
418.72	97.56
418.943	81.56
419.166	61.56
419.389	84.56
419.611	86.56
419.834	94.56
420.057	77.56
420.28	100.56
420.503	91.56
420.726	84.56
420.948	84.56
421.171	92.56
421.394	84.56
421.617	87.56
421.839	86.56
422.062	84.56
422.285	95.56
422.507	90.56
422.73	91.56
422.953	79.56
423.175	78.56
423.398	80.56
423.621	88.56
423.843	83.56
424.066	97.56
424.288	80.56
424.511	93.56
424.733	103.56
424.956	99.56
425.178	94.56
425.401	87.56
425.623	101.56
425.846	91.56
426.068	100.56
426.291	93.56
426.513	72.56
426.735	90.56
426.958	87.56
427.18	93.56
427.402	132.56
427.625	162.56
427.847	121.56
428.069	109.56
428.292	99.56
428.514	81.56
428.736	87.56
428.958	79.56
429.181	89.56
429.403	81.56
429.625	90.56
429.847	96.56
430.069	100.56
430.292	86.56
430.514	95.56
430.736	73.56
430.958	71.56
431.18	66.56
431.402	91.56
431.624	90.56
431.846	85.56
432.068	77.56
432.29	83.56
432.512	78.56
432.734	88.56
432.956	82.56
433.178	98.56
433.4	102.56
433.622	84.56
433.844	92.56
434.066	94.56
434.287	91.56
434.509	85.56
434.731	84.56
434.953	81.56
435.175	89.56
435.397	99.56
435.618	96.56
435.84	98.56
436.062	101.56
436.284	96.56
436.505	87.56
436.727	83.56
436.949	89.56
437.17	86.56
437.392	99.56
437.614	87.56
437.835	101.56
438.057	107.56
438.278	98.56
438.5	92.56
438.721	114.56
438.943	80.56
439.165	81.56
439.386	81.56
439.608	85.56
439.829	94.56
440.05	102.56
440.272	129.56
440.493	89.56
440.715	71.56
440.936	87.56
441.158	85.56
441.379	80.56
441.6	89.56
441.822	101.56
442.043	95.56
442.264	87.56
442.486	105.56
442.707	82.56
442.928	103.56
443.149	129.56
443.371	125.56
443.592	99.56
443.813	108.56
444.034	80.56
444.255	79.56
444.476	75.56
444.698	72.56
444.919	86.56
445.14	118.56
445.361	120.56
445.582	124.56
445.803	108.56
446.024	122.56
446.245	121.56
446.466	113.56
446.687	94.56
446.908	86.56
447.129	96.56
447.35	96.56
447.571	92.56
447.792	98.56
448.013	89.56
448.234	87.56
448.455	79.56
448.675	102.56
448.896	126.56
449.117	101.56
449.338	99.56
449.559	105.56
449.779	116.56
450	85.56
450.221	86.56
450.442	101.56
450.662	95.56
450.883	99.56
451.104	92.56
451.324	92.56
451.545	83.56
451.766	91.56
451.986	83.56
452.207	72.56
452.428	92.56
452.648	98.56
452.869	93.56
453.089	109.56
453.31	103.56
453.53	87.56
453.751	68.56
453.971	83.56
454.192	90.56
454.412	87.56
454.633	89.56
454.853	89.56
455.073	89.56
455.294	92.56
455.514	100.56
455.734	80.56
455.955	100.56
456.175	89.56
456.395	90.56
456.616	71.56
456.836	71.56
457.056	86.56
457.276	72.56
457.497	68.56
457.717	84.56
457.937	94.56
458.157	90.56
458.377	95.56
458.598	111.56
458.818	122.56
459.038	143.56
459.258	106.56
459.478	87.56
459.698	72.56
459.918	82.56
460.138	83.56
460.358	87.56
460.578	96.56
460.798	92.56
461.018	97.56
461.238	88.56
461.458	96.56
461.678	86.56
461.898	94.56
462.118	88.56
462.338	69.56
462.558	94.56
462.777	92.56
462.997	81.56
463.217	86.56
463.437	79.56
463.657	97.56
463.876	84.56
464.096	64.56
464.316	89.56
464.536	96.56
464.755	88.56
464.975	99.56
465.195	166.56
465.414	148.56
465.634	80.56
465.854	79.56
466.073	82.56
466.293	84.56
466.512	71.56
466.732	87.56
466.951	74.56
467.171	82.56
467.391	89.56
467.61	101.56
467.829	98.56
468.049	110.56
468.268	111.56
468.488	92.56
468.707	78.56
468.927	83.56
469.146	89.56
469.365	91.56
469.585	67.56
469.804	71.56
470.023	104.56
470.243	89.56
470.462	98.56
470.681	109.56
470.901	73.56
471.12	85.56
471.339	75.56
471.558	92.56
471.777	86.56
471.997	103.56
472.216	152.56
472.435	202.56
472.654	108.56
472.873	86.56
473.092	81.56
473.311	83.56
473.53	70.56
473.749	80.56
473.968	92.56
474.187	87.56
474.406	84.56
474.625	89.56
474.844	82.56
475.063	78.56
475.282	89.56
475.501	80.56
475.72	89.56
475.939	88.56
476.158	100.56
476.377	77.56
476.596	87.56
476.814	103.56
477.033	96.56
477.252	84.56
477.471	96.56
477.69	96.56
477.908	85.56
478.127	87.56
478.346	80.56
478.564	73.56
478.783	78.56
479.002	83.56
479.22	85.56
479.439	95.56
479.658	97.56
479.876	88.56
480.095	83.56
480.313	101.56
480.532	88.56
480.751	82.56
480.969	144.56
481.188	271.56
481.406	208.56
481.624	92.56
481.843	78.56
482.061	87.56
482.28	89.56
482.498	80.56
482.717	82.56
482.935	84.56
483.153	88.56
483.372	91.56
483.59	88.56
483.808	95.56
484.027	99.56
484.245	88.56
484.463	81.56
484.681	93.56
484.9	91.56
485.118	97.56
485.336	84.56
485.554	86.56
485.772	100.56
485.99	107.56
486.209	91.56
486.427	102.56
486.645	116.56
486.863	94.56
487.081	90.56
487.299	98.56
487.517	85.56
487.735	82.56
487.953	92.56
488.171	93.56
488.389	95.56
488.607	93.56
488.825	92.56
489.043	102.56
489.261	95.56
489.479	80.56
489.696	97.56
489.914	91.56
490.132	89.56
490.35	88.56
490.568	98.56
490.786	87.56
491.003	87.56
491.221	87.56
491.439	95.56
491.657	86.56
491.874	109.56
492.092	89.56
492.31	94.56
492.527	92.56
492.745	68.56
492.963	95.56
493.18	85.56
493.398	86.56
493.615	97.56
493.833	95.56
494.05	101.56
494.268	88.56
494.485	87.56
494.703	92.56
494.92	94.56
495.138	77.56
495.355	88.56
495.573	87.56
495.79	73.56
496.008	94.56
496.225	84.56
496.442	81.56
496.66	99.56
496.877	82.56
497.094	80.56
497.312	78.56
497.529	74.56
497.746	104.56
497.963	92.56
498.181	76.56
498.398	96.56
498.615	103.56
498.832	106.56
499.049	95.56
499.267	88.56
499.484	84.56
499.701	96.56
499.918	88.56
500.135	82.56
500.352	85.56
500.569	95.56
500.786	92.56
501.003	88.56
501.22	91.56
501.437	85.56
501.654	86.56
501.871	98.56
502.088	96.56
502.305	88.56
502.522	83.56
502.739	84.56
502.956	93.56
503.172	98.56
503.389	90.56
503.606	88.56
503.823	99.56
504.04	91.56
504.256	70.56
504.473	82.56
504.69	77.56
504.907	102.56
505.123	84.56
505.34	83.56
505.557	98.56
505.773	92.56
505.99	88.56
506.207	87.56
506.423	102.56
506.64	89.56
506.856	88.56
507.073	77.56
507.289	89.56
507.506	79.56
507.722	101.56
507.939	94.56
508.155	86.56
508.372	73.56
508.588	81.56
508.805	95.56
509.021	96.56
509.238	105.56
509.454	102.56
509.67	89.56
509.887	105.56
510.103	120.56
510.319	192.56
510.536	676.56
510.752	2144.56
510.968	595.56
511.184	148.56
511.401	117.56
511.617	96.56
511.833	93.56
512.049	93.56
512.265	85.56
512.481	73.56
512.698	101.56
512.914	85.56
513.13	95.56
513.346	81.56
513.562	89.56
513.778	103.56
513.994	100.56
514.21	84.56
514.426	102.56
514.642	115.56
514.858	116.56
515.074	133.56
515.29	395.56
515.506	1262.56
515.721	472.56
515.937	140.56
516.153	104.56
516.369	83.56
516.585	82.56
