Data from Circ_1985_H10_HRD10591_00060.txt Node
Date: Wed Jan 03 12:19:34 EST 2024
User: Yrep
Spectrometer: HR+D1059
Trigger mode: 1
Integration Time (sec): 1.000000E-1
Scans to average: 1
Electric dark correction enabled: true
Nonlinearity correction enabled: false
Boxcar width: 0
XAxis mode: Wavelengths
Number of Pixels in Spectrum: 2048
>>>>>Begin Spectral Data<<<<<
223.165	-16
223.4	-16
223.635	-16
223.869	-25
224.104	-13
224.338	-5
224.573	-15
224.808	-14
225.042	-5
225.277	-18
225.511	-4
225.746	6
225.98	10
226.215	12
226.449	15
226.683	12
226.918	31
227.152	29
227.387	33
227.621	49
227.856	58
228.09	40
228.324	51
228.559	57
228.793	59
229.027	71
229.262	58
229.496	87
229.73	86
229.964	71
230.199	73
230.433	88
230.667	81
230.901	74
231.136	101
231.37	94
231.604	66
231.838	86
232.072	72
232.306	75
232.541	85
232.775	85
233.009	86
233.243	90
233.477	78
233.711	81
233.945	91
234.179	100
234.413	87
234.647	95
234.881	84
235.115	87
235.349	76
235.583	85
235.817	83
236.051	69
236.285	78
236.519	75
236.753	75
236.987	76
237.221	89
237.455	81
237.689	87
237.922	73
238.156	77
238.39	87
238.624	77
238.858	85
239.091	92
239.325	76
239.559	81
239.793	70
240.027	79
240.26	77
240.494	77
240.728	88
240.961	75
241.195	94
241.429	75
241.662	78
241.896	67
242.13	84
242.363	73
242.597	76
242.83	78
243.064	68
243.298	67
243.531	70
243.765	77
243.998	94
244.232	80
244.465	83
244.699	81
244.932	81
245.166	84
245.399	78
245.633	79
245.866	88
246.099	78
246.333	93
246.566	61
246.8	65
247.033	74
247.266	67
247.5	87
247.733	72
247.966	76
248.2	89
248.433	83
248.666	86
248.899	86
249.133	85
249.366	99
249.599	89
249.832	73
250.066	82
250.299	97
250.532	79
250.765	83
250.998	83
251.231	90
251.465	91
251.698	86
251.931	85
252.164	79
252.397	62
252.63	83
252.863	76
253.096	77
253.329	94
253.562	75
253.795	90
254.028	85
254.261	81
254.494	90
254.727	70
254.96	83
255.193	83
255.426	81
255.659	93
255.892	84
256.124	87
256.357	89
256.59	79
256.823	87
257.056	82
257.289	91
257.521	74
257.754	74
257.987	71
258.22	83
258.452	85
258.685	93
258.918	88
259.151	88
259.383	101
259.616	99
259.849	83
260.081	83
260.314	66
260.547	79
260.779	82
261.012	78
261.244	79
261.477	95
261.71	94
261.942	103
262.175	106
262.407	91
262.64	79
262.872	73
263.105	93
263.337	102
263.57	85
263.802	90
264.035	85
264.267	87
264.499	74
264.732	97
264.964	89
265.197	94
265.429	76
265.661	91
265.894	86
266.126	87
266.358	71
266.591	83
266.823	75
267.055	89
267.287	93
267.52	95
267.752	76
267.984	75
268.216	94
268.448	98
268.681	81
268.913	71
269.145	75
269.377	97
269.609	92
269.841	83
270.073	85
270.306	89
270.538	90
270.77	87
271.002	76
271.234	81
271.466	86
271.698	86
271.93	90
272.162	79
272.394	97
272.626	96
272.858	76
273.09	68
273.322	89
273.553	96
273.785	92
274.017	94
274.249	74
274.481	99
274.713	83
274.945	73
275.176	99
275.408	77
275.64	83
275.872	77
276.104	91
276.335	92
276.567	101
276.799	97
277.031	107
277.262	95
277.494	93
277.726	84
277.957	85
278.189	86
278.421	94
278.652	88
278.884	90
279.115	79
279.347	107
279.579	95
279.81	85
280.042	99
280.273	98
280.505	100
280.736	72
280.968	76
281.199	95
281.431	93
281.662	94
281.894	91
282.125	101
282.356	110
282.588	120
282.819	114
283.051	94
283.282	68
283.513	97
283.745	79
283.976	79
284.207	89
284.439	99
284.67	103
284.901	87
285.132	93
285.364	93
285.595	80
285.826	86
286.057	98
286.288	112
286.52	103
286.751	95
286.982	90
287.213	88
287.444	91
287.675	89
287.906	82
288.138	83
288.369	80
288.6	94
288.831	95
289.062	87
289.293	88
289.524	91
289.755	94
289.986	91
290.217	82
290.448	88
290.679	99
290.91	89
291.141	90
291.371	85
291.602	68
291.833	87
292.064	94
292.295	79
292.526	95
292.757	97
292.987	85
293.218	101
293.449	88
293.68	81
293.91	80
294.141	79
294.372	91
294.603	89
294.833	98
295.064	94
295.295	96
295.525	82
295.756	99
295.987	106
296.217	131
296.448	116
296.679	106
296.909	100
297.14	105
297.37	91
297.601	86
297.831	93
298.062	94
298.292	109
298.523	91
298.753	88
298.984	99
299.214	90
299.445	94
299.675	91
299.905	76
300.136	85
300.366	87
300.597	92
300.827	94
301.057	102
301.288	101
301.518	82
301.748	78
301.979	88
302.209	97
302.439	76
302.669	97
302.9	91
303.13	94
303.36	100
303.59	101
303.82	102
304.051	94
304.281	101
304.511	99
304.741	101
304.971	99
305.201	104
305.431	107
305.661	106
305.891	100
306.121	93
306.352	97
306.582	98
306.812	120
307.042	76
307.272	89
307.502	109
307.731	107
307.961	96
308.191	81
308.421	81
308.651	81
308.881	100
309.111	89
309.341	99
309.571	95
309.8	95
310.03	102
310.26	98
310.49	106
310.72	99
310.949	97
311.179	89
311.409	89
311.639	92
311.868	105
312.098	92
312.328	108
312.557	85
312.787	106
313.017	110
313.246	103
313.476	101
313.706	102
313.935	91
314.165	97
314.394	93
314.624	97
314.853	83
315.083	99
315.312	86
315.542	84
315.771	90
316.001	85
316.23	98
316.46	93
316.689	81
316.919	95
317.148	94
317.377	107
317.607	93
317.836	90
318.065	93
318.295	105
318.524	97
318.753	101
318.983	94
319.212	95
319.441	103
319.67	107
319.9	93
320.129	93
320.358	90
320.587	100
320.816	97
321.046	90
321.275	105
321.504	94
321.733	101
321.962	99
322.191	107
322.42	105
322.649	107
322.878	120
323.108	113
323.337	121
323.566	125
323.795	150
324.024	192
324.253	325
324.482	737
324.71	1511
324.939	1988
325.168	734
325.397	241
325.626	151
325.855	139
326.084	125
326.313	127
326.542	143
326.77	218
326.999	420
327.228	849
327.457	1557
327.686	1241
327.914	334
328.143	187
328.372	132
328.6	121
328.829	114
329.058	104
329.287	121
329.515	114
329.744	110
329.972	119
330.201	108
330.43	129
330.658	119
330.887	126
331.115	122
331.344	92
331.572	93
331.801	99
332.03	88
332.258	89
332.486	84
332.715	97
332.943	97
333.172	112
333.4	102
333.629	106
333.857	121
334.085	120
334.314	118
334.542	131
334.771	127
334.999	105
335.227	101
335.455	101
335.684	100
335.912	102
336.14	94
336.369	94
336.597	101
336.825	107
337.053	91
337.281	91
337.51	92
337.738	102
337.966	101
338.194	101
338.422	96
338.65	91
338.878	86
339.106	90
339.334	107
339.562	91
339.79	103
340.018	93
340.246	94
340.474	101
340.702	105
340.93	91
341.158	95
341.386	96
341.614	123
341.842	91
342.07	83
342.298	82
342.526	87
342.754	98
342.981	91
343.209	83
343.437	98
343.665	94
343.893	95
344.12	97
344.348	85
344.576	87
344.804	101
345.031	94
345.259	105
345.487	85
345.714	95
345.942	87
346.17	89
346.397	105
346.625	93
346.853	97
347.08	91
347.308	84
347.535	96
347.763	102
347.99	98
348.218	90
348.445	101
348.673	94
348.9	98
349.128	88
349.355	98
349.583	110
349.81	91
350.037	96
350.265	99
350.492	103
350.72	96
350.947	105
351.174	113
351.402	102
351.629	85
351.856	113
352.083	97
352.311	102
352.538	108
352.765	111
352.992	116
353.22	100
353.447	101
353.674	95
353.901	95
354.128	76
354.355	98
354.583	101
354.81	99
355.037	100
355.264	98
355.491	94
355.718	112
355.945	85
356.172	99
356.399	93
356.626	98
356.853	81
357.08	102
357.307	103
357.534	103
357.761	94
357.988	99
358.215	92
358.441	104
358.668	91
358.895	87
359.122	110
359.349	100
359.576	101
359.802	104
360.029	109
360.256	89
360.483	85
360.709	88
360.936	88
361.163	88
361.39	103
361.616	92
361.843	94
362.07	102
362.296	99
362.523	102
362.749	96
362.976	89
363.203	95
363.429	102
363.656	92
363.882	87
364.109	100
364.335	86
364.562	92
364.788	100
365.015	99
365.241	106
365.468	122
365.694	117
365.92	108
366.147	92
366.373	92
366.599	84
366.826	102
367.052	88
367.278	78
367.505	91
367.731	98
367.957	86
368.184	100
368.41	81
368.636	102
368.862	111
369.089	97
369.315	92
369.541	105
369.767	92
369.993	91
370.219	90
370.445	83
370.672	82
370.898	101
371.124	95
371.35	94
371.576	92
371.802	85
372.028	82
372.254	83
372.48	84
372.706	103
372.932	102
373.158	90
373.384	89
373.61	83
373.835	91
374.061	93
374.287	104
374.513	114
374.739	90
374.965	86
375.191	84
375.416	106
375.642	93
375.868	83
376.094	69
376.319	82
376.545	78
376.771	87
376.997	90
377.222	89
377.448	104
377.674	87
377.899	104
378.125	93
378.35	90
378.576	85
378.802	95
379.027	91
379.253	96
379.478	102
379.704	86
379.929	84
380.155	93
380.38	95
380.606	91
380.831	103
381.057	94
381.282	92
381.507	102
381.733	100
381.958	102
382.184	91
382.409	83
382.634	95
382.86	101
383.085	105
383.31	111
383.535	99
383.761	98
383.986	113
384.211	93
384.436	90
384.662	108
384.887	108
385.112	102
385.337	122
385.562	107
385.787	97
386.013	107
386.238	107
386.463	120
386.688	110
386.913	98
387.138	122
387.363	114
387.588	100
387.813	101
388.038	109
388.263	116
388.488	107
388.713	96
388.938	105
389.163	106
389.387	86
389.612	95
389.837	87
390.062	78
390.287	79
390.512	94
390.736	81
390.961	100
391.186	91
391.411	85
391.636	106
391.86	63
392.085	85
392.31	89
392.534	89
392.759	101
392.984	89
393.208	87
393.433	102
393.658	98
393.882	94
394.107	90
394.331	85
394.556	79
394.78	106
395.005	97
395.229	74
395.454	89
395.678	90
395.903	82
396.127	92
396.352	91
396.576	87
396.801	97
397.025	102
397.249	96
397.474	85
397.698	86
397.922	87
398.147	92
398.371	71
398.595	100
398.82	97
399.044	92
399.268	94
399.492	77
399.717	96
399.941	92
400.165	85
400.389	108
400.613	85
400.837	83
401.062	88
401.286	94
401.51	100
401.734	102
401.958	95
402.182	104
402.406	147
402.63	125
402.854	97
403.078	85
403.302	85
403.526	92
403.75	70
403.974	74
404.198	91
404.422	91
404.645	96
404.869	98
405.093	84
405.317	97
405.541	107
405.765	93
405.988	122
406.212	159
406.436	199
406.66	122
406.883	93
407.107	90
407.331	102
407.555	90
407.778	103
408.002	98
408.226	81
408.449	87
408.673	102
408.896	97
409.12	93
409.344	91
409.567	85
409.791	97
410.014	101
410.238	93
410.461	95
410.685	108
410.908	104
411.132	99
411.355	105
411.578	85
411.802	104
412.025	89
412.249	99
412.472	100
412.695	90
412.919	99
413.142	90
413.365	81
413.589	95
413.812	84
414.035	97
414.258	81
414.482	87
414.705	87
414.928	101
415.151	90
415.374	92
415.597	85
415.821	83
416.044	91
416.267	100
416.49	85
416.713	92
416.936	78
417.159	90
417.382	100
417.605	74
417.828	92
418.051	98
418.274	91
418.497	87
418.72	82
418.943	90
419.166	92
419.389	88
419.611	85
419.834	89
420.057	79
420.28	94
420.503	92
420.726	90
420.948	89
421.171	98
421.394	105
421.617	91
421.839	79
422.062	95
422.285	102
422.507	94
422.73	105
422.953	97
423.175	90
423.398	89
423.621	97
423.843	80
424.066	84
424.288	86
424.511	94
424.733	113
424.956	109
425.178	87
425.401	91
425.623	99
425.846	91
426.068	88
426.291	86
426.513	81
426.735	102
426.958	88
427.18	94
427.402	121
427.625	173
427.847	103
428.069	110
428.292	101
428.514	93
428.736	95
428.958	90
429.181	65
429.403	98
429.625	77
429.847	83
430.069	94
430.292	85
430.514	79
430.736	88
430.958	91
431.18	90
431.402	91
431.624	81
431.846	82
432.068	95
432.29	85
432.512	90
432.734	93
432.956	92
433.178	99
433.4	92
433.622	73
433.844	97
434.066	102
434.287	91
434.509	94
434.731	80
434.953	82
435.175	97
435.397	88
435.618	107
435.84	95
436.062	126
436.284	106
436.505	107
436.727	106
436.949	92
437.17	85
437.392	90
437.614	86
437.835	93
438.057	118
438.278	95
438.5	91
438.721	114
438.943	92
439.165	82
439.386	90
439.608	109
439.829	99
440.05	127
440.272	129
440.493	97
440.715	88
440.936	90
441.158	87
441.379	84
441.6	91
441.822	87
442.043	103
442.264	101
442.486	100
442.707	93
442.928	105
443.149	119
443.371	122
443.592	103
443.813	109
444.034	99
444.255	87
444.476	96
444.698	85
444.919	88
445.14	147
445.361	123
445.582	109
445.803	134
446.024	124
446.245	124
446.466	104
446.687	84
446.908	97
447.129	97
447.35	94
447.571	96
447.792	79
448.013	91
448.234	90
448.455	100
448.675	118
448.896	115
449.117	106
449.338	94
449.559	120
449.779	130
450	93
450.221	95
450.442	104
450.662	99
450.883	100
451.104	105
451.324	102
451.545	94
451.766	87
451.986	87
452.207	81
452.428	91
452.648	101
452.869	113
453.089	110
453.31	117
453.53	114
453.751	106
453.971	81
454.192	89
454.412	87
454.633	92
454.853	91
455.073	85
455.294	79
455.514	115
455.734	78
455.955	86
456.175	91
456.395	99
456.616	87
456.836	81
457.056	81
457.276	91
457.497	88
457.717	85
457.937	83
458.157	88
458.377	83
458.598	93
458.818	134
459.038	145
459.258	99
459.478	78
459.698	85
459.918	100
460.138	85
460.358	84
460.578	96
460.798	97
461.018	90
461.238	72
461.458	83
461.678	77
461.898	92
462.118	87
462.338	104
462.558	81
462.777	69
462.997	77
463.217	85
463.437	86
463.657	93
463.876	94
464.096	102
464.316	81
464.536	88
464.755	89
464.975	100
465.195	137
465.414	133
465.634	103
465.854	94
466.073	85
466.293	89
466.512	78
466.732	91
466.951	83
467.171	81
467.391	101
467.61	97
467.829	94
468.049	93
468.268	111
468.488	83
468.707	94
468.927	81
469.146	92
469.365	90
469.585	86
469.804	99
470.023	85
470.243	83
470.462	89
470.681	97
470.901	91
471.12	93
471.339	100
471.558	92
471.777	91
471.997	89
472.216	122
472.435	161
472.654	103
472.873	99
473.092	89
473.311	103
473.53	87
473.749	94
473.968	94
474.187	111
474.406	94
474.625	89
474.844	99
475.063	90
475.282	76
475.501	93
475.72	101
475.939	79
476.158	85
476.377	83
476.596	102
476.814	95
477.033	97
477.252	95
477.471	94
477.69	90
477.908	88
478.127	97
478.346	82
478.564	96
478.783	91
479.002	96
479.22	92
479.439	86
479.658	86
479.876	92
480.095	81
480.313	96
480.532	97
480.751	100
480.969	118
481.188	215
481.406	159
481.624	101
481.843	95
482.061	99
482.28	97
482.498	78
482.717	78
482.935	90
483.153	109
483.372	91
483.59	89
483.808	79
484.027	99
484.245	98
484.463	86
484.681	101
484.9	87
485.118	96
485.336	100
485.554	100
485.772	114
485.99	103
486.209	103
486.427	107
486.645	105
486.863	95
487.081	93
487.299	98
487.517	114
487.735	101
487.953	83
488.171	93
488.389	93
488.607	86
488.825	99
489.043	90
489.261	91
489.479	92
489.696	78
489.914	95
490.132	97
490.35	83
490.568	97
490.786	85
491.003	84
491.221	82
491.439	89
491.657	99
491.874	100
492.092	92
492.31	92
492.527	91
492.745	94
492.963	97
493.18	88
493.398	93
493.615	97
493.833	89
494.05	110
494.268	92
494.485	85
494.703	81
494.92	97
495.138	78
495.355	103
495.573	83
495.79	89
496.008	99
496.225	93
496.442	86
496.66	79
496.877	104
497.094	88
497.312	84
497.529	88
497.746	90
497.963	87
498.181	84
498.398	104
498.615	111
498.832	109
499.049	93
499.267	103
499.484	94
499.701	83
499.918	83
500.135	104
500.352	85
500.569	107
500.786	96
501.003	69
501.22	85
501.437	89
501.654	100
501.871	92
502.088	74
502.305	81
502.522	87
502.739	87
502.956	91
503.172	97
503.389	98
503.606	107
503.823	96
504.04	86
504.256	87
504.473	97
504.69	85
504.907	92
505.123	94
505.34	87
505.557	79
505.773	93
505.99	95
506.207	94
506.423	90
506.64	77
506.856	99
507.073	89
507.289	105
507.506	87
507.722	103
507.939	107
508.155	98
508.372	97
508.588	97
508.805	95
509.021	109
509.238	89
509.454	103
509.67	119
509.887	109
510.103	114
510.319	187
510.536	621
510.752	1916
510.968	543
511.184	148
511.401	96
511.617	101
511.833	93
512.049	95
512.265	99
512.481	96
512.698	94
512.914	90
513.13	95
513.346	101
513.562	99
513.778	92
513.994	88
514.21	100
514.426	98
514.642	110
514.858	116
515.074	161
515.29	360
515.506	1070
515.721	408
515.937	122
516.153	99
516.369	110
516.585	94
516.801	98
517.016	107
517.232	101
517.448	105
517.664	95
517.879	97
518.095	97
518.311	97
518.527	117
518.742	90
518.958	110
519.173	87
519.389	99
519.605	90
519.82	101
520.036	102
520.251	101
520.467	117
520.682	93
520.898	110
521.113	101
521.329	121
521.544	191
521.76	433
521.975	1745
522.19	1055
522.406	239
522.621	120
522.836	110
523.052	99
523.267	91
523.482	92
523.698	96
523.913	111
524.128	107
524.343	94
524.559	84
524.774	95
524.989	109
525.204	98
525.419	100
525.634	98
525.849	96
526.064	99
526.28	85
526.495	93
526.71	95
526.925	93
527.14	99
527.355	91
527.57	92
527.785	96
527.999	86
528.214	85
528.429	90
528.644	86
528.859	99
529.074	97
529.289	116
529.503	145
529.718	103
529.933	73
530.148	77
530.363	85
530.577	86
530.792	101
531.007	95
531.221	86
531.436	92
531.651	93
531.865	90
532.08	88
532.295	81
532.509	100
532.724	79
532.938	87
533.153	95
533.367	110
533.582	105
533.796	96
534.011	99
534.225	83
534.44	93
534.654	87
534.868	94
535.083	83
535.297	102
535.511	98
535.726	115
535.94	94
536.154	91
536.369	89
536.583	95
536.797	100
537.011	87
537.225	101
537.44	80
537.654	78
537.868	103
538.082	87
538.296	91
538.51	85
538.724	88
538.938	94
539.153	97
539.367	93
539.581	113
539.795	90
540.009	99
540.222	97
540.436	103
540.65	96
540.864	89
541.078	83
541.292	104
541.506	95
541.72	101
541.934	102
542.147	97
542.361	75
542.575	107
542.789	104
543.002	87
543.216	101
543.43	93
543.644	106
543.857	83
544.071	90
544.285	106
544.498	95
544.712	76
544.925	87
545.139	89
545.352	99
545.566	96
545.779	97
545.993	85
546.206	93
546.42	86
546.633	79
546.847	90
547.06	88
547.274	95
547.487	93
547.7	95
547.914	87
548.127	100
548.34	75
548.554	82
548.767	85
548.98	92
549.193	91
549.407	89
549.62	93
549.833	76
550.046	78
550.259	83
550.473	89
550.686	81
550.899	94
551.112	81
551.325	89
551.538	81
551.751	109
551.964	86
552.177	82
552.39	97
552.603	98
552.816	97
553.029	99
553.242	97
553.455	95
553.667	93
553.88	98
554.093	78
554.306	90
554.519	96
554.732	87
554.944	79
555.157	98
555.37	95
555.583	87
555.795	83
556.008	95
556.221	94
556.433	96
556.646	91
556.859	95
557.071	90
557.284	93
557.496	94
557.709	100
557.921	87
558.134	87
558.346	93
558.559	100
558.771	105
558.984	105
559.196	82
559.409	81
559.621	97
559.833	86
560.046	94
560.258	97
560.47	86
560.683	94
560.895	82
561.107	89
561.32	92
561.532	87
561.744	108
561.956	99
562.168	106
562.381	103
562.593	105
562.805	107
563.017	99
563.229	83
563.441	73
563.653	81
563.865	93
564.077	76
564.289	101
564.501	91
564.713	89
564.925	85
565.137	99
565.349	92
565.561	86
565.773	98
565.985	95
566.197	86
566.408	89
566.62	94
566.832	83
567.044	91
567.255	95
567.467	81
567.679	85
567.891	82
568.102	81
568.314	98
568.526	90
568.737	98
568.949	99
569.161	97
569.372	101
569.584	106
569.795	85
570.007	123
570.218	213
570.43	106
570.641	97
570.853	93
571.064	88
571.276	94
571.487	98
571.698	116
571.91	97
572.121	91
572.333	84
572.544	79
572.755	91
572.966	85
573.178	85
573.389	99
573.6	96
573.811	76
574.023	88
574.234	93
574.445	85
574.656	93
574.867	81
575.078	82
575.289	92
575.501	79
575.712	86
575.923	85
576.134	97
576.345	78
576.556	86
576.767	88
576.978	95
577.188	85
577.399	79
577.61	104
577.821	101
578.032	116
578.243	250
578.454	579
578.665	181
578.875	108
579.086	116
579.297	99
579.508	98
579.718	100
579.929	95
580.14	86
580.35	82
580.561	78
580.772	73
580.982	92
581.193	93
581.403	81
581.614	85
581.825	81
582.035	85
582.246	98
582.456	83
582.667	85
582.877	77
583.087	97
583.298	96
