Data from Circ_1985_H10_HRD10591_00029.txt Node
Date: Wed Jan 03 12:19:28 EST 2024
User: Yrep
Spectrometer: HR+D1059
Trigger mode: 1
Integration Time (sec): 1.000000E-1
Scans to average: 1
Electric dark correction enabled: true
Nonlinearity correction enabled: false
Boxcar width: 0
XAxis mode: Wavelengths
Number of Pixels in Spectrum: 2048
>>>>>Begin Spectral Data<<<<<
223.165	-16.25
223.4	-16.25
223.635	-16.25
223.869	-12.25
224.104	-25.25
224.338	-18.25
224.573	-0.25
224.808	-9.25
225.042	-13.25
225.277	-14.25
225.511	-1.25
225.746	7.75
225.98	16.75
226.215	2.75
226.449	17.75
226.683	22.75
226.918	12.75
227.152	29.75
227.387	15.75
227.621	36.75
227.856	29.75
228.09	43.75
228.324	49.75
228.559	41.75
228.793	70.75
229.027	44.75
229.262	62.75
229.496	77.75
229.73	75.75
229.964	69.75
230.199	79.75
230.433	66.75
230.667	79.75
230.901	74.75
231.136	79.75
231.37	63.75
231.604	68.75
231.838	71.75
232.072	80.75
232.306	77.75
232.541	94.75
232.775	90.75
233.009	79.75
233.243	77.75
233.477	72.75
233.711	73.75
233.945	97.75
234.179	81.75
234.413	81.75
234.647	83.75
234.881	83.75
235.115	75.75
235.349	73.75
235.583	87.75
235.817	67.75
236.051	90.75
236.285	81.75
236.519	80.75
236.753	78.75
236.987	68.75
237.221	78.75
237.455	96.75
237.689	73.75
237.922	57.75
238.156	65.75
238.39	71.75
238.624	69.75
238.858	70.75
239.091	81.75
239.325	70.75
239.559	89.75
239.793	82.75
240.027	85.75
240.26	85.75
240.494	85.75
240.728	64.75
240.961	78.75
241.195	75.75
241.429	66.75
241.662	87.75
241.896	65.75
242.13	65.75
242.363	79.75
242.597	68.75
242.83	86.75
243.064	63.75
243.298	70.75
243.531	77.75
243.765	77.75
243.998	65.75
244.232	78.75
244.465	83.75
244.699	89.75
244.932	83.75
245.166	82.75
245.399	76.75
245.633	74.75
245.866	81.75
246.099	77.75
246.333	77.75
246.566	62.75
246.8	67.75
247.033	74.75
247.266	87.75
247.5	88.75
247.733	83.75
247.966	70.75
248.2	86.75
248.433	83.75
248.666	93.75
248.899	73.75
249.133	80.75
249.366	93.75
249.599	90.75
249.832	85.75
250.066	92.75
250.299	75.75
250.532	84.75
250.765	82.75
250.998	92.75
251.231	74.75
251.465	74.75
251.698	72.75
251.931	84.75
252.164	85.75
252.397	67.75
252.63	89.75
252.863	73.75
253.096	97.75
253.329	98.75
253.562	79.75
253.795	105.75
254.028	65.75
254.261	79.75
254.494	73.75
254.727	96.75
254.96	82.75
255.193	97.75
255.426	90.75
255.659	81.75
255.892	66.75
256.124	91.75
256.357	63.75
256.59	83.75
256.823	75.75
257.056	71.75
257.289	74.75
257.521	89.75
257.754	79.75
257.987	68.75
258.22	85.75
258.452	86.75
258.685	63.75
258.918	90.75
259.151	75.75
259.383	91.75
259.616	74.75
259.849	86.75
260.081	77.75
260.314	61.75
260.547	89.75
260.779	86.75
261.012	86.75
261.244	95.75
261.477	83.75
261.71	82.75
261.942	103.75
262.175	105.75
262.407	92.75
262.64	79.75
262.872	85.75
263.105	89.75
263.337	83.75
263.57	90.75
263.802	81.75
264.035	91.75
264.267	79.75
264.499	85.75
264.732	94.75
264.964	91.75
265.197	79.75
265.429	75.75
265.661	93.75
265.894	95.75
266.126	89.75
266.358	65.75
266.591	62.75
266.823	77.75
267.055	89.75
267.287	74.75
267.52	83.75
267.752	87.75
267.984	77.75
268.216	91.75
268.448	104.75
268.681	77.75
268.913	80.75
269.145	89.75
269.377	78.75
269.609	81.75
269.841	104.75
270.073	93.75
270.306	77.75
270.538	75.75
270.77	93.75
271.002	98.75
271.234	88.75
271.466	89.75
271.698	82.75
271.93	103.75
272.162	81.75
272.394	86.75
272.626	85.75
272.858	73.75
273.09	92.75
273.322	101.75
273.553	73.75
273.785	74.75
274.017	81.75
274.249	96.75
274.481	78.75
274.713	83.75
274.945	103.75
275.176	88.75
275.408	98.75
275.64	73.75
275.872	74.75
276.104	80.75
276.335	87.75
276.567	67.75
276.799	92.75
277.031	97.75
277.262	87.75
277.494	94.75
277.726	86.75
277.957	71.75
278.189	72.75
278.421	106.75
278.652	100.75
278.884	89.75
279.115	69.75
279.347	87.75
279.579	97.75
279.81	75.75
280.042	82.75
280.273	80.75
280.505	90.75
280.736	82.75
280.968	86.75
281.199	85.75
281.431	98.75
281.662	81.75
281.894	79.75
282.125	89.75
282.356	118.75
282.588	115.75
282.819	95.75
283.051	76.75
283.282	91.75
283.513	73.75
283.745	88.75
283.976	85.75
284.207	93.75
284.439	93.75
284.67	88.75
284.901	77.75
285.132	84.75
285.364	85.75
285.595	77.75
285.826	81.75
286.057	95.75
286.288	92.75
286.52	67.75
286.751	82.75
286.982	87.75
287.213	89.75
287.444	87.75
287.675	77.75
287.906	88.75
288.138	94.75
288.369	93.75
288.6	85.75
288.831	73.75
289.062	85.75
289.293	84.75
289.524	95.75
289.755	85.75
289.986	84.75
290.217	81.75
290.448	90.75
290.679	81.75
290.91	87.75
291.141	82.75
291.371	103.75
291.602	84.75
291.833	88.75
292.064	71.75
292.295	89.75
292.526	84.75
292.757	85.75
292.987	87.75
293.218	88.75
293.449	88.75
293.68	86.75
293.91	74.75
294.141	76.75
294.372	81.75
294.603	90.75
294.833	75.75
295.064	75.75
295.295	79.75
295.525	101.75
295.756	94.75
295.987	113.75
296.217	99.75
296.448	97.75
296.679	94.75
296.909	86.75
297.14	86.75
297.37	90.75
297.601	80.75
297.831	73.75
298.062	82.75
298.292	94.75
298.523	79.75
298.753	97.75
298.984	77.75
299.214	69.75
299.445	78.75
299.675	81.75
299.905	92.75
300.136	97.75
300.366	72.75
300.597	93.75
300.827	86.75
301.057	92.75
301.288	103.75
301.518	99.75
301.748	89.75
301.979	99.75
302.209	91.75
302.439	100.75
302.669	74.75
302.9	82.75
303.13	78.75
303.36	87.75
303.59	93.75
303.82	99.75
304.051	89.75
304.281	81.75
304.511	79.75
304.741	81.75
304.971	98.75
305.201	86.75
305.431	89.75
305.661	79.75
305.891	94.75
306.121	84.75
306.352	98.75
306.582	98.75
306.812	83.75
307.042	85.75
307.272	80.75
307.502	90.75
307.731	92.75
307.961	96.75
308.191	84.75
308.421	84.75
308.651	85.75
308.881	88.75
309.111	83.75
309.341	73.75
309.571	85.75
309.8	89.75
310.03	94.75
310.26	90.75
310.49	101.75
310.72	90.75
310.949	86.75
311.179	100.75
311.409	102.75
311.639	85.75
311.868	87.75
312.098	96.75
312.328	93.75
312.557	87.75
312.787	88.75
313.017	85.75
313.246	95.75
313.476	87.75
313.706	87.75
313.935	82.75
314.165	94.75
314.394	82.75
314.624	90.75
314.853	102.75
315.083	94.75
315.312	102.75
315.542	90.75
315.771	83.75
316.001	89.75
316.23	97.75
316.46	83.75
316.689	89.75
316.919	95.75
317.148	70.75
317.377	94.75
317.607	94.75
317.836	90.75
318.065	87.75
318.295	94.75
318.524	80.75
318.753	91.75
318.983	87.75
319.212	74.75
319.441	99.75
319.67	101.75
319.9	101.75
320.129	80.75
320.358	91.75
320.587	106.75
320.816	85.75
321.046	96.75
321.275	80.75
321.504	93.75
321.733	101.75
321.962	95.75
322.191	99.75
322.42	100.75
322.649	105.75
322.878	103.75
323.108	120.75
323.337	105.75
323.566	129.75
323.795	132.75
324.024	177.75
324.253	315.75
324.482	682.75
324.71	1440.75
324.939	1887.75
325.168	687.75
325.397	216.75
325.626	145.75
325.855	121.75
326.084	122.75
326.313	130.75
326.542	138.75
326.77	195.75
326.999	377.75
327.228	786.75
327.457	1495.75
327.686	1189.75
327.914	325.75
328.143	160.75
328.372	142.75
328.6	106.75
328.829	104.75
329.058	122.75
329.287	114.75
329.515	99.75
329.744	95.75
329.972	92.75
330.201	115.75
330.43	106.75
330.658	114.75
330.887	123.75
331.115	131.75
331.344	97.75
331.572	84.75
331.801	103.75
332.03	81.75
332.258	74.75
332.486	87.75
332.715	99.75
332.943	88.75
333.172	87.75
333.4	97.75
333.629	98.75
333.857	113.75
334.085	105.75
334.314	108.75
334.542	119.75
334.771	106.75
334.999	84.75
335.227	85.75
335.455	100.75
335.684	94.75
335.912	99.75
336.14	89.75
336.369	94.75
336.597	85.75
336.825	102.75
337.053	95.75
337.281	88.75
337.51	86.75
337.738	99.75
337.966	98.75
338.194	105.75
338.422	95.75
338.65	91.75
338.878	93.75
339.106	85.75
339.334	88.75
339.562	89.75
339.79	93.75
340.018	103.75
340.246	80.75
340.474	84.75
340.702	99.75
340.93	90.75
341.158	94.75
341.386	86.75
341.614	94.75
341.842	81.75
342.07	90.75
342.298	83.75
342.526	95.75
342.754	93.75
342.981	85.75
343.209	74.75
343.437	93.75
343.665	85.75
343.893	90.75
344.12	82.75
344.348	88.75
344.576	98.75
344.804	83.75
345.031	97.75
345.259	92.75
345.487	71.75
345.714	77.75
345.942	92.75
346.17	89.75
346.397	79.75
346.625	80.75
346.853	87.75
347.08	87.75
347.308	90.75
347.535	82.75
347.763	103.75
347.99	80.75
348.218	104.75
348.445	89.75
348.673	91.75
348.9	88.75
349.128	100.75
349.355	81.75
349.583	93.75
349.81	87.75
350.037	72.75
350.265	87.75
350.492	87.75
350.72	113.75
350.947	111.75
351.174	97.75
351.402	103.75
351.629	94.75
351.856	95.75
352.083	96.75
352.311	111.75
352.538	93.75
352.765	103.75
352.992	111.75
353.22	97.75
353.447	94.75
353.674	92.75
353.901	102.75
354.128	96.75
354.355	98.75
354.583	85.75
354.81	82.75
355.037	100.75
355.264	102.75
355.491	96.75
355.718	77.75
355.945	77.75
356.172	90.75
356.399	98.75
356.626	99.75
356.853	95.75
357.08	84.75
357.307	79.75
357.534	96.75
357.761	90.75
357.988	99.75
358.215	95.75
358.441	94.75
358.668	93.75
358.895	88.75
359.122	97.75
359.349	85.75
359.576	77.75
359.802	89.75
360.029	91.75
360.256	95.75
360.483	91.75
360.709	84.75
360.936	90.75
361.163	92.75
361.39	72.75
361.616	86.75
361.843	88.75
362.07	86.75
362.296	93.75
362.523	85.75
362.749	97.75
362.976	83.75
363.203	86.75
363.429	87.75
363.656	86.75
363.882	88.75
364.109	73.75
364.335	90.75
364.562	97.75
364.788	83.75
365.015	88.75
365.241	93.75
365.468	107.75
365.694	101.75
365.92	89.75
366.147	90.75
366.373	93.75
366.599	98.75
366.826	87.75
367.052	88.75
367.278	81.75
367.505	80.75
367.731	97.75
367.957	94.75
368.184	89.75
368.41	81.75
368.636	89.75
368.862	109.75
369.089	103.75
369.315	83.75
369.541	91.75
369.767	82.75
369.993	85.75
370.219	82.75
370.445	78.75
370.672	87.75
370.898	87.75
371.124	75.75
371.35	89.75
371.576	92.75
371.802	98.75
372.028	81.75
372.254	85.75
372.48	89.75
372.706	88.75
372.932	87.75
373.158	96.75
373.384	105.75
373.61	80.75
373.835	88.75
374.061	85.75
374.287	101.75
374.513	93.75
374.739	90.75
374.965	97.75
375.191	87.75
375.416	81.75
375.642	95.75
375.868	102.75
376.094	104.75
376.319	99.75
376.545	77.75
376.771	92.75
376.997	91.75
377.222	91.75
377.448	88.75
377.674	83.75
377.899	81.75
378.125	97.75
378.35	81.75
378.576	91.75
378.802	98.75
379.027	93.75
379.253	90.75
379.478	86.75
379.704	83.75
379.929	96.75
380.155	113.75
380.38	99.75
380.606	99.75
380.831	95.75
381.057	85.75
381.282	99.75
381.507	100.75
381.733	81.75
381.958	87.75
382.184	103.75
382.409	92.75
382.634	97.75
382.86	92.75
383.085	95.75
383.31	99.75
383.535	113.75
383.761	95.75
383.986	110.75
384.211	97.75
384.436	105.75
384.662	107.75
384.887	99.75
385.112	107.75
385.337	102.75
385.562	123.75
385.787	102.75
386.013	103.75
386.238	113.75
386.463	105.75
386.688	107.75
386.913	86.75
387.138	107.75
387.363	96.75
387.588	93.75
387.813	107.75
388.038	113.75
388.263	109.75
388.488	118.75
388.713	96.75
388.938	95.75
389.163	86.75
389.387	95.75
389.612	94.75
389.837	96.75
390.062	95.75
390.287	101.75
390.512	82.75
390.736	90.75
390.961	89.75
391.186	90.75
391.411	98.75
391.636	99.75
391.86	93.75
392.085	104.75
392.31	92.75
392.534	77.75
392.759	86.75
392.984	110.75
393.208	110.75
393.433	102.75
393.658	103.75
393.882	82.75
394.107	87.75
394.331	79.75
394.556	80.75
394.78	100.75
395.005	83.75
395.229	99.75
395.454	79.75
395.678	105.75
395.903	95.75
396.127	90.75
396.352	83.75
396.576	71.75
396.801	79.75
397.025	95.75
397.249	89.75
397.474	86.75
397.698	95.75
397.922	95.75
398.147	100.75
398.371	86.75
398.595	83.75
398.82	96.75
399.044	83.75
399.268	93.75
399.492	98.75
399.717	93.75
399.941	93.75
400.165	86.75
400.389	93.75
400.613	93.75
400.837	93.75
401.062	93.75
401.286	82.75
401.51	77.75
401.734	102.75
401.958	83.75
402.182	115.75
402.406	134.75
402.63	102.75
402.854	80.75
403.078	74.75
403.302	92.75
403.526	89.75
403.75	89.75
403.974	78.75
404.198	86.75
404.422	77.75
404.645	73.75
404.869	88.75
405.093	83.75
405.317	92.75
405.541	87.75
405.765	90.75
405.988	87.75
406.212	155.75
406.436	180.75
406.66	118.75
406.883	96.75
407.107	81.75
407.331	113.75
407.555	84.75
407.778	86.75
408.002	97.75
408.226	93.75
408.449	76.75
408.673	97.75
408.896	93.75
409.12	93.75
409.344	85.75
409.567	83.75
409.791	91.75
410.014	85.75
410.238	89.75
410.461	96.75
410.685	105.75
410.908	98.75
411.132	101.75
411.355	100.75
411.578	88.75
411.802	97.75
412.025	72.75
412.249	74.75
412.472	82.75
412.695	87.75
412.919	94.75
413.142	81.75
413.365	93.75
413.589	83.75
413.812	93.75
414.035	99.75
414.258	70.75
414.482	89.75
414.705	91.75
414.928	94.75
415.151	82.75
415.374	89.75
415.597	91.75
415.821	90.75
416.044	88.75
416.267	103.75
416.49	88.75
416.713	66.75
416.936	80.75
417.159	102.75
417.382	75.75
417.605	101.75
417.828	88.75
418.051	103.75
418.274	99.75
418.497	96.75
418.72	82.75
418.943	86.75
419.166	95.75
419.389	99.75
419.611	95.75
419.834	97.75
420.057	87.75
420.28	85.75
420.503	90.75
420.726	81.75
420.948	80.75
421.171	90.75
421.394	84.75
421.617	89.75
421.839	88.75
422.062	97.75
422.285	102.75
422.507	102.75
422.73	112.75
422.953	97.75
423.175	94.75
423.398	86.75
423.621	83.75
423.843	85.75
424.066	81.75
424.288	100.75
424.511	90.75
424.733	84.75
424.956	91.75
425.178	88.75
425.401	81.75
425.623	94.75
425.846	93.75
426.068	81.75
426.291	89.75
426.513	87.75
426.735	86.75
426.958	86.75
427.18	88.75
427.402	111.75
427.625	114.75
427.847	108.75
428.069	91.75
428.292	101.75
428.514	86.75
428.736	88.75
428.958	64.75
429.181	82.75
429.403	90.75
429.625	93.75
429.847	86.75
430.069	97.75
430.292	83.75
430.514	74.75
430.736	89.75
430.958	90.75
431.18	79.75
431.402	83.75
431.624	93.75
431.846	91.75
432.068	89.75
432.29	91.75
432.512	87.75
432.734	69.75
432.956	89.75
433.178	89.75
433.4	88.75
433.622	94.75
433.844	82.75
434.066	90.75
434.287	94.75
434.509	83.75
434.731	106.75
434.953	104.75
435.175	99.75
435.397	90.75
435.618	97.75
435.84	108.75
436.062	105.75
436.284	96.75
436.505	86.75
436.727	101.75
436.949	98.75
437.17	86.75
437.392	75.75
437.614	81.75
437.835	91.75
438.057	102.75
438.278	102.75
438.5	88.75
438.721	94.75
438.943	82.75
439.165	82.75
439.386	84.75
439.608	93.75
439.829	93.75
440.05	112.75
440.272	125.75
440.493	100.75
440.715	86.75
440.936	85.75
441.158	86.75
441.379	86.75
441.6	99.75
441.822	99.75
442.043	94.75
442.264	99.75
442.486	89.75
442.707	81.75
442.928	90.75
443.149	106.75
443.371	102.75
443.592	90.75
443.813	101.75
444.034	92.75
444.255	75.75
444.476	97.75
444.698	85.75
444.919	84.75
445.14	125.75
445.361	121.75
445.582	104.75
445.803	112.75
446.024	121.75
446.245	109.75
446.466	102.75
446.687	93.75
446.908	83.75
447.129	85.75
447.35	85.75
447.571	94.75
447.792	97.75
448.013	99.75
448.234	94.75
448.455	90.75
448.675	104.75
448.896	111.75
449.117	102.75
449.338	106.75
449.559	112.75
449.779	105.75
450	84.75
450.221	69.75
450.442	80.75
450.662	106.75
450.883	90.75
451.104	105.75
451.324	82.75
451.545	85.75
451.766	68.75
451.986	74.75
452.207	89.75
452.428	82.75
452.648	83.75
452.869	102.75
453.089	96.75
453.31	104.75
453.53	92.75
453.751	102.75
453.971	93.75
454.192	92.75
454.412	89.75
454.633	80.75
454.853	86.75
455.073	79.75
455.294	87.75
455.514	88.75
455.734	89.75
455.955	87.75
456.175	86.75
456.395	89.75
456.616	95.75
456.836	87.75
457.056	80.75
457.276	92.75
457.497	85.75
457.717	73.75
457.937	80.75
458.157	87.75
458.377	83.75
458.598	93.75
458.818	129.75
459.038	121.75
459.258	97.75
459.478	71.75
459.698	75.75
459.918	95.75
460.138	87.75
460.358	90.75
460.578	79.75
460.798	89.75
461.018	81.75
461.238	89.75
461.458	85.75
461.678	71.75
461.898	83.75
462.118	95.75
462.338	80.75
462.558	92.75
462.777	91.75
462.997	81.75
463.217	91.75
463.437	75.75
463.657	72.75
463.876	79.75
464.096	93.75
464.316	68.75
464.536	88.75
464.755	84.75
464.975	89.75
465.195	121.75
465.414	123.75
465.634	86.75
465.854	79.75
466.073	78.75
466.293	80.75
466.512	84.75
466.732	94.75
466.951	82.75
467.171	106.75
467.391	87.75
467.61	81.75
467.829	86.75
468.049	108.75
468.268	96.75
468.488	91.75
468.707	81.75
468.927	88.75
469.146	72.75
469.365	78.75
469.585	89.75
469.804	85.75
470.023	83.75
470.243	85.75
470.462	86.75
470.681	109.75
470.901	85.75
471.12	90.75
471.339	87.75
471.558	87.75
471.777	77.75
471.997	79.75
472.216	93.75
472.435	125.75
472.654	93.75
472.873	87.75
473.092	67.75
473.311	93.75
473.53	78.75
473.749	84.75
473.968	84.75
474.187	79.75
474.406	82.75
474.625	87.75
474.844	91.75
475.063	85.75
475.282	86.75
475.501	82.75
475.72	93.75
475.939	81.75
476.158	85.75
476.377	64.75
476.596	93.75
476.814	86.75
477.033	72.75
477.252	93.75
477.471	89.75
477.69	70.75
477.908	87.75
478.127	89.75
478.346	88.75
478.564	80.75
478.783	86.75
479.002	94.75
479.22	93.75
479.439	92.75
479.658	91.75
479.876	93.75
480.095	85.75
480.313	95.75
480.532	83.75
480.751	102.75
480.969	98.75
481.188	161.75
481.406	126.75
481.624	95.75
481.843	95.75
482.061	67.75
482.28	82.75
482.498	79.75
482.717	88.75
482.935	86.75
483.153	81.75
483.372	89.75
483.59	110.75
483.808	82.75
484.027	82.75
484.245	93.75
484.463	99.75
484.681	111.75
484.9	73.75
485.118	79.75
485.336	85.75
485.554	90.75
485.772	93.75
485.99	115.75
486.209	104.75
486.427	106.75
486.645	102.75
486.863	103.75
487.081	93.75
487.299	88.75
487.517	107.75
487.735	87.75
487.953	96.75
488.171	83.75
488.389	94.75
488.607	97.75
488.825	101.75
489.043	87.75
489.261	102.75
489.479	87.75
489.696	82.75
489.914	86.75
490.132	90.75
490.35	80.75
490.568	83.75
490.786	81.75
491.003	93.75
491.221	85.75
491.439	92.75
491.657	103.75
491.874	88.75
492.092	79.75
492.31	99.75
492.527	87.75
492.745	85.75
492.963	93.75
493.18	95.75
493.398	82.75
493.615	92.75
493.833	107.75
494.05	87.75
494.268	82.75
494.485	104.75
494.703	85.75
494.92	93.75
495.138	101.75
495.355	105.75
495.573	96.75
495.79	99.75
496.008	77.75
496.225	99.75
496.442	85.75
496.66	86.75
496.877	89.75
497.094	91.75
497.312	94.75
497.529	83.75
497.746	90.75
497.963	94.75
498.181	89.75
498.398	98.75
498.615	90.75
498.832	89.75
499.049	95.75
499.267	105.75
499.484	87.75
499.701	96.75
499.918	90.75
500.135	84.75
500.352	96.75
500.569	88.75
500.786	95.75
501.003	97.75
501.22	89.75
501.437	88.75
501.654	80.75
501.871	104.75
502.088	98.75
502.305	95.75
502.522	86.75
502.739	69.75
502.956	86.75
503.172	102.75
503.389	95.75
503.606	103.75
503.823	80.75
504.04	103.75
504.256	77.75
504.473	83.75
504.69	85.75
504.907	71.75
505.123	81.75
505.34	89.75
505.557	94.75
505.773	96.75
505.99	91.75
506.207	80.75
506.423	90.75
506.64	97.75
506.856	93.75
507.073	92.75
507.289	87.75
507.506	95.75
507.722	109.75
507.939	91.75
508.155	97.75
508.372	84.75
508.588	83.75
508.805	83.75
509.021	96.75
509.238	107.75
509.454	81.75
509.67	94.75
509.887	101.75
510.103	125.75
510.319	174.75
510.536	599.75
510.752	1825.75
510.968	501.75
511.184	139.75
511.401	90.75
511.617	102.75
511.833	72.75
512.049	77.75
512.265	78.75
512.481	89.75
512.698	88.75
512.914	90.75
513.13	90.75
513.346	91.75
513.562	86.75
513.778	87.75
513.994	105.75
514.21	102.75
514.426	102.75
514.642	115.75
514.858	118.75
515.074	138.75
515.29	357.75
515.506	1038.75
515.721	382.75
515.937	108.75
516.153	101.75
516.369	91.75
516.585	75.75
516.801	84.75
