Data from Circ_1985_H10_HRD10591_00041.txt Node
Date: Wed Jan 03 12:19:30 EST 2024
User: Yrep
Spectrometer: HR+D1059
Trigger mode: 1
Integration Time (sec): 1.000000E-1
Scans to average: 1
Electric dark correction enabled: true
Nonlinearity correction enabled: false
Boxcar width: 0
XAxis mode: Wavelengths
Number of Pixels in Spectrum: 2048
>>>>>Begin Spectral Data<<<<<
223.165	-3.69
223.4	-3.69
223.635	-3.69
223.869	-19.69
224.104	-18.69
224.338	-10.69
224.573	-27.69
224.808	-21.69
225.042	-9.69
225.277	-7.69
225.511	-5.69
225.746	12.31
225.98	16.31
226.215	20.31
226.449	9.31
226.683	13.31
226.918	23.31
227.152	30.31
227.387	25.31
227.621	32.31
227.856	42.31
228.09	42.31
228.324	47.31
228.559	49.31
228.793	170.31
229.027	447.31
229.262	490.31
229.496	590.31
229.73	765.31
229.964	770.31
230.199	528.31
230.433	443.31
230.667	458.31
230.901	437.31
231.136	450.31
231.37	446.31
231.604	445.31
231.838	439.31
232.072	445.31
232.306	449.31
232.541	439.31
232.775	446.31
233.009	468.31
233.243	451.31
233.477	468.31
233.711	465.31
233.945	500.31
234.179	510.31
234.413	516.31
234.647	514.31
234.881	494.31
235.115	503.31
235.349	526.31
235.583	530.31
235.817	589.31
236.051	608.31
236.285	579.31
236.519	602.31
236.753	676.31
236.987	867.31
237.221	1260.31
237.455	1399.31
237.689	864.31
237.922	726.31
238.156	701.31
238.39	644.31
238.624	638.31
238.858	642.31
239.091	664.31
239.325	643.31
239.559	643.31
239.793	683.31
240.027	732.31
240.26	888.31
240.494	926.31
240.728	946.31
240.961	922.31
241.195	811.31
241.429	751.31
241.662	765.31
241.896	788.31
242.13	761.31
242.363	763.31
242.597	796.31
242.83	828.31
243.064	814.31
243.298	814.31
243.531	820.31
243.765	827.31
243.998	849.31
244.232	831.31
244.465	856.31
244.699	888.31
244.932	908.31
245.166	881.31
245.399	878.31
245.633	901.31
245.866	910.31
246.099	924.31
246.333	948.31
246.566	938.31
246.8	973.31
247.033	1021.31
247.266	1043.31
247.5	1084.31
247.733	1156.31
247.966	1132.31
248.2	1113.31
248.433	1179.31
248.666	1212.31
248.899	1325.31
249.133	1408.31
249.366	1398.31
249.599	1309.31
249.832	1202.31
250.066	1214.31
250.299	1292.31
250.532	1408.31
250.765	1553.31
250.998	1713.31
251.231	1643.31
251.465	1472.31
251.698	1397.31
251.931	1370.31
252.164	1346.31
252.397	1403.31
252.63	1432.31
252.863	1520.31
253.096	1666.31
253.329	1708.31
253.562	1618.31
253.795	1548.31
254.028	1527.31
254.261	1600.31
254.494	1751.31
254.727	2048.31
254.96	2181.31
255.193	1942.31
255.426	1753.31
255.659	1695.31
255.892	1708.31
256.124	1815.31
256.357	1736.31
256.59	1624.31
256.823	1575.31
257.056	1513.31
257.289	1527.31
257.521	1508.31
257.754	1555.31
257.987	1498.31
258.22	1528.31
258.452	1551.31
258.685	1537.31
258.918	1556.31
259.151	1604.31
259.383	1685.31
259.616	1684.31
259.849	1705.31
260.081	1854.31
260.314	2046.31
260.547	1989.31
260.779	1795.31
261.012	1764.31
261.244	1696.31
261.477	1645.31
261.71	1671.31
261.942	1700.31
262.175	1696.31
262.407	1664.31
262.64	1612.31
262.872	1581.31
263.105	1606.31
263.337	1629.31
263.57	1628.31
263.802	1659.31
264.035	1641.31
264.267	1648.31
264.499	1648.31
264.732	1696.31
264.964	1699.31
265.197	1662.31
265.429	1631.31
265.661	1679.31
265.894	1715.31
266.126	1708.31
266.358	1720.31
266.591	1748.31
266.823	1804.31
267.055	1855.31
267.287	1818.31
267.52	1788.31
267.752	1830.31
267.984	1812.31
268.216	1831.31
268.448	1860.31
268.681	1940.31
268.913	2079.31
269.145	2270.31
269.377	2342.31
269.609	2252.31
269.841	2200.31
270.073	2301.31
270.306	2536.31
270.538	2659.31
270.77	2581.31
271.002	2433.31
271.234	2386.31
271.466	2525.31
271.698	2691.31
271.93	2633.31
272.162	2688.31
272.394	2595.31
272.626	2430.31
272.858	2333.31
273.09	2240.31
273.322	2228.31
273.553	2175.31
273.785	2176.31
274.017	2162.31
274.249	2189.31
274.481	2207.31
274.713	2163.31
274.945	2243.31
275.176	2267.31
275.408	2248.31
275.64	2226.31
275.872	2225.31
276.104	2200.31
276.335	2257.31
276.567	2336.31
276.799	2433.31
277.031	2648.31
277.262	2804.31
277.494	2681.31
277.726	2544.31
277.957	2444.31
278.189	2396.31
278.421	2358.31
278.652	2327.31
278.884	2344.31
279.115	2326.31
279.347	2344.31
279.579	2288.31
279.81	2304.31
280.042	2324.31
280.273	2351.31
280.505	2330.31
280.736	2406.31
280.968	2367.31
281.199	2380.31
281.431	2375.31
281.662	2410.31
281.894	2421.31
282.125	2454.31
282.356	2618.31
282.588	2726.31
282.819	2598.31
283.051	2474.31
283.282	2424.31
283.513	2526.31
283.745	2586.31
283.976	2588.31
284.207	2586.31
284.439	2559.31
284.67	2568.31
284.901	2528.31
285.132	2566.31
285.364	2541.31
285.595	2604.31
285.826	2578.31
286.057	2595.31
286.288	2546.31
286.52	2626.31
286.751	2627.31
286.982	2664.31
287.213	2636.31
287.444	2710.31
287.675	2741.31
287.906	2769.31
288.138	2817.31
288.369	2818.31
288.6	2841.31
288.831	2802.31
289.062	2751.31
289.293	2712.31
289.524	2743.31
289.755	2707.31
289.986	2681.31
290.217	2761.31
290.448	2726.31
290.679	2781.31
290.91	2769.31
291.141	2776.31
291.371	2730.31
291.602	2757.31
291.833	2739.31
292.064	2733.31
292.295	2777.31
292.526	2777.31
292.757	2739.31
292.987	2746.31
293.218	2720.31
293.449	2792.31
293.68	2767.31
293.91	2788.31
294.141	2752.31
294.372	2738.31
294.603	2755.31
294.833	2786.31
295.064	2803.31
295.295	2833.31
295.525	2825.31
295.756	2912.31
295.987	2933.31
296.217	3029.31
296.448	3025.31
296.679	2849.31
296.909	2839.31
297.14	2870.31
297.37	2953.31
297.601	2960.31
297.831	2930.31
298.062	2890.31
298.292	3032.31
298.523	3023.31
298.753	3000.31
298.984	3011.31
299.214	3028.31
299.445	3052.31
299.675	3033.31
299.905	3053.31
300.136	3065.31
300.366	3022.31
300.597	3027.31
300.827	3137.31
301.057	3189.31
301.288	3267.31
301.518	3300.31
301.748	3249.31
301.979	3282.31
302.209	3292.31
302.439	3306.31
302.669	3238.31
302.9	3191.31
303.13	3139.31
303.36	3208.31
303.59	3252.31
303.82	3297.31
304.051	3301.31
304.281	3254.31
304.511	3176.31
304.741	3182.31
304.971	3173.31
305.201	3195.31
305.431	3167.31
305.661	3128.31
305.891	3172.31
306.121	3172.31
306.352	3200.31
306.582	3240.31
306.812	3116.31
307.042	3165.31
307.272	3165.31
307.502	3143.31
307.731	3220.31
307.961	3180.31
308.191	3131.31
308.421	3144.31
308.651	3236.31
308.881	3222.31
309.111	3272.31
309.341	3234.31
309.571	3331.31
309.8	3348.31
310.03	3456.31
310.26	3473.31
310.49	3468.31
310.72	3519.31
310.949	3619.31
311.179	3560.31
311.409	3476.31
311.639	3491.31
311.868	3535.31
312.098	3580.31
312.328	3612.31
312.557	3721.31
312.787	3794.31
313.017	3742.31
313.246	3670.31
313.476	3553.31
313.706	3668.31
313.935	3692.31
314.165	3793.31
314.394	3794.31
314.624	3786.31
314.853	3694.31
315.083	3691.31
315.312	3589.31
315.542	3603.31
315.771	3557.31
316.001	3552.31
316.23	3578.31
316.46	3512.31
316.689	3559.31
316.919	3628.31
317.148	3675.31
317.377	3676.31
317.607	3601.31
317.836	3540.31
318.065	3504.31
318.295	3578.31
318.524	3511.31
318.753	3556.31
318.983	3556.31
319.212	3509.31
319.441	3579.31
319.67	3590.31
319.9	3552.31
320.129	3560.31
320.358	3591.31
320.587	3607.31
320.816	3674.31
321.046	3669.31
321.275	3620.31
321.504	3718.31
321.733	3682.31
321.962	3776.31
322.191	3840.31
322.42	3863.31
322.649	4044.31
322.878	4001.31
323.108	4137.31
323.337	4339.31
323.566	4468.31
323.795	4703.31
324.024	5213.31
324.253	6669.31
324.482	9789.31
324.71	14403.31
324.939	15626.31
325.168	11480.31
325.397	6159.31
325.626	4984.31
325.855	4644.31
326.084	4574.31
326.313	4569.31
326.542	4718.31
326.77	5208.31
326.999	6482.31
327.228	9255.31
327.457	13542.31
327.686	12761.31
327.914	6819.31
328.143	5632.31
328.372	5301.31
328.6	5050.31
328.829	4963.31
329.058	5117.31
329.287	5062.31
329.515	4742.31
329.744	4690.31
329.972	4779.31
330.201	4981.31
330.43	5238.31
330.658	5400.31
330.887	5505.31
331.115	5159.31
331.344	4795.31
331.572	4692.31
331.801	4824.31
332.03	4825.31
332.258	4797.31
332.486	4785.31
332.715	4872.31
332.943	5059.31
333.172	5174.31
333.4	5312.31
333.629	5479.31
333.857	5606.31
334.085	5646.31
334.314	5653.31
334.542	5894.31
334.771	5852.31
334.999	5277.31
335.227	5203.31
335.455	5006.31
335.684	4956.31
335.912	4904.31
336.14	4851.31
336.369	4836.31
336.597	4793.31
336.825	4881.31
337.053	4741.31
337.281	4652.31
337.51	4580.31
337.738	4604.31
337.966	4540.31
338.194	4510.31
338.422	4450.31
338.65	4425.31
338.878	4403.31
339.106	4314.31
339.334	4336.31
339.562	4268.31
339.79	4242.31
340.018	4240.31
340.246	4215.31
340.474	4299.31
340.702	4259.31
340.93	4233.31
341.158	4246.31
341.386	4258.31
341.614	4173.31
341.842	4291.31
342.07	4203.31
342.298	4118.31
342.526	4152.31
342.754	4048.31
342.981	4159.31
343.209	4268.31
343.437	4463.31
343.665	4821.31
343.893	4998.31
344.12	4982.31
344.348	4828.31
344.576	4600.31
344.804	4494.31
345.031	4489.31
345.259	4380.31
345.487	4316.31
345.714	4188.31
345.942	4135.31
346.17	4067.31
346.397	4056.31
346.625	4064.31
346.853	4002.31
347.08	3975.31
347.308	4095.31
347.535	4220.31
347.763	4191.31
347.99	4140.31
348.218	4134.31
348.445	4160.31
348.673	4059.31
348.9	3995.31
349.128	3924.31
349.355	3926.31
349.583	3997.31
349.81	3933.31
350.037	3980.31
350.265	3843.31
350.492	3914.31
350.72	3906.31
350.947	3968.31
351.174	4002.31
351.402	4058.31
351.629	3950.31
351.856	3953.31
352.083	4077.31
352.311	4097.31
352.538	4068.31
352.765	4010.31
352.992	3999.31
353.22	3921.31
353.447	3928.31
353.674	3804.31
353.901	3846.31
354.128	3855.31
354.355	3804.31
354.583	3841.31
354.81	3830.31
355.037	3866.31
355.264	3833.31
355.491	3817.31
355.718	3801.31
355.945	3819.31
356.172	3828.31
356.399	3779.31
356.626	3838.31
356.853	3832.31
357.08	3802.31
357.307	3794.31
357.534	3837.31
357.761	3815.31
357.988	3831.31
358.215	3817.31
358.441	3823.31
358.668	3817.31
358.895	3849.31
359.122	3930.31
359.349	3908.31
359.576	4036.31
359.802	4275.31
360.029	4368.31
360.256	4397.31
360.483	4259.31
360.709	4054.31
360.936	4018.31
361.163	4021.31
361.39	4098.31
361.616	4050.31
361.843	3987.31
362.07	4041.31
362.296	3997.31
362.523	3956.31
362.749	4037.31
362.976	3952.31
363.203	3905.31
363.429	3875.31
363.656	3907.31
363.882	3854.31
364.109	3865.31
364.335	3856.31
364.562	3905.31
364.788	3896.31
365.015	3849.31
365.241	3860.31
365.468	3896.31
365.694	3893.31
365.92	3967.31
366.147	3905.31
366.373	3849.31
366.599	3949.31
366.826	3858.31
367.052	3835.31
367.278	3893.31
367.505	3874.31
367.731	3896.31
367.957	3937.31
368.184	3958.31
368.41	4044.31
368.636	4066.31
368.862	4073.31
369.089	3957.31
369.315	4045.31
369.541	3978.31
369.767	3959.31
369.993	4061.31
370.219	4020.31
370.445	4046.31
370.672	4066.31
370.898	4078.31
371.124	4090.31
371.35	4136.31
371.576	4107.31
371.802	4143.31
372.028	4121.31
372.254	4095.31
372.48	4180.31
372.706	4236.31
372.932	4269.31
373.158	4247.31
373.384	4262.31
373.61	4155.31
373.835	4185.31
374.061	4241.31
374.287	4278.31
374.513	4292.31
374.739	4432.31
374.965	4531.31
375.191	4535.31
375.416	4470.31
375.642	4338.31
375.868	4268.31
376.094	4231.31
376.319	4201.31
376.545	4261.31
376.771	4233.31
376.997	4203.31
377.222	4156.31
377.448	4145.31
377.674	4165.31
377.899	4119.31
378.125	4145.31
378.35	4144.31
378.576	4118.31
378.802	4064.31
379.027	4133.31
379.253	4146.31
379.478	4074.31
379.704	4151.31
379.929	4135.31
380.155	4146.31
380.38	4140.31
380.606	4252.31
380.831	4150.31
381.057	4204.31
381.282	4169.31
381.507	4167.31
381.733	4257.31
381.958	4209.31
382.184	4323.31
382.409	4325.31
382.634	4382.31
382.86	4453.31
383.085	4466.31
383.31	4552.31
383.535	4548.31
383.761	4591.31
383.986	4686.31
384.211	4833.31
384.436	4846.31
384.662	4912.31
384.887	4960.31
385.112	5008.31
385.337	5041.31
385.562	5059.31
385.787	5063.31
386.013	5168.31
386.238	5063.31
386.463	5144.31
386.688	5054.31
386.913	4965.31
387.138	4960.31
387.363	4979.31
387.588	4884.31
387.813	4975.31
388.038	4989.31
388.263	4976.31
388.488	4987.31
388.713	4987.31
388.938	4925.31
389.163	5013.31
389.387	4905.31
389.612	4850.31
389.837	4897.31
390.062	4836.31
390.287	4923.31
390.512	4888.31
390.736	4903.31
390.961	5037.31
391.186	5138.31
391.411	5342.31
391.636	5395.31
391.86	5530.31
392.085	5580.31
392.31	5516.31
392.534	5374.31
392.759	5366.31
392.984	5285.31
393.208	5228.31
393.433	5172.31
393.658	5144.31
393.882	5157.31
394.107	5174.31
394.331	5322.31
394.556	5232.31
394.78	5304.31
395.005	5309.31
395.229	5339.31
395.454	5471.31
395.678	5599.31
395.903	5595.31
396.127	5619.31
396.352	5418.31
396.576	5236.31
396.801	5236.31
397.025	5351.31
397.249	5470.31
397.474	5618.31
397.698	5615.31
397.922	5699.31
398.147	5874.31
398.371	5888.31
398.595	6058.31
398.82	6370.31
399.044	6897.31
399.268	7595.31
399.492	8728.31
399.717	9285.31
399.941	8937.31
400.165	8487.31
400.389	7689.31
400.613	7007.31
400.837	6534.31
401.062	6316.31
401.286	6307.31
401.51	6258.31
401.734	6266.31
401.958	6342.31
402.182	6415.31
402.406	6504.31
402.63	6641.31
402.854	6673.31
403.078	6820.31
403.302	6888.31
403.526	7122.31
403.75	7193.31
403.974	7254.31
404.198	7135.31
404.422	7231.31
404.645	7218.31
404.869	7217.31
405.093	7438.31
405.317	7566.31
405.541	7618.31
405.765	7103.31
405.988	7015.31
406.212	7078.31
406.436	7346.31
406.66	7480.31
406.883	7458.31
407.107	7960.31
407.331	8432.31
407.555	8978.31
407.778	8724.31
408.002	7899.31
408.226	7598.31
408.449	7540.31
408.673	7292.31
408.896	7474.31
409.12	7672.31
409.344	7254.31
409.567	6939.31
409.791	6855.31
410.014	6823.31
410.238	6737.31
410.461	6756.31
410.685	6847.31
410.908	6822.31
411.132	7139.31
411.355	7134.31
411.578	6829.31
411.802	6534.31
412.025	6595.31
412.249	6691.31
412.472	6885.31
412.695	6951.31
412.919	6596.31
413.142	6391.31
413.365	6287.31
413.589	6275.31
413.812	6161.31
414.035	6054.31
414.258	6204.31
414.482	6211.31
414.705	6192.31
414.928	6191.31
415.151	6182.31
415.374	6145.31
415.597	6126.31
415.821	6036.31
416.044	6087.31
416.267	6056.31
416.49	5995.31
416.713	5900.31
416.936	6078.31
417.159	6104.31
417.382	6132.31
417.605	6161.31
417.828	6324.31
418.051	6381.31
418.274	6362.31
418.497	6192.31
418.72	6327.31
418.943	6347.31
419.166	6681.31
419.389	7015.31
419.611	6912.31
419.834	6754.31
420.057	6599.31
420.28	6508.31
420.503	6270.31
420.726	6273.31
420.948	6489.31
421.171	6839.31
421.394	6726.31
421.617	6276.31
421.839	6303.31
422.062	6336.31
422.285	6566.31
422.507	7164.31
422.73	7530.31
422.953	7074.31
423.175	6736.31
423.398	6774.31
423.621	6803.31
423.843	7042.31
424.066	6932.31
424.288	6860.31
424.511	7032.31
424.733	7438.31
424.956	7884.31
425.178	7478.31
425.401	7683.31
425.623	7379.31
425.846	6471.31
426.068	6385.31
426.291	6418.31
426.513	6409.31
426.735	6367.31
426.958	6842.31
427.18	7584.31
427.402	8562.31
427.625	8661.31
427.847	7502.31
428.069	6721.31
428.292	6273.31
428.514	5918.31
428.736	5808.31
428.958	5821.31
429.181	5615.31
429.403	5619.31
429.625	5817.31
429.847	6016.31
430.069	6547.31
430.292	6063.31
430.514	5564.31
430.736	5588.31
430.958	5508.31
431.18	5414.31
431.402	5458.31
431.624	5456.31
431.846	5494.31
432.068	5497.31
432.29	5624.31
432.512	5506.31
432.734	5605.31
432.956	5622.31
433.178	5649.31
433.4	5624.31
433.622	5564.31
433.844	5597.31
434.066	5557.31
434.287	5726.31
434.509	5915.31
434.731	6113.31
434.953	6237.31
435.175	6343.31
435.397	6476.31
435.618	6369.31
435.84	6680.31
436.062	7455.31
436.284	7291.31
436.505	6269.31
436.727	6006.31
436.949	5734.31
437.17	5670.31
437.392	5604.31
437.614	5752.31
437.835	6151.31
438.057	6988.31
438.278	7546.31
438.5	7448.31
438.721	8329.31
438.943	7303.31
439.165	6168.31
439.386	5968.31
439.608	6101.31
439.829	6103.31
440.05	6460.31
440.272	6767.31
440.493	6242.31
440.715	5966.31
440.936	5913.31
441.158	5861.31
441.379	6028.31
441.6	6360.31
441.822	6651.31
442.043	6964.31
442.264	7705.31
442.486	7397.31
442.707	6701.31
442.928	6451.31
443.149	6647.31
443.371	6815.31
443.592	7357.31
443.813	8287.31
444.034	8246.31
444.255	7220.31
444.476	6993.31
444.698	7272.31
444.919	7316.31
445.14	7145.31
445.361	6933.31
445.582	7072.31
445.803	7632.31
446.024	8151.31
446.245	7784.31
446.466	7079.31
446.687	6134.31
446.908	5938.31
447.129	5685.31
447.35	5454.31
447.571	5459.31
447.792	5283.31
448.013	5456.31
448.234	5667.31
448.455	6158.31
448.675	7290.31
448.896	7686.31
449.117	6389.31
449.338	6618.31
449.559	7862.31
449.779	8001.31
450	6217.31
450.221	5506.31
450.442	5433.31
450.662	5266.31
450.883	5381.31
451.104	5443.31
451.324	5324.31
451.545	5172.31
451.766	5043.31
451.986	4985.31
452.207	4914.31
452.428	4867.31
452.648	4966.31
452.869	4943.31
453.089	4990.31
453.31	5056.31
453.53	4911.31
453.751	4856.31
453.971	4890.31
454.192	5031.31
454.412	4798.31
454.633	4776.31
454.853	4729.31
455.073	4768.31
455.294	5104.31
455.514	5569.31
455.734	5145.31
455.955	4664.31
456.175	4586.31
456.395	4529.31
456.616	4544.31
456.836	4505.31
457.056	4420.31
457.276	4383.31
457.497	4581.31
457.717	4571.31
457.937	4625.31
458.157	4647.31
458.377	4755.31
458.598	5133.31
458.818	5726.31
459.038	6344.31
459.258	6362.31
459.478	5677.31
459.698	5615.31
459.918	5630.31
460.138	5869.31
460.358	6099.31
460.578	6122.31
460.798	6146.31
461.018	6154.31
461.238	5913.31
461.458	6022.31
461.678	5877.31
461.898	6112.31
462.118	6118.31
462.338	6488.31
462.558	6637.31
462.777	6951.31
462.997	7402.31
463.217	7852.31
463.437	7664.31
463.657	7004.31
463.876	6905.31
464.096	6894.31
464.316	6917.31
464.536	6941.31
464.755	6729.31
464.975	6596.31
465.195	6750.31
465.414	6641.31
465.634	5975.31
465.854	5609.31
466.073	5366.31
466.293	5298.31
466.512	5173.31
466.732	5020.31
466.951	5016.31
467.171	5040.31
467.391	5153.31
467.61	5144.31
467.829	5069.31
468.049	5066.31
468.268	5017.31
468.488	4884.31
468.707	4828.31
468.927	4789.31
469.146	4779.31
469.365	4889.31
469.585	4882.31
469.804	5109.31
470.023	5232.31
470.243	5198.31
470.462	5352.31
470.681	5387.31
470.901	5318.31
471.12	5170.31
471.339	5086.31
471.558	5166.31
471.777	5077.31
471.997	5007.31
472.216	5049.31
472.435	5156.31
472.654	5001.31
472.873	4866.31
473.092	4788.31
473.311	4807.31
473.53	4869.31
473.749	4938.31
473.968	5408.31
474.187	6335.31
474.406	5861.31
474.625	5122.31
474.844	4976.31
475.063	4833.31
475.282	4881.31
475.501	4912.31
475.72	4963.31
475.939	4935.31
476.158	5012.31
476.377	5017.31
476.596	5007.31
476.814	5117.31
477.033	5202.31
477.252	5207.31
477.471	5381.31
477.69	5408.31
477.908	5584.31
478.127	5761.31
478.346	5719.31
478.564	5805.31
478.783	5950.31
479.002	6095.31
479.22	6052.31
479.439	6150.31
479.658	6239.31
479.876	6303.31
480.095	6523.31
480.313	6932.31
480.532	6868.31
480.751	6704.31
480.969	6730.31
481.188	7078.31
481.406	6762.31
481.624	6339.31
481.843	6092.31
482.061	5926.31
482.28	5794.31
482.498	5840.31
482.717	5672.31
482.935	5694.31
483.153	5680.31
483.372	5681.31
483.59	5626.31
483.808	5641.31
484.027	5712.31
484.245	5759.31
484.463	5823.31
484.681	5793.31
484.9	5864.31
485.118	5972.31
485.336	5978.31
485.554	6078.31
485.772	6109.31
485.99	6034.31
486.209	6092.31
486.427	6191.31
486.645	6205.31
486.863	6319.31
487.081	6292.31
487.299	6130.31
487.517	6160.31
487.735	6070.31
487.953	6051.31
