Data from Circ_1985_H10_HRD10591_00092.txt Node
Date: Wed Jan 03 12:19:41 EST 2024
User: Yrep
Spectrometer: HR+D1059
Trigger mode: 1
Integration Time (sec): 1.000000E-1
Scans to average: 1
Electric dark correction enabled: true
Nonlinearity correction enabled: false
Boxcar width: 0
XAxis mode: Wavelengths
Number of Pixels in Spectrum: 2048
>>>>>Begin Spectral Data<<<<<
223.165	-15.75
223.4	-15.75
223.635	-15.75
223.869	-20.75
224.104	-16.75
224.338	-14.75
224.573	-8.75
224.808	-11.75
225.042	-12.75
225.277	-14.75
225.511	-2.75
225.746	13.25
225.98	5.25
226.215	2.25
226.449	15.25
226.683	16.25
226.918	22.25
227.152	44.25
227.387	43.25
227.621	38.25
227.856	41.25
228.09	40.25
228.324	43.25
228.559	51.25
228.793	51.25
229.027	54.25
229.262	73.25
229.496	56.25
229.73	85.25
229.964	76.25
230.199	74.25
230.433	75.25
230.667	82.25
230.901	79.25
231.136	91.25
231.37	77.25
231.604	87.25
231.838	81.25
232.072	84.25
232.306	89.25
232.541	75.25
232.775	76.25
233.009	76.25
233.243	76.25
233.477	88.25
233.711	89.25
233.945	76.25
234.179	77.25
234.413	85.25
234.647	83.25
234.881	75.25
235.115	85.25
235.349	63.25
235.583	84.25
235.817	76.25
236.051	69.25
236.285	83.25
236.519	87.25
236.753	70.25
236.987	77.25
237.221	91.25
237.455	80.25
237.689	91.25
237.922	70.25
238.156	73.25
238.39	66.25
238.624	70.25
238.858	75.25
239.091	84.25
239.325	68.25
239.559	73.25
239.793	76.25
240.027	71.25
240.26	81.25
240.494	66.25
240.728	77.25
240.961	73.25
241.195	84.25
241.429	81.25
241.662	76.25
241.896	68.25
242.13	76.25
242.363	80.25
242.597	87.25
242.83	76.25
243.064	69.25
243.298	88.25
243.531	71.25
243.765	78.25
243.998	84.25
244.232	75.25
244.465	73.25
244.699	74.25
244.932	85.25
245.166	83.25
245.399	91.25
245.633	79.25
245.866	73.25
246.099	79.25
246.333	73.25
246.566	71.25
246.8	73.25
247.033	83.25
247.266	89.25
247.5	82.25
247.733	74.25
247.966	83.25
248.2	71.25
248.433	89.25
248.666	85.25
248.899	79.25
249.133	92.25
249.366	90.25
249.599	83.25
249.832	89.25
250.066	75.25
250.299	79.25
250.532	80.25
250.765	82.25
250.998	92.25
251.231	98.25
251.465	64.25
251.698	65.25
251.931	87.25
252.164	79.25
252.397	88.25
252.63	82.25
252.863	73.25
253.096	69.25
253.329	85.25
253.562	80.25
253.795	100.25
254.028	70.25
254.261	84.25
254.494	61.25
254.727	97.25
254.96	85.25
255.193	96.25
255.426	83.25
255.659	90.25
255.892	90.25
256.124	86.25
256.357	81.25
256.59	78.25
256.823	69.25
257.056	69.25
257.289	87.25
257.521	91.25
257.754	68.25
257.987	91.25
258.22	87.25
258.452	79.25
258.685	82.25
258.918	92.25
259.151	67.25
259.383	74.25
259.616	83.25
259.849	81.25
260.081	87.25
260.314	81.25
260.547	75.25
260.779	83.25
261.012	88.25
261.244	77.25
261.477	80.25
261.71	93.25
261.942	105.25
262.175	99.25
262.407	95.25
262.64	71.25
262.872	94.25
263.105	81.25
263.337	97.25
263.57	81.25
263.802	84.25
264.035	85.25
264.267	91.25
264.499	79.25
264.732	86.25
264.964	81.25
265.197	87.25
265.429	93.25
265.661	91.25
265.894	82.25
266.126	76.25
266.358	89.25
266.591	90.25
266.823	88.25
267.055	85.25
267.287	95.25
267.52	102.25
267.752	87.25
267.984	81.25
268.216	86.25
268.448	88.25
268.681	82.25
268.913	89.25
269.145	89.25
269.377	95.25
269.609	81.25
269.841	77.25
270.073	83.25
270.306	94.25
270.538	94.25
270.77	89.25
271.002	71.25
271.234	86.25
271.466	79.25
271.698	88.25
271.93	77.25
272.162	81.25
272.394	89.25
272.626	73.25
272.858	85.25
273.09	89.25
273.322	97.25
273.553	76.25
273.785	69.25
274.017	85.25
274.249	87.25
274.481	89.25
274.713	82.25
274.945	89.25
275.176	83.25
275.408	91.25
275.64	89.25
275.872	87.25
276.104	81.25
276.335	93.25
276.567	105.25
276.799	97.25
277.031	97.25
277.262	94.25
277.494	85.25
277.726	77.25
277.957	86.25
278.189	95.25
278.421	80.25
278.652	87.25
278.884	80.25
279.115	81.25
279.347	93.25
279.579	75.25
279.81	86.25
280.042	84.25
280.273	100.25
280.505	82.25
280.736	95.25
280.968	89.25
281.199	87.25
281.431	93.25
281.662	80.25
281.894	86.25
282.125	95.25
282.356	111.25
282.588	135.25
282.819	108.25
283.051	91.25
283.282	90.25
283.513	80.25
283.745	100.25
283.976	81.25
284.207	107.25
284.439	99.25
284.67	90.25
284.901	82.25
285.132	89.25
285.364	95.25
285.595	95.25
285.826	92.25
286.057	91.25
286.288	85.25
286.52	80.25
286.751	87.25
286.982	91.25
287.213	91.25
287.444	73.25
287.675	89.25
287.906	69.25
288.138	84.25
288.369	89.25
288.6	96.25
288.831	100.25
289.062	87.25
289.293	100.25
289.524	90.25
289.755	96.25
289.986	91.25
290.217	71.25
290.448	91.25
290.679	86.25
290.91	88.25
291.141	80.25
291.371	90.25
291.602	72.25
291.833	85.25
292.064	86.25
292.295	95.25
292.526	86.25
292.757	87.25
292.987	100.25
293.218	89.25
293.449	84.25
293.68	91.25
293.91	80.25
294.141	77.25
294.372	86.25
294.603	106.25
294.833	89.25
295.064	95.25
295.295	85.25
295.525	90.25
295.756	88.25
295.987	115.25
296.217	124.25
296.448	115.25
296.679	83.25
296.909	97.25
297.14	76.25
297.37	69.25
297.601	85.25
297.831	88.25
298.062	75.25
298.292	81.25
298.523	80.25
298.753	107.25
298.984	94.25
299.214	91.25
299.445	83.25
299.675	95.25
299.905	97.25
300.136	95.25
300.366	85.25
300.597	113.25
300.827	98.25
301.057	90.25
301.288	92.25
301.518	80.25
301.748	96.25
301.979	91.25
302.209	89.25
302.439	91.25
302.669	90.25
302.9	93.25
303.13	83.25
303.36	89.25
303.59	87.25
303.82	96.25
304.051	87.25
304.281	93.25
304.511	101.25
304.741	76.25
304.971	77.25
305.201	97.25
305.431	98.25
305.661	92.25
305.891	80.25
306.121	89.25
306.352	91.25
306.582	110.25
306.812	94.25
307.042	87.25
307.272	88.25
307.502	97.25
307.731	91.25
307.961	92.25
308.191	102.25
308.421	87.25
308.651	102.25
308.881	92.25
309.111	104.25
309.341	97.25
309.571	90.25
309.8	77.25
310.03	95.25
310.26	82.25
310.49	76.25
310.72	101.25
310.949	103.25
311.179	92.25
311.409	89.25
311.639	100.25
311.868	100.25
312.098	92.25
312.328	100.25
312.557	109.25
312.787	95.25
313.017	93.25
313.246	88.25
313.476	82.25
313.706	93.25
313.935	90.25
314.165	89.25
314.394	91.25
314.624	92.25
314.853	102.25
315.083	94.25
315.312	90.25
315.542	92.25
315.771	88.25
316.001	95.25
316.23	85.25
316.46	91.25
316.689	89.25
316.919	89.25
317.148	94.25
317.377	109.25
317.607	96.25
317.836	99.25
318.065	87.25
318.295	95.25
318.524	87.25
318.753	76.25
318.983	103.25
319.212	93.25
319.441	91.25
319.67	115.25
319.9	100.25
320.129	92.25
320.358	99.25
320.587	107.25
320.816	102.25
321.046	93.25
321.275	90.25
321.504	101.25
321.733	99.25
321.962	101.25
322.191	98.25
322.42	104.25
322.649	98.25
322.878	104.25
323.108	118.25
323.337	113.25
323.566	116.25
323.795	133.25
324.024	199.25
324.253	371.25
324.482	771.25
324.71	1626.25
324.939	2116.25
325.168	754.25
325.397	223.25
325.626	148.25
325.855	127.25
326.084	103.25
326.313	120.25
326.542	147.25
326.77	228.25
326.999	443.25
327.228	924.25
327.457	1663.25
327.686	1291.25
327.914	342.25
328.143	185.25
328.372	167.25
328.6	140.25
328.829	127.25
329.058	117.25
329.287	113.25
329.515	104.25
329.744	97.25
329.972	106.25
330.201	129.25
330.43	152.25
330.658	129.25
330.887	130.25
331.115	116.25
331.344	93.25
331.572	111.25
331.801	102.25
332.03	96.25
332.258	96.25
332.486	75.25
332.715	82.25
332.943	91.25
333.172	95.25
333.4	87.25
333.629	106.25
333.857	102.25
334.085	108.25
334.314	145.25
334.542	170.25
334.771	173.25
334.999	104.25
335.227	95.25
335.455	106.25
335.684	95.25
335.912	91.25
336.14	101.25
336.369	79.25
336.597	79.25
336.825	88.25
337.053	92.25
337.281	87.25
337.51	85.25
337.738	96.25
337.966	90.25
338.194	87.25
338.422	104.25
338.65	101.25
338.878	79.25
339.106	91.25
339.334	88.25
339.562	79.25
339.79	101.25
340.018	87.25
340.246	99.25
340.474	93.25
340.702	87.25
340.93	88.25
341.158	103.25
341.386	90.25
341.614	92.25
341.842	93.25
342.07	95.25
342.298	91.25
342.526	93.25
342.754	91.25
342.981	85.25
343.209	103.25
343.437	96.25
343.665	85.25
343.893	88.25
344.12	97.25
344.348	75.25
344.576	90.25
344.804	98.25
345.031	89.25
345.259	92.25
345.487	108.25
345.714	99.25
345.942	84.25
346.17	108.25
346.397	81.25
346.625	97.25
346.853	108.25
347.08	94.25
347.308	85.25
347.535	100.25
347.763	103.25
347.99	101.25
348.218	108.25
348.445	105.25
348.673	89.25
348.9	87.25
349.128	86.25
349.355	85.25
349.583	110.25
349.81	75.25
350.037	87.25
350.265	88.25
350.492	94.25
350.72	98.25
350.947	90.25
351.174	114.25
351.402	99.25
351.629	96.25
351.856	117.25
352.083	112.25
352.311	95.25
352.538	99.25
352.765	116.25
352.992	106.25
353.22	105.25
353.447	103.25
353.674	97.25
353.901	97.25
354.128	94.25
354.355	103.25
354.583	96.25
354.81	99.25
355.037	94.25
355.264	89.25
355.491	92.25
355.718	107.25
355.945	105.25
356.172	90.25
356.399	96.25
356.626	108.25
356.853	106.25
357.08	104.25
357.307	89.25
357.534	95.25
357.761	95.25
357.988	76.25
358.215	93.25
358.441	85.25
358.668	91.25
358.895	91.25
359.122	94.25
359.349	87.25
359.576	76.25
359.802	95.25
360.029	96.25
360.256	99.25
360.483	90.25
360.709	85.25
360.936	97.25
361.163	94.25
361.39	96.25
361.616	101.25
361.843	80.25
362.07	85.25
362.296	96.25
362.523	75.25
362.749	87.25
362.976	98.25
363.203	106.25
363.429	98.25
363.656	94.25
363.882	87.25
364.109	88.25
364.335	103.25
364.562	93.25
364.788	83.25
365.015	90.25
365.241	99.25
365.468	103.25
365.694	105.25
365.92	108.25
366.147	99.25
366.373	80.25
366.599	98.25
366.826	91.25
367.052	99.25
367.278	85.25
367.505	95.25
367.731	87.25
367.957	72.25
368.184	100.25
368.41	97.25
368.636	110.25
368.862	127.25
369.089	106.25
369.315	79.25
369.541	97.25
369.767	91.25
369.993	83.25
370.219	100.25
370.445	85.25
370.672	86.25
370.898	103.25
371.124	99.25
371.35	88.25
371.576	99.25
371.802	92.25
372.028	95.25
372.254	97.25
372.48	77.25
372.706	102.25
372.932	93.25
373.158	88.25
373.384	84.25
373.61	97.25
373.835	89.25
374.061	83.25
374.287	82.25
374.513	85.25
374.739	93.25
374.965	91.25
375.191	83.25
375.416	84.25
375.642	88.25
375.868	89.25
376.094	91.25
376.319	79.25
376.545	88.25
376.771	97.25
376.997	89.25
377.222	95.25
377.448	82.25
377.674	80.25
377.899	99.25
378.125	79.25
378.35	85.25
378.576	104.25
378.802	86.25
379.027	91.25
379.253	98.25
379.478	81.25
379.704	85.25
379.929	86.25
380.155	88.25
380.38	88.25
380.606	88.25
380.831	98.25
381.057	96.25
381.282	98.25
381.507	91.25
381.733	105.25
381.958	91.25
382.184	90.25
382.409	100.25
382.634	108.25
382.86	110.25
383.085	116.25
383.31	112.25
383.535	84.25
383.761	85.25
383.986	105.25
384.211	91.25
384.436	84.25
384.662	102.25
384.887	105.25
385.112	114.25
385.337	114.25
385.562	114.25
385.787	100.25
386.013	104.25
386.238	109.25
386.463	118.25
386.688	117.25
386.913	109.25
387.138	112.25
387.363	115.25
387.588	89.25
387.813	107.25
388.038	108.25
388.263	124.25
388.488	96.25
388.713	106.25
388.938	92.25
389.163	103.25
389.387	102.25
389.612	103.25
389.837	112.25
390.062	97.25
390.287	104.25
390.512	103.25
390.736	87.25
390.961	99.25
391.186	103.25
391.411	91.25
391.636	103.25
391.86	84.25
392.085	108.25
392.31	84.25
392.534	90.25
392.759	87.25
392.984	77.25
393.208	85.25
393.433	97.25
393.658	82.25
393.882	73.25
394.107	87.25
394.331	84.25
394.556	79.25
394.78	108.25
395.005	89.25
395.229	99.25
395.454	91.25
395.678	85.25
395.903	74.25
396.127	87.25
396.352	94.25
396.576	85.25
396.801	79.25
397.025	88.25
397.249	91.25
397.474	83.25
397.698	80.25
397.922	83.25
398.147	85.25
398.371	76.25
398.595	82.25
398.82	88.25
399.044	97.25
399.268	101.25
399.492	92.25
399.717	93.25
399.941	86.25
400.165	97.25
400.389	100.25
400.613	90.25
400.837	91.25
401.062	93.25
401.286	90.25
401.51	95.25
401.734	103.25
401.958	107.25
402.182	107.25
402.406	139.25
402.63	99.25
402.854	91.25
403.078	89.25
403.302	95.25
403.526	81.25
403.75	87.25
403.974	84.25
404.198	90.25
404.422	95.25
404.645	90.25
404.869	93.25
405.093	98.25
405.317	97.25
405.541	91.25
405.765	111.25
405.988	111.25
406.212	145.25
406.436	200.25
406.66	136.25
406.883	96.25
407.107	94.25
407.331	96.25
407.555	100.25
407.778	81.25
408.002	97.25
408.226	83.25
408.449	89.25
408.673	101.25
408.896	84.25
409.12	98.25
409.344	82.25
409.567	92.25
409.791	99.25
410.014	94.25
410.238	95.25
410.461	83.25
410.685	100.25
410.908	111.25
411.132	98.25
411.355	100.25
411.578	101.25
411.802	99.25
412.025	94.25
412.249	82.25
412.472	101.25
412.695	106.25
412.919	87.25
413.142	92.25
413.365	93.25
413.589	81.25
413.812	78.25
414.035	89.25
414.258	81.25
414.482	80.25
414.705	104.25
414.928	97.25
415.151	77.25
415.374	99.25
415.597	93.25
415.821	91.25
416.044	79.25
416.267	86.25
416.49	89.25
416.713	96.25
416.936	74.25
417.159	98.25
417.382	79.25
417.605	103.25
417.828	88.25
418.051	76.25
418.274	90.25
418.497	83.25
418.72	99.25
418.943	95.25
419.166	96.25
419.389	84.25
419.611	103.25
419.834	84.25
420.057	87.25
420.28	102.25
420.503	81.25
420.726	72.25
420.948	79.25
421.171	81.25
421.394	76.25
421.617	89.25
421.839	71.25
422.062	71.25
422.285	99.25
422.507	71.25
422.73	117.25
422.953	88.25
423.175	87.25
423.398	93.25
423.621	99.25
423.843	89.25
424.066	85.25
424.288	84.25
424.511	107.25
424.733	112.25
424.956	90.25
425.178	85.25
425.401	91.25
425.623	92.25
425.846	97.25
426.068	101.25
426.291	95.25
426.513	86.25
426.735	72.25
426.958	91.25
427.18	104.25
427.402	127.25
427.625	141.25
427.847	119.25
428.069	116.25
428.292	100.25
428.514	105.25
428.736	92.25
428.958	81.25
429.181	68.25
429.403	87.25
429.625	87.25
429.847	82.25
430.069	94.25
430.292	103.25
430.514	82.25
430.736	91.25
430.958	88.25
431.18	91.25
431.402	91.25
431.624	92.25
431.846	80.25
432.068	99.25
432.29	85.25
432.512	96.25
432.734	82.25
432.956	87.25
433.178	107.25
433.4	98.25
433.622	96.25
433.844	100.25
434.066	94.25
434.287	98.25
434.509	80.25
434.731	91.25
434.953	74.25
435.175	73.25
435.397	84.25
435.618	97.25
435.84	105.25
436.062	109.25
436.284	122.25
436.505	101.25
436.727	82.25
436.949	83.25
437.17	73.25
437.392	94.25
437.614	92.25
437.835	101.25
438.057	114.25
438.278	96.25
438.5	102.25
438.721	106.25
438.943	94.25
439.165	81.25
439.386	85.25
439.608	89.25
439.829	96.25
440.05	109.25
440.272	114.25
440.493	100.25
440.715	79.25
440.936	58.25
441.158	81.25
441.379	72.25
441.6	96.25
441.822	114.25
442.043	79.25
442.264	101.25
442.486	106.25
442.707	76.25
442.928	109.25
443.149	115.25
443.371	116.25
443.592	99.25
443.813	105.25
444.034	90.25
444.255	90.25
444.476	90.25
444.698	87.25
444.919	85.25
445.14	124.25
445.361	114.25
445.582	113.25
445.803	123.25
446.024	120.25
446.245	130.25
446.466	108.25
446.687	88.25
446.908	84.25
447.129	96.25
447.35	89.25
447.571	83.25
447.792	99.25
448.013	98.25
448.234	99.25
448.455	83.25
448.675	106.25
448.896	118.25
449.117	85.25
449.338	86.25
449.559	120.25
449.779	129.25
450	89.25
450.221	104.25
450.442	91.25
450.662	89.25
450.883	103.25
451.104	89.25
451.324	95.25
451.545	87.25
451.766	89.25
451.986	92.25
452.207	82.25
452.428	99.25
452.648	98.25
452.869	108.25
453.089	111.25
453.31	110.25
453.53	102.25
453.751	93.25
453.971	99.25
454.192	101.25
454.412	82.25
454.633	84.25
454.853	86.25
455.073	87.25
455.294	92.25
455.514	94.25
455.734	103.25
455.955	71.25
456.175	90.25
456.395	85.25
456.616	84.25
456.836	81.25
457.056	84.25
457.276	84.25
457.497	71.25
457.717	85.25
457.937	82.25
458.157	88.25
458.377	69.25
458.598	107.25
458.818	129.25
459.038	130.25
459.258	109.25
459.478	81.25
459.698	88.25
459.918	85.25
460.138	87.25
460.358	78.25
460.578	96.25
460.798	89.25
461.018	89.25
461.238	71.25
461.458	68.25
461.678	103.25
461.898	93.25
462.118	82.25
462.338	65.25
462.558	74.25
462.777	76.25
462.997	89.25
463.217	82.25
463.437	85.25
463.657	89.25
463.876	76.25
464.096	85.25
464.316	85.25
464.536	86.25
464.755	87.25
464.975	94.25
465.195	124.25
465.414	136.25
465.634	96.25
465.854	77.25
466.073	99.25
466.293	91.25
466.512	90.25
466.732	80.25
466.951	92.25
467.171	100.25
467.391	95.25
467.61	108.25
467.829	93.25
468.049	121.25
468.268	120.25
468.488	78.25
468.707	83.25
468.927	108.25
469.146	83.25
469.365	82.25
469.585	87.25
469.804	90.25
470.023	99.25
470.243	93.25
470.462	95.25
470.681	97.25
470.901	92.25
471.12	86.25
471.339	87.25
471.558	95.25
471.777	89.25
471.997	92.25
472.216	143.25
472.435	188.25
472.654	108.25
472.873	101.25
473.092	93.25
473.311	86.25
473.53	75.25
473.749	105.25
473.968	113.25
474.187	105.25
474.406	96.25
474.625	76.25
474.844	96.25
475.063	89.25
475.282	91.25
475.501	82.25
475.72	96.25
475.939	68.25
476.158	72.25
476.377	83.25
476.596	97.25
476.814	98.25
477.033	89.25
477.252	78.25
477.471	88.25
477.69	85.25
477.908	96.25
478.127	83.25
478.346	87.25
478.564	82.25
478.783	79.25
479.002	93.25
479.22	90.25
479.439	102.25
479.658	99.25
479.876	86.25
480.095	78.25
480.313	86.25
480.532	90.25
480.751	108.25
480.969	139.25
481.188	278.25
481.406	207.25
481.624	100.25
481.843	87.25
482.061	85.25
482.28	75.25
482.498	86.25
482.717	88.25
482.935	98.25
483.153	92.25
483.372	87.25
483.59	96.25
483.808	79.25
484.027	84.25
484.245	91.25
484.463	106.25
484.681	96.25
484.9	98.25
485.118	106.25
485.336	88.25
485.554	92.25
485.772	96.25
485.99	86.25
486.209	101.25
486.427	106.25
486.645	98.25
486.863	101.25
487.081	106.25
487.299	87.25
487.517	95.25
487.735	99.25
487.953	82.25
488.171	81.25
488.389	88.25
488.607	102.25
488.825	87.25
489.043	76.25
489.261	81.25
489.479	87.25
489.696	88.25
489.914	102.25
490.132	87.25
490.35	74.25
490.568	91.25
490.786	84.25
491.003	85.25
491.221	89.25
491.439	100.25
491.657	87.25
491.874	89.25
492.092	93.25
492.31	103.25
492.527	92.25
492.745	71.25
492.963	83.25
493.18	105.25
493.398	93.25
493.615	99.25
493.833	95.25
494.05	85.25
494.268	90.25
494.485	102.25
494.703	89.25
494.92	90.25
495.138	92.25
495.355	106.25
495.573	105.25
495.79	98.25
496.008	97.25
496.225	100.25
496.442	86.25
496.66	97.25
496.877	80.25
497.094	89.25
497.312	74.25
497.529	91.25
497.746	95.25
497.963	93.25
498.181	91.25
498.398	103.25
498.615	104.25
498.832	87.25
499.049	76.25
499.267	99.25
499.484	95.25
499.701	77.25
499.918	85.25
500.135	107.25
500.352	82.25
500.569	83.25
500.786	80.25
501.003	86.25
501.22	89.25
501.437	91.25
501.654	87.25
501.871	103.25
502.088	90.25
502.305	87.25
502.522	89.25
502.739	83.25
502.956	102.25
503.172	85.25
503.389	92.25
503.606	91.25
503.823	97.25
504.04	80.25
504.256	86.25
504.473	84.25
504.69	100.25
504.907	101.25
505.123	82.25
505.34	83.25
505.557	91.25
505.773	99.25
505.99	79.25
506.207	94.25
506.423	79.25
506.64	78.25
506.856	86.25
507.073	89.25
507.289	88.25
507.506	98.25
507.722	98.25
507.939	102.25
508.155	104.25
508.372	92.25
508.588	103.25
508.805	99.25
509.021	101.25
509.238	99.25
509.454	105.25
509.67	99.25
509.887	111.25
510.103	131.25
510.319	203.25
510.536	660.25
510.752	1895.25
510.968	534.25
511.184	156.25
511.401	102.25
511.617	107.25
511.833	95.25
512.049	80.25
512.265	102.25
512.481	87.25
512.698	89.25
512.914	83.25
513.13	92.25
513.346	89.25
513.562	81.25
513.778	97.25
513.994	93.25
514.21	92.25
514.426	113.25
514.642	131.25
514.858	115.25
515.074	131.25
515.29	357.25
515.506	1113.25
515.721	409.25
