Data from Circ_1985_H10_HRD10591_00045.txt Node
Date: Wed Jan 03 12:19:31 EST 2024
User: Yrep
Spectrometer: HR+D1059
Trigger mode: 1
Integration Time (sec): 1.000000E-1
Scans to average: 1
Electric dark correction enabled: true
Nonlinearity correction enabled: false
Boxcar width: 0
XAxis mode: Wavelengths
Number of Pixels in Spectrum: 2048
>>>>>Begin Spectral Data<<<<<
223.165	-21.19
223.4	-21.19
223.635	-21.19
223.869	-23.19
224.104	-17.19
224.338	-27.19
224.573	-7.19
224.808	-17.19
225.042	2.81
225.277	2.81
225.511	-4.19
225.746	-7.19
225.98	4.81
226.215	20.81
226.449	21.81
226.683	18.81
226.918	27.81
227.152	24.81
227.387	39.81
227.621	59.81
227.856	50.81
228.09	38.81
228.324	57.81
228.559	51.81
228.793	71.81
229.027	71.81
229.262	73.81
229.496	63.81
229.73	77.81
229.964	77.81
230.199	76.81
230.433	76.81
230.667	74.81
230.901	74.81
231.136	67.81
231.37	66.81
231.604	71.81
231.838	86.81
232.072	70.81
232.306	81.81
232.541	88.81
232.775	74.81
233.009	84.81
233.243	75.81
233.477	94.81
233.711	92.81
233.945	92.81
234.179	78.81
234.413	91.81
234.647	102.81
234.881	75.81
235.115	74.81
235.349	78.81
235.583	85.81
235.817	78.81
236.051	83.81
236.285	86.81
236.519	87.81
236.753	66.81
236.987	84.81
237.221	75.81
237.455	82.81
237.689	84.81
237.922	78.81
238.156	71.81
238.39	74.81
238.624	77.81
238.858	72.81
239.091	68.81
239.325	74.81
239.559	86.81
239.793	76.81
240.027	86.81
240.26	80.81
240.494	82.81
240.728	82.81
240.961	78.81
241.195	77.81
241.429	81.81
241.662	74.81
241.896	75.81
242.13	85.81
242.363	68.81
242.597	80.81
242.83	76.81
243.064	73.81
243.298	72.81
243.531	73.81
243.765	69.81
243.998	83.81
244.232	83.81
244.465	82.81
244.699	87.81
244.932	84.81
245.166	81.81
245.399	77.81
245.633	80.81
245.866	84.81
246.099	70.81
246.333	77.81
246.566	81.81
246.8	82.81
247.033	89.81
247.266	77.81
247.5	82.81
247.733	75.81
247.966	83.81
248.2	98.81
248.433	80.81
248.666	88.81
248.899	81.81
249.133	83.81
249.366	105.81
249.599	90.81
249.832	77.81
250.066	73.81
250.299	78.81
250.532	82.81
250.765	92.81
250.998	93.81
251.231	96.81
251.465	65.81
251.698	82.81
251.931	68.81
252.164	84.81
252.397	84.81
252.63	81.81
252.863	78.81
253.096	87.81
253.329	86.81
253.562	66.81
253.795	84.81
254.028	82.81
254.261	81.81
254.494	70.81
254.727	102.81
254.96	83.81
255.193	78.81
255.426	94.81
255.659	70.81
255.892	74.81
256.124	81.81
256.357	71.81
256.59	72.81
256.823	85.81
257.056	83.81
257.289	73.81
257.521	82.81
257.754	79.81
257.987	78.81
258.22	80.81
258.452	77.81
258.685	90.81
258.918	84.81
259.151	97.81
259.383	83.81
259.616	79.81
259.849	83.81
260.081	87.81
260.314	71.81
260.547	78.81
260.779	93.81
261.012	85.81
261.244	74.81
261.477	86.81
261.71	97.81
261.942	87.81
262.175	108.81
262.407	84.81
262.64	87.81
262.872	90.81
263.105	89.81
263.337	92.81
263.57	88.81
263.802	76.81
264.035	78.81
264.267	60.81
264.499	84.81
264.732	81.81
264.964	100.81
265.197	99.81
265.429	74.81
265.661	76.81
265.894	97.81
266.126	96.81
266.358	73.81
266.591	90.81
266.823	77.81
267.055	83.81
267.287	87.81
267.52	78.81
267.752	88.81
267.984	76.81
268.216	99.81
268.448	84.81
268.681	101.81
268.913	73.81
269.145	82.81
269.377	74.81
269.609	74.81
269.841	81.81
270.073	84.81
270.306	77.81
270.538	99.81
270.77	93.81
271.002	75.81
271.234	96.81
271.466	88.81
271.698	90.81
271.93	76.81
272.162	88.81
272.394	94.81
272.626	77.81
272.858	97.81
273.09	89.81
273.322	99.81
273.553	84.81
273.785	87.81
274.017	88.81
274.249	100.81
274.481	90.81
274.713	101.81
274.945	79.81
275.176	81.81
275.408	89.81
275.64	103.81
275.872	89.81
276.104	88.81
276.335	93.81
276.567	102.81
276.799	86.81
277.031	96.81
277.262	87.81
277.494	83.81
277.726	82.81
277.957	73.81
278.189	75.81
278.421	75.81
278.652	90.81
278.884	92.81
279.115	81.81
279.347	89.81
279.579	96.81
279.81	97.81
280.042	94.81
280.273	82.81
280.505	93.81
280.736	68.81
280.968	96.81
281.199	79.81
281.431	92.81
281.662	92.81
281.894	91.81
282.125	100.81
282.356	101.81
282.588	123.81
282.819	100.81
283.051	82.81
283.282	93.81
283.513	98.81
283.745	86.81
283.976	78.81
284.207	89.81
284.439	97.81
284.67	89.81
284.901	82.81
285.132	99.81
285.364	92.81
285.595	100.81
285.826	94.81
286.057	83.81
286.288	80.81
286.52	89.81
286.751	82.81
286.982	82.81
287.213	95.81
287.444	82.81
287.675	101.81
287.906	81.81
288.138	91.81
288.369	110.81
288.6	80.81
288.831	87.81
289.062	112.81
289.293	90.81
289.524	88.81
289.755	90.81
289.986	77.81
290.217	72.81
290.448	88.81
290.679	85.81
290.91	94.81
291.141	84.81
291.371	84.81
291.602	83.81
291.833	92.81
292.064	90.81
292.295	84.81
292.526	93.81
292.757	84.81
292.987	84.81
293.218	70.81
293.449	76.81
293.68	78.81
293.91	86.81
294.141	87.81
294.372	85.81
294.603	97.81
294.833	76.81
295.064	92.81
295.295	88.81
295.525	86.81
295.756	106.81
295.987	120.81
296.217	120.81
296.448	102.81
296.679	92.81
296.909	105.81
297.14	96.81
297.37	102.81
297.601	90.81
297.831	81.81
298.062	93.81
298.292	91.81
298.523	77.81
298.753	86.81
298.984	100.81
299.214	85.81
299.445	84.81
299.675	108.81
299.905	88.81
300.136	82.81
300.366	93.81
300.597	69.81
300.827	88.81
301.057	94.81
301.288	102.81
301.518	98.81
301.748	88.81
301.979	105.81
302.209	83.81
302.439	98.81
302.669	78.81
302.9	89.81
303.13	91.81
303.36	97.81
303.59	101.81
303.82	112.81
304.051	92.81
304.281	86.81
304.511	97.81
304.741	91.81
304.971	97.81
305.201	92.81
305.431	90.81
305.661	95.81
305.891	91.81
306.121	105.81
306.352	105.81
306.582	108.81
306.812	86.81
307.042	75.81
307.272	92.81
307.502	87.81
307.731	76.81
307.961	95.81
308.191	98.81
308.421	100.81
308.651	77.81
308.881	93.81
309.111	93.81
309.341	84.81
309.571	106.81
309.8	88.81
310.03	88.81
310.26	97.81
310.49	105.81
310.72	81.81
310.949	90.81
311.179	94.81
311.409	85.81
311.639	98.81
311.868	104.81
312.098	101.81
312.328	96.81
312.557	106.81
312.787	106.81
313.017	97.81
313.246	99.81
313.476	91.81
313.706	100.81
313.935	105.81
314.165	100.81
314.394	90.81
314.624	84.81
314.853	97.81
315.083	90.81
315.312	92.81
315.542	89.81
315.771	85.81
316.001	98.81
316.23	96.81
316.46	82.81
316.689	90.81
316.919	92.81
317.148	93.81
317.377	84.81
317.607	101.81
317.836	84.81
318.065	105.81
318.295	102.81
318.524	94.81
318.753	97.81
318.983	89.81
319.212	98.81
319.441	104.81
319.67	120.81
319.9	97.81
320.129	95.81
320.358	110.81
320.587	92.81
320.816	97.81
321.046	107.81
321.275	102.81
321.504	100.81
321.733	91.81
321.962	83.81
322.191	102.81
322.42	105.81
322.649	93.81
322.878	103.81
323.108	114.81
323.337	118.81
323.566	120.81
323.795	156.81
324.024	197.81
324.253	347.81
324.482	756.81
324.71	1485.81
324.939	1973.81
325.168	724.81
325.397	224.81
325.626	142.81
325.855	117.81
326.084	123.81
326.313	128.81
326.542	139.81
326.77	204.81
326.999	420.81
327.228	843.81
327.457	1560.81
327.686	1206.81
327.914	336.81
328.143	180.81
328.372	145.81
328.6	126.81
328.829	108.81
329.058	114.81
329.287	134.81
329.515	104.81
329.744	115.81
329.972	96.81
330.201	114.81
330.43	136.81
330.658	107.81
330.887	125.81
331.115	100.81
331.344	91.81
331.572	93.81
331.801	101.81
332.03	122.81
332.258	100.81
332.486	89.81
332.715	87.81
332.943	88.81
333.172	112.81
333.4	108.81
333.629	96.81
333.857	117.81
334.085	109.81
334.314	107.81
334.542	146.81
334.771	137.81
334.999	118.81
335.227	88.81
335.455	94.81
335.684	104.81
335.912	104.81
336.14	87.81
336.369	93.81
336.597	90.81
336.825	85.81
337.053	97.81
337.281	83.81
337.51	93.81
337.738	106.81
337.966	92.81
338.194	84.81
338.422	101.81
338.65	96.81
338.878	94.81
339.106	97.81
339.334	113.81
339.562	99.81
339.79	102.81
340.018	101.81
340.246	95.81
340.474	91.81
340.702	107.81
340.93	90.81
341.158	92.81
341.386	87.81
341.614	106.81
341.842	98.81
342.07	90.81
342.298	92.81
342.526	99.81
342.754	89.81
342.981	96.81
343.209	80.81
343.437	88.81
343.665	87.81
343.893	104.81
344.12	101.81
344.348	93.81
344.576	99.81
344.804	93.81
345.031	87.81
345.259	63.81
345.487	87.81
345.714	90.81
345.942	96.81
346.17	91.81
346.397	107.81
346.625	93.81
346.853	86.81
347.08	96.81
347.308	104.81
347.535	99.81
347.763	108.81
347.99	86.81
348.218	99.81
348.445	91.81
348.673	102.81
348.9	100.81
349.128	86.81
349.355	101.81
349.583	100.81
349.81	97.81
350.037	86.81
350.265	108.81
350.492	101.81
350.72	93.81
350.947	107.81
351.174	103.81
351.402	117.81
351.629	95.81
351.856	96.81
352.083	106.81
352.311	110.81
352.538	108.81
352.765	91.81
352.992	104.81
353.22	107.81
353.447	84.81
353.674	94.81
353.901	98.81
354.128	89.81
354.355	110.81
354.583	98.81
354.81	104.81
355.037	108.81
355.264	94.81
355.491	99.81
355.718	91.81
355.945	99.81
356.172	96.81
356.399	89.81
356.626	101.81
356.853	87.81
357.08	99.81
357.307	100.81
357.534	113.81
357.761	98.81
357.988	94.81
358.215	109.81
358.441	101.81
358.668	95.81
358.895	91.81
359.122	92.81
359.349	90.81
359.576	100.81
359.802	104.81
360.029	102.81
360.256	95.81
360.483	97.81
360.709	100.81
360.936	80.81
361.163	110.81
361.39	114.81
361.616	94.81
361.843	92.81
362.07	89.81
362.296	92.81
362.523	96.81
362.749	103.81
362.976	88.81
363.203	79.81
363.429	84.81
363.656	94.81
363.882	85.81
364.109	104.81
364.335	98.81
364.562	86.81
364.788	89.81
365.015	70.81
365.241	105.81
365.468	92.81
365.694	108.81
365.92	99.81
366.147	90.81
366.373	99.81
366.599	96.81
366.826	93.81
367.052	84.81
367.278	89.81
367.505	85.81
367.731	105.81
367.957	96.81
368.184	93.81
368.41	101.81
368.636	100.81
368.862	104.81
369.089	99.81
369.315	89.81
369.541	89.81
369.767	83.81
369.993	97.81
370.219	100.81
370.445	80.81
370.672	85.81
370.898	92.81
371.124	100.81
371.35	93.81
371.576	91.81
371.802	87.81
372.028	98.81
372.254	75.81
372.48	87.81
372.706	96.81
372.932	85.81
373.158	96.81
373.384	109.81
373.61	92.81
373.835	93.81
374.061	103.81
374.287	90.81
374.513	87.81
374.739	86.81
374.965	94.81
375.191	88.81
375.416	84.81
375.642	89.81
375.868	91.81
376.094	92.81
376.319	91.81
376.545	100.81
376.771	96.81
376.997	69.81
377.222	93.81
377.448	97.81
377.674	98.81
377.899	104.81
378.125	96.81
378.35	89.81
378.576	78.81
378.802	88.81
379.027	99.81
379.253	101.81
379.478	92.81
379.704	97.81
379.929	98.81
380.155	103.81
380.38	91.81
380.606	95.81
380.831	88.81
381.057	101.81
381.282	101.81
381.507	93.81
381.733	97.81
381.958	92.81
382.184	95.81
382.409	99.81
382.634	97.81
382.86	107.81
383.085	107.81
383.31	108.81
383.535	89.81
383.761	110.81
383.986	101.81
384.211	107.81
384.436	95.81
384.662	99.81
384.887	85.81
385.112	114.81
385.337	101.81
385.562	106.81
385.787	113.81
386.013	100.81
386.238	99.81
386.463	120.81
386.688	109.81
386.913	112.81
387.138	98.81
387.363	109.81
387.588	117.81
387.813	100.81
388.038	112.81
388.263	117.81
388.488	109.81
388.713	94.81
388.938	99.81
389.163	92.81
389.387	86.81
389.612	96.81
389.837	100.81
390.062	97.81
390.287	97.81
390.512	113.81
390.736	93.81
390.961	98.81
391.186	106.81
391.411	96.81
391.636	95.81
391.86	73.81
392.085	85.81
392.31	87.81
392.534	93.81
392.759	82.81
392.984	89.81
393.208	103.81
393.433	102.81
393.658	88.81
393.882	100.81
394.107	98.81
394.331	88.81
394.556	84.81
394.78	88.81
395.005	85.81
395.229	92.81
395.454	99.81
395.678	84.81
395.903	87.81
396.127	101.81
396.352	95.81
396.576	93.81
396.801	93.81
397.025	90.81
397.249	86.81
397.474	90.81
397.698	90.81
397.922	98.81
398.147	99.81
398.371	85.81
398.595	87.81
398.82	85.81
399.044	79.81
399.268	82.81
399.492	97.81
399.717	93.81
399.941	86.81
400.165	89.81
400.389	93.81
400.613	89.81
400.837	81.81
401.062	92.81
401.286	88.81
401.51	78.81
401.734	96.81
401.958	88.81
402.182	119.81
402.406	146.81
402.63	99.81
402.854	92.81
403.078	86.81
403.302	88.81
403.526	110.81
403.75	93.81
403.974	78.81
404.198	79.81
404.422	81.81
404.645	79.81
404.869	76.81
405.093	101.81
405.317	108.81
405.541	96.81
405.765	81.81
405.988	121.81
406.212	149.81
406.436	201.81
406.66	128.81
406.883	94.81
407.107	107.81
407.331	85.81
407.555	96.81
407.778	96.81
408.002	86.81
408.226	85.81
408.449	89.81
408.673	85.81
408.896	85.81
409.12	98.81
409.344	80.81
409.567	80.81
409.791	98.81
410.014	105.81
410.238	94.81
410.461	104.81
410.685	82.81
410.908	90.81
411.132	108.81
411.355	96.81
411.578	89.81
411.802	87.81
412.025	89.81
412.249	68.81
412.472	90.81
412.695	82.81
412.919	91.81
413.142	104.81
413.365	99.81
413.589	97.81
413.812	108.81
414.035	108.81
414.258	91.81
414.482	82.81
414.705	89.81
414.928	91.81
415.151	104.81
415.374	94.81
415.597	97.81
415.821	89.81
416.044	88.81
416.267	99.81
416.49	88.81
416.713	89.81
416.936	87.81
417.159	84.81
417.382	82.81
417.605	78.81
417.828	96.81
418.051	75.81
418.274	81.81
418.497	91.81
418.72	82.81
418.943	89.81
419.166	92.81
419.389	92.81
419.611	101.81
419.834	94.81
420.057	80.81
420.28	98.81
420.503	75.81
420.726	102.81
420.948	92.81
421.171	94.81
421.394	97.81
421.617	93.81
421.839	100.81
422.062	90.81
422.285	88.81
422.507	89.81
422.73	99.81
422.953	91.81
423.175	90.81
423.398	93.81
423.621	89.81
423.843	97.81
424.066	86.81
424.288	91.81
424.511	88.81
424.733	106.81
424.956	98.81
425.178	94.81
425.401	89.81
425.623	93.81
425.846	102.81
426.068	93.81
426.291	83.81
426.513	75.81
426.735	110.81
426.958	86.81
427.18	112.81
427.402	113.81
427.625	142.81
427.847	107.81
428.069	101.81
428.292	102.81
428.514	83.81
428.736	90.81
428.958	88.81
429.181	83.81
429.403	81.81
429.625	84.81
429.847	86.81
430.069	98.81
430.292	110.81
430.514	84.81
430.736	87.81
430.958	89.81
431.18	82.81
431.402	90.81
431.624	98.81
431.846	90.81
432.068	104.81
432.29	71.81
432.512	87.81
432.734	90.81
432.956	85.81
433.178	101.81
433.4	96.81
433.622	94.81
433.844	97.81
434.066	96.81
434.287	91.81
434.509	91.81
434.731	90.81
434.953	109.81
435.175	96.81
435.397	97.81
435.618	98.81
435.84	91.81
436.062	104.81
436.284	93.81
436.505	98.81
436.727	109.81
436.949	91.81
437.17	87.81
437.392	99.81
437.614	87.81
437.835	94.81
438.057	104.81
438.278	90.81
438.5	101.81
438.721	125.81
438.943	101.81
439.165	76.81
439.386	82.81
439.608	87.81
439.829	101.81
440.05	120.81
440.272	118.81
440.493	91.81
440.715	74.81
440.936	95.81
441.158	76.81
441.379	98.81
441.6	92.81
441.822	84.81
442.043	78.81
442.264	96.81
442.486	95.81
442.707	99.81
442.928	86.81
443.149	119.81
443.371	116.81
443.592	123.81
443.813	115.81
444.034	98.81
444.255	99.81
444.476	72.81
444.698	94.81
444.919	74.81
445.14	139.81
445.361	110.81
445.582	101.81
445.803	122.81
446.024	121.81
446.245	113.81
446.466	102.81
446.687	95.81
446.908	94.81
447.129	72.81
447.35	77.81
447.571	97.81
447.792	97.81
448.013	105.81
448.234	111.81
448.455	112.81
448.675	104.81
448.896	102.81
449.117	97.81
449.338	106.81
449.559	108.81
449.779	125.81
450	89.81
450.221	90.81
450.442	100.81
450.662	100.81
450.883	86.81
451.104	105.81
451.324	106.81
451.545	97.81
451.766	98.81
451.986	81.81
452.207	80.81
452.428	99.81
452.648	91.81
452.869	100.81
453.089	108.81
453.31	97.81
453.53	94.81
453.751	77.81
453.971	101.81
454.192	94.81
454.412	88.81
454.633	77.81
454.853	88.81
455.073	84.81
455.294	81.81
455.514	90.81
455.734	97.81
455.955	87.81
456.175	83.81
456.395	91.81
456.616	90.81
456.836	94.81
457.056	87.81
457.276	79.81
457.497	78.81
457.717	78.81
457.937	96.81
458.157	81.81
458.377	88.81
458.598	86.81
458.818	121.81
459.038	136.81
459.258	107.81
459.478	86.81
459.698	86.81
459.918	90.81
460.138	93.81
460.358	76.81
460.578	92.81
460.798	84.81
461.018	98.81
461.238	87.81
461.458	83.81
461.678	90.81
461.898	81.81
462.118	77.81
462.338	82.81
462.558	97.81
462.777	93.81
462.997	75.81
463.217	84.81
463.437	90.81
463.657	96.81
463.876	88.81
464.096	79.81
464.316	94.81
464.536	94.81
464.755	83.81
464.975	93.81
465.195	148.81
465.414	136.81
465.634	90.81
465.854	91.81
466.073	87.81
466.293	89.81
466.512	73.81
466.732	92.81
466.951	92.81
467.171	102.81
467.391	90.81
467.61	99.81
467.829	103.81
468.049	91.81
468.268	94.81
468.488	85.81
468.707	73.81
468.927	84.81
469.146	82.81
469.365	77.81
469.585	91.81
469.804	69.81
470.023	90.81
470.243	90.81
470.462	98.81
470.681	96.81
470.901	94.81
471.12	80.81
471.339	78.81
471.558	77.81
471.777	81.81
471.997	90.81
472.216	107.81
472.435	131.81
472.654	102.81
472.873	97.81
473.092	87.81
473.311	82.81
473.53	84.81
473.749	91.81
473.968	106.81
474.187	99.81
474.406	84.81
474.625	81.81
474.844	82.81
475.063	77.81
475.282	81.81
475.501	75.81
475.72	96.81
475.939	73.81
476.158	82.81
476.377	79.81
476.596	80.81
476.814	91.81
477.033	89.81
477.252	85.81
477.471	99.81
477.69	105.81
477.908	84.81
478.127	101.81
478.346	74.81
478.564	92.81
478.783	99.81
479.002	97.81
479.22	80.81
479.439	90.81
479.658	96.81
479.876	97.81
480.095	93.81
480.313	83.81
480.532	88.81
480.751	91.81
480.969	116.81
481.188	199.81
481.406	136.81
481.624	71.81
481.843	84.81
482.061	85.81
482.28	87.81
482.498	92.81
482.717	83.81
482.935	94.81
483.153	93.81
483.372	96.81
483.59	85.81
483.808	88.81
484.027	93.81
484.245	96.81
484.463	106.81
484.681	101.81
484.9	90.81
485.118	82.81
485.336	101.81
485.554	98.81
485.772	95.81
485.99	107.81
486.209	104.81
486.427	89.81
486.645	114.81
486.863	109.81
487.081	90.81
487.299	97.81
487.517	82.81
487.735	95.81
487.953	98.81
488.171	92.81
488.389	90.81
488.607	105.81
488.825	96.81
489.043	93.81
489.261	98.81
489.479	94.81
489.696	84.81
489.914	94.81
490.132	90.81
490.35	98.81
490.568	88.81
490.786	89.81
491.003	96.81
491.221	92.81
491.439	76.81
491.657	97.81
491.874	75.81
492.092	78.81
492.31	78.81
492.527	90.81
492.745	87.81
492.963	82.81
493.18	106.81
493.398	105.81
493.615	97.81
493.833	94.81
494.05	98.81
494.268	90.81
494.485	85.81
494.703	91.81
494.92	87.81
495.138	101.81
495.355	89.81
495.573	89.81
495.79	99.81
496.008	96.81
496.225	73.81
496.442	98.81
496.66	108.81
496.877	87.81
497.094	80.81
497.312	82.81
497.529	87.81
497.746	82.81
497.963	86.81
498.181	92.81
498.398	92.81
498.615	113.81
498.832	97.81
499.049	89.81
499.267	103.81
499.484	76.81
499.701	94.81
499.918	104.81
500.135	78.81
500.352	96.81
500.569	97.81
500.786	93.81
501.003	93.81
501.22	99.81
501.437	96.81
501.654	80.81
501.871	101.81
502.088	85.81
502.305	96.81
502.522	77.81
502.739	82.81
502.956	91.81
503.172	90.81
503.389	90.81
503.606	108.81
503.823	100.81
504.04	98.81
504.256	96.81
504.473	89.81
504.69	91.81
504.907	108.81
505.123	107.81
505.34	87.81
505.557	77.81
505.773	94.81
505.99	86.81
506.207	93.81
506.423	102.81
506.64	82.81
506.856	84.81
507.073	87.81
507.289	79.81
507.506	109.81
507.722	113.81
507.939	88.81
508.155	92.81
508.372	91.81
508.588	85.81
508.805	75.81
509.021	105.81
509.238	94.81
509.454	72.81
509.67	89.81
509.887	100.81
510.103	131.81
510.319	179.81
510.536	623.81
510.752	1900.81
510.968	516.81
511.184	142.81
511.401	116.81
511.617	93.81
511.833	97.81
512.049	102.81
512.265	80.81
512.481	89.81
512.698	97.81
512.914	99.81
513.13	74.81
513.346	69.81
513.562	87.81
513.778	90.81
513.994	89.81
514.21	92.81
514.426	113.81
514.642	117.81
514.858	117.81
515.074	123.81
515.29	350.81
515.506	1111.81
515.721	422.81
