Data from Circ_1985_H10_HRD10591_00083.txt Node
Date: Wed Jan 03 12:19:39 EST 2024
User: Yrep
Spectrometer: HR+D1059
Trigger mode: 1
Integration Time (sec): 1.000000E-1
Scans to average: 1
Electric dark correction enabled: true
Nonlinearity correction enabled: false
Boxcar width: 0
XAxis mode: Wavelengths
Number of Pixels in Spectrum: 2048
>>>>>Begin Spectral Data<<<<<
223.165	-9.5
223.4	-9.5
223.635	-9.5
223.869	-23.5
224.104	-11.5
224.338	-14.5
224.573	-17.5
224.808	-17.5
225.042	-10.5
225.277	-14.5
225.511	-3.5
225.746	-12.5
225.98	6.5
226.215	17.5
226.449	19.5
226.683	30.5
226.918	26.5
227.152	34.5
227.387	34.5
227.621	41.5
227.856	54.5
228.09	49.5
228.324	46.5
228.559	48.5
228.793	50.5
229.027	77.5
229.262	62.5
229.496	60.5
229.73	78.5
229.964	58.5
230.199	90.5
230.433	76.5
230.667	87.5
230.901	92.5
231.136	83.5
231.37	69.5
231.604	88.5
231.838	56.5
232.072	91.5
232.306	83.5
232.541	85.5
232.775	68.5
233.009	79.5
233.243	82.5
233.477	72.5
233.711	73.5
233.945	81.5
234.179	68.5
234.413	84.5
234.647	86.5
234.881	69.5
235.115	77.5
235.349	78.5
235.583	70.5
235.817	88.5
236.051	71.5
236.285	77.5
236.519	71.5
236.753	69.5
236.987	67.5
237.221	68.5
237.455	86.5
237.689	78.5
237.922	79.5
238.156	66.5
238.39	73.5
238.624	71.5
238.858	68.5
239.091	77.5
239.325	79.5
239.559	59.5
239.793	80.5
240.027	70.5
240.26	79.5
240.494	78.5
240.728	78.5
240.961	81.5
241.195	76.5
241.429	72.5
241.662	71.5
241.896	87.5
242.13	67.5
242.363	83.5
242.597	64.5
242.83	80.5
243.064	72.5
243.298	83.5
243.531	59.5
243.765	59.5
243.998	75.5
244.232	76.5
244.465	76.5
244.699	81.5
244.932	75.5
245.166	85.5
245.399	80.5
245.633	65.5
245.866	81.5
246.099	80.5
246.333	81.5
246.566	76.5
246.8	64.5
247.033	62.5
247.266	67.5
247.5	70.5
247.733	72.5
247.966	76.5
248.2	83.5
248.433	74.5
248.666	75.5
248.899	65.5
249.133	85.5
249.366	94.5
249.599	91.5
249.832	78.5
250.066	86.5
250.299	71.5
250.532	79.5
250.765	71.5
250.998	64.5
251.231	95.5
251.465	81.5
251.698	62.5
251.931	69.5
252.164	79.5
252.397	73.5
252.63	80.5
252.863	73.5
253.096	95.5
253.329	85.5
253.562	77.5
253.795	75.5
254.028	84.5
254.261	77.5
254.494	76.5
254.727	88.5
254.96	81.5
255.193	71.5
255.426	75.5
255.659	82.5
255.892	91.5
256.124	81.5
256.357	78.5
256.59	69.5
256.823	79.5
257.056	84.5
257.289	94.5
257.521	75.5
257.754	86.5
257.987	75.5
258.22	74.5
258.452	77.5
258.685	74.5
258.918	88.5
259.151	85.5
259.383	99.5
259.616	71.5
259.849	83.5
260.081	83.5
260.314	72.5
260.547	78.5
260.779	79.5
261.012	84.5
261.244	81.5
261.477	84.5
261.71	94.5
261.942	99.5
262.175	112.5
262.407	79.5
262.64	80.5
262.872	90.5
263.105	84.5
263.337	83.5
263.57	86.5
263.802	89.5
264.035	88.5
264.267	79.5
264.499	85.5
264.732	78.5
264.964	82.5
265.197	97.5
265.429	81.5
265.661	89.5
265.894	84.5
266.126	80.5
266.358	84.5
266.591	92.5
266.823	86.5
267.055	76.5
267.287	81.5
267.52	78.5
267.752	81.5
267.984	83.5
268.216	75.5
268.448	78.5
268.681	72.5
268.913	83.5
269.145	77.5
269.377	82.5
269.609	83.5
269.841	86.5
270.073	83.5
270.306	84.5
270.538	76.5
270.77	90.5
271.002	75.5
271.234	75.5
271.466	89.5
271.698	83.5
271.93	77.5
272.162	78.5
272.394	78.5
272.626	70.5
272.858	75.5
273.09	78.5
273.322	93.5
273.553	75.5
273.785	69.5
274.017	79.5
274.249	92.5
274.481	84.5
274.713	87.5
274.945	77.5
275.176	79.5
275.408	83.5
275.64	87.5
275.872	89.5
276.104	86.5
276.335	84.5
276.567	89.5
276.799	111.5
277.031	105.5
277.262	86.5
277.494	91.5
277.726	83.5
277.957	72.5
278.189	78.5
278.421	72.5
278.652	91.5
278.884	86.5
279.115	80.5
279.347	91.5
279.579	80.5
279.81	77.5
280.042	82.5
280.273	85.5
280.505	84.5
280.736	74.5
280.968	88.5
281.199	71.5
281.431	72.5
281.662	85.5
281.894	79.5
282.125	85.5
282.356	105.5
282.588	114.5
282.819	109.5
283.051	91.5
283.282	81.5
283.513	94.5
283.745	92.5
283.976	76.5
284.207	88.5
284.439	89.5
284.67	86.5
284.901	71.5
285.132	75.5
285.364	97.5
285.595	98.5
285.826	101.5
286.057	89.5
286.288	87.5
286.52	83.5
286.751	83.5
286.982	93.5
287.213	85.5
287.444	93.5
287.675	93.5
287.906	84.5
288.138	92.5
288.369	93.5
288.6	93.5
288.831	84.5
289.062	78.5
289.293	103.5
289.524	101.5
289.755	94.5
289.986	76.5
290.217	100.5
290.448	81.5
290.679	96.5
290.91	79.5
291.141	90.5
291.371	90.5
291.602	92.5
291.833	71.5
292.064	85.5
292.295	72.5
292.526	86.5
292.757	74.5
292.987	86.5
293.218	84.5
293.449	83.5
293.68	81.5
293.91	84.5
294.141	86.5
294.372	85.5
294.603	95.5
294.833	81.5
295.064	91.5
295.295	93.5
295.525	84.5
295.756	103.5
295.987	105.5
296.217	131.5
296.448	114.5
296.679	83.5
296.909	78.5
297.14	66.5
297.37	77.5
297.601	93.5
297.831	82.5
298.062	79.5
298.292	86.5
298.523	86.5
298.753	92.5
298.984	75.5
299.214	82.5
299.445	89.5
299.675	91.5
299.905	99.5
300.136	79.5
300.366	84.5
300.597	70.5
300.827	75.5
301.057	108.5
301.288	87.5
301.518	87.5
301.748	80.5
301.979	93.5
302.209	91.5
302.439	100.5
302.669	106.5
302.9	85.5
303.13	86.5
303.36	92.5
303.59	94.5
303.82	106.5
304.051	82.5
304.281	89.5
304.511	72.5
304.741	86.5
304.971	83.5
305.201	99.5
305.431	80.5
305.661	73.5
305.891	92.5
306.121	74.5
306.352	89.5
306.582	99.5
306.812	88.5
307.042	82.5
307.272	88.5
307.502	88.5
307.731	94.5
307.961	105.5
308.191	92.5
308.421	79.5
308.651	84.5
308.881	100.5
309.111	96.5
309.341	98.5
309.571	97.5
309.8	87.5
310.03	84.5
310.26	104.5
310.49	92.5
310.72	78.5
310.949	90.5
311.179	108.5
311.409	86.5
311.639	73.5
311.868	94.5
312.098	87.5
312.328	85.5
312.557	100.5
312.787	91.5
313.017	101.5
313.246	102.5
313.476	81.5
313.706	89.5
313.935	93.5
314.165	83.5
314.394	80.5
314.624	93.5
314.853	90.5
315.083	83.5
315.312	88.5
315.542	100.5
315.771	87.5
316.001	104.5
316.23	93.5
316.46	60.5
316.689	76.5
316.919	84.5
317.148	77.5
317.377	88.5
317.607	96.5
317.836	89.5
318.065	88.5
318.295	80.5
318.524	82.5
318.753	88.5
318.983	83.5
319.212	88.5
319.441	102.5
319.67	100.5
319.9	74.5
320.129	85.5
320.358	84.5
320.587	96.5
320.816	85.5
321.046	86.5
321.275	101.5
321.504	100.5
321.733	104.5
321.962	84.5
322.191	101.5
322.42	89.5
322.649	95.5
322.878	114.5
323.108	107.5
323.337	112.5
323.566	105.5
323.795	129.5
324.024	195.5
324.253	357.5
324.482	760.5
324.71	1530.5
324.939	2052.5
325.168	747.5
325.397	215.5
325.626	144.5
325.855	122.5
326.084	122.5
326.313	127.5
326.542	148.5
326.77	187.5
326.999	426.5
327.228	872.5
327.457	1582.5
327.686	1256.5
327.914	350.5
328.143	187.5
328.372	154.5
328.6	117.5
328.829	118.5
329.058	114.5
329.287	115.5
329.515	99.5
329.744	85.5
329.972	99.5
330.201	128.5
330.43	149.5
330.658	117.5
330.887	126.5
331.115	99.5
331.344	92.5
331.572	96.5
331.801	111.5
332.03	101.5
332.258	87.5
332.486	79.5
332.715	87.5
332.943	87.5
333.172	95.5
333.4	100.5
333.629	96.5
333.857	102.5
334.085	105.5
334.314	143.5
334.542	159.5
334.771	159.5
334.999	99.5
335.227	92.5
335.455	87.5
335.684	95.5
335.912	78.5
336.14	90.5
336.369	89.5
336.597	99.5
336.825	87.5
337.053	87.5
337.281	87.5
337.51	77.5
337.738	82.5
337.966	77.5
338.194	100.5
338.422	75.5
338.65	84.5
338.878	87.5
339.106	92.5
339.334	96.5
339.562	104.5
339.79	84.5
340.018	82.5
340.246	100.5
340.474	73.5
340.702	83.5
340.93	86.5
341.158	79.5
341.386	76.5
341.614	83.5
341.842	87.5
342.07	93.5
342.298	96.5
342.526	86.5
342.754	89.5
342.981	80.5
343.209	95.5
343.437	100.5
343.665	87.5
343.893	97.5
344.12	85.5
344.348	85.5
344.576	76.5
344.804	73.5
345.031	87.5
345.259	96.5
345.487	83.5
345.714	91.5
345.942	85.5
346.17	85.5
346.397	85.5
346.625	105.5
346.853	81.5
347.08	84.5
347.308	92.5
347.535	93.5
347.763	82.5
347.99	96.5
348.218	98.5
348.445	104.5
348.673	100.5
348.9	80.5
349.128	89.5
349.355	81.5
349.583	85.5
349.81	91.5
350.037	101.5
350.265	80.5
350.492	97.5
350.72	100.5
350.947	93.5
351.174	100.5
351.402	93.5
351.629	100.5
351.856	87.5
352.083	104.5
352.311	96.5
352.538	87.5
352.765	98.5
352.992	117.5
353.22	93.5
353.447	107.5
353.674	104.5
353.901	98.5
354.128	87.5
354.355	78.5
354.583	109.5
354.81	83.5
355.037	83.5
355.264	88.5
355.491	92.5
355.718	90.5
355.945	89.5
356.172	101.5
356.399	109.5
356.626	88.5
356.853	87.5
357.08	68.5
357.307	82.5
357.534	77.5
357.761	87.5
357.988	103.5
358.215	101.5
358.441	97.5
358.668	86.5
358.895	76.5
359.122	99.5
359.349	95.5
359.576	92.5
359.802	89.5
360.029	108.5
360.256	93.5
360.483	95.5
360.709	76.5
360.936	90.5
361.163	88.5
361.39	83.5
361.616	98.5
361.843	78.5
362.07	94.5
362.296	73.5
362.523	93.5
362.749	87.5
362.976	94.5
363.203	82.5
363.429	91.5
363.656	97.5
363.882	94.5
364.109	95.5
364.335	97.5
364.562	95.5
364.788	92.5
365.015	87.5
365.241	97.5
365.468	101.5
365.694	89.5
365.92	87.5
366.147	83.5
366.373	102.5
366.599	106.5
366.826	82.5
367.052	78.5
367.278	75.5
367.505	83.5
367.731	92.5
367.957	81.5
368.184	80.5
368.41	93.5
368.636	93.5
368.862	104.5
369.089	101.5
369.315	84.5
369.541	88.5
369.767	84.5
369.993	92.5
370.219	82.5
370.445	85.5
370.672	78.5
370.898	88.5
371.124	95.5
371.35	80.5
371.576	88.5
371.802	90.5
372.028	91.5
372.254	85.5
372.48	70.5
372.706	92.5
372.932	76.5
373.158	92.5
373.384	85.5
373.61	95.5
373.835	90.5
374.061	73.5
374.287	87.5
374.513	66.5
374.739	80.5
374.965	74.5
375.191	94.5
375.416	79.5
375.642	92.5
375.868	83.5
376.094	93.5
376.319	83.5
376.545	85.5
376.771	95.5
376.997	83.5
377.222	78.5
377.448	77.5
377.674	80.5
377.899	95.5
378.125	109.5
378.35	76.5
378.576	86.5
378.802	68.5
379.027	88.5
379.253	96.5
379.478	65.5
379.704	78.5
379.929	97.5
380.155	85.5
380.38	83.5
380.606	88.5
380.831	96.5
381.057	85.5
381.282	87.5
381.507	88.5
381.733	93.5
381.958	86.5
382.184	98.5
382.409	90.5
382.634	95.5
382.86	97.5
383.085	90.5
383.31	92.5
383.535	105.5
383.761	91.5
383.986	92.5
384.211	89.5
384.436	77.5
384.662	76.5
384.887	109.5
385.112	100.5
385.337	95.5
385.562	88.5
385.787	77.5
386.013	99.5
386.238	103.5
386.463	106.5
386.688	102.5
386.913	95.5
387.138	88.5
387.363	94.5
387.588	99.5
387.813	108.5
388.038	101.5
388.263	97.5
388.488	101.5
388.713	87.5
388.938	97.5
389.163	102.5
389.387	80.5
389.612	105.5
389.837	96.5
390.062	87.5
390.287	87.5
390.512	82.5
390.736	97.5
390.961	83.5
391.186	94.5
391.411	92.5
391.636	98.5
391.86	82.5
392.085	77.5
392.31	78.5
392.534	100.5
392.759	80.5
392.984	79.5
393.208	92.5
393.433	95.5
393.658	103.5
393.882	81.5
394.107	82.5
394.331	75.5
394.556	75.5
394.78	89.5
395.005	87.5
395.229	87.5
395.454	84.5
395.678	79.5
395.903	88.5
396.127	87.5
396.352	82.5
396.576	77.5
396.801	79.5
397.025	97.5
397.249	89.5
397.474	88.5
397.698	88.5
397.922	81.5
398.147	82.5
398.371	64.5
398.595	70.5
398.82	79.5
399.044	88.5
399.268	77.5
399.492	89.5
399.717	93.5
399.941	77.5
400.165	80.5
400.389	83.5
400.613	91.5
400.837	88.5
401.062	85.5
401.286	88.5
401.51	84.5
401.734	86.5
401.958	87.5
402.182	113.5
402.406	142.5
402.63	103.5
402.854	76.5
403.078	73.5
403.302	85.5
403.526	88.5
403.75	75.5
403.974	79.5
404.198	79.5
404.422	92.5
404.645	79.5
404.869	87.5
405.093	83.5
405.317	92.5
405.541	83.5
405.765	96.5
405.988	120.5
406.212	147.5
406.436	181.5
406.66	131.5
406.883	86.5
407.107	85.5
407.331	83.5
407.555	94.5
407.778	102.5
408.002	86.5
408.226	92.5
408.449	84.5
408.673	102.5
408.896	87.5
409.12	100.5
409.344	82.5
409.567	77.5
409.791	87.5
410.014	86.5
410.238	82.5
410.461	80.5
410.685	88.5
410.908	105.5
411.132	97.5
411.355	88.5
411.578	86.5
411.802	102.5
412.025	79.5
412.249	87.5
412.472	77.5
412.695	113.5
412.919	94.5
413.142	88.5
413.365	95.5
413.589	89.5
413.812	96.5
414.035	88.5
414.258	97.5
414.482	84.5
414.705	79.5
414.928	80.5
415.151	92.5
415.374	76.5
415.597	87.5
415.821	79.5
416.044	71.5
416.267	76.5
416.49	74.5
416.713	80.5
416.936	86.5
417.159	70.5
417.382	75.5
417.605	85.5
417.828	85.5
418.051	89.5
418.274	84.5
418.497	83.5
418.72	66.5
418.943	79.5
419.166	71.5
419.389	79.5
419.611	92.5
419.834	87.5
420.057	87.5
420.28	86.5
420.503	84.5
420.726	75.5
420.948	89.5
421.171	93.5
421.394	93.5
421.617	86.5
421.839	83.5
422.062	77.5
422.285	85.5
422.507	84.5
422.73	95.5
422.953	91.5
423.175	96.5
423.398	82.5
423.621	103.5
423.843	84.5
424.066	82.5
424.288	83.5
424.511	85.5
424.733	81.5
424.956	96.5
425.178	85.5
425.401	90.5
425.623	103.5
425.846	88.5
426.068	102.5
426.291	92.5
426.513	71.5
426.735	85.5
426.958	95.5
427.18	106.5
427.402	133.5
427.625	143.5
427.847	123.5
428.069	125.5
428.292	84.5
428.514	76.5
428.736	87.5
428.958	72.5
429.181	90.5
429.403	86.5
429.625	88.5
429.847	80.5
430.069	89.5
430.292	86.5
430.514	72.5
430.736	73.5
430.958	77.5
431.18	72.5
431.402	89.5
431.624	81.5
431.846	92.5
432.068	85.5
432.29	86.5
432.512	90.5
432.734	80.5
432.956	83.5
433.178	100.5
433.4	94.5
433.622	83.5
433.844	83.5
434.066	89.5
434.287	65.5
434.509	80.5
434.731	94.5
434.953	73.5
435.175	99.5
435.397	83.5
435.618	79.5
435.84	103.5
436.062	105.5
436.284	102.5
436.505	113.5
436.727	98.5
436.949	103.5
437.17	79.5
437.392	87.5
437.614	95.5
437.835	93.5
438.057	110.5
438.278	112.5
438.5	105.5
438.721	118.5
438.943	93.5
439.165	85.5
439.386	79.5
439.608	72.5
439.829	85.5
440.05	115.5
440.272	120.5
440.493	104.5
440.715	67.5
440.936	83.5
441.158	77.5
441.379	72.5
441.6	76.5
441.822	83.5
442.043	97.5
442.264	101.5
442.486	98.5
442.707	84.5
442.928	100.5
443.149	102.5
443.371	111.5
443.592	86.5
443.813	107.5
444.034	100.5
444.255	87.5
444.476	83.5
444.698	83.5
444.919	82.5
445.14	139.5
445.361	116.5
445.582	103.5
445.803	99.5
446.024	113.5
446.245	105.5
446.466	91.5
446.687	83.5
446.908	89.5
447.129	92.5
447.35	87.5
447.571	100.5
447.792	102.5
448.013	99.5
448.234	114.5
448.455	95.5
448.675	105.5
448.896	105.5
449.117	93.5
449.338	97.5
449.559	108.5
449.779	129.5
450	92.5
450.221	83.5
450.442	95.5
450.662	80.5
450.883	90.5
451.104	112.5
451.324	91.5
451.545	87.5
451.766	69.5
451.986	82.5
452.207	80.5
452.428	79.5
452.648	105.5
452.869	101.5
453.089	95.5
453.31	104.5
453.53	86.5
453.751	80.5
453.971	82.5
454.192	86.5
454.412	87.5
454.633	76.5
454.853	85.5
455.073	70.5
455.294	84.5
455.514	104.5
455.734	91.5
455.955	75.5
456.175	76.5
456.395	83.5
456.616	82.5
456.836	79.5
457.056	70.5
457.276	90.5
457.497	78.5
457.717	83.5
457.937	82.5
458.157	85.5
458.377	77.5
458.598	94.5
458.818	124.5
459.038	127.5
459.258	87.5
459.478	86.5
459.698	103.5
459.918	97.5
460.138	86.5
460.358	76.5
460.578	93.5
460.798	91.5
461.018	84.5
461.238	77.5
461.458	88.5
461.678	72.5
461.898	86.5
462.118	89.5
462.338	84.5
462.558	92.5
462.777	92.5
462.997	87.5
463.217	99.5
463.437	79.5
463.657	76.5
463.876	94.5
464.096	84.5
464.316	79.5
464.536	91.5
464.755	88.5
464.975	101.5
465.195	140.5
465.414	140.5
465.634	83.5
465.854	97.5
466.073	83.5
466.293	87.5
466.512	81.5
466.732	80.5
466.951	78.5
467.171	102.5
467.391	82.5
467.61	89.5
467.829	94.5
468.049	102.5
468.268	132.5
468.488	94.5
468.707	95.5
468.927	77.5
469.146	82.5
469.365	81.5
469.585	91.5
469.804	97.5
470.023	105.5
470.243	100.5
470.462	97.5
470.681	100.5
470.901	92.5
471.12	91.5
471.339	91.5
471.558	96.5
471.777	81.5
471.997	78.5
472.216	137.5
472.435	209.5
472.654	104.5
472.873	88.5
473.092	89.5
473.311	84.5
473.53	80.5
473.749	71.5
473.968	81.5
474.187	97.5
474.406	86.5
474.625	89.5
474.844	83.5
475.063	79.5
475.282	91.5
475.501	87.5
475.72	98.5
475.939	97.5
476.158	88.5
476.377	88.5
476.596	88.5
476.814	94.5
477.033	79.5
477.252	81.5
477.471	87.5
477.69	66.5
477.908	84.5
478.127	76.5
478.346	88.5
478.564	86.5
478.783	95.5
479.002	94.5
479.22	81.5
479.439	97.5
479.658	93.5
479.876	90.5
480.095	87.5
480.313	91.5
480.532	81.5
480.751	97.5
480.969	137.5
481.188	288.5
481.406	198.5
481.624	91.5
481.843	89.5
482.061	79.5
482.28	89.5
482.498	92.5
482.717	81.5
482.935	77.5
483.153	86.5
483.372	92.5
483.59	88.5
483.808	81.5
484.027	86.5
484.245	81.5
484.463	81.5
484.681	85.5
484.9	116.5
485.118	93.5
485.336	95.5
485.554	89.5
485.772	97.5
485.99	100.5
486.209	109.5
486.427	94.5
486.645	113.5
486.863	97.5
487.081	103.5
487.299	92.5
487.517	94.5
487.735	91.5
487.953	95.5
488.171	92.5
488.389	92.5
488.607	99.5
488.825	94.5
489.043	75.5
489.261	76.5
489.479	86.5
489.696	81.5
489.914	82.5
490.132	92.5
490.35	87.5
490.568	84.5
490.786	84.5
491.003	91.5
491.221	78.5
491.439	94.5
491.657	87.5
491.874	91.5
492.092	88.5
492.31	83.5
492.527	85.5
492.745	98.5
492.963	87.5
493.18	88.5
493.398	84.5
493.615	76.5
493.833	109.5
494.05	90.5
494.268	83.5
494.485	88.5
494.703	95.5
494.92	84.5
495.138	86.5
495.355	95.5
495.573	87.5
495.79	89.5
496.008	102.5
496.225	89.5
496.442	80.5
496.66	98.5
496.877	86.5
497.094	96.5
497.312	84.5
497.529	85.5
497.746	85.5
497.963	78.5
498.181	87.5
498.398	91.5
498.615	111.5
498.832	103.5
499.049	83.5
499.267	86.5
499.484	89.5
499.701	92.5
499.918	86.5
500.135	87.5
500.352	94.5
500.569	87.5
500.786	92.5
501.003	87.5
501.22	91.5
501.437	82.5
501.654	88.5
501.871	100.5
502.088	78.5
502.305	82.5
502.522	94.5
502.739	77.5
502.956	106.5
503.172	87.5
503.389	80.5
503.606	104.5
503.823	93.5
504.04	93.5
504.256	88.5
504.473	86.5
504.69	85.5
504.907	91.5
505.123	87.5
505.34	83.5
505.557	81.5
505.773	84.5
505.99	89.5
506.207	85.5
506.423	79.5
506.64	96.5
506.856	91.5
507.073	94.5
507.289	97.5
507.506	93.5
507.722	100.5
507.939	94.5
508.155	88.5
508.372	90.5
508.588	93.5
508.805	115.5
509.021	108.5
509.238	85.5
509.454	90.5
509.67	95.5
509.887	99.5
510.103	114.5
510.319	170.5
510.536	632.5
510.752	1937.5
510.968	549.5
511.184	137.5
511.401	108.5
511.617	102.5
511.833	95.5
512.049	89.5
512.265	94.5
512.481	99.5
512.698	85.5
512.914	88.5
513.13	76.5
513.346	84.5
513.562	91.5
513.778	96.5
513.994	95.5
514.21	102.5
514.426	105.5
514.642	123.5
514.858	112.5
515.074	134.5
515.29	354.5
515.506	1186.5
515.721	439.5
515.937	143.5
516.153	102.5
516.369	100.5
516.585	80.5
516.801	89.5
517.016	87.5
517.232	78.5
517.448	86.5
517.664	95.5
517.879	81.5
518.095	95.5
518.311	73.5
518.527	85.5
518.742	87.5
518.958	82.5
519.173	93.5
519.389	84.5
519.605	98.5
519.82	97.5
520.036	89.5
520.251	121.5
520.467	115.5
520.682	104.5
520.898	95.5
521.113	92.5
521.329	133.5
521.544	169.5
521.76	463.5
521.975	1902.5
522.19	1128.5
522.406	261.5
522.621	113.5
522.836	86.5
523.052	101.5
523.267	89.5
523.482	83.5
523.698	95.5
523.913	126.5
524.128	106.5
524.343	91.5
524.559	93.5
524.774	80.5
524.989	83.5
525.204	88.5
525.419	89.5
525.634	100.5
525.849	86.5
526.064	82.5
526.28	70.5
526.495	76.5
526.71	84.5
526.925	69.5
527.14	87.5
527.355	76.5
527.57	91.5
527.785	100.5
527.999	71.5
528.214	73.5
528.429	103.5
528.644	110.5
528.859	94.5
529.074	86.5
529.289	106.5
529.503	158.5
529.718	91.5
529.933	87.5
530.148	81.5
530.363	83.5
530.577	83.5
530.792	75.5
531.007	84.5
531.221	72.5
531.436	90.5
531.651	84.5
531.865	86.5
532.08	87.5
532.295	100.5
532.509	87.5
532.724	86.5
532.938	84.5
533.153	93.5
533.367	89.5
533.582	91.5
533.796	78.5
534.011	83.5
534.225	93.5
534.44	86.5
534.654	97.5
534.868	93.5
535.083	100.5
535.297	80.5
535.511	95.5
535.726	100.5
535.94	109.5
536.154	93.5
536.369	94.5
536.583	93.5
