Data from Circ_1985_H10_HRD10591_00035.txt Node
Date: Wed Jan 03 12:19:29 EST 2024
User: Yrep
Spectrometer: HR+D1059
Trigger mode: 1
Integration Time (sec): 1.000000E-1
Scans to average: 1
Electric dark correction enabled: true
Nonlinearity correction enabled: false
Boxcar width: 0
XAxis mode: Wavelengths
Number of Pixels in Spectrum: 2048
>>>>>Begin Spectral Data<<<<<
223.165	-30.75
223.4	-30.75
223.635	-30.75
223.869	-15.75
224.104	-20.75
224.338	-21.75
224.573	-21.75
224.808	-2.75
225.042	-7.75
225.277	-1.75
225.511	5.25
225.746	2.25
225.98	-0.75
226.215	9.25
226.449	28.25
226.683	21.25
226.918	26.25
227.152	31.25
227.387	25.25
227.621	41.25
227.856	50.25
228.09	46.25
228.324	51.25
228.559	57.25
228.793	45.25
229.027	63.25
229.262	66.25
229.496	64.25
229.73	85.25
229.964	87.25
230.199	85.25
230.433	81.25
230.667	80.25
230.901	66.25
231.136	85.25
231.37	73.25
231.604	59.25
231.838	74.25
232.072	74.25
232.306	82.25
232.541	79.25
232.775	84.25
233.009	58.25
233.243	77.25
233.477	92.25
233.711	83.25
233.945	81.25
234.179	93.25
234.413	86.25
234.647	70.25
234.881	81.25
235.115	76.25
235.349	76.25
235.583	81.25
235.817	82.25
236.051	74.25
236.285	77.25
236.519	75.25
236.753	75.25
236.987	78.25
237.221	66.25
237.455	71.25
237.689	91.25
237.922	87.25
238.156	82.25
238.39	83.25
238.624	77.25
238.858	82.25
239.091	84.25
239.325	72.25
239.559	85.25
239.793	70.25
240.027	79.25
240.26	77.25
240.494	66.25
240.728	58.25
240.961	73.25
241.195	64.25
241.429	82.25
241.662	67.25
241.896	85.25
242.13	75.25
242.363	79.25
242.597	59.25
242.83	81.25
243.064	71.25
243.298	77.25
243.531	73.25
243.765	68.25
243.998	69.25
244.232	85.25
244.465	82.25
244.699	79.25
244.932	80.25
245.166	79.25
245.399	77.25
245.633	73.25
245.866	68.25
246.099	67.25
246.333	70.25
246.566	71.25
246.8	79.25
247.033	79.25
247.266	79.25
247.5	73.25
247.733	77.25
247.966	98.25
248.2	91.25
248.433	83.25
248.666	86.25
248.899	74.25
249.133	77.25
249.366	100.25
249.599	84.25
249.832	85.25
250.066	81.25
250.299	80.25
250.532	89.25
250.765	72.25
250.998	70.25
251.231	81.25
251.465	89.25
251.698	78.25
251.931	85.25
252.164	89.25
252.397	67.25
252.63	84.25
252.863	81.25
253.096	83.25
253.329	84.25
253.562	81.25
253.795	70.25
254.028	80.25
254.261	70.25
254.494	66.25
254.727	73.25
254.96	73.25
255.193	74.25
255.426	72.25
255.659	72.25
255.892	80.25
256.124	69.25
256.357	91.25
256.59	82.25
256.823	66.25
257.056	66.25
257.289	72.25
257.521	79.25
257.754	81.25
257.987	86.25
258.22	75.25
258.452	77.25
258.685	77.25
258.918	74.25
259.151	80.25
259.383	91.25
259.616	81.25
259.849	84.25
260.081	64.25
260.314	87.25
260.547	88.25
260.779	77.25
261.012	88.25
261.244	79.25
261.477	81.25
261.71	82.25
261.942	102.25
262.175	99.25
262.407	93.25
262.64	78.25
262.872	92.25
263.105	79.25
263.337	93.25
263.57	84.25
263.802	82.25
264.035	86.25
264.267	86.25
264.499	77.25
264.732	86.25
264.964	95.25
265.197	74.25
265.429	85.25
265.661	81.25
265.894	78.25
266.126	74.25
266.358	88.25
266.591	78.25
266.823	78.25
267.055	75.25
267.287	99.25
267.52	80.25
267.752	96.25
267.984	90.25
268.216	72.25
268.448	83.25
268.681	66.25
268.913	78.25
269.145	83.25
269.377	80.25
269.609	65.25
269.841	65.25
270.073	86.25
270.306	77.25
270.538	82.25
270.77	79.25
271.002	77.25
271.234	88.25
271.466	85.25
271.698	68.25
271.93	77.25
272.162	88.25
272.394	80.25
272.626	82.25
272.858	78.25
273.09	95.25
273.322	77.25
273.553	83.25
273.785	83.25
274.017	89.25
274.249	80.25
274.481	88.25
274.713	82.25
274.945	81.25
275.176	86.25
275.408	82.25
275.64	81.25
275.872	89.25
276.104	89.25
276.335	88.25
276.567	95.25
276.799	81.25
277.031	99.25
277.262	94.25
277.494	70.25
277.726	89.25
277.957	92.25
278.189	60.25
278.421	79.25
278.652	80.25
278.884	86.25
279.115	71.25
279.347	93.25
279.579	86.25
279.81	72.25
280.042	87.25
280.273	82.25
280.505	82.25
280.736	82.25
280.968	88.25
281.199	98.25
281.431	78.25
281.662	75.25
281.894	96.25
282.125	99.25
282.356	122.25
282.588	110.25
282.819	105.25
283.051	73.25
283.282	84.25
283.513	93.25
283.745	82.25
283.976	90.25
284.207	76.25
284.439	90.25
284.67	87.25
284.901	61.25
285.132	81.25
285.364	77.25
285.595	81.25
285.826	82.25
286.057	72.25
286.288	89.25
286.52	88.25
286.751	77.25
286.982	73.25
287.213	87.25
287.444	92.25
287.675	89.25
287.906	91.25
288.138	102.25
288.369	80.25
288.6	84.25
288.831	81.25
289.062	81.25
289.293	92.25
289.524	85.25
289.755	81.25
289.986	95.25
290.217	95.25
290.448	75.25
290.679	84.25
290.91	86.25
291.141	79.25
291.371	88.25
291.602	83.25
291.833	94.25
292.064	90.25
292.295	86.25
292.526	97.25
292.757	72.25
292.987	81.25
293.218	95.25
293.449	89.25
293.68	87.25
293.91	87.25
294.141	100.25
294.372	79.25
294.603	88.25
294.833	90.25
295.064	78.25
295.295	83.25
295.525	95.25
295.756	102.25
295.987	94.25
296.217	128.25
296.448	104.25
296.679	96.25
296.909	86.25
297.14	77.25
297.37	96.25
297.601	83.25
297.831	84.25
298.062	97.25
298.292	90.25
298.523	89.25
298.753	77.25
298.984	96.25
299.214	79.25
299.445	96.25
299.675	87.25
299.905	95.25
300.136	91.25
300.366	84.25
300.597	93.25
300.827	93.25
301.057	94.25
301.288	92.25
301.518	78.25
301.748	86.25
301.979	98.25
302.209	97.25
302.439	100.25
302.669	89.25
302.9	95.25
303.13	109.25
303.36	87.25
303.59	79.25
303.82	79.25
304.051	95.25
304.281	85.25
304.511	89.25
304.741	87.25
304.971	91.25
305.201	90.25
305.431	81.25
305.661	61.25
305.891	89.25
306.121	91.25
306.352	87.25
306.582	98.25
306.812	103.25
307.042	77.25
307.272	96.25
307.502	94.25
307.731	84.25
307.961	90.25
308.191	85.25
308.421	82.25
308.651	88.25
308.881	92.25
309.111	81.25
309.341	90.25
309.571	102.25
309.8	82.25
310.03	98.25
310.26	96.25
310.49	94.25
310.72	86.25
310.949	85.25
311.179	91.25
311.409	88.25
311.639	88.25
311.868	89.25
312.098	85.25
312.328	81.25
312.557	98.25
312.787	121.25
313.017	101.25
313.246	88.25
313.476	90.25
313.706	94.25
313.935	91.25
314.165	93.25
314.394	98.25
314.624	85.25
314.853	83.25
315.083	92.25
315.312	83.25
315.542	69.25
315.771	85.25
316.001	77.25
316.23	97.25
316.46	77.25
316.689	90.25
316.919	99.25
317.148	95.25
317.377	93.25
317.607	104.25
317.836	95.25
318.065	94.25
318.295	101.25
318.524	89.25
318.753	82.25
318.983	91.25
319.212	95.25
319.441	83.25
319.67	114.25
319.9	96.25
320.129	89.25
320.358	85.25
320.587	93.25
320.816	86.25
321.046	92.25
321.275	84.25
321.504	79.25
321.733	99.25
321.962	89.25
322.191	100.25
322.42	106.25
322.649	90.25
322.878	118.25
323.108	109.25
323.337	106.25
323.566	130.25
323.795	135.25
324.024	173.25
324.253	330.25
324.482	705.25
324.71	1433.25
324.939	1925.25
325.168	694.25
325.397	221.25
325.626	127.25
325.855	132.25
326.084	111.25
326.313	121.25
326.542	146.25
326.77	201.25
326.999	391.25
327.228	816.25
327.457	1487.25
327.686	1174.25
327.914	327.25
328.143	178.25
328.372	126.25
328.6	120.25
328.829	127.25
329.058	97.25
329.287	101.25
329.515	101.25
329.744	100.25
329.972	86.25
330.201	110.25
330.43	123.25
330.658	118.25
330.887	128.25
331.115	118.25
331.344	86.25
331.572	98.25
331.801	97.25
332.03	101.25
332.258	100.25
332.486	88.25
332.715	90.25
332.943	73.25
333.172	87.25
333.4	107.25
333.629	94.25
333.857	102.25
334.085	118.25
334.314	114.25
334.542	118.25
334.771	122.25
334.999	94.25
335.227	84.25
335.455	78.25
335.684	93.25
335.912	87.25
336.14	95.25
336.369	95.25
336.597	101.25
336.825	105.25
337.053	105.25
337.281	88.25
337.51	103.25
337.738	94.25
337.966	91.25
338.194	85.25
338.422	87.25
338.65	85.25
338.878	93.25
339.106	98.25
339.334	97.25
339.562	61.25
339.79	73.25
340.018	97.25
340.246	90.25
340.474	82.25
340.702	93.25
340.93	75.25
341.158	91.25
341.386	78.25
341.614	98.25
341.842	97.25
342.07	95.25
342.298	85.25
342.526	82.25
342.754	87.25
342.981	88.25
343.209	89.25
343.437	88.25
343.665	93.25
343.893	80.25
344.12	104.25
344.348	88.25
344.576	94.25
344.804	102.25
345.031	87.25
345.259	93.25
345.487	95.25
345.714	93.25
345.942	97.25
346.17	89.25
346.397	78.25
346.625	85.25
346.853	95.25
347.08	77.25
347.308	90.25
347.535	95.25
347.763	81.25
347.99	107.25
348.218	98.25
348.445	87.25
348.673	95.25
348.9	96.25
349.128	87.25
349.355	95.25
349.583	97.25
349.81	87.25
350.037	83.25
350.265	82.25
350.492	90.25
350.72	97.25
350.947	101.25
351.174	99.25
351.402	103.25
351.629	91.25
351.856	99.25
352.083	87.25
352.311	98.25
352.538	103.25
352.765	101.25
352.992	111.25
353.22	100.25
353.447	101.25
353.674	91.25
353.901	96.25
354.128	88.25
354.355	95.25
354.583	87.25
354.81	89.25
355.037	102.25
355.264	81.25
355.491	92.25
355.718	90.25
355.945	90.25
356.172	78.25
356.399	102.25
356.626	83.25
356.853	82.25
357.08	91.25
357.307	86.25
357.534	92.25
357.761	99.25
357.988	97.25
358.215	94.25
358.441	85.25
358.668	112.25
358.895	89.25
359.122	98.25
359.349	89.25
359.576	79.25
359.802	87.25
360.029	110.25
360.256	103.25
360.483	101.25
360.709	75.25
360.936	88.25
361.163	89.25
361.39	82.25
361.616	73.25
361.843	87.25
362.07	93.25
362.296	72.25
362.523	81.25
362.749	100.25
362.976	83.25
363.203	84.25
363.429	77.25
363.656	91.25
363.882	69.25
364.109	85.25
364.335	89.25
364.562	82.25
364.788	87.25
365.015	88.25
365.241	93.25
365.468	109.25
365.694	90.25
365.92	71.25
366.147	81.25
366.373	87.25
366.599	87.25
366.826	75.25
367.052	85.25
367.278	84.25
367.505	79.25
367.731	106.25
367.957	85.25
368.184	78.25
368.41	108.25
368.636	105.25
368.862	118.25
369.089	108.25
369.315	92.25
369.541	73.25
369.767	86.25
369.993	95.25
370.219	77.25
370.445	90.25
370.672	81.25
370.898	90.25
371.124	91.25
371.35	94.25
371.576	81.25
371.802	83.25
372.028	94.25
372.254	96.25
372.48	82.25
372.706	79.25
372.932	88.25
373.158	82.25
373.384	91.25
373.61	101.25
373.835	78.25
374.061	89.25
374.287	77.25
374.513	85.25
374.739	96.25
374.965	90.25
375.191	81.25
375.416	75.25
375.642	83.25
375.868	79.25
376.094	94.25
376.319	86.25
376.545	95.25
376.771	68.25
376.997	93.25
377.222	88.25
377.448	82.25
377.674	90.25
377.899	89.25
378.125	82.25
378.35	93.25
378.576	102.25
378.802	86.25
379.027	96.25
379.253	100.25
379.478	97.25
379.704	99.25
379.929	88.25
380.155	102.25
380.38	84.25
380.606	101.25
380.831	86.25
381.057	87.25
381.282	82.25
381.507	81.25
381.733	97.25
381.958	100.25
382.184	101.25
382.409	104.25
382.634	96.25
382.86	83.25
383.085	96.25
383.31	89.25
383.535	89.25
383.761	97.25
383.986	104.25
384.211	86.25
384.436	89.25
384.662	113.25
384.887	97.25
385.112	105.25
385.337	103.25
385.562	111.25
385.787	101.25
386.013	118.25
386.238	112.25
386.463	95.25
386.688	130.25
386.913	113.25
387.138	104.25
387.363	117.25
387.588	100.25
387.813	110.25
388.038	103.25
388.263	122.25
388.488	117.25
388.713	104.25
388.938	87.25
389.163	84.25
389.387	98.25
389.612	88.25
389.837	93.25
390.062	101.25
390.287	88.25
390.512	88.25
390.736	90.25
390.961	90.25
391.186	88.25
391.411	81.25
391.636	99.25
391.86	93.25
392.085	97.25
392.31	91.25
392.534	97.25
392.759	89.25
392.984	82.25
393.208	88.25
393.433	93.25
393.658	95.25
393.882	85.25
394.107	80.25
394.331	85.25
394.556	72.25
394.78	87.25
395.005	93.25
395.229	89.25
395.454	91.25
395.678	85.25
395.903	86.25
396.127	98.25
396.352	94.25
396.576	100.25
396.801	105.25
397.025	83.25
397.249	78.25
397.474	98.25
397.698	83.25
397.922	80.25
398.147	79.25
398.371	81.25
398.595	88.25
398.82	103.25
399.044	94.25
399.268	86.25
399.492	95.25
399.717	89.25
399.941	79.25
400.165	84.25
400.389	91.25
400.613	88.25
400.837	89.25
401.062	94.25
401.286	65.25
401.51	80.25
401.734	92.25
401.958	90.25
402.182	111.25
402.406	124.25
402.63	99.25
402.854	91.25
403.078	80.25
403.302	90.25
403.526	95.25
403.75	67.25
403.974	94.25
404.198	81.25
404.422	83.25
404.645	92.25
404.869	101.25
405.093	97.25
405.317	84.25
405.541	103.25
405.765	93.25
405.988	88.25
406.212	139.25
406.436	187.25
406.66	105.25
406.883	100.25
407.107	86.25
407.331	95.25
407.555	98.25
407.778	81.25
408.002	83.25
408.226	86.25
408.449	95.25
408.673	90.25
408.896	79.25
409.12	84.25
409.344	83.25
409.567	78.25
409.791	97.25
410.014	95.25
410.238	79.25
410.461	91.25
410.685	93.25
410.908	81.25
411.132	110.25
411.355	87.25
411.578	90.25
411.802	84.25
412.025	103.25
412.249	90.25
412.472	97.25
412.695	94.25
412.919	93.25
413.142	101.25
413.365	86.25
413.589	93.25
413.812	90.25
414.035	98.25
414.258	93.25
414.482	98.25
414.705	94.25
414.928	93.25
415.151	88.25
415.374	95.25
415.597	89.25
415.821	91.25
416.044	91.25
416.267	88.25
416.49	94.25
416.713	75.25
416.936	77.25
417.159	97.25
417.382	88.25
417.605	83.25
417.828	84.25
418.051	85.25
418.274	92.25
418.497	85.25
418.72	79.25
418.943	75.25
419.166	93.25
419.389	94.25
419.611	91.25
419.834	99.25
420.057	79.25
420.28	82.25
420.503	87.25
420.726	91.25
420.948	81.25
421.171	102.25
421.394	93.25
421.617	92.25
421.839	83.25
422.062	87.25
422.285	93.25
422.507	90.25
422.73	102.25
422.953	93.25
423.175	90.25
423.398	97.25
423.621	98.25
423.843	77.25
424.066	81.25
424.288	94.25
424.511	87.25
424.733	83.25
424.956	99.25
425.178	94.25
425.401	101.25
425.623	95.25
425.846	78.25
426.068	89.25
426.291	79.25
426.513	87.25
426.735	95.25
426.958	103.25
427.18	107.25
427.402	112.25
427.625	136.25
427.847	101.25
428.069	104.25
428.292	86.25
428.514	85.25
428.736	90.25
428.958	93.25
429.181	86.25
429.403	89.25
429.625	78.25
429.847	89.25
430.069	109.25
430.292	94.25
430.514	74.25
430.736	79.25
430.958	57.25
431.18	81.25
431.402	88.25
431.624	79.25
431.846	95.25
432.068	92.25
432.29	97.25
432.512	94.25
432.734	96.25
432.956	104.25
433.178	87.25
433.4	92.25
433.622	103.25
433.844	88.25
434.066	93.25
434.287	98.25
434.509	81.25
434.731	94.25
434.953	78.25
435.175	84.25
435.397	85.25
435.618	89.25
435.84	94.25
436.062	111.25
436.284	101.25
436.505	101.25
436.727	88.25
436.949	96.25
437.17	78.25
437.392	93.25
437.614	92.25
437.835	99.25
438.057	105.25
438.278	95.25
438.5	90.25
438.721	118.25
438.943	95.25
439.165	73.25
439.386	86.25
439.608	89.25
439.829	86.25
440.05	105.25
440.272	131.25
440.493	81.25
440.715	98.25
440.936	94.25
441.158	66.25
441.379	81.25
441.6	94.25
441.822	80.25
442.043	101.25
442.264	113.25
442.486	85.25
442.707	105.25
442.928	101.25
443.149	108.25
443.371	127.25
443.592	97.25
443.813	105.25
444.034	110.25
444.255	99.25
444.476	90.25
444.698	92.25
444.919	93.25
445.14	135.25
445.361	125.25
445.582	121.25
445.803	115.25
446.024	122.25
446.245	104.25
446.466	109.25
446.687	93.25
446.908	83.25
447.129	88.25
447.35	90.25
447.571	78.25
447.792	81.25
448.013	84.25
448.234	97.25
448.455	88.25
448.675	101.25
448.896	102.25
449.117	104.25
449.338	95.25
449.559	118.25
449.779	118.25
450	99.25
450.221	85.25
450.442	90.25
450.662	86.25
450.883	88.25
451.104	103.25
451.324	89.25
451.545	91.25
451.766	86.25
451.986	87.25
452.207	86.25
452.428	82.25
452.648	89.25
452.869	90.25
453.089	96.25
453.31	99.25
453.53	103.25
453.751	92.25
453.971	99.25
454.192	101.25
454.412	97.25
454.633	77.25
454.853	90.25
455.073	97.25
455.294	79.25
455.514	94.25
455.734	86.25
455.955	81.25
456.175	74.25
456.395	85.25
456.616	79.25
456.836	93.25
457.056	102.25
457.276	94.25
457.497	91.25
457.717	72.25
457.937	81.25
458.157	74.25
458.377	93.25
458.598	91.25
458.818	115.25
459.038	141.25
459.258	111.25
459.478	82.25
459.698	96.25
459.918	88.25
460.138	77.25
460.358	69.25
460.578	81.25
460.798	87.25
461.018	82.25
461.238	85.25
461.458	79.25
461.678	72.25
461.898	77.25
462.118	80.25
462.338	84.25
462.558	88.25
462.777	78.25
462.997	89.25
463.217	93.25
463.437	89.25
463.657	79.25
463.876	81.25
464.096	69.25
464.316	75.25
464.536	84.25
464.755	84.25
464.975	94.25
465.195	130.25
465.414	128.25
465.634	94.25
465.854	110.25
466.073	87.25
466.293	88.25
466.512	97.25
466.732	81.25
466.951	74.25
467.171	91.25
467.391	99.25
467.61	96.25
467.829	91.25
468.049	89.25
468.268	96.25
468.488	94.25
468.707	97.25
468.927	86.25
469.146	94.25
469.365	88.25
469.585	73.25
469.804	82.25
470.023	85.25
470.243	87.25
470.462	86.25
470.681	81.25
470.901	70.25
471.12	77.25
471.339	85.25
471.558	73.25
471.777	88.25
471.997	97.25
472.216	118.25
472.435	136.25
472.654	90.25
472.873	91.25
473.092	101.25
473.311	84.25
473.53	91.25
473.749	83.25
473.968	100.25
474.187	88.25
474.406	90.25
474.625	90.25
474.844	84.25
475.063	87.25
475.282	83.25
475.501	86.25
475.72	83.25
475.939	84.25
476.158	85.25
476.377	75.25
476.596	85.25
476.814	97.25
477.033	91.25
477.252	89.25
477.471	72.25
477.69	81.25
477.908	78.25
478.127	79.25
478.346	94.25
478.564	89.25
478.783	102.25
479.002	95.25
479.22	77.25
479.439	85.25
479.658	87.25
479.876	103.25
480.095	97.25
480.313	89.25
480.532	82.25
480.751	89.25
480.969	99.25
481.188	172.25
481.406	145.25
481.624	77.25
481.843	88.25
482.061	81.25
482.28	98.25
482.498	77.25
482.717	85.25
482.935	99.25
483.153	89.25
483.372	88.25
483.59	86.25
483.808	91.25
484.027	84.25
484.245	89.25
484.463	91.25
484.681	98.25
484.9	94.25
485.118	103.25
485.336	84.25
485.554	90.25
485.772	97.25
485.99	96.25
486.209	101.25
486.427	81.25
486.645	104.25
486.863	106.25
487.081	93.25
487.299	99.25
487.517	88.25
487.735	94.25
487.953	75.25
488.171	79.25
488.389	90.25
488.607	90.25
488.825	86.25
489.043	89.25
489.261	89.25
489.479	87.25
489.696	85.25
489.914	85.25
490.132	89.25
490.35	88.25
490.568	87.25
490.786	95.25
491.003	83.25
491.221	91.25
491.439	87.25
491.657	83.25
491.874	90.25
492.092	83.25
492.31	92.25
492.527	82.25
492.745	69.25
492.963	78.25
493.18	90.25
493.398	93.25
493.615	105.25
493.833	88.25
494.05	83.25
494.268	88.25
494.485	80.25
494.703	74.25
494.92	81.25
495.138	97.25
495.355	96.25
495.573	89.25
495.79	85.25
496.008	84.25
496.225	93.25
496.442	95.25
496.66	92.25
496.877	80.25
497.094	93.25
497.312	88.25
497.529	87.25
497.746	73.25
497.963	86.25
498.181	84.25
498.398	102.25
498.615	89.25
498.832	88.25
499.049	82.25
499.267	85.25
499.484	79.25
499.701	93.25
499.918	85.25
500.135	81.25
500.352	90.25
500.569	78.25
500.786	87.25
501.003	104.25
501.22	81.25
501.437	87.25
501.654	84.25
501.871	102.25
502.088	98.25
502.305	81.25
502.522	91.25
502.739	86.25
502.956	84.25
503.172	85.25
503.389	79.25
503.606	99.25
503.823	102.25
504.04	79.25
504.256	90.25
504.473	87.25
504.69	83.25
504.907	87.25
505.123	72.25
505.34	87.25
505.557	81.25
505.773	91.25
505.99	78.25
506.207	83.25
506.423	89.25
506.64	98.25
506.856	94.25
507.073	88.25
507.289	84.25
507.506	111.25
507.722	110.25
507.939	89.25
508.155	99.25
508.372	88.25
508.588	87.25
508.805	94.25
509.021	95.25
509.238	91.25
509.454	101.25
509.67	91.25
509.887	106.25
510.103	128.25
510.319	178.25
510.536	586.25
510.752	1805.25
510.968	501.25
511.184	138.25
511.401	103.25
511.617	89.25
511.833	89.25
512.049	82.25
512.265	91.25
512.481	89.25
512.698	85.25
512.914	84.25
513.13	94.25
513.346	90.25
513.562	103.25
513.778	104.25
513.994	92.25
514.21	93.25
514.426	110.25
514.642	98.25
514.858	106.25
515.074	129.25
515.29	327.25
515.506	1019.25
515.721	376.25
515.937	137.25
516.153	107.25
516.369	86.25
516.585	89.25
516.801	90.25
517.016	101.25
