Data from Circ_1985_H10_HRD10591_00008.txt Node
Date: Wed Jan 03 12:19:24 EST 2024
User: Yrep
Spectrometer: HR+D1059
Trigger mode: 1
Integration Time (sec): 1.000000E-1
Scans to average: 1
Electric dark correction enabled: true
Nonlinearity correction enabled: false
Boxcar width: 0
XAxis mode: Wavelengths
Number of Pixels in Spectrum: 2048
>>>>>Begin Spectral Data<<<<<
223.165	-13.06
223.4	-13.06
223.635	-13.06
223.869	-6.06
224.104	-28.06
224.338	-30.06
224.573	-22.06
224.808	-6.06
225.042	-8.06
225.277	-4.06
225.511	2.94
225.746	6.94
225.98	12.94
226.215	7.94
226.449	11.94
226.683	28.94
226.918	18.94
227.152	26.94
227.387	27.94
227.621	37.94
227.856	45.94
228.09	46.94
228.324	38.94
228.559	42.94
228.793	63.94
229.027	54.94
229.262	68.94
229.496	65.94
229.73	87.94
229.964	84.94
230.199	88.94
230.433	86.94
230.667	81.94
230.901	76.94
231.136	64.94
231.37	71.94
231.604	76.94
231.838	82.94
232.072	73.94
232.306	73.94
232.541	73.94
232.775	85.94
233.009	94.94
233.243	85.94
233.477	74.94
233.711	85.94
233.945	88.94
234.179	78.94
234.413	75.94
234.647	73.94
234.881	69.94
235.115	85.94
235.349	97.94
235.583	79.94
235.817	81.94
236.051	81.94
236.285	87.94
236.519	58.94
236.753	88.94
236.987	71.94
237.221	80.94
237.455	92.94
237.689	78.94
237.922	78.94
238.156	94.94
238.39	74.94
238.624	68.94
238.858	85.94
239.091	74.94
239.325	79.94
239.559	78.94
239.793	66.94
240.027	88.94
240.26	81.94
240.494	89.94
240.728	81.94
240.961	70.94
241.195	89.94
241.429	101.94
241.662	73.94
241.896	86.94
242.13	81.94
242.363	71.94
242.597	79.94
242.83	84.94
243.064	72.94
243.298	74.94
243.531	80.94
243.765	89.94
243.998	82.94
244.232	79.94
244.465	83.94
244.699	74.94
244.932	82.94
245.166	75.94
245.399	94.94
245.633	65.94
245.866	80.94
246.099	74.94
246.333	78.94
246.566	67.94
246.8	80.94
247.033	84.94
247.266	75.94
247.5	95.94
247.733	76.94
247.966	64.94
248.2	85.94
248.433	86.94
248.666	86.94
248.899	84.94
249.133	82.94
249.366	97.94
249.599	90.94
249.832	80.94
250.066	89.94
250.299	89.94
250.532	76.94
250.765	76.94
250.998	68.94
251.231	83.94
251.465	68.94
251.698	78.94
251.931	88.94
252.164	74.94
252.397	74.94
252.63	78.94
252.863	78.94
253.096	78.94
253.329	88.94
253.562	74.94
253.795	96.94
254.028	86.94
254.261	85.94
254.494	74.94
254.727	76.94
254.96	91.94
255.193	80.94
255.426	76.94
255.659	82.94
255.892	86.94
256.124	84.94
256.357	65.94
256.59	87.94
256.823	79.94
257.056	75.94
257.289	79.94
257.521	78.94
257.754	81.94
257.987	62.94
258.22	80.94
258.452	89.94
258.685	88.94
258.918	73.94
259.151	82.94
259.383	83.94
259.616	71.94
259.849	90.94
260.081	86.94
260.314	82.94
260.547	87.94
260.779	69.94
261.012	82.94
261.244	75.94
261.477	90.94
261.71	80.94
261.942	100.94
262.175	85.94
262.407	94.94
262.64	86.94
262.872	86.94
263.105	73.94
263.337	82.94
263.57	74.94
263.802	82.94
264.035	85.94
264.267	92.94
264.499	68.94
264.732	83.94
264.964	97.94
265.197	76.94
265.429	75.94
265.661	74.94
265.894	94.94
266.126	92.94
266.358	87.94
266.591	82.94
266.823	89.94
267.055	90.94
267.287	94.94
267.52	83.94
267.752	86.94
267.984	76.94
268.216	69.94
268.448	74.94
268.681	82.94
268.913	87.94
269.145	75.94
269.377	76.94
269.609	93.94
269.841	80.94
270.073	92.94
270.306	103.94
270.538	87.94
270.77	83.94
271.002	83.94
271.234	92.94
271.466	76.94
271.698	92.94
271.93	78.94
272.162	73.94
272.394	67.94
272.626	88.94
272.858	80.94
273.09	84.94
273.322	85.94
273.553	70.94
273.785	82.94
274.017	90.94
274.249	65.94
274.481	79.94
274.713	92.94
274.945	88.94
275.176	90.94
275.408	75.94
275.64	69.94
275.872	86.94
276.104	74.94
276.335	93.94
276.567	90.94
276.799	96.94
277.031	99.94
277.262	87.94
277.494	76.94
277.726	88.94
277.957	92.94
278.189	78.94
278.421	88.94
278.652	89.94
278.884	78.94
279.115	83.94
279.347	67.94
279.579	94.94
279.81	85.94
280.042	78.94
280.273	75.94
280.505	82.94
280.736	82.94
280.968	75.94
281.199	82.94
281.431	94.94
281.662	79.94
281.894	98.94
282.125	96.94
282.356	117.94
282.588	121.94
282.819	92.94
283.051	94.94
283.282	86.94
283.513	91.94
283.745	71.94
283.976	95.94
284.207	67.94
284.439	86.94
284.67	81.94
284.901	107.94
285.132	88.94
285.364	78.94
285.595	101.94
285.826	85.94
286.057	94.94
286.288	84.94
286.52	89.94
286.751	80.94
286.982	95.94
287.213	89.94
287.444	85.94
287.675	63.94
287.906	88.94
288.138	73.94
288.369	86.94
288.6	107.94
288.831	78.94
289.062	102.94
289.293	84.94
289.524	89.94
289.755	88.94
289.986	91.94
290.217	82.94
290.448	70.94
290.679	82.94
290.91	82.94
291.141	85.94
291.371	84.94
291.602	84.94
291.833	66.94
292.064	83.94
292.295	90.94
292.526	90.94
292.757	86.94
292.987	84.94
293.218	81.94
293.449	84.94
293.68	104.94
293.91	80.94
294.141	94.94
294.372	80.94
294.603	79.94
294.833	86.94
295.064	89.94
295.295	83.94
295.525	95.94
295.756	84.94
295.987	106.94
296.217	105.94
296.448	111.94
296.679	84.94
296.909	82.94
297.14	80.94
297.37	71.94
297.601	72.94
297.831	83.94
298.062	92.94
298.292	79.94
298.523	84.94
298.753	80.94
298.984	74.94
299.214	92.94
299.445	90.94
299.675	82.94
299.905	95.94
300.136	83.94
300.366	89.94
300.597	102.94
300.827	86.94
301.057	109.94
301.288	89.94
301.518	105.94
301.748	91.94
301.979	106.94
302.209	100.94
302.439	83.94
302.669	90.94
302.9	113.94
303.13	86.94
303.36	104.94
303.59	87.94
303.82	88.94
304.051	93.94
304.281	97.94
304.511	95.94
304.741	94.94
304.971	90.94
305.201	79.94
305.431	98.94
305.661	94.94
305.891	80.94
306.121	78.94
306.352	83.94
306.582	81.94
306.812	87.94
307.042	82.94
307.272	81.94
307.502	103.94
307.731	70.94
307.961	76.94
308.191	88.94
308.421	94.94
308.651	71.94
308.881	100.94
309.111	90.94
309.341	94.94
309.571	87.94
309.8	96.94
310.03	90.94
310.26	91.94
310.49	84.94
310.72	95.94
310.949	100.94
311.179	88.94
311.409	93.94
311.639	100.94
311.868	94.94
312.098	105.94
312.328	93.94
312.557	94.94
312.787	91.94
313.017	97.94
313.246	108.94
313.476	81.94
313.706	90.94
313.935	93.94
314.165	102.94
314.394	94.94
314.624	75.94
314.853	94.94
315.083	88.94
315.312	90.94
315.542	92.94
315.771	91.94
316.001	96.94
316.23	96.94
316.46	96.94
316.689	94.94
316.919	73.94
317.148	82.94
317.377	94.94
317.607	85.94
317.836	87.94
318.065	96.94
318.295	88.94
318.524	99.94
318.753	84.94
318.983	79.94
319.212	90.94
319.441	88.94
319.67	99.94
319.9	99.94
320.129	102.94
320.358	100.94
320.587	88.94
320.816	91.94
321.046	105.94
321.275	93.94
321.504	95.94
321.733	103.94
321.962	87.94
322.191	112.94
322.42	90.94
322.649	98.94
322.878	101.94
323.108	113.94
323.337	102.94
323.566	118.94
323.795	130.94
324.024	183.94
324.253	338.94
324.482	662.94
324.71	1359.94
324.939	1808.94
325.168	681.94
325.397	213.94
325.626	144.94
325.855	119.94
326.084	122.94
326.313	106.94
326.542	140.94
326.77	195.94
326.999	396.94
327.228	784.94
327.457	1439.94
327.686	1116.94
327.914	293.94
328.143	166.94
328.372	129.94
328.6	109.94
328.829	99.94
329.058	114.94
329.287	119.94
329.515	89.94
329.744	92.94
329.972	87.94
330.201	90.94
330.43	108.94
330.658	103.94
330.887	110.94
331.115	103.94
331.344	86.94
331.572	92.94
331.801	108.94
332.03	87.94
332.258	86.94
332.486	92.94
332.715	85.94
332.943	91.94
333.172	102.94
333.4	88.94
333.629	78.94
333.857	102.94
334.085	103.94
334.314	95.94
334.542	100.94
334.771	103.94
334.999	101.94
335.227	94.94
335.455	102.94
335.684	84.94
335.912	109.94
336.14	102.94
336.369	97.94
336.597	90.94
336.825	99.94
337.053	106.94
337.281	87.94
337.51	94.94
337.738	86.94
337.966	88.94
338.194	91.94
338.422	84.94
338.65	89.94
338.878	102.94
339.106	87.94
339.334	89.94
339.562	97.94
339.79	89.94
340.018	81.94
340.246	83.94
340.474	106.94
340.702	78.94
340.93	89.94
341.158	108.94
341.386	108.94
341.614	99.94
341.842	97.94
342.07	85.94
342.298	83.94
342.526	93.94
342.754	91.94
342.981	94.94
343.209	105.94
343.437	103.94
343.665	92.94
343.893	88.94
344.12	84.94
344.348	89.94
344.576	90.94
344.804	92.94
345.031	85.94
345.259	89.94
345.487	86.94
345.714	96.94
345.942	91.94
346.17	84.94
346.397	83.94
346.625	89.94
346.853	85.94
347.08	92.94
347.308	95.94
347.535	101.94
347.763	101.94
347.99	95.94
348.218	113.94
348.445	96.94
348.673	87.94
348.9	94.94
349.128	96.94
349.355	103.94
349.583	89.94
349.81	100.94
350.037	96.94
350.265	114.94
350.492	89.94
350.72	99.94
350.947	98.94
351.174	101.94
351.402	108.94
351.629	105.94
351.856	105.94
352.083	96.94
352.311	102.94
352.538	103.94
352.765	103.94
352.992	104.94
353.22	105.94
353.447	94.94
353.674	114.94
353.901	97.94
354.128	107.94
354.355	100.94
354.583	104.94
354.81	96.94
355.037	89.94
355.264	91.94
355.491	85.94
355.718	90.94
355.945	103.94
356.172	97.94
356.399	98.94
356.626	104.94
356.853	99.94
357.08	103.94
357.307	89.94
357.534	89.94
357.761	94.94
357.988	109.94
358.215	116.94
358.441	105.94
358.668	113.94
358.895	87.94
359.122	78.94
359.349	76.94
359.576	90.94
359.802	96.94
360.029	94.94
360.256	101.94
360.483	84.94
360.709	86.94
360.936	100.94
361.163	87.94
361.39	86.94
361.616	85.94
361.843	98.94
362.07	90.94
362.296	87.94
362.523	79.94
362.749	87.94
362.976	84.94
363.203	94.94
363.429	110.94
363.656	91.94
363.882	98.94
364.109	82.94
364.335	99.94
364.562	96.94
364.788	85.94
365.015	100.94
365.241	110.94
365.468	99.94
365.694	107.94
365.92	95.94
366.147	96.94
366.373	106.94
366.599	92.94
366.826	101.94
367.052	90.94
367.278	98.94
367.505	101.94
367.731	94.94
367.957	83.94
368.184	90.94
368.41	82.94
368.636	82.94
368.862	103.94
369.089	84.94
369.315	98.94
369.541	78.94
369.767	94.94
369.993	95.94
370.219	91.94
370.445	87.94
370.672	75.94
370.898	84.94
371.124	89.94
371.35	104.94
371.576	78.94
371.802	89.94
372.028	86.94
372.254	86.94
372.48	96.94
372.706	83.94
372.932	90.94
373.158	97.94
373.384	85.94
373.61	105.94
373.835	91.94
374.061	94.94
374.287	105.94
374.513	96.94
374.739	104.94
374.965	86.94
375.191	80.94
375.416	98.94
375.642	102.94
375.868	93.94
376.094	93.94
376.319	87.94
376.545	95.94
376.771	88.94
376.997	87.94
377.222	89.94
377.448	86.94
377.674	87.94
377.899	100.94
378.125	91.94
378.35	104.94
378.576	90.94
378.802	92.94
379.027	93.94
379.253	108.94
379.478	113.94
379.704	98.94
379.929	104.94
380.155	100.94
380.38	104.94
380.606	111.94
380.831	95.94
381.057	111.94
381.282	96.94
381.507	109.94
381.733	103.94
381.958	114.94
382.184	101.94
382.409	99.94
382.634	124.94
382.86	116.94
383.085	108.94
383.31	105.94
383.535	108.94
383.761	124.94
383.986	107.94
384.211	117.94
384.436	121.94
384.662	103.94
384.887	126.94
385.112	126.94
385.337	129.94
385.562	131.94
385.787	126.94
386.013	138.94
386.238	139.94
386.463	117.94
386.688	132.94
386.913	129.94
387.138	136.94
387.363	110.94
387.588	119.94
387.813	109.94
388.038	127.94
388.263	139.94
388.488	142.94
388.713	98.94
388.938	108.94
389.163	93.94
389.387	97.94
389.612	89.94
389.837	90.94
390.062	97.94
390.287	97.94
390.512	74.94
390.736	92.94
390.961	93.94
391.186	102.94
391.411	94.94
391.636	98.94
391.86	90.94
392.085	103.94
392.31	82.94
392.534	80.94
392.759	90.94
392.984	95.94
393.208	109.94
393.433	105.94
393.658	106.94
393.882	100.94
394.107	66.94
394.331	81.94
394.556	89.94
394.78	103.94
395.005	86.94
395.229	81.94
395.454	90.94
395.678	80.94
395.903	91.94
396.127	98.94
396.352	83.94
396.576	86.94
396.801	84.94
397.025	105.94
397.249	101.94
397.474	98.94
397.698	91.94
397.922	90.94
398.147	78.94
398.371	82.94
398.595	84.94
398.82	88.94
399.044	85.94
399.268	86.94
399.492	89.94
399.717	87.94
399.941	91.94
400.165	89.94
400.389	80.94
400.613	86.94
400.837	94.94
401.062	104.94
401.286	95.94
401.51	88.94
401.734	91.94
401.958	97.94
402.182	96.94
402.406	136.94
402.63	107.94
402.854	87.94
403.078	91.94
403.302	92.94
403.526	86.94
403.75	81.94
403.974	95.94
404.198	93.94
404.422	86.94
404.645	84.94
404.869	90.94
405.093	92.94
405.317	105.94
405.541	86.94
405.765	85.94
405.988	99.94
406.212	135.94
406.436	176.94
406.66	122.94
406.883	90.94
407.107	91.94
407.331	97.94
407.555	89.94
407.778	90.94
408.002	102.94
408.226	87.94
408.449	96.94
408.673	84.94
408.896	87.94
409.12	98.94
409.344	95.94
409.567	78.94
409.791	89.94
410.014	91.94
410.238	88.94
410.461	95.94
410.685	91.94
410.908	103.94
411.132	105.94
411.355	89.94
411.578	105.94
411.802	81.94
412.025	84.94
412.249	95.94
412.472	89.94
412.695	89.94
412.919	90.94
413.142	83.94
413.365	92.94
413.589	91.94
413.812	82.94
414.035	84.94
414.258	77.94
414.482	90.94
414.705	93.94
414.928	83.94
415.151	111.94
415.374	106.94
415.597	92.94
415.821	75.94
416.044	89.94
416.267	82.94
416.49	87.94
416.713	94.94
416.936	89.94
417.159	97.94
417.382	91.94
417.605	82.94
417.828	94.94
418.051	85.94
418.274	97.94
418.497	94.94
418.72	96.94
418.943	88.94
419.166	81.94
419.389	82.94
419.611	87.94
419.834	90.94
420.057	91.94
420.28	68.94
420.503	84.94
420.726	77.94
420.948	82.94
421.171	73.94
421.394	96.94
421.617	100.94
421.839	76.94
422.062	84.94
422.285	97.94
422.507	110.94
422.73	97.94
422.953	97.94
423.175	86.94
423.398	82.94
423.621	75.94
423.843	95.94
424.066	96.94
424.288	86.94
424.511	92.94
424.733	79.94
424.956	105.94
425.178	86.94
425.401	87.94
425.623	107.94
425.846	82.94
426.068	90.94
426.291	84.94
426.513	73.94
426.735	91.94
426.958	86.94
427.18	92.94
427.402	123.94
427.625	128.94
427.847	114.94
428.069	105.94
428.292	97.94
428.514	89.94
428.736	92.94
428.958	86.94
429.181	98.94
429.403	94.94
429.625	74.94
429.847	89.94
430.069	98.94
430.292	92.94
430.514	93.94
430.736	91.94
430.958	105.94
431.18	76.94
431.402	68.94
431.624	70.94
431.846	98.94
432.068	88.94
432.29	91.94
432.512	97.94
432.734	108.94
432.956	107.94
433.178	91.94
433.4	75.94
433.622	93.94
433.844	90.94
434.066	95.94
434.287	102.94
434.509	92.94
434.731	91.94
434.953	91.94
435.175	96.94
435.397	88.94
435.618	92.94
435.84	105.94
436.062	96.94
436.284	102.94
436.505	105.94
436.727	115.94
436.949	83.94
437.17	72.94
437.392	78.94
437.614	96.94
437.835	90.94
438.057	98.94
438.278	116.94
438.5	111.94
438.721	120.94
438.943	102.94
439.165	90.94
439.386	89.94
439.608	96.94
439.829	87.94
440.05	128.94
440.272	118.94
440.493	97.94
440.715	88.94
440.936	90.94
441.158	98.94
441.379	92.94
441.6	84.94
441.822	92.94
442.043	81.94
442.264	100.94
442.486	82.94
442.707	81.94
442.928	89.94
443.149	127.94
443.371	115.94
443.592	92.94
443.813	103.94
444.034	95.94
444.255	97.94
444.476	84.94
444.698	100.94
444.919	76.94
445.14	134.94
445.361	118.94
445.582	105.94
445.803	120.94
446.024	124.94
446.245	122.94
446.466	98.94
446.687	90.94
446.908	85.94
447.129	82.94
447.35	100.94
447.571	102.94
447.792	86.94
448.013	89.94
448.234	94.94
448.455	100.94
448.675	93.94
448.896	107.94
449.117	98.94
449.338	83.94
449.559	118.94
449.779	120.94
450	82.94
450.221	86.94
450.442	97.94
450.662	103.94
450.883	84.94
451.104	100.94
451.324	94.94
451.545	95.94
451.766	90.94
451.986	89.94
452.207	93.94
452.428	90.94
452.648	106.94
452.869	110.94
453.089	106.94
453.31	103.94
453.53	76.94
453.751	91.94
453.971	86.94
454.192	90.94
454.412	95.94
454.633	95.94
454.853	94.94
455.073	79.94
455.294	71.94
455.514	95.94
455.734	86.94
455.955	88.94
456.175	97.94
456.395	84.94
456.616	100.94
456.836	69.94
457.056	92.94
457.276	81.94
457.497	84.94
457.717	74.94
457.937	97.94
458.157	80.94
458.377	84.94
458.598	95.94
458.818	106.94
459.038	114.94
459.258	109.94
459.478	87.94
459.698	103.94
459.918	99.94
460.138	68.94
460.358	97.94
460.578	80.94
460.798	99.94
461.018	96.94
461.238	74.94
461.458	85.94
461.678	82.94
461.898	82.94
462.118	106.94
462.338	83.94
462.558	89.94
462.777	92.94
462.997	86.94
463.217	81.94
463.437	74.94
463.657	80.94
463.876	78.94
464.096	97.94
464.316	104.94
464.536	98.94
464.755	86.94
464.975	90.94
465.195	132.94
465.414	116.94
465.634	75.94
465.854	75.94
466.073	90.94
466.293	100.94
466.512	72.94
466.732	93.94
466.951	78.94
467.171	90.94
467.391	99.94
467.61	95.94
467.829	91.94
468.049	74.94
468.268	95.94
468.488	90.94
468.707	94.94
468.927	94.94
469.146	87.94
469.365	91.94
469.585	84.94
469.804	87.94
470.023	99.94
470.243	93.94
470.462	95.94
470.681	108.94
470.901	82.94
471.12	83.94
471.339	76.94
471.558	86.94
471.777	100.94
471.997	90.94
472.216	98.94
472.435	113.94
472.654	75.94
472.873	83.94
473.092	85.94
473.311	98.94
473.53	79.94
473.749	103.94
473.968	88.94
474.187	88.94
474.406	83.94
474.625	101.94
474.844	84.94
475.063	96.94
475.282	85.94
475.501	86.94
475.72	92.94
475.939	71.94
476.158	79.94
476.377	78.94
476.596	75.94
476.814	85.94
477.033	86.94
477.252	85.94
477.471	80.94
477.69	86.94
477.908	90.94
478.127	93.94
478.346	103.94
478.564	76.94
478.783	88.94
479.002	94.94
479.22	87.94
479.439	92.94
479.658	90.94
479.876	98.94
480.095	74.94
480.313	82.94
480.532	86.94
480.751	92.94
480.969	97.94
481.188	116.94
481.406	111.94
481.624	99.94
481.843	86.94
482.061	81.94
482.28	88.94
482.498	99.94
482.717	89.94
482.935	94.94
483.153	102.94
483.372	76.94
483.59	91.94
483.808	86.94
484.027	104.94
484.245	90.94
484.463	99.94
484.681	83.94
484.9	100.94
485.118	101.94
485.336	80.94
485.554	105.94
485.772	116.94
485.99	107.94
486.209	104.94
486.427	99.94
486.645	91.94
486.863	108.94
487.081	85.94
487.299	97.94
487.517	103.94
487.735	92.94
487.953	95.94
488.171	95.94
488.389	95.94
488.607	107.94
488.825	93.94
489.043	81.94
489.261	100.94
489.479	89.94
489.696	101.94
489.914	82.94
490.132	94.94
490.35	96.94
490.568	103.94
490.786	85.94
491.003	100.94
491.221	78.94
491.439	84.94
491.657	87.94
491.874	97.94
492.092	88.94
492.31	93.94
492.527	103.94
492.745	85.94
492.963	95.94
493.18	80.94
493.398	90.94
493.615	92.94
493.833	95.94
494.05	89.94
494.268	92.94
494.485	88.94
494.703	95.94
494.92	99.94
495.138	92.94
495.355	103.94
495.573	85.94
495.79	109.94
496.008	92.94
496.225	102.94
496.442	94.94
496.66	85.94
496.877	106.94
497.094	96.94
497.312	92.94
497.529	87.94
497.746	81.94
497.963	102.94
498.181	102.94
498.398	112.94
498.615	103.94
498.832	107.94
499.049	90.94
499.267	86.94
499.484	91.94
499.701	100.94
499.918	86.94
500.135	81.94
500.352	91.94
500.569	86.94
500.786	105.94
501.003	82.94
501.22	94.94
501.437	103.94
501.654	89.94
501.871	93.94
502.088	78.94
502.305	90.94
502.522	97.94
502.739	95.94
502.956	84.94
503.172	81.94
503.389	95.94
503.606	94.94
503.823	99.94
504.04	86.94
504.256	82.94
504.473	80.94
504.69	90.94
504.907	103.94
505.123	96.94
505.34	76.94
505.557	87.94
505.773	96.94
505.99	87.94
506.207	89.94
506.423	91.94
506.64	73.94
506.856	94.94
507.073	84.94
507.289	98.94
507.506	88.94
507.722	95.94
507.939	102.94
508.155	103.94
508.372	94.94
508.588	86.94
508.805	99.94
509.021	82.94
509.238	90.94
509.454	92.94
509.67	87.94
509.887	107.94
510.103	127.94
510.319	163.94
510.536	543.94
510.752	1568.94
510.968	460.94
511.184	126.94
511.401	105.94
511.617	110.94
511.833	87.94
512.049	102.94
512.265	90.94
512.481	99.94
512.698	96.94
512.914	95.94
513.13	92.94
513.346	85.94
513.562	92.94
513.778	91.94
513.994	92.94
514.21	89.94
514.426	104.94
514.642	120.94
514.858	119.94
515.074	147.94
515.29	328.94
515.506	928.94
515.721	345.94
515.937	126.94
