Data from Circ_1985_H10_HRD10591_00001.txt Node
Date: Wed Jan 03 12:19:22 EST 2024
User: Yrep
Spectrometer: HR+D1059
Trigger mode: 1
Integration Time (sec): 1.000000E-1
Scans to average: 1
Electric dark correction enabled: true
Nonlinearity correction enabled: false
Boxcar width: 0
XAxis mode: Wavelengths
Number of Pixels in Spectrum: 2048
>>>>>Begin Spectral Data<<<<<
223.165	-6.81
223.4	-6.81
223.635	-6.81
223.869	-17.81
224.104	-21.81
224.338	-16.81
224.573	-10.81
224.808	-17.81
225.042	-10.81
225.277	4.19
225.511	13.19
225.746	3.19
225.98	23.19
226.215	3.19
226.449	13.19
226.683	-2.81
226.918	27.19
227.152	18.19
227.387	38.19
227.621	51.19
227.856	39.19
228.09	52.19
228.324	62.19
228.559	68.19
228.793	48.19
229.027	63.19
229.262	81.19
229.496	73.19
229.73	73.19
229.964	78.19
230.199	77.19
230.433	88.19
230.667	81.19
230.901	66.19
231.136	82.19
231.37	81.19
231.604	93.19
231.838	74.19
232.072	80.19
232.306	88.19
232.541	86.19
232.775	90.19
233.009	90.19
233.243	90.19
233.477	84.19
233.711	85.19
233.945	92.19
234.179	88.19
234.413	73.19
234.647	87.19
234.881	83.19
235.115	76.19
235.349	73.19
235.583	84.19
235.817	80.19
236.051	77.19
236.285	76.19
236.519	68.19
236.753	81.19
236.987	83.19
237.221	81.19
237.455	74.19
237.689	81.19
237.922	81.19
238.156	78.19
238.39	87.19
238.624	76.19
238.858	65.19
239.091	84.19
239.325	93.19
239.559	89.19
239.793	81.19
240.027	74.19
240.26	96.19
240.494	83.19
240.728	73.19
240.961	95.19
241.195	72.19
241.429	80.19
241.662	61.19
241.896	78.19
242.13	72.19
242.363	65.19
242.597	70.19
242.83	79.19
243.064	87.19
243.298	79.19
243.531	79.19
243.765	78.19
243.998	85.19
244.232	85.19
244.465	79.19
244.699	87.19
244.932	74.19
245.166	87.19
245.399	68.19
245.633	73.19
245.866	76.19
246.099	85.19
246.333	81.19
246.566	75.19
246.8	74.19
247.033	78.19
247.266	78.19
247.5	77.19
247.733	92.19
247.966	97.19
248.2	82.19
248.433	86.19
248.666	74.19
248.899	78.19
249.133	78.19
249.366	105.19
249.599	85.19
249.832	78.19
250.066	90.19
250.299	83.19
250.532	86.19
250.765	76.19
250.998	76.19
251.231	76.19
251.465	80.19
251.698	85.19
251.931	68.19
252.164	73.19
252.397	78.19
252.63	94.19
252.863	96.19
253.096	84.19
253.329	81.19
253.562	78.19
253.795	87.19
254.028	89.19
254.261	81.19
254.494	75.19
254.727	86.19
254.96	78.19
255.193	83.19
255.426	76.19
255.659	65.19
255.892	95.19
256.124	90.19
256.357	93.19
256.59	78.19
256.823	72.19
257.056	91.19
257.289	76.19
257.521	89.19
257.754	70.19
257.987	73.19
258.22	91.19
258.452	86.19
258.685	78.19
258.918	69.19
259.151	75.19
259.383	83.19
259.616	95.19
259.849	90.19
260.081	76.19
260.314	78.19
260.547	83.19
260.779	90.19
261.012	76.19
261.244	88.19
261.477	89.19
261.71	102.19
261.942	106.19
262.175	93.19
262.407	81.19
262.64	83.19
262.872	90.19
263.105	91.19
263.337	89.19
263.57	82.19
263.802	91.19
264.035	86.19
264.267	89.19
264.499	83.19
264.732	94.19
264.964	85.19
265.197	81.19
265.429	83.19
265.661	79.19
265.894	85.19
266.126	93.19
266.358	87.19
266.591	88.19
266.823	78.19
267.055	98.19
267.287	92.19
267.52	81.19
267.752	85.19
267.984	82.19
268.216	76.19
268.448	91.19
268.681	87.19
268.913	87.19
269.145	91.19
269.377	101.19
269.609	88.19
269.841	91.19
270.073	79.19
270.306	100.19
270.538	97.19
270.77	90.19
271.002	77.19
271.234	83.19
271.466	93.19
271.698	84.19
271.93	89.19
272.162	85.19
272.394	87.19
272.626	90.19
272.858	98.19
273.09	100.19
273.322	81.19
273.553	82.19
273.785	89.19
274.017	84.19
274.249	92.19
274.481	89.19
274.713	80.19
274.945	72.19
275.176	99.19
275.408	81.19
275.64	94.19
275.872	91.19
276.104	74.19
276.335	81.19
276.567	95.19
276.799	99.19
277.031	100.19
277.262	89.19
277.494	83.19
277.726	107.19
277.957	88.19
278.189	90.19
278.421	77.19
278.652	86.19
278.884	93.19
279.115	91.19
279.347	86.19
279.579	82.19
279.81	86.19
280.042	77.19
280.273	81.19
280.505	91.19
280.736	91.19
280.968	91.19
281.199	82.19
281.431	84.19
281.662	106.19
281.894	102.19
282.125	113.19
282.356	98.19
282.588	121.19
282.819	126.19
283.051	89.19
283.282	100.19
283.513	87.19
283.745	94.19
283.976	79.19
284.207	82.19
284.439	80.19
284.67	84.19
284.901	97.19
285.132	101.19
285.364	100.19
285.595	100.19
285.826	90.19
286.057	94.19
286.288	85.19
286.52	81.19
286.751	77.19
286.982	98.19
287.213	97.19
287.444	94.19
287.675	92.19
287.906	94.19
288.138	87.19
288.369	94.19
288.6	94.19
288.831	98.19
289.062	94.19
289.293	88.19
289.524	77.19
289.755	87.19
289.986	102.19
290.217	77.19
290.448	87.19
290.679	104.19
290.91	100.19
291.141	96.19
291.371	101.19
291.602	88.19
291.833	87.19
292.064	88.19
292.295	94.19
292.526	79.19
292.757	88.19
292.987	103.19
293.218	93.19
293.449	89.19
293.68	95.19
293.91	110.19
294.141	94.19
294.372	71.19
294.603	94.19
294.833	102.19
295.064	91.19
295.295	97.19
295.525	104.19
295.756	79.19
295.987	117.19
296.217	124.19
296.448	102.19
296.679	93.19
296.909	93.19
297.14	84.19
297.37	93.19
297.601	98.19
297.831	91.19
298.062	99.19
298.292	90.19
298.523	93.19
298.753	96.19
298.984	85.19
299.214	89.19
299.445	94.19
299.675	112.19
299.905	93.19
300.136	104.19
300.366	92.19
300.597	105.19
300.827	96.19
301.057	99.19
301.288	91.19
301.518	90.19
301.748	89.19
301.979	101.19
302.209	97.19
302.439	90.19
302.669	87.19
302.9	90.19
303.13	93.19
303.36	96.19
303.59	107.19
303.82	98.19
304.051	102.19
304.281	90.19
304.511	81.19
304.741	81.19
304.971	77.19
305.201	99.19
305.431	92.19
305.661	83.19
305.891	94.19
306.121	86.19
306.352	101.19
306.582	112.19
306.812	103.19
307.042	95.19
307.272	76.19
307.502	89.19
307.731	93.19
307.961	88.19
308.191	100.19
308.421	101.19
308.651	91.19
308.881	98.19
309.111	99.19
309.341	103.19
309.571	89.19
309.8	97.19
310.03	106.19
310.26	86.19
310.49	86.19
310.72	83.19
310.949	107.19
311.179	88.19
311.409	86.19
311.639	89.19
311.868	112.19
312.098	96.19
312.328	99.19
312.557	85.19
312.787	83.19
313.017	103.19
313.246	91.19
313.476	102.19
313.706	105.19
313.935	87.19
314.165	88.19
314.394	99.19
314.624	103.19
314.853	107.19
315.083	97.19
315.312	87.19
315.542	105.19
315.771	79.19
316.001	95.19
316.23	115.19
316.46	92.19
316.689	95.19
316.919	99.19
317.148	76.19
317.377	89.19
317.607	94.19
317.836	95.19
318.065	83.19
318.295	101.19
318.524	86.19
318.753	97.19
318.983	105.19
319.212	112.19
319.441	104.19
319.67	101.19
319.9	99.19
320.129	100.19
320.358	92.19
320.587	107.19
320.816	89.19
321.046	100.19
321.275	101.19
321.504	99.19
321.733	106.19
321.962	102.19
322.191	101.19
322.42	96.19
322.649	106.19
322.878	110.19
323.108	98.19
323.337	130.19
323.566	140.19
323.795	145.19
324.024	209.19
324.253	367.19
324.482	773.19
324.71	1554.19
324.939	2100.19
325.168	767.19
325.397	219.19
325.626	137.19
325.855	133.19
326.084	129.19
326.313	129.19
326.542	141.19
326.77	217.19
326.999	418.19
327.228	907.19
327.457	1619.19
327.686	1320.19
327.914	331.19
328.143	186.19
328.372	147.19
328.6	113.19
328.829	129.19
329.058	112.19
329.287	115.19
329.515	107.19
329.744	98.19
329.972	101.19
330.201	111.19
330.43	111.19
330.658	116.19
330.887	122.19
331.115	114.19
331.344	98.19
331.572	104.19
331.801	102.19
332.03	102.19
332.258	105.19
332.486	76.19
332.715	95.19
332.943	105.19
333.172	98.19
333.4	87.19
333.629	95.19
333.857	125.19
334.085	113.19
334.314	106.19
334.542	110.19
334.771	102.19
334.999	89.19
335.227	105.19
335.455	99.19
335.684	99.19
335.912	98.19
336.14	104.19
336.369	91.19
336.597	107.19
336.825	101.19
337.053	97.19
337.281	89.19
337.51	91.19
337.738	106.19
337.966	109.19
338.194	104.19
338.422	105.19
338.65	102.19
338.878	70.19
339.106	87.19
339.334	97.19
339.562	88.19
339.79	83.19
340.018	90.19
340.246	86.19
340.474	89.19
340.702	87.19
340.93	91.19
341.158	90.19
341.386	98.19
341.614	100.19
341.842	109.19
342.07	90.19
342.298	97.19
342.526	85.19
342.754	95.19
342.981	87.19
343.209	90.19
343.437	83.19
343.665	112.19
343.893	90.19
344.12	95.19
344.348	86.19
344.576	85.19
344.804	108.19
345.031	95.19
345.259	98.19
345.487	92.19
345.714	102.19
345.942	96.19
346.17	97.19
346.397	100.19
346.625	94.19
346.853	89.19
347.08	93.19
347.308	104.19
347.535	90.19
347.763	101.19
347.99	110.19
348.218	110.19
348.445	103.19
348.673	105.19
348.9	95.19
349.128	84.19
349.355	105.19
349.583	97.19
349.81	101.19
350.037	96.19
350.265	79.19
350.492	93.19
350.72	83.19
350.947	101.19
351.174	103.19
351.402	103.19
351.629	98.19
351.856	106.19
352.083	102.19
352.311	100.19
352.538	101.19
352.765	119.19
352.992	115.19
353.22	111.19
353.447	100.19
353.674	99.19
353.901	105.19
354.128	107.19
354.355	105.19
354.583	109.19
354.81	98.19
355.037	106.19
355.264	101.19
355.491	98.19
355.718	107.19
355.945	100.19
356.172	95.19
356.399	86.19
356.626	90.19
356.853	93.19
357.08	116.19
357.307	107.19
357.534	84.19
357.761	108.19
357.988	107.19
358.215	111.19
358.441	109.19
358.668	119.19
358.895	93.19
359.122	101.19
359.349	100.19
359.576	95.19
359.802	102.19
360.029	110.19
360.256	106.19
360.483	87.19
360.709	89.19
360.936	92.19
361.163	98.19
361.39	95.19
361.616	97.19
361.843	98.19
362.07	93.19
362.296	98.19
362.523	89.19
362.749	103.19
362.976	89.19
363.203	94.19
363.429	103.19
363.656	97.19
363.882	83.19
364.109	102.19
364.335	95.19
364.562	72.19
364.788	101.19
365.015	91.19
365.241	90.19
365.468	99.19
365.694	113.19
365.92	84.19
366.147	81.19
366.373	90.19
366.599	90.19
366.826	92.19
367.052	88.19
367.278	91.19
367.505	95.19
367.731	89.19
367.957	97.19
368.184	104.19
368.41	106.19
368.636	101.19
368.862	102.19
369.089	103.19
369.315	88.19
369.541	97.19
369.767	86.19
369.993	99.19
370.219	107.19
370.445	86.19
370.672	76.19
370.898	89.19
371.124	89.19
371.35	94.19
371.576	94.19
371.802	87.19
372.028	103.19
372.254	99.19
372.48	86.19
372.706	94.19
372.932	110.19
373.158	88.19
373.384	79.19
373.61	97.19
373.835	99.19
374.061	102.19
374.287	93.19
374.513	88.19
374.739	87.19
374.965	82.19
375.191	98.19
375.416	87.19
375.642	88.19
375.868	105.19
376.094	110.19
376.319	106.19
376.545	91.19
376.771	83.19
376.997	86.19
377.222	103.19
377.448	107.19
377.674	110.19
377.899	92.19
378.125	95.19
378.35	107.19
378.576	110.19
378.802	110.19
379.027	106.19
379.253	94.19
379.478	109.19
379.704	116.19
379.929	118.19
380.155	100.19
380.38	115.19
380.606	116.19
380.831	103.19
381.057	101.19
381.282	114.19
381.507	111.19
381.733	125.19
381.958	118.19
382.184	123.19
382.409	119.19
382.634	117.19
382.86	133.19
383.085	122.19
383.31	126.19
383.535	126.19
383.761	127.19
383.986	144.19
384.211	119.19
384.436	130.19
384.662	124.19
384.887	145.19
385.112	153.19
385.337	146.19
385.562	145.19
385.787	147.19
386.013	167.19
386.238	185.19
386.463	153.19
386.688	140.19
386.913	141.19
387.138	161.19
387.363	137.19
387.588	138.19
387.813	141.19
388.038	146.19
388.263	185.19
388.488	156.19
388.713	118.19
388.938	91.19
389.163	98.19
389.387	112.19
389.612	91.19
389.837	85.19
390.062	101.19
390.287	97.19
390.512	110.19
390.736	97.19
390.961	85.19
391.186	92.19
391.411	107.19
391.636	110.19
391.86	94.19
392.085	90.19
392.31	85.19
392.534	93.19
392.759	89.19
392.984	99.19
393.208	110.19
393.433	143.19
393.658	116.19
393.882	90.19
394.107	86.19
394.331	88.19
394.556	106.19
394.78	99.19
395.005	94.19
395.229	89.19
395.454	87.19
395.678	89.19
395.903	83.19
396.127	95.19
396.352	90.19
396.576	86.19
396.801	110.19
397.025	118.19
397.249	83.19
397.474	86.19
397.698	107.19
397.922	92.19
398.147	90.19
398.371	88.19
398.595	92.19
398.82	78.19
399.044	86.19
399.268	96.19
399.492	82.19
399.717	103.19
399.941	93.19
400.165	113.19
400.389	93.19
400.613	90.19
400.837	90.19
401.062	86.19
401.286	82.19
401.51	84.19
401.734	85.19
401.958	83.19
402.182	122.19
402.406	131.19
402.63	115.19
402.854	101.19
403.078	90.19
403.302	78.19
403.526	94.19
403.75	91.19
403.974	92.19
404.198	93.19
404.422	92.19
404.645	82.19
404.869	91.19
405.093	105.19
405.317	89.19
405.541	97.19
405.765	103.19
405.988	103.19
406.212	151.19
406.436	190.19
406.66	132.19
406.883	102.19
407.107	102.19
407.331	106.19
407.555	93.19
407.778	109.19
408.002	89.19
408.226	89.19
408.449	92.19
408.673	96.19
408.896	101.19
409.12	94.19
409.344	92.19
409.567	99.19
409.791	94.19
410.014	98.19
410.238	99.19
410.461	92.19
410.685	89.19
410.908	95.19
411.132	114.19
411.355	89.19
411.578	86.19
411.802	101.19
412.025	85.19
412.249	87.19
412.472	105.19
412.695	88.19
412.919	102.19
413.142	87.19
413.365	106.19
413.589	94.19
413.812	90.19
414.035	85.19
414.258	85.19
414.482	96.19
414.705	83.19
414.928	93.19
415.151	110.19
415.374	89.19
415.597	92.19
415.821	97.19
416.044	104.19
416.267	97.19
416.49	97.19
416.713	84.19
416.936	97.19
417.159	103.19
417.382	98.19
417.605	92.19
417.828	95.19
418.051	110.19
418.274	99.19
418.497	88.19
418.72	89.19
418.943	100.19
419.166	99.19
419.389	104.19
419.611	83.19
419.834	90.19
420.057	99.19
420.28	83.19
420.503	82.19
420.726	104.19
420.948	87.19
421.171	107.19
421.394	90.19
421.617	101.19
421.839	89.19
422.062	90.19
422.285	75.19
422.507	114.19
422.73	107.19
422.953	93.19
423.175	72.19
423.398	95.19
423.621	88.19
423.843	87.19
424.066	94.19
424.288	92.19
424.511	78.19
424.733	94.19
424.956	88.19
425.178	105.19
425.401	105.19
425.623	106.19
425.846	96.19
426.068	102.19
426.291	86.19
426.513	94.19
426.735	79.19
426.958	94.19
427.18	102.19
427.402	139.19
427.625	128.19
427.847	117.19
428.069	112.19
428.292	102.19
428.514	94.19
428.736	86.19
428.958	85.19
429.181	82.19
429.403	82.19
429.625	99.19
429.847	93.19
430.069	93.19
430.292	92.19
430.514	93.19
430.736	87.19
430.958	102.19
431.18	100.19
431.402	87.19
431.624	83.19
431.846	98.19
432.068	90.19
432.29	91.19
432.512	96.19
432.734	99.19
432.956	91.19
433.178	101.19
433.4	89.19
433.622	98.19
433.844	105.19
434.066	97.19
434.287	100.19
434.509	108.19
434.731	93.19
434.953	92.19
435.175	78.19
435.397	98.19
435.618	92.19
435.84	119.19
436.062	119.19
436.284	101.19
436.505	85.19
436.727	93.19
436.949	91.19
437.17	98.19
437.392	93.19
437.614	103.19
437.835	103.19
438.057	110.19
438.278	107.19
438.5	97.19
438.721	102.19
438.943	98.19
439.165	90.19
439.386	96.19
439.608	98.19
439.829	91.19
440.05	112.19
440.272	118.19
440.493	100.19
440.715	74.19
440.936	71.19
441.158	93.19
441.379	83.19
441.6	88.19
441.822	90.19
442.043	95.19
442.264	100.19
442.486	82.19
442.707	95.19
442.928	98.19
443.149	128.19
443.371	135.19
443.592	94.19
443.813	106.19
444.034	94.19
444.255	97.19
444.476	92.19
444.698	92.19
444.919	78.19
445.14	129.19
445.361	111.19
445.582	115.19
445.803	127.19
446.024	127.19
446.245	126.19
446.466	104.19
446.687	82.19
446.908	99.19
447.129	95.19
447.35	110.19
447.571	90.19
447.792	98.19
448.013	96.19
448.234	107.19
448.455	89.19
448.675	125.19
448.896	115.19
449.117	97.19
449.338	105.19
449.559	130.19
449.779	123.19
450	106.19
450.221	106.19
450.442	87.19
450.662	100.19
450.883	101.19
451.104	108.19
451.324	96.19
451.545	94.19
451.766	86.19
451.986	91.19
452.207	84.19
452.428	89.19
452.648	98.19
452.869	110.19
453.089	92.19
453.31	97.19
453.53	92.19
453.751	93.19
453.971	90.19
454.192	106.19
454.412	91.19
454.633	99.19
454.853	94.19
455.073	77.19
455.294	86.19
455.514	117.19
455.734	106.19
455.955	85.19
456.175	74.19
456.395	103.19
456.616	101.19
456.836	85.19
457.056	92.19
457.276	96.19
457.497	84.19
457.717	76.19
457.937	93.19
458.157	85.19
458.377	96.19
458.598	114.19
458.818	130.19
459.038	146.19
459.258	109.19
459.478	89.19
459.698	100.19
459.918	92.19
460.138	112.19
460.358	94.19
460.578	85.19
460.798	93.19
461.018	85.19
461.238	82.19
461.458	79.19
461.678	70.19
461.898	83.19
462.118	89.19
462.338	92.19
462.558	94.19
462.777	86.19
462.997	100.19
463.217	84.19
463.437	76.19
463.657	83.19
463.876	89.19
464.096	78.19
464.316	92.19
464.536	101.19
464.755	91.19
464.975	89.19
465.195	128.19
465.414	129.19
465.634	93.19
465.854	89.19
466.073	87.19
466.293	102.19
466.512	95.19
466.732	82.19
466.951	91.19
467.171	93.19
467.391	98.19
467.61	98.19
467.829	108.19
468.049	81.19
468.268	92.19
468.488	82.19
468.707	100.19
468.927	95.19
469.146	73.19
469.365	101.19
469.585	79.19
469.804	101.19
470.023	93.19
470.243	105.19
470.462	86.19
470.681	107.19
470.901	97.19
471.12	93.19
471.339	94.19
471.558	90.19
471.777	91.19
471.997	75.19
472.216	111.19
472.435	101.19
472.654	84.19
472.873	90.19
473.092	98.19
473.311	94.19
473.53	78.19
473.749	89.19
473.968	85.19
474.187	93.19
474.406	92.19
474.625	83.19
474.844	79.19
475.063	77.19
475.282	85.19
475.501	87.19
475.72	89.19
475.939	89.19
476.158	96.19
476.377	84.19
476.596	92.19
476.814	94.19
477.033	82.19
477.252	87.19
477.471	92.19
477.69	85.19
477.908	114.19
478.127	93.19
478.346	107.19
478.564	98.19
478.783	87.19
479.002	74.19
479.22	83.19
479.439	102.19
479.658	108.19
479.876	103.19
480.095	74.19
480.313	95.19
480.532	83.19
480.751	75.19
480.969	98.19
481.188	112.19
481.406	123.19
481.624	117.19
481.843	95.19
482.061	99.19
482.28	95.19
482.498	92.19
482.717	85.19
482.935	81.19
483.153	97.19
483.372	91.19
483.59	94.19
483.808	91.19
484.027	96.19
484.245	91.19
484.463	98.19
484.681	98.19
484.9	106.19
485.118	100.19
485.336	93.19
485.554	110.19
485.772	103.19
485.99	108.19
486.209	113.19
486.427	109.19
486.645	112.19
486.863	111.19
487.081	121.19
487.299	107.19
487.517	109.19
487.735	105.19
487.953	99.19
488.171	90.19
488.389	93.19
488.607	96.19
488.825	96.19
489.043	98.19
489.261	71.19
489.479	89.19
489.696	91.19
489.914	89.19
490.132	87.19
490.35	93.19
490.568	92.19
490.786	98.19
491.003	98.19
491.221	106.19
491.439	99.19
491.657	78.19
491.874	91.19
492.092	78.19
492.31	93.19
492.527	87.19
492.745	84.19
492.963	101.19
493.18	92.19
493.398	103.19
493.615	91.19
493.833	99.19
494.05	99.19
494.268	85.19
494.485	88.19
494.703	84.19
494.92	94.19
495.138	84.19
495.355	99.19
495.573	88.19
495.79	92.19
496.008	87.19
496.225	93.19
496.442	86.19
496.66	89.19
496.877	98.19
497.094	101.19
497.312	89.19
497.529	83.19
497.746	94.19
497.963	92.19
498.181	92.19
498.398	105.19
498.615	103.19
498.832	110.19
499.049	99.19
499.267	107.19
499.484	83.19
499.701	91.19
499.918	102.19
500.135	91.19
500.352	92.19
500.569	81.19
500.786	93.19
501.003	100.19
501.22	84.19
501.437	97.19
501.654	93.19
501.871	99.19
502.088	105.19
502.305	87.19
502.522	106.19
502.739	99.19
502.956	105.19
503.172	109.19
503.389	87.19
503.606	84.19
503.823	91.19
504.04	93.19
504.256	91.19
504.473	91.19
504.69	97.19
504.907	92.19
505.123	95.19
505.34	103.19
505.557	87.19
505.773	113.19
505.99	101.19
506.207	93.19
506.423	102.19
506.64	97.19
506.856	86.19
507.073	106.19
507.289	93.19
507.506	83.19
507.722	105.19
507.939	101.19
508.155	95.19
508.372	102.19
508.588	94.19
508.805	92.19
509.021	103.19
509.238	103.19
509.454	90.19
509.67	98.19
509.887	115.19
510.103	120.19
510.319	214.19
510.536	634.19
510.752	1813.19
510.968	520.19
511.184	140.19
511.401	113.19
511.617	86.19
511.833	90.19
512.049	105.19
512.265	97.19
512.481	87.19
512.698	92.19
512.914	83.19
513.13	102.19
513.346	83.19
513.562	103.19
513.778	97.19
513.994	99.19
514.21	92.19
514.426	117.19
