Data from Circ_1985_H10_HRD10591_00098.txt Node
Date: Wed Jan 03 12:19:42 EST 2024
User: Yrep
Spectrometer: HR+D1059
Trigger mode: 1
Integration Time (sec): 1.000000E-1
Scans to average: 1
Electric dark correction enabled: true
Nonlinearity correction enabled: false
Boxcar width: 0
XAxis mode: Wavelengths
Number of Pixels in Spectrum: 2048
>>>>>Begin Spectral Data<<<<<
223.165	-18.31
223.4	-18.31
223.635	-18.31
223.869	-9.31
224.104	-8.31
224.338	-16.31
224.573	-9.31
224.808	-12.31
225.042	-15.31
225.277	-2.31
225.511	1.69
225.746	-1.31
225.98	4.69
226.215	9.69
226.449	24.69
226.683	9.69
226.918	21.69
227.152	20.69
227.387	24.69
227.621	56.69
227.856	62.69
228.09	39.69
228.324	35.69
228.559	61.69
228.793	53.69
229.027	60.69
229.262	54.69
229.496	69.69
229.73	70.69
229.964	73.69
230.199	76.69
230.433	72.69
230.667	77.69
230.901	73.69
231.136	73.69
231.37	71.69
231.604	85.69
231.838	87.69
232.072	90.69
232.306	98.69
232.541	84.69
232.775	81.69
233.009	79.69
233.243	76.69
233.477	74.69
233.711	85.69
233.945	71.69
234.179	85.69
234.413	72.69
234.647	68.69
234.881	65.69
235.115	76.69
235.349	70.69
235.583	71.69
235.817	73.69
236.051	78.69
236.285	66.69
236.519	65.69
236.753	78.69
236.987	84.69
237.221	98.69
237.455	73.69
237.689	69.69
237.922	80.69
238.156	64.69
238.39	69.69
238.624	78.69
238.858	81.69
239.091	80.69
239.325	84.69
239.559	82.69
239.793	71.69
240.027	85.69
240.26	66.69
240.494	86.69
240.728	74.69
240.961	63.69
241.195	65.69
241.429	76.69
241.662	82.69
241.896	84.69
242.13	67.69
242.363	70.69
242.597	69.69
242.83	70.69
243.064	71.69
243.298	92.69
243.531	84.69
243.765	63.69
243.998	78.69
244.232	71.69
244.465	83.69
244.699	88.69
244.932	73.69
245.166	84.69
245.399	86.69
245.633	70.69
245.866	89.69
246.099	81.69
246.333	75.69
246.566	78.69
246.8	80.69
247.033	66.69
247.266	94.69
247.5	74.69
247.733	72.69
247.966	79.69
248.2	73.69
248.433	73.69
248.666	70.69
248.899	68.69
249.133	82.69
249.366	96.69
249.599	100.69
249.832	79.69
250.066	76.69
250.299	68.69
250.532	73.69
250.765	70.69
250.998	76.69
251.231	59.69
251.465	82.69
251.698	81.69
251.931	85.69
252.164	81.69
252.397	78.69
252.63	65.69
252.863	87.69
253.096	89.69
253.329	68.69
253.562	78.69
253.795	69.69
254.028	65.69
254.261	83.69
254.494	67.69
254.727	77.69
254.96	87.69
255.193	85.69
255.426	77.69
255.659	82.69
255.892	78.69
256.124	76.69
256.357	67.69
256.59	58.69
256.823	84.69
257.056	74.69
257.289	83.69
257.521	75.69
257.754	84.69
257.987	89.69
258.22	82.69
258.452	87.69
258.685	90.69
258.918	88.69
259.151	77.69
259.383	88.69
259.616	80.69
259.849	70.69
260.081	102.69
260.314	79.69
260.547	72.69
260.779	67.69
261.012	73.69
261.244	78.69
261.477	74.69
261.71	84.69
261.942	99.69
262.175	95.69
262.407	73.69
262.64	65.69
262.872	80.69
263.105	73.69
263.337	89.69
263.57	79.69
263.802	90.69
264.035	73.69
264.267	90.69
264.499	76.69
264.732	80.69
264.964	74.69
265.197	92.69
265.429	75.69
265.661	85.69
265.894	99.69
266.126	69.69
266.358	84.69
266.591	74.69
266.823	80.69
267.055	67.69
267.287	74.69
267.52	71.69
267.752	95.69
267.984	92.69
268.216	84.69
268.448	91.69
268.681	82.69
268.913	76.69
269.145	82.69
269.377	77.69
269.609	83.69
269.841	68.69
270.073	80.69
270.306	71.69
270.538	88.69
270.77	73.69
271.002	80.69
271.234	83.69
271.466	77.69
271.698	88.69
271.93	48.69
272.162	68.69
272.394	78.69
272.626	76.69
272.858	74.69
273.09	87.69
273.322	88.69
273.553	85.69
273.785	70.69
274.017	70.69
274.249	85.69
274.481	64.69
274.713	78.69
274.945	67.69
275.176	72.69
275.408	86.69
275.64	96.69
275.872	92.69
276.104	85.69
276.335	83.69
276.567	90.69
276.799	100.69
277.031	103.69
277.262	88.69
277.494	72.69
277.726	83.69
277.957	76.69
278.189	80.69
278.421	87.69
278.652	76.69
278.884	78.69
279.115	89.69
279.347	76.69
279.579	82.69
279.81	92.69
280.042	84.69
280.273	84.69
280.505	93.69
280.736	85.69
280.968	96.69
281.199	84.69
281.431	90.69
281.662	85.69
281.894	84.69
282.125	91.69
282.356	85.69
282.588	133.69
282.819	103.69
283.051	81.69
283.282	79.69
283.513	89.69
283.745	84.69
283.976	98.69
284.207	94.69
284.439	82.69
284.67	81.69
284.901	87.69
285.132	73.69
285.364	85.69
285.595	96.69
285.826	83.69
286.057	98.69
286.288	86.69
286.52	73.69
286.751	92.69
286.982	81.69
287.213	73.69
287.444	83.69
287.675	80.69
287.906	87.69
288.138	85.69
288.369	94.69
288.6	90.69
288.831	79.69
289.062	78.69
289.293	77.69
289.524	85.69
289.755	86.69
289.986	87.69
290.217	99.69
290.448	86.69
290.679	94.69
290.91	94.69
291.141	86.69
291.371	93.69
291.602	88.69
291.833	84.69
292.064	83.69
292.295	100.69
292.526	96.69
292.757	74.69
292.987	72.69
293.218	93.69
293.449	79.69
293.68	79.69
293.91	82.69
294.141	85.69
294.372	86.69
294.603	88.69
294.833	76.69
295.064	93.69
295.295	93.69
295.525	102.69
295.756	92.69
295.987	105.69
296.217	116.69
296.448	117.69
296.679	86.69
296.909	84.69
297.14	82.69
297.37	74.69
297.601	79.69
297.831	86.69
298.062	91.69
298.292	69.69
298.523	74.69
298.753	97.69
298.984	85.69
299.214	86.69
299.445	91.69
299.675	88.69
299.905	87.69
300.136	97.69
300.366	88.69
300.597	84.69
300.827	81.69
301.057	95.69
301.288	86.69
301.518	84.69
301.748	68.69
301.979	94.69
302.209	88.69
302.439	87.69
302.669	89.69
302.9	90.69
303.13	94.69
303.36	84.69
303.59	82.69
303.82	98.69
304.051	98.69
304.281	85.69
304.511	96.69
304.741	83.69
304.971	91.69
305.201	86.69
305.431	87.69
305.661	83.69
305.891	85.69
306.121	98.69
306.352	87.69
306.582	95.69
306.812	94.69
307.042	71.69
307.272	84.69
307.502	90.69
307.731	89.69
307.961	94.69
308.191	85.69
308.421	81.69
308.651	100.69
308.881	94.69
309.111	91.69
309.341	79.69
309.571	98.69
309.8	93.69
310.03	83.69
310.26	99.69
310.49	97.69
310.72	92.69
310.949	102.69
311.179	77.69
311.409	89.69
311.639	80.69
311.868	102.69
312.098	111.69
312.328	80.69
312.557	79.69
312.787	110.69
313.017	86.69
313.246	89.69
313.476	91.69
313.706	87.69
313.935	93.69
314.165	89.69
314.394	88.69
314.624	91.69
314.853	94.69
315.083	88.69
315.312	115.69
315.542	80.69
315.771	87.69
316.001	85.69
316.23	74.69
316.46	76.69
316.689	65.69
316.919	87.69
317.148	93.69
317.377	92.69
317.607	85.69
317.836	77.69
318.065	97.69
318.295	97.69
318.524	74.69
318.753	86.69
318.983	88.69
319.212	96.69
319.441	106.69
319.67	107.69
319.9	89.69
320.129	86.69
320.358	97.69
320.587	85.69
320.816	100.69
321.046	97.69
321.275	92.69
321.504	86.69
321.733	93.69
321.962	94.69
322.191	83.69
322.42	98.69
322.649	94.69
322.878	120.69
323.108	116.69
323.337	127.69
323.566	119.69
323.795	150.69
324.024	190.69
324.253	369.69
324.482	764.69
324.71	1612.69
324.939	2150.69
325.168	785.69
325.397	229.69
325.626	146.69
325.855	115.69
326.084	117.69
326.313	125.69
326.542	147.69
326.77	208.69
326.999	428.69
327.228	894.69
327.457	1681.69
327.686	1292.69
327.914	359.69
328.143	182.69
328.372	156.69
328.6	122.69
328.829	122.69
329.058	106.69
329.287	128.69
329.515	98.69
329.744	94.69
329.972	114.69
330.201	137.69
330.43	157.69
330.658	129.69
330.887	123.69
331.115	120.69
331.344	94.69
331.572	84.69
331.801	108.69
332.03	105.69
332.258	88.69
332.486	89.69
332.715	97.69
332.943	84.69
333.172	103.69
333.4	84.69
333.629	96.69
333.857	100.69
334.085	91.69
334.314	131.69
334.542	178.69
334.771	168.69
334.999	114.69
335.227	105.69
335.455	99.69
335.684	86.69
335.912	98.69
336.14	94.69
336.369	87.69
336.597	98.69
336.825	88.69
337.053	85.69
337.281	90.69
337.51	86.69
337.738	93.69
337.966	92.69
338.194	87.69
338.422	93.69
338.65	95.69
338.878	97.69
339.106	79.69
339.334	90.69
339.562	88.69
339.79	83.69
340.018	92.69
340.246	85.69
340.474	86.69
340.702	86.69
340.93	92.69
341.158	87.69
341.386	76.69
341.614	70.69
341.842	84.69
342.07	85.69
342.298	83.69
342.526	90.69
342.754	92.69
342.981	85.69
343.209	83.69
343.437	100.69
343.665	88.69
343.893	85.69
344.12	90.69
344.348	80.69
344.576	96.69
344.804	77.69
345.031	98.69
345.259	91.69
345.487	90.69
345.714	81.69
345.942	98.69
346.17	81.69
346.397	92.69
346.625	96.69
346.853	83.69
347.08	73.69
347.308	104.69
347.535	91.69
347.763	94.69
347.99	91.69
348.218	93.69
348.445	91.69
348.673	101.69
348.9	92.69
349.128	91.69
349.355	94.69
349.583	98.69
349.81	87.69
350.037	96.69
350.265	100.69
350.492	101.69
350.72	98.69
350.947	99.69
351.174	103.69
351.402	95.69
351.629	103.69
351.856	93.69
352.083	104.69
352.311	92.69
352.538	105.69
352.765	98.69
352.992	98.69
353.22	93.69
353.447	90.69
353.674	87.69
353.901	93.69
354.128	105.69
354.355	94.69
354.583	93.69
354.81	81.69
355.037	95.69
355.264	73.69
355.491	79.69
355.718	93.69
355.945	93.69
356.172	87.69
356.399	91.69
356.626	87.69
356.853	95.69
357.08	92.69
357.307	76.69
357.534	104.69
357.761	91.69
357.988	79.69
358.215	103.69
358.441	100.69
358.668	98.69
358.895	75.69
359.122	87.69
359.349	80.69
359.576	86.69
359.802	81.69
360.029	93.69
360.256	99.69
360.483	96.69
360.709	106.69
360.936	85.69
361.163	90.69
361.39	93.69
361.616	97.69
361.843	78.69
362.07	94.69
362.296	106.69
362.523	88.69
362.749	94.69
362.976	74.69
363.203	85.69
363.429	85.69
363.656	85.69
363.882	84.69
364.109	84.69
364.335	97.69
364.562	97.69
364.788	80.69
365.015	93.69
365.241	92.69
365.468	86.69
365.694	96.69
365.92	98.69
366.147	90.69
366.373	78.69
366.599	80.69
366.826	86.69
367.052	85.69
367.278	77.69
367.505	86.69
367.731	84.69
367.957	89.69
368.184	81.69
368.41	97.69
368.636	94.69
368.862	100.69
369.089	95.69
369.315	78.69
369.541	77.69
369.767	94.69
369.993	94.69
370.219	86.69
370.445	65.69
370.672	78.69
370.898	71.69
371.124	76.69
371.35	91.69
371.576	81.69
371.802	80.69
372.028	69.69
372.254	99.69
372.48	84.69
372.706	90.69
372.932	79.69
373.158	73.69
373.384	86.69
373.61	108.69
373.835	68.69
374.061	97.69
374.287	87.69
374.513	98.69
374.739	102.69
374.965	87.69
375.191	73.69
375.416	80.69
375.642	82.69
375.868	82.69
376.094	98.69
376.319	69.69
376.545	97.69
376.771	90.69
376.997	92.69
377.222	80.69
377.448	103.69
377.674	79.69
377.899	88.69
378.125	87.69
378.35	92.69
378.576	94.69
378.802	72.69
379.027	91.69
379.253	89.69
379.478	92.69
379.704	84.69
379.929	78.69
380.155	90.69
380.38	93.69
380.606	88.69
380.831	92.69
381.057	88.69
381.282	84.69
381.507	112.69
381.733	89.69
381.958	102.69
382.184	89.69
382.409	105.69
382.634	102.69
382.86	89.69
383.085	96.69
383.31	108.69
383.535	78.69
383.761	85.69
383.986	89.69
384.211	95.69
384.436	92.69
384.662	97.69
384.887	98.69
385.112	90.69
385.337	79.69
385.562	95.69
385.787	106.69
386.013	88.69
386.238	108.69
386.463	111.69
386.688	104.69
386.913	97.69
387.138	97.69
387.363	98.69
387.588	80.69
387.813	97.69
388.038	96.69
388.263	97.69
388.488	87.69
388.713	92.69
388.938	85.69
389.163	90.69
389.387	98.69
389.612	93.69
389.837	102.69
390.062	87.69
390.287	91.69
390.512	82.69
390.736	86.69
390.961	84.69
391.186	81.69
391.411	97.69
391.636	95.69
391.86	82.69
392.085	91.69
392.31	82.69
392.534	87.69
392.759	92.69
392.984	86.69
393.208	74.69
393.433	87.69
393.658	94.69
393.882	89.69
394.107	85.69
394.331	79.69
394.556	74.69
394.78	93.69
395.005	95.69
395.229	88.69
395.454	81.69
395.678	72.69
395.903	85.69
396.127	84.69
396.352	86.69
396.576	87.69
396.801	83.69
397.025	80.69
397.249	81.69
397.474	83.69
397.698	89.69
397.922	92.69
398.147	71.69
398.371	80.69
398.595	89.69
398.82	87.69
399.044	79.69
399.268	64.69
399.492	82.69
399.717	102.69
399.941	101.69
400.165	83.69
400.389	100.69
400.613	84.69
400.837	79.69
401.062	84.69
401.286	87.69
401.51	90.69
401.734	95.69
401.958	97.69
402.182	114.69
402.406	129.69
402.63	108.69
402.854	80.69
403.078	81.69
403.302	77.69
403.526	84.69
403.75	98.69
403.974	103.69
404.198	87.69
404.422	85.69
404.645	87.69
404.869	86.69
405.093	83.69
405.317	83.69
405.541	101.69
405.765	99.69
405.988	99.69
406.212	136.69
406.436	189.69
406.66	126.69
406.883	77.69
407.107	100.69
407.331	74.69
407.555	98.69
407.778	98.69
408.002	90.69
408.226	89.69
408.449	93.69
408.673	73.69
408.896	82.69
409.12	93.69
409.344	82.69
409.567	79.69
409.791	95.69
410.014	79.69
410.238	102.69
410.461	99.69
410.685	103.69
410.908	96.69
411.132	91.69
411.355	92.69
411.578	94.69
411.802	100.69
412.025	86.69
412.249	88.69
412.472	85.69
412.695	87.69
412.919	83.69
413.142	76.69
413.365	89.69
413.589	89.69
413.812	76.69
414.035	83.69
414.258	86.69
414.482	89.69
414.705	86.69
414.928	98.69
415.151	90.69
415.374	88.69
415.597	95.69
415.821	78.69
416.044	83.69
416.267	79.69
416.49	84.69
416.713	89.69
416.936	81.69
417.159	88.69
417.382	86.69
417.605	93.69
417.828	98.69
418.051	82.69
418.274	79.69
418.497	68.69
418.72	80.69
418.943	78.69
419.166	79.69
419.389	94.69
419.611	97.69
419.834	88.69
420.057	78.69
420.28	96.69
420.503	70.69
420.726	91.69
420.948	97.69
421.171	93.69
421.394	81.69
421.617	95.69
421.839	98.69
422.062	88.69
422.285	89.69
422.507	79.69
422.73	82.69
422.953	92.69
423.175	89.69
423.398	84.69
423.621	90.69
423.843	82.69
424.066	78.69
424.288	87.69
424.511	93.69
424.733	89.69
424.956	98.69
425.178	82.69
425.401	88.69
425.623	88.69
425.846	88.69
426.068	84.69
426.291	71.69
426.513	76.69
426.735	88.69
426.958	100.69
427.18	114.69
427.402	131.69
427.625	142.69
427.847	128.69
428.069	117.69
428.292	90.69
428.514	85.69
428.736	70.69
428.958	85.69
429.181	81.69
429.403	98.69
429.625	87.69
429.847	92.69
430.069	92.69
430.292	89.69
430.514	84.69
430.736	89.69
430.958	75.69
431.18	88.69
431.402	89.69
431.624	82.69
431.846	78.69
432.068	87.69
432.29	79.69
432.512	82.69
432.734	80.69
432.956	90.69
433.178	100.69
433.4	94.69
433.622	89.69
433.844	91.69
434.066	88.69
434.287	84.69
434.509	102.69
434.731	77.69
434.953	79.69
435.175	79.69
435.397	89.69
435.618	89.69
435.84	97.69
436.062	120.69
436.284	104.69
436.505	90.69
436.727	101.69
436.949	96.69
437.17	78.69
437.392	90.69
437.614	91.69
437.835	108.69
438.057	103.69
438.278	98.69
438.5	98.69
438.721	114.69
438.943	89.69
439.165	93.69
439.386	90.69
439.608	87.69
439.829	98.69
440.05	108.69
440.272	124.69
440.493	101.69
440.715	96.69
440.936	94.69
441.158	96.69
441.379	79.69
441.6	88.69
441.822	92.69
442.043	74.69
442.264	96.69
442.486	84.69
442.707	82.69
442.928	84.69
443.149	112.69
443.371	116.69
443.592	79.69
443.813	98.69
444.034	87.69
444.255	96.69
444.476	81.69
444.698	92.69
444.919	81.69
445.14	124.69
445.361	111.69
445.582	116.69
445.803	122.69
446.024	118.69
446.245	115.69
446.466	105.69
446.687	86.69
446.908	87.69
447.129	81.69
447.35	71.69
447.571	92.69
447.792	85.69
448.013	82.69
448.234	94.69
448.455	102.69
448.675	110.69
448.896	92.69
449.117	105.69
449.338	97.69
449.559	119.69
449.779	114.69
450	107.69
450.221	74.69
450.442	92.69
450.662	99.69
450.883	105.69
451.104	110.69
451.324	82.69
451.545	71.69
451.766	84.69
451.986	91.69
452.207	92.69
452.428	84.69
452.648	95.69
452.869	91.69
453.089	88.69
453.31	110.69
453.53	78.69
453.751	87.69
453.971	96.69
454.192	102.69
454.412	84.69
454.633	82.69
454.853	84.69
455.073	90.69
455.294	88.69
455.514	84.69
455.734	82.69
455.955	90.69
456.175	84.69
456.395	76.69
456.616	92.69
456.836	79.69
457.056	72.69
457.276	83.69
457.497	82.69
457.717	83.69
457.937	88.69
458.157	73.69
458.377	89.69
458.598	89.69
458.818	129.69
459.038	132.69
459.258	114.69
459.478	78.69
459.698	85.69
459.918	85.69
460.138	86.69
460.358	73.69
460.578	82.69
460.798	91.69
461.018	85.69
461.238	85.69
461.458	76.69
461.678	68.69
461.898	84.69
462.118	89.69
462.338	89.69
462.558	87.69
462.777	81.69
462.997	78.69
463.217	80.69
463.437	67.69
463.657	94.69
463.876	82.69
464.096	84.69
464.316	93.69
464.536	90.69
464.755	89.69
464.975	95.69
465.195	140.69
465.414	129.69
465.634	88.69
465.854	83.69
466.073	78.69
466.293	93.69
466.512	96.69
466.732	88.69
466.951	98.69
467.171	85.69
467.391	92.69
467.61	78.69
467.829	80.69
468.049	112.69
468.268	108.69
468.488	88.69
468.707	92.69
468.927	80.69
469.146	77.69
469.365	84.69
469.585	89.69
469.804	78.69
470.023	85.69
470.243	76.69
470.462	100.69
470.681	95.69
470.901	86.69
471.12	73.69
471.339	84.69
471.558	76.69
471.777	100.69
471.997	117.69
472.216	156.69
472.435	214.69
472.654	117.69
472.873	90.69
473.092	87.69
473.311	89.69
473.53	77.69
473.749	92.69
473.968	88.69
474.187	89.69
474.406	80.69
474.625	96.69
474.844	89.69
475.063	88.69
475.282	98.69
475.501	92.69
475.72	91.69
475.939	84.69
476.158	88.69
476.377	86.69
476.596	97.69
476.814	85.69
477.033	82.69
477.252	100.69
477.471	77.69
477.69	90.69
477.908	89.69
478.127	90.69
478.346	86.69
478.564	98.69
478.783	88.69
479.002	78.69
479.22	84.69
479.439	87.69
479.658	94.69
479.876	77.69
480.095	81.69
480.313	85.69
480.532	89.69
480.751	95.69
480.969	143.69
481.188	338.69
481.406	236.69
481.624	102.69
481.843	93.69
482.061	76.69
482.28	90.69
482.498	91.69
482.717	98.69
482.935	84.69
483.153	90.69
483.372	85.69
483.59	89.69
483.808	79.69
484.027	89.69
484.245	90.69
484.463	87.69
484.681	111.69
484.9	88.69
485.118	85.69
485.336	76.69
485.554	91.69
485.772	95.69
485.99	99.69
486.209	110.69
486.427	108.69
486.645	107.69
486.863	115.69
487.081	113.69
487.299	96.69
487.517	86.69
487.735	85.69
487.953	97.69
488.171	92.69
488.389	83.69
488.607	96.69
488.825	95.69
489.043	78.69
489.261	90.69
489.479	99.69
489.696	94.69
489.914	95.69
490.132	75.69
490.35	83.69
490.568	76.69
490.786	73.69
491.003	94.69
491.221	85.69
491.439	88.69
491.657	76.69
491.874	93.69
492.092	80.69
492.31	94.69
492.527	94.69
492.745	81.69
492.963	69.69
493.18	74.69
493.398	77.69
493.615	104.69
493.833	91.69
494.05	72.69
494.268	86.69
494.485	71.69
494.703	78.69
494.92	94.69
495.138	90.69
495.355	89.69
495.573	98.69
495.79	86.69
496.008	90.69
496.225	93.69
496.442	97.69
496.66	89.69
496.877	82.69
497.094	91.69
497.312	87.69
497.529	90.69
497.746	97.69
497.963	72.69
498.181	84.69
498.398	95.69
498.615	98.69
498.832	92.69
499.049	78.69
499.267	87.69
499.484	92.69
499.701	92.69
499.918	88.69
500.135	83.69
500.352	71.69
500.569	96.69
500.786	89.69
501.003	84.69
501.22	91.69
501.437	82.69
501.654	85.69
501.871	105.69
502.088	78.69
502.305	79.69
502.522	88.69
502.739	82.69
502.956	82.69
503.172	93.69
503.389	86.69
503.606	94.69
503.823	83.69
504.04	91.69
504.256	71.69
504.473	68.69
504.69	86.69
504.907	90.69
505.123	98.69
505.34	79.69
505.557	80.69
505.773	92.69
505.99	82.69
506.207	98.69
506.423	88.69
506.64	81.69
506.856	96.69
507.073	87.69
507.289	82.69
507.506	100.69
507.722	97.69
507.939	104.69
508.155	104.69
508.372	89.69
508.588	77.69
508.805	100.69
509.021	94.69
509.238	81.69
509.454	95.69
509.67	95.69
509.887	89.69
510.103	117.69
510.319	178.69
510.536	628.69
510.752	1891.69
510.968	535.69
511.184	138.69
511.401	95.69
511.617	98.69
511.833	99.69
512.049	97.69
512.265	83.69
512.481	82.69
512.698	95.69
512.914	89.69
513.13	97.69
513.346	71.69
513.562	84.69
513.778	76.69
513.994	85.69
514.21	88.69
514.426	110.69
514.642	113.69
514.858	103.69
515.074	132.69
515.29	361.69
515.506	1080.69
515.721	420.69
515.937	133.69
516.153	87.69
516.369	91.69
516.585	84.69
516.801	69.69
517.016	82.69
517.232	84.69
517.448	80.69
