Data from Circ_1985_H10_HRD10591_00028.txt Node
Date: Wed Jan 03 12:19:28 EST 2024
User: Yrep
Spectrometer: HR+D1059
Trigger mode: 1
Integration Time (sec): 1.000000E-1
Scans to average: 1
Electric dark correction enabled: true
Nonlinearity correction enabled: false
Boxcar width: 0
XAxis mode: Wavelengths
Number of Pixels in Spectrum: 2048
>>>>>Begin Spectral Data<<<<<
223.165	-34.12
223.4	-34.12
223.635	-34.12
223.869	-22.12
224.104	-30.12
224.338	-12.12
224.573	-6.12
224.808	-0.12
225.042	-17.12
225.277	1.88
225.511	-11.12
225.746	12.88
225.98	-2.12
226.215	16.88
226.449	21.88
226.683	24.88
226.918	34.88
227.152	21.88
227.387	34.88
227.621	36.88
227.856	33.88
228.09	28.88
228.324	52.88
228.559	59.88
228.793	55.88
229.027	74.88
229.262	73.88
229.496	84.88
229.73	65.88
229.964	76.88
230.199	71.88
230.433	69.88
230.667	76.88
230.901	96.88
231.136	57.88
231.37	77.88
231.604	102.88
231.838	71.88
232.072	81.88
232.306	82.88
232.541	80.88
232.775	69.88
233.009	73.88
233.243	76.88
233.477	85.88
233.711	65.88
233.945	90.88
234.179	83.88
234.413	61.88
234.647	78.88
234.881	72.88
235.115	82.88
235.349	85.88
235.583	84.88
235.817	75.88
236.051	74.88
236.285	100.88
236.519	86.88
236.753	74.88
236.987	71.88
237.221	72.88
237.455	90.88
237.689	76.88
237.922	68.88
238.156	66.88
238.39	80.88
238.624	68.88
238.858	70.88
239.091	71.88
239.325	74.88
239.559	77.88
239.793	76.88
240.027	79.88
240.26	73.88
240.494	73.88
240.728	77.88
240.961	79.88
241.195	72.88
241.429	80.88
241.662	63.88
241.896	60.88
242.13	65.88
242.363	86.88
242.597	80.88
242.83	79.88
243.064	66.88
243.298	57.88
243.531	63.88
243.765	75.88
243.998	85.88
244.232	84.88
244.465	66.88
244.699	85.88
244.932	80.88
245.166	71.88
245.399	76.88
245.633	69.88
245.866	80.88
246.099	79.88
246.333	81.88
246.566	71.88
246.8	71.88
247.033	79.88
247.266	66.88
247.5	78.88
247.733	80.88
247.966	80.88
248.2	87.88
248.433	88.88
248.666	80.88
248.899	71.88
249.133	97.88
249.366	87.88
249.599	90.88
249.832	76.88
250.066	76.88
250.299	89.88
250.532	72.88
250.765	83.88
250.998	81.88
251.231	84.88
251.465	79.88
251.698	84.88
251.931	74.88
252.164	79.88
252.397	86.88
252.63	84.88
252.863	88.88
253.096	85.88
253.329	61.88
253.562	72.88
253.795	67.88
254.028	76.88
254.261	73.88
254.494	83.88
254.727	78.88
254.96	77.88
255.193	83.88
255.426	94.88
255.659	79.88
255.892	76.88
256.124	76.88
256.357	82.88
256.59	82.88
256.823	88.88
257.056	78.88
257.289	64.88
257.521	82.88
257.754	79.88
257.987	65.88
258.22	78.88
258.452	76.88
258.685	86.88
258.918	84.88
259.151	81.88
259.383	73.88
259.616	74.88
259.849	93.88
260.081	80.88
260.314	81.88
260.547	66.88
260.779	80.88
261.012	78.88
261.244	84.88
261.477	85.88
261.71	76.88
261.942	105.88
262.175	109.88
262.407	84.88
262.64	85.88
262.872	76.88
263.105	74.88
263.337	91.88
263.57	81.88
263.802	84.88
264.035	87.88
264.267	76.88
264.499	78.88
264.732	81.88
264.964	69.88
265.197	68.88
265.429	87.88
265.661	70.88
265.894	82.88
266.126	81.88
266.358	89.88
266.591	69.88
266.823	70.88
267.055	92.88
267.287	80.88
267.52	79.88
267.752	84.88
267.984	78.88
268.216	80.88
268.448	88.88
268.681	78.88
268.913	78.88
269.145	81.88
269.377	93.88
269.609	91.88
269.841	84.88
270.073	84.88
270.306	94.88
270.538	75.88
270.77	82.88
271.002	81.88
271.234	79.88
271.466	77.88
271.698	80.88
271.93	94.88
272.162	74.88
272.394	83.88
272.626	86.88
272.858	81.88
273.09	83.88
273.322	92.88
273.553	76.88
273.785	66.88
274.017	86.88
274.249	88.88
274.481	86.88
274.713	62.88
274.945	95.88
275.176	84.88
275.408	84.88
275.64	86.88
275.872	83.88
276.104	91.88
276.335	88.88
276.567	87.88
276.799	102.88
277.031	91.88
277.262	91.88
277.494	84.88
277.726	91.88
277.957	89.88
278.189	77.88
278.421	81.88
278.652	89.88
278.884	87.88
279.115	84.88
279.347	92.88
279.579	61.88
279.81	82.88
280.042	92.88
280.273	78.88
280.505	80.88
280.736	76.88
280.968	78.88
281.199	85.88
281.431	93.88
281.662	80.88
281.894	87.88
282.125	108.88
282.356	117.88
282.588	127.88
282.819	105.88
283.051	93.88
283.282	80.88
283.513	89.88
283.745	89.88
283.976	103.88
284.207	96.88
284.439	89.88
284.67	84.88
284.901	73.88
285.132	93.88
285.364	76.88
285.595	81.88
285.826	73.88
286.057	85.88
286.288	76.88
286.52	88.88
286.751	83.88
286.982	89.88
287.213	83.88
287.444	88.88
287.675	79.88
287.906	82.88
288.138	86.88
288.369	95.88
288.6	83.88
288.831	72.88
289.062	81.88
289.293	96.88
289.524	78.88
289.755	89.88
289.986	80.88
290.217	86.88
290.448	80.88
290.679	71.88
290.91	89.88
291.141	88.88
291.371	89.88
291.602	83.88
291.833	84.88
292.064	88.88
292.295	84.88
292.526	94.88
292.757	88.88
292.987	85.88
293.218	74.88
293.449	87.88
293.68	86.88
293.91	82.88
294.141	93.88
294.372	91.88
294.603	77.88
294.833	70.88
295.064	84.88
295.295	92.88
295.525	84.88
295.756	98.88
295.987	102.88
296.217	119.88
296.448	93.88
296.679	93.88
296.909	78.88
297.14	81.88
297.37	82.88
297.601	77.88
297.831	83.88
298.062	81.88
298.292	82.88
298.523	95.88
298.753	76.88
298.984	88.88
299.214	98.88
299.445	96.88
299.675	92.88
299.905	79.88
300.136	86.88
300.366	88.88
300.597	93.88
300.827	78.88
301.057	93.88
301.288	94.88
301.518	88.88
301.748	74.88
301.979	110.88
302.209	88.88
302.439	78.88
302.669	93.88
302.9	97.88
303.13	89.88
303.36	81.88
303.59	96.88
303.82	95.88
304.051	90.88
304.281	67.88
304.511	85.88
304.741	79.88
304.971	82.88
305.201	92.88
305.431	86.88
305.661	97.88
305.891	83.88
306.121	94.88
306.352	92.88
306.582	93.88
306.812	87.88
307.042	81.88
307.272	82.88
307.502	88.88
307.731	81.88
307.961	95.88
308.191	80.88
308.421	81.88
308.651	100.88
308.881	97.88
309.111	86.88
309.341	84.88
309.571	112.88
309.8	92.88
310.03	87.88
310.26	86.88
310.49	98.88
310.72	108.88
310.949	103.88
311.179	89.88
311.409	80.88
311.639	104.88
311.868	99.88
312.098	93.88
312.328	85.88
312.557	87.88
312.787	80.88
313.017	93.88
313.246	94.88
313.476	87.88
313.706	94.88
313.935	90.88
314.165	102.88
314.394	95.88
314.624	92.88
314.853	94.88
315.083	95.88
315.312	94.88
315.542	99.88
315.771	92.88
316.001	93.88
316.23	98.88
316.46	85.88
316.689	89.88
316.919	71.88
317.148	88.88
317.377	97.88
317.607	84.88
317.836	79.88
318.065	84.88
318.295	99.88
318.524	86.88
318.753	89.88
318.983	89.88
319.212	101.88
319.441	114.88
319.67	107.88
319.9	88.88
320.129	86.88
320.358	88.88
320.587	89.88
320.816	97.88
321.046	92.88
321.275	95.88
321.504	102.88
321.733	96.88
321.962	105.88
322.191	89.88
322.42	101.88
322.649	116.88
322.878	117.88
323.108	96.88
323.337	113.88
323.566	140.88
323.795	155.88
324.024	186.88
324.253	368.88
324.482	761.88
324.71	1583.88
324.939	2079.88
325.168	768.88
325.397	242.88
325.626	133.88
325.855	129.88
326.084	114.88
326.313	129.88
326.542	160.88
326.77	222.88
326.999	425.88
327.228	889.88
327.457	1612.88
327.686	1308.88
327.914	349.88
328.143	174.88
328.372	137.88
328.6	106.88
328.829	119.88
329.058	117.88
329.287	117.88
329.515	114.88
329.744	101.88
329.972	106.88
330.201	95.88
330.43	123.88
330.658	119.88
330.887	118.88
331.115	100.88
331.344	82.88
331.572	90.88
331.801	95.88
332.03	92.88
332.258	80.88
332.486	82.88
332.715	92.88
332.943	88.88
333.172	93.88
333.4	96.88
333.629	91.88
333.857	115.88
334.085	110.88
334.314	113.88
334.542	122.88
334.771	110.88
334.999	92.88
335.227	95.88
335.455	84.88
335.684	89.88
335.912	92.88
336.14	96.88
336.369	85.88
336.597	98.88
336.825	97.88
337.053	82.88
337.281	103.88
337.51	91.88
337.738	81.88
337.966	82.88
338.194	92.88
338.422	90.88
338.65	98.88
338.878	86.88
339.106	85.88
339.334	95.88
339.562	88.88
339.79	72.88
340.018	88.88
340.246	95.88
340.474	84.88
340.702	79.88
340.93	91.88
341.158	84.88
341.386	92.88
341.614	93.88
341.842	84.88
342.07	84.88
342.298	93.88
342.526	94.88
342.754	93.88
342.981	97.88
343.209	105.88
343.437	87.88
343.665	83.88
343.893	86.88
344.12	80.88
344.348	84.88
344.576	102.88
344.804	82.88
345.031	88.88
345.259	82.88
345.487	96.88
345.714	79.88
345.942	110.88
346.17	84.88
346.397	90.88
346.625	93.88
346.853	89.88
347.08	90.88
347.308	101.88
347.535	85.88
347.763	106.88
347.99	86.88
348.218	93.88
348.445	94.88
348.673	77.88
348.9	96.88
349.128	76.88
349.355	98.88
349.583	85.88
349.81	106.88
350.037	86.88
350.265	85.88
350.492	102.88
350.72	85.88
350.947	100.88
351.174	100.88
351.402	91.88
351.629	87.88
351.856	83.88
352.083	101.88
352.311	105.88
352.538	114.88
352.765	106.88
352.992	100.88
353.22	112.88
353.447	103.88
353.674	108.88
353.901	96.88
354.128	95.88
354.355	96.88
354.583	86.88
354.81	98.88
355.037	93.88
355.264	97.88
355.491	102.88
355.718	82.88
355.945	89.88
356.172	96.88
356.399	98.88
356.626	102.88
356.853	80.88
357.08	87.88
357.307	105.88
357.534	79.88
357.761	100.88
357.988	89.88
358.215	91.88
358.441	98.88
358.668	89.88
358.895	81.88
359.122	82.88
359.349	85.88
359.576	90.88
359.802	97.88
360.029	96.88
360.256	110.88
360.483	92.88
360.709	96.88
360.936	108.88
361.163	87.88
361.39	82.88
361.616	88.88
361.843	100.88
362.07	104.88
362.296	100.88
362.523	84.88
362.749	99.88
362.976	81.88
363.203	99.88
363.429	92.88
363.656	82.88
363.882	83.88
364.109	100.88
364.335	100.88
364.562	92.88
364.788	83.88
365.015	85.88
365.241	86.88
365.468	93.88
365.694	100.88
365.92	85.88
366.147	87.88
366.373	99.88
366.599	80.88
366.826	89.88
367.052	90.88
367.278	89.88
367.505	90.88
367.731	96.88
367.957	88.88
368.184	76.88
368.41	98.88
368.636	92.88
368.862	116.88
369.089	87.88
369.315	86.88
369.541	86.88
369.767	94.88
369.993	90.88
370.219	84.88
370.445	88.88
370.672	92.88
370.898	90.88
371.124	87.88
371.35	82.88
371.576	85.88
371.802	95.88
372.028	81.88
372.254	96.88
372.48	102.88
372.706	81.88
372.932	92.88
373.158	93.88
373.384	103.88
373.61	70.88
373.835	86.88
374.061	80.88
374.287	104.88
374.513	96.88
374.739	97.88
374.965	77.88
375.191	87.88
375.416	85.88
375.642	77.88
375.868	88.88
376.094	88.88
376.319	78.88
376.545	102.88
376.771	85.88
376.997	89.88
377.222	92.88
377.448	98.88
377.674	94.88
377.899	97.88
378.125	80.88
378.35	111.88
378.576	84.88
378.802	91.88
379.027	78.88
379.253	98.88
379.478	99.88
379.704	93.88
379.929	101.88
380.155	86.88
380.38	75.88
380.606	86.88
380.831	72.88
381.057	92.88
381.282	89.88
381.507	104.88
381.733	97.88
381.958	85.88
382.184	104.88
382.409	109.88
382.634	98.88
382.86	114.88
383.085	105.88
383.31	109.88
383.535	99.88
383.761	103.88
383.986	104.88
384.211	95.88
384.436	92.88
384.662	96.88
384.887	105.88
385.112	110.88
385.337	111.88
385.562	117.88
385.787	105.88
386.013	109.88
386.238	111.88
386.463	121.88
386.688	122.88
386.913	103.88
387.138	109.88
387.363	104.88
387.588	99.88
387.813	101.88
388.038	104.88
388.263	121.88
388.488	110.88
388.713	87.88
388.938	92.88
389.163	92.88
389.387	100.88
389.612	97.88
389.837	80.88
390.062	83.88
390.287	93.88
390.512	90.88
390.736	86.88
390.961	79.88
391.186	97.88
391.411	97.88
391.636	84.88
391.86	84.88
392.085	66.88
392.31	96.88
392.534	103.88
392.759	87.88
392.984	99.88
393.208	88.88
393.433	106.88
393.658	102.88
393.882	92.88
394.107	100.88
394.331	72.88
394.556	91.88
394.78	98.88
395.005	78.88
395.229	83.88
395.454	77.88
395.678	92.88
395.903	73.88
396.127	98.88
396.352	82.88
396.576	90.88
396.801	100.88
397.025	94.88
397.249	94.88
397.474	85.88
397.698	93.88
397.922	81.88
398.147	73.88
398.371	80.88
398.595	79.88
398.82	89.88
399.044	88.88
399.268	84.88
399.492	84.88
399.717	83.88
399.941	83.88
400.165	92.88
400.389	87.88
400.613	88.88
400.837	69.88
401.062	86.88
401.286	82.88
401.51	93.88
401.734	80.88
401.958	105.88
402.182	122.88
402.406	154.88
402.63	102.88
402.854	88.88
403.078	105.88
403.302	76.88
403.526	81.88
403.75	96.88
403.974	84.88
404.198	88.88
404.422	74.88
404.645	86.88
404.869	81.88
405.093	98.88
405.317	97.88
405.541	93.88
405.765	82.88
405.988	112.88
406.212	153.88
406.436	185.88
406.66	138.88
406.883	103.88
407.107	80.88
407.331	104.88
407.555	91.88
407.778	93.88
408.002	80.88
408.226	87.88
408.449	78.88
408.673	94.88
408.896	92.88
409.12	95.88
409.344	80.88
409.567	87.88
409.791	79.88
410.014	106.88
410.238	102.88
410.461	76.88
410.685	89.88
410.908	83.88
411.132	104.88
411.355	94.88
411.578	92.88
411.802	80.88
412.025	85.88
412.249	90.88
412.472	94.88
412.695	80.88
412.919	88.88
413.142	92.88
413.365	81.88
413.589	91.88
413.812	85.88
414.035	83.88
414.258	82.88
414.482	88.88
414.705	88.88
414.928	81.88
415.151	93.88
415.374	92.88
415.597	77.88
415.821	73.88
416.044	89.88
416.267	87.88
416.49	86.88
416.713	81.88
416.936	88.88
417.159	85.88
417.382	99.88
417.605	89.88
417.828	91.88
418.051	86.88
418.274	82.88
418.497	87.88
418.72	81.88
418.943	95.88
419.166	92.88
419.389	81.88
419.611	100.88
419.834	90.88
420.057	69.88
420.28	88.88
420.503	86.88
420.726	88.88
420.948	83.88
421.171	82.88
421.394	82.88
421.617	109.88
421.839	92.88
422.062	76.88
422.285	98.88
422.507	91.88
422.73	107.88
422.953	82.88
423.175	92.88
423.398	96.88
423.621	83.88
423.843	86.88
424.066	86.88
424.288	86.88
424.511	92.88
424.733	95.88
424.956	103.88
425.178	93.88
425.401	86.88
425.623	91.88
425.846	96.88
426.068	93.88
426.291	85.88
426.513	80.88
426.735	98.88
426.958	94.88
427.18	96.88
427.402	121.88
427.625	152.88
427.847	113.88
428.069	110.88
428.292	83.88
428.514	81.88
428.736	86.88
428.958	74.88
429.181	88.88
429.403	86.88
429.625	81.88
429.847	80.88
430.069	78.88
430.292	80.88
430.514	78.88
430.736	85.88
430.958	94.88
431.18	83.88
431.402	86.88
431.624	73.88
431.846	86.88
432.068	71.88
432.29	73.88
432.512	94.88
432.734	73.88
432.956	93.88
433.178	93.88
433.4	76.88
433.622	93.88
433.844	95.88
434.066	95.88
434.287	78.88
434.509	72.88
434.731	88.88
434.953	92.88
435.175	89.88
435.397	86.88
435.618	89.88
435.84	88.88
436.062	117.88
436.284	116.88
436.505	96.88
436.727	98.88
436.949	100.88
437.17	78.88
437.392	86.88
437.614	92.88
437.835	97.88
438.057	106.88
438.278	106.88
438.5	92.88
438.721	106.88
438.943	92.88
439.165	85.88
439.386	88.88
439.608	102.88
439.829	104.88
440.05	116.88
440.272	115.88
440.493	94.88
440.715	89.88
440.936	85.88
441.158	92.88
441.379	74.88
441.6	85.88
441.822	89.88
442.043	73.88
442.264	98.88
442.486	91.88
442.707	84.88
442.928	70.88
443.149	129.88
443.371	106.88
443.592	104.88
443.813	111.88
444.034	70.88
444.255	84.88
444.476	84.88
444.698	77.88
444.919	92.88
445.14	122.88
445.361	120.88
445.582	112.88
445.803	122.88
446.024	114.88
446.245	120.88
446.466	101.88
446.687	86.88
446.908	81.88
447.129	98.88
447.35	73.88
447.571	84.88
447.792	99.88
448.013	88.88
448.234	102.88
448.455	95.88
448.675	128.88
448.896	117.88
449.117	100.88
449.338	92.88
449.559	125.88
449.779	146.88
450	91.88
450.221	72.88
450.442	95.88
450.662	85.88
450.883	89.88
451.104	94.88
451.324	90.88
451.545	84.88
451.766	71.88
451.986	78.88
452.207	92.88
452.428	91.88
452.648	97.88
452.869	106.88
453.089	94.88
453.31	103.88
453.53	80.88
453.751	85.88
453.971	106.88
454.192	113.88
454.412	93.88
454.633	81.88
454.853	83.88
455.073	82.88
455.294	105.88
455.514	101.88
455.734	97.88
455.955	73.88
456.175	80.88
456.395	90.88
456.616	93.88
456.836	91.88
457.056	85.88
457.276	85.88
457.497	62.88
457.717	95.88
457.937	82.88
458.157	67.88
458.377	81.88
458.598	100.88
458.818	120.88
459.038	132.88
459.258	104.88
459.478	70.88
459.698	84.88
459.918	86.88
460.138	104.88
460.358	87.88
460.578	89.88
460.798	101.88
461.018	92.88
461.238	80.88
461.458	80.88
461.678	79.88
461.898	91.88
462.118	82.88
462.338	99.88
462.558	70.88
462.777	86.88
462.997	95.88
463.217	76.88
463.437	84.88
463.657	95.88
463.876	83.88
464.096	95.88
464.316	82.88
464.536	81.88
464.755	93.88
464.975	88.88
465.195	131.88
465.414	131.88
465.634	81.88
465.854	78.88
466.073	80.88
466.293	94.88
466.512	92.88
466.732	80.88
466.951	79.88
467.171	81.88
467.391	98.88
467.61	96.88
467.829	89.88
468.049	76.88
468.268	85.88
468.488	93.88
468.707	87.88
468.927	79.88
469.146	88.88
469.365	83.88
469.585	96.88
469.804	99.88
470.023	88.88
470.243	87.88
470.462	100.88
470.681	89.88
470.901	92.88
471.12	96.88
471.339	86.88
471.558	81.88
471.777	81.88
471.997	95.88
472.216	110.88
472.435	126.88
472.654	89.88
472.873	98.88
473.092	88.88
473.311	96.88
473.53	89.88
473.749	82.88
473.968	84.88
474.187	103.88
474.406	94.88
474.625	72.88
474.844	92.88
475.063	90.88
475.282	89.88
475.501	77.88
475.72	90.88
475.939	72.88
476.158	90.88
476.377	83.88
476.596	90.88
476.814	83.88
477.033	88.88
477.252	86.88
477.471	94.88
477.69	105.88
477.908	90.88
478.127	85.88
478.346	86.88
478.564	95.88
478.783	84.88
479.002	87.88
479.22	80.88
479.439	99.88
479.658	94.88
479.876	95.88
480.095	76.88
480.313	91.88
480.532	88.88
480.751	97.88
480.969	102.88
481.188	153.88
481.406	127.88
481.624	89.88
481.843	89.88
482.061	77.88
482.28	93.88
482.498	82.88
482.717	87.88
482.935	78.88
483.153	81.88
483.372	93.88
483.59	78.88
483.808	89.88
484.027	89.88
484.245	101.88
484.463	91.88
484.681	82.88
484.9	96.88
485.118	90.88
485.336	99.88
485.554	96.88
485.772	99.88
485.99	105.88
486.209	98.88
486.427	106.88
486.645	102.88
486.863	103.88
487.081	89.88
487.299	100.88
487.517	93.88
487.735	97.88
487.953	77.88
488.171	85.88
488.389	81.88
488.607	92.88
488.825	79.88
489.043	85.88
489.261	78.88
489.479	80.88
489.696	94.88
489.914	93.88
490.132	89.88
490.35	94.88
490.568	80.88
490.786	86.88
491.003	87.88
491.221	104.88
491.439	110.88
491.657	97.88
491.874	98.88
492.092	81.88
492.31	97.88
492.527	84.88
492.745	97.88
492.963	113.88
493.18	90.88
493.398	95.88
493.615	83.88
493.833	88.88
494.05	91.88
494.268	73.88
494.485	79.88
494.703	85.88
494.92	90.88
495.138	85.88
495.355	87.88
495.573	82.88
495.79	85.88
496.008	85.88
496.225	85.88
496.442	84.88
496.66	107.88
496.877	93.88
497.094	100.88
497.312	86.88
497.529	80.88
497.746	99.88
497.963	84.88
498.181	68.88
498.398	104.88
498.615	97.88
498.832	110.88
499.049	109.88
499.267	105.88
499.484	86.88
499.701	89.88
499.918	97.88
500.135	88.88
500.352	80.88
500.569	73.88
500.786	89.88
501.003	82.88
501.22	71.88
501.437	84.88
501.654	97.88
501.871	92.88
502.088	94.88
502.305	81.88
502.522	91.88
502.739	85.88
502.956	100.88
503.172	95.88
503.389	87.88
503.606	98.88
503.823	94.88
504.04	94.88
504.256	90.88
504.473	87.88
504.69	103.88
504.907	100.88
505.123	88.88
505.34	94.88
505.557	87.88
505.773	79.88
505.99	81.88
506.207	81.88
506.423	85.88
506.64	80.88
506.856	92.88
507.073	90.88
507.289	86.88
507.506	97.88
507.722	112.88
507.939	109.88
508.155	97.88
508.372	83.88
508.588	98.88
508.805	85.88
509.021	97.88
509.238	97.88
509.454	90.88
509.67	88.88
509.887	106.88
510.103	120.88
510.319	195.88
510.536	690.88
510.752	2033.88
510.968	568.88
511.184	144.88
511.401	100.88
511.617	92.88
511.833	85.88
512.049	93.88
512.265	82.88
512.481	97.88
512.698	81.88
512.914	83.88
513.13	92.88
513.346	84.88
513.562	100.88
513.778	96.88
513.994	92.88
514.21	92.88
514.426	107.88
514.642	136.88
514.858	113.88
515.074	141.88
515.29	358.88
515.506	1182.88
515.721	434.88
515.937	136.88
516.153	114.88
516.369	87.88
516.585	88.88
