Data from Circ_1985_H10_HRD10591_00017.txt Node
Date: Wed Jan 03 12:19:26 EST 2024
User: Yrep
Spectrometer: HR+D1059
Trigger mode: 1
Integration Time (sec): 1.000000E-1
Scans to average: 1
Electric dark correction enabled: true
Nonlinearity correction enabled: false
Boxcar width: 0
XAxis mode: Wavelengths
Number of Pixels in Spectrum: 2048
>>>>>Begin Spectral Data<<<<<
223.165	-16.81
223.4	-16.81
223.635	-16.81
223.869	-14.81
224.104	-18.81
224.338	-17.81
224.573	-17.81
224.808	-17.81
225.042	-13.81
225.277	-8.81
225.511	-6.81
225.746	18.19
225.98	7.19
226.215	25.19
226.449	14.19
226.683	10.19
226.918	25.19
227.152	33.19
227.387	47.19
227.621	46.19
227.856	44.19
228.09	52.19
228.324	57.19
228.559	65.19
228.793	49.19
229.027	74.19
229.262	77.19
229.496	65.19
229.73	77.19
229.964	77.19
230.199	83.19
230.433	87.19
230.667	74.19
230.901	78.19
231.136	79.19
231.37	83.19
231.604	82.19
231.838	72.19
232.072	91.19
232.306	72.19
232.541	89.19
232.775	86.19
233.009	93.19
233.243	77.19
233.477	75.19
233.711	74.19
233.945	77.19
234.179	93.19
234.413	81.19
234.647	89.19
234.881	70.19
235.115	89.19
235.349	87.19
235.583	87.19
235.817	80.19
236.051	87.19
236.285	85.19
236.519	73.19
236.753	86.19
236.987	68.19
237.221	72.19
237.455	91.19
237.689	92.19
237.922	83.19
238.156	68.19
238.39	75.19
238.624	76.19
238.858	85.19
239.091	81.19
239.325	85.19
239.559	86.19
239.793	82.19
240.027	90.19
240.26	85.19
240.494	79.19
240.728	95.19
240.961	66.19
241.195	87.19
241.429	74.19
241.662	71.19
241.896	78.19
242.13	52.19
242.363	67.19
242.597	83.19
242.83	85.19
243.064	70.19
243.298	87.19
243.531	82.19
243.765	76.19
243.998	75.19
244.232	76.19
244.465	79.19
244.699	82.19
244.932	88.19
245.166	82.19
245.399	78.19
245.633	91.19
245.866	77.19
246.099	96.19
246.333	79.19
246.566	90.19
246.8	68.19
247.033	88.19
247.266	92.19
247.5	81.19
247.733	86.19
247.966	74.19
248.2	83.19
248.433	85.19
248.666	75.19
248.899	90.19
249.133	84.19
249.366	102.19
249.599	101.19
249.832	78.19
250.066	90.19
250.299	87.19
250.532	77.19
250.765	74.19
250.998	82.19
251.231	77.19
251.465	85.19
251.698	87.19
251.931	74.19
252.164	73.19
252.397	83.19
252.63	91.19
252.863	88.19
253.096	84.19
253.329	89.19
253.562	79.19
253.795	88.19
254.028	91.19
254.261	88.19
254.494	79.19
254.727	91.19
254.96	93.19
255.193	86.19
255.426	99.19
255.659	76.19
255.892	88.19
256.124	94.19
256.357	81.19
256.59	83.19
256.823	83.19
257.056	96.19
257.289	89.19
257.521	85.19
257.754	91.19
257.987	87.19
258.22	81.19
258.452	76.19
258.685	90.19
258.918	89.19
259.151	89.19
259.383	98.19
259.616	78.19
259.849	105.19
260.081	76.19
260.314	79.19
260.547	80.19
260.779	90.19
261.012	100.19
261.244	93.19
261.477	90.19
261.71	93.19
261.942	95.19
262.175	100.19
262.407	96.19
262.64	85.19
262.872	84.19
263.105	93.19
263.337	77.19
263.57	90.19
263.802	91.19
264.035	88.19
264.267	88.19
264.499	87.19
264.732	78.19
264.964	96.19
265.197	93.19
265.429	88.19
265.661	76.19
265.894	93.19
266.126	83.19
266.358	83.19
266.591	84.19
266.823	90.19
267.055	98.19
267.287	93.19
267.52	88.19
267.752	77.19
267.984	83.19
268.216	91.19
268.448	90.19
268.681	99.19
268.913	80.19
269.145	86.19
269.377	90.19
269.609	87.19
269.841	88.19
270.073	79.19
270.306	81.19
270.538	90.19
270.77	81.19
271.002	90.19
271.234	95.19
271.466	91.19
271.698	94.19
271.93	75.19
272.162	94.19
272.394	95.19
272.626	91.19
272.858	87.19
273.09	71.19
273.322	78.19
273.553	89.19
273.785	97.19
274.017	93.19
274.249	78.19
274.481	93.19
274.713	93.19
274.945	89.19
275.176	90.19
275.408	85.19
275.64	90.19
275.872	88.19
276.104	81.19
276.335	80.19
276.567	95.19
276.799	98.19
277.031	91.19
277.262	99.19
277.494	81.19
277.726	97.19
277.957	94.19
278.189	83.19
278.421	83.19
278.652	74.19
278.884	84.19
279.115	95.19
279.347	96.19
279.579	92.19
279.81	85.19
280.042	101.19
280.273	76.19
280.505	90.19
280.736	87.19
280.968	90.19
281.199	93.19
281.431	80.19
281.662	65.19
281.894	89.19
282.125	103.19
282.356	109.19
282.588	125.19
282.819	110.19
283.051	99.19
283.282	90.19
283.513	87.19
283.745	97.19
283.976	93.19
284.207	90.19
284.439	113.19
284.67	95.19
284.901	83.19
285.132	76.19
285.364	86.19
285.595	90.19
285.826	87.19
286.057	93.19
286.288	91.19
286.52	89.19
286.751	89.19
286.982	97.19
287.213	81.19
287.444	81.19
287.675	90.19
287.906	90.19
288.138	93.19
288.369	90.19
288.6	93.19
288.831	96.19
289.062	102.19
289.293	90.19
289.524	99.19
289.755	90.19
289.986	97.19
290.217	74.19
290.448	71.19
290.679	85.19
290.91	97.19
291.141	89.19
291.371	100.19
291.602	96.19
291.833	98.19
292.064	95.19
292.295	92.19
292.526	95.19
292.757	89.19
292.987	96.19
293.218	93.19
293.449	90.19
293.68	81.19
293.91	85.19
294.141	89.19
294.372	89.19
294.603	88.19
294.833	84.19
295.064	91.19
295.295	99.19
295.525	99.19
295.756	100.19
295.987	102.19
296.217	125.19
296.448	107.19
296.679	98.19
296.909	99.19
297.14	86.19
297.37	100.19
297.601	91.19
297.831	92.19
298.062	99.19
298.292	90.19
298.523	100.19
298.753	93.19
298.984	85.19
299.214	89.19
299.445	92.19
299.675	107.19
299.905	103.19
300.136	95.19
300.366	78.19
300.597	97.19
300.827	83.19
301.057	100.19
301.288	81.19
301.518	103.19
301.748	93.19
301.979	98.19
302.209	103.19
302.439	99.19
302.669	86.19
302.9	98.19
303.13	92.19
303.36	102.19
303.59	94.19
303.82	89.19
304.051	101.19
304.281	87.19
304.511	95.19
304.741	100.19
304.971	83.19
305.201	110.19
305.431	93.19
305.661	97.19
305.891	101.19
306.121	110.19
306.352	87.19
306.582	112.19
306.812	89.19
307.042	94.19
307.272	81.19
307.502	84.19
307.731	100.19
307.961	81.19
308.191	101.19
308.421	98.19
308.651	102.19
308.881	94.19
309.111	81.19
309.341	104.19
309.571	93.19
309.8	87.19
310.03	92.19
310.26	97.19
310.49	93.19
310.72	107.19
310.949	120.19
311.179	91.19
311.409	99.19
311.639	85.19
311.868	105.19
312.098	92.19
312.328	83.19
312.557	85.19
312.787	110.19
313.017	95.19
313.246	114.19
313.476	94.19
313.706	95.19
313.935	104.19
314.165	106.19
314.394	94.19
314.624	94.19
314.853	105.19
315.083	96.19
315.312	95.19
315.542	100.19
315.771	82.19
316.001	86.19
316.23	91.19
316.46	91.19
316.689	99.19
316.919	102.19
317.148	103.19
317.377	109.19
317.607	104.19
317.836	89.19
318.065	108.19
318.295	98.19
318.524	101.19
318.753	101.19
318.983	90.19
319.212	103.19
319.441	78.19
319.67	91.19
319.9	98.19
320.129	97.19
320.358	105.19
320.587	98.19
320.816	92.19
321.046	114.19
321.275	93.19
321.504	98.19
321.733	106.19
321.962	98.19
322.191	107.19
322.42	114.19
322.649	95.19
322.878	106.19
323.108	111.19
323.337	126.19
323.566	111.19
323.795	135.19
324.024	179.19
324.253	373.19
324.482	735.19
324.71	1502.19
324.939	1988.19
325.168	733.19
325.397	231.19
325.626	145.19
325.855	130.19
326.084	121.19
326.313	124.19
326.542	140.19
326.77	206.19
326.999	425.19
327.228	878.19
327.457	1597.19
327.686	1283.19
327.914	341.19
328.143	175.19
328.372	137.19
328.6	116.19
328.829	108.19
329.058	130.19
329.287	109.19
329.515	103.19
329.744	111.19
329.972	111.19
330.201	110.19
330.43	106.19
330.658	114.19
330.887	123.19
331.115	109.19
331.344	94.19
331.572	84.19
331.801	110.19
332.03	110.19
332.258	91.19
332.486	92.19
332.715	101.19
332.943	95.19
333.172	93.19
333.4	95.19
333.629	114.19
333.857	94.19
334.085	95.19
334.314	96.19
334.542	115.19
334.771	102.19
334.999	107.19
335.227	88.19
335.455	105.19
335.684	94.19
335.912	102.19
336.14	106.19
336.369	109.19
336.597	105.19
336.825	95.19
337.053	107.19
337.281	96.19
337.51	82.19
337.738	78.19
337.966	79.19
338.194	79.19
338.422	103.19
338.65	88.19
338.878	97.19
339.106	90.19
339.334	92.19
339.562	94.19
339.79	88.19
340.018	100.19
340.246	101.19
340.474	101.19
340.702	91.19
340.93	79.19
341.158	99.19
341.386	92.19
341.614	83.19
341.842	77.19
342.07	92.19
342.298	91.19
342.526	87.19
342.754	104.19
342.981	95.19
343.209	86.19
343.437	98.19
343.665	90.19
343.893	86.19
344.12	109.19
344.348	92.19
344.576	102.19
344.804	102.19
345.031	90.19
345.259	90.19
345.487	87.19
345.714	86.19
345.942	89.19
346.17	100.19
346.397	111.19
346.625	95.19
346.853	96.19
347.08	85.19
347.308	99.19
347.535	96.19
347.763	99.19
347.99	91.19
348.218	106.19
348.445	117.19
348.673	95.19
348.9	106.19
349.128	97.19
349.355	98.19
349.583	95.19
349.81	93.19
350.037	94.19
350.265	99.19
350.492	97.19
350.72	91.19
350.947	106.19
351.174	88.19
351.402	111.19
351.629	99.19
351.856	98.19
352.083	101.19
352.311	120.19
352.538	113.19
352.765	100.19
352.992	128.19
353.22	108.19
353.447	100.19
353.674	103.19
353.901	89.19
354.128	93.19
354.355	112.19
354.583	98.19
354.81	91.19
355.037	93.19
355.264	89.19
355.491	106.19
355.718	103.19
355.945	96.19
356.172	111.19
356.399	103.19
356.626	103.19
356.853	92.19
357.08	77.19
357.307	89.19
357.534	106.19
357.761	88.19
357.988	93.19
358.215	100.19
358.441	108.19
358.668	105.19
358.895	88.19
359.122	99.19
359.349	87.19
359.576	94.19
359.802	94.19
360.029	99.19
360.256	98.19
360.483	86.19
360.709	90.19
360.936	103.19
361.163	94.19
361.39	97.19
361.616	102.19
361.843	107.19
362.07	102.19
362.296	91.19
362.523	108.19
362.749	91.19
362.976	98.19
363.203	88.19
363.429	100.19
363.656	75.19
363.882	94.19
364.109	96.19
364.335	114.19
364.562	87.19
364.788	100.19
365.015	81.19
365.241	88.19
365.468	99.19
365.694	103.19
365.92	104.19
366.147	98.19
366.373	93.19
366.599	102.19
366.826	94.19
367.052	95.19
367.278	103.19
367.505	108.19
367.731	94.19
367.957	93.19
368.184	105.19
368.41	92.19
368.636	112.19
368.862	126.19
369.089	97.19
369.315	86.19
369.541	88.19
369.767	83.19
369.993	87.19
370.219	84.19
370.445	98.19
370.672	96.19
370.898	95.19
371.124	93.19
371.35	72.19
371.576	91.19
371.802	85.19
372.028	96.19
372.254	83.19
372.48	103.19
372.706	91.19
372.932	104.19
373.158	90.19
373.384	98.19
373.61	106.19
373.835	92.19
374.061	99.19
374.287	92.19
374.513	109.19
374.739	91.19
374.965	91.19
375.191	91.19
375.416	102.19
375.642	93.19
375.868	94.19
376.094	103.19
376.319	97.19
376.545	96.19
376.771	90.19
376.997	108.19
377.222	93.19
377.448	103.19
377.674	100.19
377.899	94.19
378.125	108.19
378.35	104.19
378.576	103.19
378.802	96.19
379.027	100.19
379.253	109.19
379.478	102.19
379.704	98.19
379.929	98.19
380.155	94.19
380.38	103.19
380.606	89.19
380.831	108.19
381.057	123.19
381.282	109.19
381.507	108.19
381.733	112.19
381.958	113.19
382.184	117.19
382.409	112.19
382.634	114.19
382.86	106.19
383.085	113.19
383.31	111.19
383.535	109.19
383.761	122.19
383.986	117.19
384.211	112.19
384.436	114.19
384.662	108.19
384.887	117.19
385.112	123.19
385.337	129.19
385.562	114.19
385.787	119.19
386.013	118.19
386.238	123.19
386.463	107.19
386.688	125.19
386.913	132.19
387.138	114.19
387.363	104.19
387.588	115.19
387.813	119.19
388.038	132.19
388.263	121.19
388.488	126.19
388.713	120.19
388.938	109.19
389.163	98.19
389.387	105.19
389.612	97.19
389.837	81.19
390.062	95.19
390.287	101.19
390.512	95.19
390.736	91.19
390.961	103.19
391.186	92.19
391.411	103.19
391.636	93.19
391.86	89.19
392.085	100.19
392.31	94.19
392.534	85.19
392.759	85.19
392.984	96.19
393.208	91.19
393.433	135.19
393.658	94.19
393.882	85.19
394.107	89.19
394.331	82.19
394.556	100.19
394.78	105.19
395.005	89.19
395.229	83.19
395.454	100.19
395.678	82.19
395.903	95.19
396.127	103.19
396.352	77.19
396.576	106.19
396.801	109.19
397.025	103.19
397.249	87.19
397.474	106.19
397.698	90.19
397.922	86.19
398.147	94.19
398.371	89.19
398.595	81.19
398.82	76.19
399.044	85.19
399.268	92.19
399.492	97.19
399.717	98.19
399.941	99.19
400.165	97.19
400.389	89.19
400.613	93.19
400.837	98.19
401.062	87.19
401.286	91.19
401.51	86.19
401.734	100.19
401.958	102.19
402.182	116.19
402.406	139.19
402.63	107.19
402.854	89.19
403.078	87.19
403.302	78.19
403.526	107.19
403.75	98.19
403.974	106.19
404.198	84.19
404.422	86.19
404.645	95.19
404.869	89.19
405.093	89.19
405.317	94.19
405.541	83.19
405.765	96.19
405.988	109.19
406.212	137.19
406.436	172.19
406.66	120.19
406.883	97.19
407.107	94.19
407.331	83.19
407.555	94.19
407.778	99.19
408.002	105.19
408.226	90.19
408.449	90.19
408.673	95.19
408.896	83.19
409.12	103.19
409.344	79.19
409.567	104.19
409.791	102.19
410.014	95.19
410.238	109.19
410.461	102.19
410.685	103.19
410.908	98.19
411.132	111.19
411.355	92.19
411.578	109.19
411.802	99.19
412.025	100.19
412.249	90.19
412.472	107.19
412.695	94.19
412.919	89.19
413.142	75.19
413.365	97.19
413.589	101.19
413.812	105.19
414.035	82.19
414.258	86.19
414.482	92.19
414.705	107.19
414.928	97.19
415.151	95.19
415.374	91.19
415.597	98.19
415.821	96.19
416.044	97.19
416.267	85.19
416.49	75.19
416.713	87.19
416.936	88.19
417.159	97.19
417.382	104.19
417.605	95.19
417.828	97.19
418.051	101.19
418.274	84.19
418.497	104.19
418.72	81.19
418.943	86.19
419.166	103.19
419.389	87.19
419.611	99.19
419.834	102.19
420.057	97.19
420.28	102.19
420.503	85.19
420.726	84.19
420.948	95.19
421.171	102.19
421.394	93.19
421.617	92.19
421.839	86.19
422.062	91.19
422.285	79.19
422.507	101.19
422.73	116.19
422.953	87.19
423.175	77.19
423.398	98.19
423.621	84.19
423.843	104.19
424.066	98.19
424.288	85.19
424.511	66.19
424.733	96.19
424.956	79.19
425.178	106.19
425.401	87.19
425.623	97.19
425.846	93.19
426.068	85.19
426.291	97.19
426.513	85.19
426.735	90.19
426.958	101.19
427.18	90.19
427.402	121.19
427.625	133.19
427.847	118.19
428.069	101.19
428.292	92.19
428.514	97.19
428.736	96.19
428.958	87.19
429.181	88.19
429.403	85.19
429.625	81.19
429.847	100.19
430.069	95.19
430.292	87.19
430.514	89.19
430.736	73.19
430.958	94.19
431.18	87.19
431.402	96.19
431.624	77.19
431.846	73.19
432.068	91.19
432.29	85.19
432.512	99.19
432.734	104.19
432.956	89.19
433.178	86.19
433.4	102.19
433.622	109.19
433.844	97.19
434.066	91.19
434.287	95.19
434.509	93.19
434.731	84.19
434.953	87.19
435.175	84.19
435.397	93.19
435.618	86.19
435.84	108.19
436.062	122.19
436.284	109.19
436.505	98.19
436.727	104.19
436.949	97.19
437.17	83.19
437.392	87.19
437.614	99.19
437.835	106.19
438.057	120.19
438.278	110.19
438.5	93.19
438.721	118.19
438.943	97.19
439.165	84.19
439.386	97.19
439.608	93.19
439.829	109.19
440.05	113.19
440.272	121.19
440.493	110.19
440.715	86.19
440.936	93.19
441.158	103.19
441.379	89.19
441.6	104.19
441.822	89.19
442.043	89.19
442.264	100.19
442.486	90.19
442.707	99.19
442.928	106.19
443.149	120.19
443.371	122.19
443.592	106.19
443.813	106.19
444.034	93.19
444.255	95.19
444.476	81.19
444.698	88.19
444.919	92.19
445.14	140.19
445.361	118.19
445.582	123.19
445.803	128.19
446.024	124.19
446.245	128.19
446.466	96.19
446.687	106.19
446.908	83.19
447.129	106.19
447.35	91.19
447.571	94.19
447.792	101.19
448.013	102.19
448.234	101.19
448.455	99.19
448.675	115.19
448.896	104.19
449.117	102.19
449.338	106.19
449.559	114.19
449.779	118.19
450	89.19
450.221	100.19
450.442	93.19
450.662	97.19
450.883	105.19
451.104	104.19
451.324	106.19
451.545	105.19
451.766	93.19
451.986	85.19
452.207	92.19
452.428	80.19
452.648	104.19
452.869	111.19
453.089	108.19
453.31	112.19
453.53	104.19
453.751	83.19
453.971	101.19
454.192	104.19
454.412	88.19
454.633	71.19
454.853	78.19
455.073	78.19
455.294	97.19
455.514	96.19
455.734	75.19
455.955	84.19
456.175	85.19
456.395	88.19
456.616	83.19
456.836	91.19
457.056	77.19
457.276	87.19
457.497	99.19
457.717	83.19
457.937	93.19
458.157	93.19
458.377	87.19
458.598	102.19
458.818	121.19
459.038	142.19
459.258	106.19
459.478	96.19
459.698	93.19
459.918	85.19
460.138	99.19
460.358	88.19
460.578	89.19
460.798	101.19
461.018	102.19
461.238	86.19
461.458	89.19
461.678	94.19
461.898	88.19
462.118	89.19
462.338	86.19
462.558	98.19
462.777	95.19
462.997	74.19
463.217	86.19
463.437	99.19
463.657	93.19
463.876	89.19
464.096	92.19
464.316	106.19
464.536	114.19
464.755	105.19
464.975	107.19
465.195	134.19
465.414	136.19
465.634	95.19
465.854	93.19
466.073	107.19
466.293	89.19
466.512	86.19
466.732	86.19
466.951	97.19
467.171	76.19
467.391	78.19
467.61	102.19
467.829	95.19
468.049	95.19
468.268	94.19
468.488	90.19
468.707	91.19
468.927	90.19
469.146	78.19
469.365	95.19
469.585	67.19
469.804	107.19
470.023	85.19
470.243	86.19
470.462	93.19
470.681	110.19
470.901	105.19
471.12	81.19
471.339	100.19
471.558	81.19
471.777	78.19
471.997	98.19
472.216	88.19
472.435	109.19
472.654	76.19
472.873	97.19
473.092	85.19
473.311	95.19
473.53	97.19
473.749	101.19
473.968	78.19
474.187	86.19
474.406	98.19
474.625	93.19
474.844	95.19
475.063	97.19
475.282	87.19
475.501	91.19
475.72	97.19
475.939	89.19
476.158	93.19
476.377	86.19
476.596	108.19
476.814	99.19
477.033	99.19
477.252	90.19
477.471	88.19
477.69	82.19
477.908	89.19
478.127	93.19
478.346	86.19
478.564	84.19
478.783	83.19
479.002	97.19
479.22	104.19
479.439	99.19
479.658	86.19
479.876	89.19
480.095	93.19
480.313	98.19
480.532	101.19
480.751	105.19
480.969	87.19
481.188	111.19
481.406	107.19
481.624	91.19
481.843	76.19
482.061	88.19
482.28	95.19
482.498	85.19
482.717	104.19
482.935	100.19
483.153	98.19
483.372	83.19
483.59	92.19
483.808	89.19
484.027	93.19
484.245	89.19
484.463	95.19
484.681	102.19
484.9	88.19
485.118	103.19
485.336	108.19
485.554	110.19
485.772	114.19
485.99	109.19
486.209	128.19
486.427	117.19
486.645	121.19
486.863	112.19
487.081	114.19
487.299	101.19
487.517	103.19
487.735	88.19
487.953	92.19
488.171	107.19
488.389	101.19
488.607	87.19
488.825	97.19
489.043	94.19
489.261	91.19
489.479	103.19
489.696	78.19
489.914	89.19
490.132	89.19
490.35	92.19
490.568	90.19
490.786	72.19
491.003	73.19
491.221	101.19
491.439	99.19
491.657	104.19
491.874	89.19
492.092	103.19
492.31	104.19
492.527	98.19
492.745	94.19
492.963	87.19
493.18	86.19
493.398	100.19
493.615	116.19
493.833	94.19
494.05	95.19
494.268	83.19
494.485	99.19
494.703	92.19
494.92	74.19
495.138	83.19
495.355	107.19
495.573	82.19
495.79	86.19
496.008	75.19
496.225	99.19
496.442	102.19
496.66	98.19
496.877	83.19
497.094	89.19
497.312	108.19
497.529	100.19
497.746	103.19
497.963	100.19
498.181	95.19
498.398	93.19
498.615	116.19
498.832	94.19
499.049	77.19
499.267	89.19
499.484	97.19
499.701	81.19
499.918	87.19
500.135	94.19
500.352	106.19
500.569	91.19
500.786	97.19
501.003	86.19
501.22	91.19
501.437	90.19
501.654	100.19
501.871	95.19
502.088	90.19
502.305	90.19
502.522	82.19
502.739	86.19
502.956	101.19
503.172	93.19
503.389	95.19
503.606	100.19
503.823	102.19
504.04	95.19
504.256	105.19
504.473	89.19
504.69	89.19
504.907	87.19
505.123	93.19
505.34	91.19
505.557	90.19
505.773	90.19
505.99	105.19
506.207	88.19
506.423	98.19
506.64	95.19
506.856	92.19
507.073	100.19
507.289	107.19
507.506	110.19
507.722	105.19
507.939	101.19
508.155	104.19
508.372	114.19
508.588	104.19
508.805	83.19
509.021	91.19
509.238	105.19
509.454	99.19
509.67	109.19
509.887	97.19
510.103	122.19
510.319	201.19
510.536	588.19
510.752	1756.19
510.968	510.19
511.184	122.19
511.401	97.19
511.617	91.19
511.833	96.19
512.049	93.19
512.265	96.19
512.481	96.19
512.698	90.19
512.914	86.19
513.13	92.19
513.346	97.19
513.562	97.19
513.778	91.19
513.994	98.19
514.21	95.19
514.426	113.19
