Data from Circ_1985_H10_HRD10591_00100.txt Node
Date: Wed Jan 03 12:19:42 EST 2024
User: Yrep
Spectrometer: HR+D1059
Trigger mode: 1
Integration Time (sec): 1.000000E-1
Scans to average: 1
Electric dark correction enabled: true
Nonlinearity correction enabled: false
Boxcar width: 0
XAxis mode: Wavelengths
Number of Pixels in Spectrum: 2048
>>>>>Begin Spectral Data<<<<<
223.165	-23.19
223.4	-23.19
223.635	-23.19
223.869	-23.19
224.104	-16.19
224.338	-14.19
224.573	-16.19
224.808	-10.19
225.042	-0.19
225.277	-0.19
225.511	2.81
225.746	0.81
225.98	7.81
226.215	2.81
226.449	6.81
226.683	28.81
226.918	23.81
227.152	29.81
227.387	30.81
227.621	22.81
227.856	32.81
228.09	63.81
228.324	56.81
228.559	41.81
228.793	56.81
229.027	67.81
229.262	72.81
229.496	84.81
229.73	67.81
229.964	83.81
230.199	71.81
230.433	78.81
230.667	86.81
230.901	76.81
231.136	94.81
231.37	65.81
231.604	86.81
231.838	91.81
232.072	84.81
232.306	82.81
232.541	63.81
232.775	88.81
233.009	84.81
233.243	92.81
233.477	85.81
233.711	88.81
233.945	88.81
234.179	87.81
234.413	77.81
234.647	82.81
234.881	73.81
235.115	88.81
235.349	79.81
235.583	89.81
235.817	82.81
236.051	84.81
236.285	74.81
236.519	66.81
236.753	83.81
236.987	74.81
237.221	87.81
237.455	86.81
237.689	83.81
237.922	80.81
238.156	84.81
238.39	76.81
238.624	71.81
238.858	84.81
239.091	72.81
239.325	73.81
239.559	80.81
239.793	67.81
240.027	82.81
240.26	58.81
240.494	72.81
240.728	70.81
240.961	62.81
241.195	73.81
241.429	84.81
241.662	70.81
241.896	79.81
242.13	83.81
242.363	82.81
242.597	74.81
242.83	50.81
243.064	79.81
243.298	91.81
243.531	64.81
243.765	88.81
243.998	87.81
244.232	88.81
244.465	82.81
244.699	74.81
244.932	80.81
245.166	78.81
245.399	65.81
245.633	70.81
245.866	86.81
246.099	86.81
246.333	86.81
246.566	77.81
246.8	75.81
247.033	64.81
247.266	75.81
247.5	84.81
247.733	78.81
247.966	73.81
248.2	87.81
248.433	73.81
248.666	80.81
248.899	70.81
249.133	78.81
249.366	98.81
249.599	88.81
249.832	72.81
250.066	69.81
250.299	86.81
250.532	87.81
250.765	92.81
250.998	69.81
251.231	86.81
251.465	74.81
251.698	75.81
251.931	78.81
252.164	82.81
252.397	87.81
252.63	84.81
252.863	87.81
253.096	88.81
253.329	87.81
253.562	86.81
253.795	87.81
254.028	76.81
254.261	83.81
254.494	84.81
254.727	94.81
254.96	82.81
255.193	84.81
255.426	74.81
255.659	74.81
255.892	92.81
256.124	80.81
256.357	85.81
256.59	76.81
256.823	84.81
257.056	91.81
257.289	80.81
257.521	83.81
257.754	78.81
257.987	84.81
258.22	86.81
258.452	87.81
258.685	92.81
258.918	75.81
259.151	76.81
259.383	70.81
259.616	86.81
259.849	81.81
260.081	80.81
260.314	75.81
260.547	69.81
260.779	81.81
261.012	80.81
261.244	82.81
261.477	90.81
261.71	91.81
261.942	89.81
262.175	118.81
262.407	82.81
262.64	73.81
262.872	71.81
263.105	79.81
263.337	87.81
263.57	68.81
263.802	80.81
264.035	66.81
264.267	83.81
264.499	76.81
264.732	88.81
264.964	78.81
265.197	80.81
265.429	77.81
265.661	88.81
265.894	81.81
266.126	81.81
266.358	82.81
266.591	87.81
266.823	96.81
267.055	69.81
267.287	80.81
267.52	75.81
267.752	72.81
267.984	100.81
268.216	72.81
268.448	81.81
268.681	85.81
268.913	77.81
269.145	86.81
269.377	87.81
269.609	58.81
269.841	79.81
270.073	97.81
270.306	88.81
270.538	75.81
270.77	76.81
271.002	82.81
271.234	87.81
271.466	91.81
271.698	58.81
271.93	94.81
272.162	94.81
272.394	100.81
272.626	74.81
272.858	89.81
273.09	97.81
273.322	92.81
273.553	79.81
273.785	86.81
274.017	80.81
274.249	74.81
274.481	92.81
274.713	88.81
274.945	97.81
275.176	70.81
275.408	88.81
275.64	73.81
275.872	94.81
276.104	91.81
276.335	91.81
276.567	81.81
276.799	89.81
277.031	100.81
277.262	82.81
277.494	88.81
277.726	88.81
277.957	81.81
278.189	85.81
278.421	80.81
278.652	87.81
278.884	82.81
279.115	72.81
279.347	82.81
279.579	80.81
279.81	82.81
280.042	84.81
280.273	86.81
280.505	93.81
280.736	91.81
280.968	91.81
281.199	92.81
281.431	90.81
281.662	78.81
281.894	92.81
282.125	97.81
282.356	115.81
282.588	119.81
282.819	96.81
283.051	89.81
283.282	81.81
283.513	92.81
283.745	79.81
283.976	98.81
284.207	91.81
284.439	87.81
284.67	81.81
284.901	79.81
285.132	71.81
285.364	79.81
285.595	90.81
285.826	91.81
286.057	76.81
286.288	91.81
286.52	86.81
286.751	100.81
286.982	95.81
287.213	95.81
287.444	85.81
287.675	99.81
287.906	78.81
288.138	95.81
288.369	87.81
288.6	87.81
288.831	83.81
289.062	80.81
289.293	88.81
289.524	86.81
289.755	92.81
289.986	88.81
290.217	66.81
290.448	85.81
290.679	67.81
290.91	88.81
291.141	73.81
291.371	84.81
291.602	88.81
291.833	97.81
292.064	75.81
292.295	93.81
292.526	88.81
292.757	104.81
292.987	97.81
293.218	91.81
293.449	86.81
293.68	79.81
293.91	92.81
294.141	83.81
294.372	82.81
294.603	96.81
294.833	90.81
295.064	93.81
295.295	84.81
295.525	87.81
295.756	103.81
295.987	101.81
296.217	122.81
296.448	100.81
296.679	90.81
296.909	94.81
297.14	82.81
297.37	90.81
297.601	91.81
297.831	81.81
298.062	83.81
298.292	63.81
298.523	81.81
298.753	89.81
298.984	81.81
299.214	79.81
299.445	80.81
299.675	86.81
299.905	86.81
300.136	89.81
300.366	80.81
300.597	98.81
300.827	94.81
301.057	116.81
301.288	108.81
301.518	86.81
301.748	86.81
301.979	109.81
302.209	90.81
302.439	90.81
302.669	94.81
302.9	87.81
303.13	74.81
303.36	90.81
303.59	97.81
303.82	100.81
304.051	99.81
304.281	96.81
304.511	85.81
304.741	68.81
304.971	86.81
305.201	99.81
305.431	103.81
305.661	107.81
305.891	88.81
306.121	91.81
306.352	103.81
306.582	94.81
306.812	82.81
307.042	100.81
307.272	83.81
307.502	87.81
307.731	91.81
307.961	94.81
308.191	92.81
308.421	81.81
308.651	94.81
308.881	79.81
309.111	107.81
309.341	96.81
309.571	101.81
309.8	91.81
310.03	94.81
310.26	100.81
310.49	95.81
310.72	77.81
310.949	102.81
311.179	99.81
311.409	94.81
311.639	78.81
311.868	79.81
312.098	99.81
312.328	87.81
312.557	87.81
312.787	94.81
313.017	99.81
313.246	102.81
313.476	91.81
313.706	92.81
313.935	98.81
314.165	102.81
314.394	73.81
314.624	86.81
314.853	85.81
315.083	91.81
315.312	91.81
315.542	80.81
315.771	90.81
316.001	87.81
316.23	102.81
316.46	82.81
316.689	86.81
316.919	105.81
317.148	83.81
317.377	99.81
317.607	105.81
317.836	114.81
318.065	75.81
318.295	83.81
318.524	90.81
318.753	99.81
318.983	90.81
319.212	105.81
319.441	119.81
319.67	105.81
319.9	91.81
320.129	90.81
320.358	78.81
320.587	97.81
320.816	98.81
321.046	81.81
321.275	84.81
321.504	83.81
321.733	103.81
321.962	109.81
322.191	93.81
322.42	85.81
322.649	101.81
322.878	103.81
323.108	113.81
323.337	100.81
323.566	133.81
323.795	139.81
324.024	199.81
324.253	374.81
324.482	744.81
324.71	1564.81
324.939	2070.81
325.168	741.81
325.397	227.81
325.626	150.81
325.855	121.81
326.084	118.81
326.313	136.81
326.542	149.81
326.77	202.81
326.999	441.81
327.228	874.81
327.457	1630.81
327.686	1295.81
327.914	338.81
328.143	177.81
328.372	154.81
328.6	120.81
328.829	103.81
329.058	114.81
329.287	112.81
329.515	99.81
329.744	89.81
329.972	114.81
330.201	128.81
330.43	159.81
330.658	103.81
330.887	120.81
331.115	106.81
331.344	102.81
331.572	109.81
331.801	96.81
332.03	99.81
332.258	98.81
332.486	90.81
332.715	94.81
332.943	90.81
333.172	97.81
333.4	97.81
333.629	94.81
333.857	106.81
334.085	115.81
334.314	137.81
334.542	169.81
334.771	179.81
334.999	112.81
335.227	100.81
335.455	87.81
335.684	99.81
335.912	78.81
336.14	102.81
336.369	88.81
336.597	91.81
336.825	88.81
337.053	87.81
337.281	88.81
337.51	95.81
337.738	83.81
337.966	94.81
338.194	105.81
338.422	86.81
338.65	89.81
338.878	81.81
339.106	88.81
339.334	95.81
339.562	90.81
339.79	97.81
340.018	85.81
340.246	86.81
340.474	94.81
340.702	93.81
340.93	90.81
341.158	84.81
341.386	83.81
341.614	100.81
341.842	95.81
342.07	94.81
342.298	80.81
342.526	81.81
342.754	87.81
342.981	79.81
343.209	101.81
343.437	103.81
343.665	98.81
343.893	87.81
344.12	93.81
344.348	95.81
344.576	72.81
344.804	95.81
345.031	94.81
345.259	82.81
345.487	92.81
345.714	98.81
345.942	94.81
346.17	97.81
346.397	102.81
346.625	86.81
346.853	89.81
347.08	86.81
347.308	97.81
347.535	98.81
347.763	102.81
347.99	95.81
348.218	90.81
348.445	76.81
348.673	87.81
348.9	82.81
349.128	97.81
349.355	99.81
349.583	87.81
349.81	97.81
350.037	97.81
350.265	90.81
350.492	94.81
350.72	91.81
350.947	107.81
351.174	100.81
351.402	110.81
351.629	104.81
351.856	91.81
352.083	96.81
352.311	88.81
352.538	98.81
352.765	91.81
352.992	104.81
353.22	99.81
353.447	97.81
353.674	103.81
353.901	97.81
354.128	99.81
354.355	97.81
354.583	85.81
354.81	94.81
355.037	96.81
355.264	102.81
355.491	90.81
355.718	91.81
355.945	88.81
356.172	95.81
356.399	98.81
356.626	91.81
356.853	102.81
357.08	97.81
357.307	98.81
357.534	89.81
357.761	96.81
357.988	90.81
358.215	92.81
358.441	100.81
358.668	73.81
358.895	96.81
359.122	88.81
359.349	95.81
359.576	86.81
359.802	108.81
360.029	86.81
360.256	105.81
360.483	72.81
360.709	77.81
360.936	103.81
361.163	74.81
361.39	80.81
361.616	88.81
361.843	85.81
362.07	80.81
362.296	94.81
362.523	82.81
362.749	94.81
362.976	94.81
363.203	86.81
363.429	83.81
363.656	85.81
363.882	90.81
364.109	89.81
364.335	95.81
364.562	78.81
364.788	81.81
365.015	101.81
365.241	94.81
365.468	94.81
365.694	98.81
365.92	102.81
366.147	101.81
366.373	74.81
366.599	92.81
366.826	88.81
367.052	90.81
367.278	97.81
367.505	90.81
367.731	94.81
367.957	87.81
368.184	75.81
368.41	88.81
368.636	89.81
368.862	98.81
369.089	88.81
369.315	75.81
369.541	88.81
369.767	96.81
369.993	81.81
370.219	78.81
370.445	91.81
370.672	89.81
370.898	95.81
371.124	88.81
371.35	74.81
371.576	86.81
371.802	91.81
372.028	83.81
372.254	89.81
372.48	76.81
372.706	94.81
372.932	95.81
373.158	86.81
373.384	83.81
373.61	97.81
373.835	80.81
374.061	90.81
374.287	88.81
374.513	80.81
374.739	104.81
374.965	98.81
375.191	94.81
375.416	92.81
375.642	88.81
375.868	95.81
376.094	94.81
376.319	91.81
376.545	65.81
376.771	82.81
376.997	78.81
377.222	88.81
377.448	87.81
377.674	88.81
377.899	95.81
378.125	93.81
378.35	87.81
378.576	84.81
378.802	79.81
379.027	86.81
379.253	87.81
379.478	91.81
379.704	103.81
379.929	99.81
380.155	102.81
380.38	105.81
380.606	91.81
380.831	79.81
381.057	102.81
381.282	92.81
381.507	96.81
381.733	95.81
381.958	94.81
382.184	85.81
382.409	87.81
382.634	87.81
382.86	98.81
383.085	78.81
383.31	95.81
383.535	98.81
383.761	104.81
383.986	84.81
384.211	88.81
384.436	87.81
384.662	81.81
384.887	100.81
385.112	98.81
385.337	107.81
385.562	86.81
385.787	102.81
386.013	107.81
386.238	107.81
386.463	107.81
386.688	111.81
386.913	111.81
387.138	95.81
387.363	89.81
387.588	90.81
387.813	90.81
388.038	98.81
388.263	114.81
388.488	113.81
388.713	98.81
388.938	88.81
389.163	86.81
389.387	92.81
389.612	87.81
389.837	85.81
390.062	79.81
390.287	83.81
390.512	105.81
390.736	86.81
390.961	103.81
391.186	88.81
391.411	99.81
391.636	90.81
391.86	95.81
392.085	96.81
392.31	84.81
392.534	73.81
392.759	74.81
392.984	85.81
393.208	90.81
393.433	84.81
393.658	91.81
393.882	96.81
394.107	92.81
394.331	96.81
394.556	86.81
394.78	77.81
395.005	86.81
395.229	80.81
395.454	80.81
395.678	86.81
395.903	86.81
396.127	74.81
396.352	89.81
396.576	95.81
396.801	92.81
397.025	76.81
397.249	87.81
397.474	79.81
397.698	88.81
397.922	94.81
398.147	89.81
398.371	84.81
398.595	75.81
398.82	92.81
399.044	85.81
399.268	92.81
399.492	87.81
399.717	75.81
399.941	93.81
400.165	91.81
400.389	98.81
400.613	94.81
400.837	73.81
401.062	84.81
401.286	86.81
401.51	90.81
401.734	82.81
401.958	98.81
402.182	113.81
402.406	118.81
402.63	110.81
402.854	81.81
403.078	89.81
403.302	78.81
403.526	85.81
403.75	74.81
403.974	85.81
404.198	90.81
404.422	94.81
404.645	98.81
404.869	73.81
405.093	86.81
405.317	82.81
405.541	85.81
405.765	104.81
405.988	99.81
406.212	142.81
406.436	168.81
406.66	111.81
406.883	89.81
407.107	89.81
407.331	86.81
407.555	85.81
407.778	94.81
408.002	94.81
408.226	91.81
408.449	98.81
408.673	78.81
408.896	89.81
409.12	83.81
409.344	81.81
409.567	87.81
409.791	105.81
410.014	97.81
410.238	90.81
410.461	84.81
410.685	101.81
410.908	94.81
411.132	104.81
411.355	101.81
411.578	99.81
411.802	102.81
412.025	98.81
412.249	87.81
412.472	98.81
412.695	103.81
412.919	107.81
413.142	76.81
413.365	79.81
413.589	89.81
413.812	87.81
414.035	92.81
414.258	82.81
414.482	80.81
414.705	81.81
414.928	92.81
415.151	92.81
415.374	105.81
415.597	90.81
415.821	98.81
416.044	90.81
416.267	95.81
416.49	80.81
416.713	97.81
416.936	84.81
417.159	82.81
417.382	83.81
417.605	81.81
417.828	90.81
418.051	87.81
418.274	75.81
418.497	87.81
418.72	75.81
418.943	95.81
419.166	98.81
419.389	86.81
419.611	87.81
419.834	84.81
420.057	94.81
420.28	74.81
420.503	84.81
420.726	94.81
420.948	85.81
421.171	95.81
421.394	93.81
421.617	75.81
421.839	87.81
422.062	101.81
422.285	92.81
422.507	96.81
422.73	103.81
422.953	80.81
423.175	87.81
423.398	74.81
423.621	83.81
423.843	82.81
424.066	95.81
424.288	92.81
424.511	94.81
424.733	103.81
424.956	86.81
425.178	90.81
425.401	88.81
425.623	99.81
425.846	93.81
426.068	83.81
426.291	88.81
426.513	96.81
426.735	98.81
426.958	92.81
427.18	107.81
427.402	133.81
427.625	144.81
427.847	127.81
428.069	112.81
428.292	75.81
428.514	90.81
428.736	78.81
428.958	74.81
429.181	86.81
429.403	83.81
429.625	86.81
429.847	81.81
430.069	87.81
430.292	95.81
430.514	71.81
430.736	94.81
430.958	92.81
431.18	90.81
431.402	97.81
431.624	80.81
431.846	85.81
432.068	87.81
432.29	94.81
432.512	102.81
432.734	72.81
432.956	86.81
433.178	100.81
433.4	105.81
433.622	81.81
433.844	87.81
434.066	89.81
434.287	76.81
434.509	94.81
434.731	76.81
434.953	72.81
435.175	71.81
435.397	90.81
435.618	94.81
435.84	111.81
436.062	107.81
436.284	112.81
436.505	89.81
436.727	95.81
436.949	102.81
437.17	73.81
437.392	94.81
437.614	93.81
437.835	96.81
438.057	104.81
438.278	107.81
438.5	91.81
438.721	125.81
438.943	99.81
439.165	88.81
439.386	81.81
439.608	97.81
439.829	101.81
440.05	128.81
440.272	116.81
440.493	98.81
440.715	87.81
440.936	87.81
441.158	84.81
441.379	81.81
441.6	92.81
441.822	84.81
442.043	93.81
442.264	83.81
442.486	97.81
442.707	86.81
442.928	89.81
443.149	115.81
443.371	124.81
443.592	97.81
443.813	101.81
444.034	95.81
444.255	105.81
444.476	91.81
444.698	98.81
444.919	100.81
445.14	115.81
445.361	120.81
445.582	102.81
445.803	103.81
446.024	115.81
446.245	126.81
446.466	103.81
446.687	76.81
446.908	80.81
447.129	82.81
447.35	85.81
447.571	86.81
447.792	86.81
448.013	96.81
448.234	102.81
448.455	96.81
448.675	105.81
448.896	120.81
449.117	89.81
449.338	97.81
449.559	106.81
449.779	113.81
450	94.81
450.221	90.81
450.442	89.81
450.662	87.81
450.883	94.81
451.104	97.81
451.324	88.81
451.545	85.81
451.766	89.81
451.986	97.81
452.207	88.81
452.428	78.81
452.648	105.81
452.869	102.81
453.089	108.81
453.31	111.81
453.53	89.81
453.751	75.81
453.971	86.81
454.192	99.81
454.412	83.81
454.633	86.81
454.853	88.81
455.073	92.81
455.294	80.81
455.514	87.81
455.734	87.81
455.955	92.81
456.175	70.81
456.395	83.81
456.616	98.81
456.836	83.81
457.056	82.81
457.276	69.81
457.497	78.81
457.717	82.81
457.937	78.81
458.157	80.81
458.377	102.81
458.598	106.81
458.818	122.81
459.038	141.81
459.258	103.81
459.478	102.81
459.698	90.81
459.918	86.81
460.138	83.81
460.358	74.81
460.578	95.81
460.798	97.81
461.018	87.81
461.238	83.81
461.458	89.81
461.678	94.81
461.898	90.81
462.118	92.81
462.338	71.81
462.558	80.81
462.777	78.81
462.997	70.81
463.217	96.81
463.437	88.81
463.657	78.81
463.876	88.81
464.096	87.81
464.316	80.81
464.536	92.81
464.755	105.81
464.975	102.81
465.195	156.81
465.414	122.81
465.634	101.81
465.854	95.81
466.073	95.81
466.293	82.81
466.512	84.81
466.732	70.81
466.951	73.81
467.171	95.81
467.391	89.81
467.61	104.81
467.829	99.81
468.049	105.81
468.268	126.81
468.488	85.81
468.707	94.81
468.927	96.81
469.146	76.81
469.365	88.81
469.585	88.81
469.804	98.81
470.023	99.81
470.243	82.81
470.462	99.81
470.681	100.81
470.901	73.81
471.12	86.81
471.339	96.81
471.558	98.81
471.777	84.81
471.997	98.81
472.216	138.81
472.435	213.81
472.654	100.81
472.873	88.81
473.092	87.81
473.311	88.81
473.53	82.81
473.749	84.81
473.968	100.81
474.187	89.81
474.406	81.81
474.625	70.81
474.844	70.81
475.063	86.81
475.282	85.81
475.501	79.81
475.72	91.81
475.939	88.81
476.158	85.81
476.377	98.81
476.596	91.81
476.814	97.81
477.033	102.81
477.252	83.81
477.471	68.81
477.69	100.81
477.908	100.81
478.127	93.81
478.346	93.81
478.564	91.81
478.783	92.81
479.002	88.81
479.22	95.81
479.439	100.81
479.658	105.81
479.876	96.81
480.095	88.81
480.313	73.81
480.532	87.81
480.751	105.81
480.969	146.81
481.188	316.81
481.406	206.81
481.624	103.81
481.843	90.81
482.061	96.81
482.28	89.81
482.498	97.81
482.717	81.81
482.935	94.81
483.153	80.81
483.372	79.81
483.59	98.81
483.808	88.81
484.027	86.81
484.245	91.81
484.463	89.81
484.681	85.81
484.9	101.81
485.118	96.81
485.336	95.81
485.554	97.81
485.772	106.81
485.99	91.81
486.209	99.81
486.427	115.81
486.645	126.81
486.863	102.81
487.081	103.81
487.299	104.81
487.517	87.81
487.735	96.81
487.953	90.81
488.171	78.81
488.389	99.81
488.607	92.81
488.825	86.81
489.043	85.81
489.261	98.81
489.479	74.81
489.696	96.81
489.914	95.81
490.132	90.81
490.35	97.81
490.568	86.81
490.786	87.81
491.003	86.81
491.221	88.81
491.439	92.81
491.657	101.81
491.874	94.81
492.092	93.81
492.31	89.81
492.527	94.81
492.745	86.81
492.963	105.81
493.18	82.81
493.398	95.81
493.615	101.81
493.833	98.81
494.05	97.81
494.268	81.81
494.485	79.81
494.703	103.81
494.92	89.81
495.138	81.81
495.355	85.81
495.573	86.81
495.79	85.81
496.008	103.81
496.225	95.81
496.442	90.81
496.66	85.81
496.877	100.81
497.094	83.81
497.312	87.81
497.529	86.81
497.746	91.81
497.963	72.81
498.181	89.81
498.398	90.81
498.615	106.81
498.832	99.81
499.049	102.81
499.267	93.81
499.484	98.81
499.701	90.81
499.918	88.81
500.135	87.81
500.352	79.81
500.569	98.81
500.786	94.81
501.003	86.81
501.22	104.81
501.437	112.81
501.654	80.81
501.871	98.81
502.088	83.81
502.305	94.81
502.522	87.81
502.739	91.81
502.956	86.81
503.172	92.81
503.389	86.81
503.606	88.81
503.823	84.81
504.04	81.81
504.256	105.81
504.473	88.81
504.69	86.81
504.907	103.81
505.123	81.81
505.34	78.81
505.557	88.81
505.773	91.81
505.99	86.81
506.207	92.81
506.423	97.81
506.64	98.81
506.856	90.81
507.073	92.81
507.289	98.81
507.506	93.81
507.722	94.81
507.939	98.81
508.155	91.81
508.372	98.81
508.588	105.81
508.805	116.81
509.021	89.81
509.238	90.81
509.454	98.81
509.67	103.81
509.887	104.81
510.103	124.81
510.319	186.81
510.536	612.81
510.752	1820.81
510.968	501.81
511.184	132.81
511.401	100.81
511.617	91.81
511.833	96.81
512.049	89.81
512.265	92.81
512.481	92.81
512.698	81.81
512.914	82.81
513.13	89.81
513.346	83.81
513.562	87.81
513.778	91.81
513.994	94.81
514.21	96.81
514.426	128.81
514.642	119.81
514.858	108.81
515.074	126.81
515.29	326.81
515.506	1052.81
515.721	395.81
515.937	133.81
516.153	95.81
516.369	100.81
516.585	86.81
