Data from Circ_1985_H10_HRD10591_00053.txt Node
Date: Wed Jan 03 12:19:33 EST 2024
User: Yrep
Spectrometer: HR+D1059
Trigger mode: 1
Integration Time (sec): 1.000000E-1
Scans to average: 1
Electric dark correction enabled: true
Nonlinearity correction enabled: false
Boxcar width: 0
XAxis mode: Wavelengths
Number of Pixels in Spectrum: 2048
>>>>>Begin Spectral Data<<<<<
223.165	-22.19
223.4	-22.19
223.635	-22.19
223.869	-18.19
224.104	-17.19
224.338	-11.19
224.573	-9.19
224.808	-14.19
225.042	-9.19
225.277	-2.19
225.511	1.81
225.746	8.81
225.98	-1.19
226.215	10.81
226.449	5.81
226.683	14.81
226.918	24.81
227.152	37.81
227.387	34.81
227.621	42.81
227.856	43.81
228.09	51.81
228.324	53.81
228.559	46.81
228.793	42.81
229.027	57.81
229.262	67.81
229.496	63.81
229.73	66.81
229.964	71.81
230.199	72.81
230.433	61.81
230.667	68.81
230.901	77.81
231.136	73.81
231.37	66.81
231.604	66.81
231.838	76.81
232.072	81.81
232.306	60.81
232.541	69.81
232.775	66.81
233.009	74.81
233.243	75.81
233.477	87.81
233.711	80.81
233.945	79.81
234.179	79.81
234.413	68.81
234.647	79.81
234.881	81.81
235.115	68.81
235.349	70.81
235.583	73.81
235.817	77.81
236.051	76.81
236.285	67.81
236.519	69.81
236.753	70.81
236.987	78.81
237.221	83.81
237.455	67.81
237.689	79.81
237.922	80.81
238.156	68.81
238.39	68.81
238.624	88.81
238.858	73.81
239.091	77.81
239.325	81.81
239.559	80.81
239.793	84.81
240.027	73.81
240.26	82.81
240.494	73.81
240.728	74.81
240.961	63.81
241.195	73.81
241.429	63.81
241.662	62.81
241.896	83.81
242.13	74.81
242.363	80.81
242.597	74.81
242.83	71.81
243.064	74.81
243.298	79.81
243.531	67.81
243.765	70.81
243.998	89.81
244.232	67.81
244.465	85.81
244.699	60.81
244.932	69.81
245.166	65.81
245.399	82.81
245.633	70.81
245.866	67.81
246.099	79.81
246.333	68.81
246.566	89.81
246.8	75.81
247.033	75.81
247.266	54.81
247.5	72.81
247.733	75.81
247.966	84.81
248.2	79.81
248.433	70.81
248.666	73.81
248.899	77.81
249.133	85.81
249.366	96.81
249.599	91.81
249.832	85.81
250.066	83.81
250.299	77.81
250.532	69.81
250.765	61.81
250.998	73.81
251.231	77.81
251.465	86.81
251.698	79.81
251.931	76.81
252.164	68.81
252.397	74.81
252.63	85.81
252.863	73.81
253.096	78.81
253.329	76.81
253.562	66.81
253.795	75.81
254.028	81.81
254.261	76.81
254.494	75.81
254.727	77.81
254.96	68.81
255.193	69.81
255.426	80.81
255.659	77.81
255.892	81.81
256.124	83.81
256.357	80.81
256.59	75.81
256.823	73.81
257.056	64.81
257.289	82.81
257.521	77.81
257.754	64.81
257.987	86.81
258.22	79.81
258.452	77.81
258.685	62.81
258.918	80.81
259.151	83.81
259.383	73.81
259.616	77.81
259.849	70.81
260.081	81.81
260.314	87.81
260.547	68.81
260.779	81.81
261.012	71.81
261.244	79.81
261.477	91.81
261.71	93.81
261.942	101.81
262.175	83.81
262.407	85.81
262.64	59.81
262.872	84.81
263.105	75.81
263.337	70.81
263.57	83.81
263.802	77.81
264.035	85.81
264.267	85.81
264.499	93.81
264.732	84.81
264.964	86.81
265.197	86.81
265.429	74.81
265.661	77.81
265.894	73.81
266.126	67.81
266.358	77.81
266.591	87.81
266.823	91.81
267.055	89.81
267.287	75.81
267.52	70.81
267.752	61.81
267.984	77.81
268.216	80.81
268.448	73.81
268.681	84.81
268.913	86.81
269.145	80.81
269.377	77.81
269.609	89.81
269.841	63.81
270.073	81.81
270.306	83.81
270.538	77.81
270.77	89.81
271.002	85.81
271.234	67.81
271.466	75.81
271.698	75.81
271.93	68.81
272.162	90.81
272.394	79.81
272.626	84.81
272.858	75.81
273.09	81.81
273.322	58.81
273.553	79.81
273.785	77.81
274.017	85.81
274.249	79.81
274.481	74.81
274.713	85.81
274.945	85.81
275.176	92.81
275.408	88.81
275.64	77.81
275.872	98.81
276.104	87.81
276.335	91.81
276.567	98.81
276.799	93.81
277.031	84.81
277.262	80.81
277.494	69.81
277.726	85.81
277.957	83.81
278.189	97.81
278.421	88.81
278.652	83.81
278.884	82.81
279.115	79.81
279.347	83.81
279.579	86.81
279.81	81.81
280.042	87.81
280.273	77.81
280.505	79.81
280.736	90.81
280.968	86.81
281.199	101.81
281.431	83.81
281.662	90.81
281.894	87.81
282.125	89.81
282.356	98.81
282.588	124.81
282.819	91.81
283.051	89.81
283.282	94.81
283.513	78.81
283.745	95.81
283.976	92.81
284.207	80.81
284.439	79.81
284.67	75.81
284.901	95.81
285.132	84.81
285.364	81.81
285.595	76.81
285.826	78.81
286.057	80.81
286.288	67.81
286.52	86.81
286.751	87.81
286.982	82.81
287.213	84.81
287.444	78.81
287.675	87.81
287.906	94.81
288.138	96.81
288.369	97.81
288.6	79.81
288.831	78.81
289.062	76.81
289.293	87.81
289.524	78.81
289.755	78.81
289.986	77.81
290.217	79.81
290.448	77.81
290.679	94.81
290.91	96.81
291.141	87.81
291.371	79.81
291.602	79.81
291.833	90.81
292.064	88.81
292.295	85.81
292.526	84.81
292.757	70.81
292.987	80.81
293.218	84.81
293.449	73.81
293.68	74.81
293.91	96.81
294.141	81.81
294.372	94.81
294.603	81.81
294.833	88.81
295.064	103.81
295.295	80.81
295.525	80.81
295.756	88.81
295.987	96.81
296.217	102.81
296.448	116.81
296.679	94.81
296.909	81.81
297.14	81.81
297.37	87.81
297.601	84.81
297.831	86.81
298.062	85.81
298.292	83.81
298.523	86.81
298.753	89.81
298.984	88.81
299.214	68.81
299.445	84.81
299.675	91.81
299.905	79.81
300.136	87.81
300.366	86.81
300.597	84.81
300.827	84.81
301.057	91.81
301.288	80.81
301.518	92.81
301.748	87.81
301.979	88.81
302.209	83.81
302.439	87.81
302.669	81.81
302.9	77.81
303.13	105.81
303.36	79.81
303.59	82.81
303.82	90.81
304.051	82.81
304.281	84.81
304.511	92.81
304.741	100.81
304.971	92.81
305.201	87.81
305.431	98.81
305.661	95.81
305.891	93.81
306.121	96.81
306.352	100.81
306.582	92.81
306.812	92.81
307.042	98.81
307.272	101.81
307.502	90.81
307.731	97.81
307.961	80.81
308.191	85.81
308.421	88.81
308.651	83.81
308.881	89.81
309.111	89.81
309.341	94.81
309.571	94.81
309.8	101.81
310.03	94.81
310.26	91.81
310.49	81.81
310.72	80.81
310.949	85.81
311.179	101.81
311.409	90.81
311.639	78.81
311.868	86.81
312.098	80.81
312.328	98.81
312.557	93.81
312.787	91.81
313.017	99.81
313.246	91.81
313.476	82.81
313.706	85.81
313.935	86.81
314.165	93.81
314.394	75.81
314.624	90.81
314.853	89.81
315.083	87.81
315.312	86.81
315.542	95.81
315.771	85.81
316.001	93.81
316.23	93.81
316.46	91.81
316.689	74.81
316.919	89.81
317.148	89.81
317.377	101.81
317.607	84.81
317.836	86.81
318.065	74.81
318.295	84.81
318.524	64.81
318.753	87.81
318.983	74.81
319.212	101.81
319.441	97.81
319.67	103.81
319.9	83.81
320.129	92.81
320.358	90.81
320.587	95.81
320.816	97.81
321.046	98.81
321.275	91.81
321.504	83.81
321.733	89.81
321.962	94.81
322.191	90.81
322.42	100.81
322.649	107.81
322.878	99.81
323.108	104.81
323.337	111.81
323.566	126.81
323.795	132.81
324.024	196.81
324.253	356.81
324.482	743.81
324.71	1518.81
324.939	2003.81
325.168	715.81
325.397	213.81
325.626	148.81
325.855	128.81
326.084	114.81
326.313	138.81
326.542	132.81
326.77	186.81
326.999	422.81
327.228	859.81
327.457	1588.81
327.686	1237.81
327.914	351.81
328.143	175.81
328.372	141.81
328.6	122.81
328.829	94.81
329.058	108.81
329.287	112.81
329.515	96.81
329.744	116.81
329.972	107.81
330.201	108.81
330.43	116.81
330.658	97.81
330.887	119.81
331.115	108.81
331.344	90.81
331.572	90.81
331.801	98.81
332.03	93.81
332.258	84.81
332.486	81.81
332.715	79.81
332.943	89.81
333.172	97.81
333.4	84.81
333.629	109.81
333.857	116.81
334.085	100.81
334.314	118.81
334.542	108.81
334.771	115.81
334.999	99.81
335.227	93.81
335.455	102.81
335.684	92.81
335.912	91.81
336.14	91.81
336.369	96.81
336.597	87.81
336.825	77.81
337.053	91.81
337.281	93.81
337.51	86.81
337.738	97.81
337.966	101.81
338.194	101.81
338.422	87.81
338.65	90.81
338.878	84.81
339.106	94.81
339.334	70.81
339.562	80.81
339.79	89.81
340.018	93.81
340.246	85.81
340.474	92.81
340.702	85.81
340.93	73.81
341.158	94.81
341.386	92.81
341.614	90.81
341.842	101.81
342.07	77.81
342.298	81.81
342.526	84.81
342.754	91.81
342.981	85.81
343.209	92.81
343.437	114.81
343.665	98.81
343.893	89.81
344.12	79.81
344.348	94.81
344.576	96.81
344.804	102.81
345.031	95.81
345.259	83.81
345.487	98.81
345.714	79.81
345.942	71.81
346.17	68.81
346.397	95.81
346.625	88.81
346.853	82.81
347.08	87.81
347.308	95.81
347.535	97.81
347.763	88.81
347.99	92.81
348.218	90.81
348.445	95.81
348.673	86.81
348.9	103.81
349.128	92.81
349.355	94.81
349.583	92.81
349.81	86.81
350.037	102.81
350.265	86.81
350.492	95.81
350.72	83.81
350.947	99.81
351.174	93.81
351.402	102.81
351.629	94.81
351.856	89.81
352.083	98.81
352.311	105.81
352.538	98.81
352.765	102.81
352.992	107.81
353.22	113.81
353.447	100.81
353.674	86.81
353.901	95.81
354.128	83.81
354.355	110.81
354.583	97.81
354.81	92.81
355.037	95.81
355.264	108.81
355.491	69.81
355.718	92.81
355.945	99.81
356.172	85.81
356.399	96.81
356.626	90.81
356.853	82.81
357.08	86.81
357.307	76.81
357.534	83.81
357.761	95.81
357.988	88.81
358.215	86.81
358.441	107.81
358.668	75.81
358.895	86.81
359.122	98.81
359.349	74.81
359.576	82.81
359.802	103.81
360.029	101.81
360.256	100.81
360.483	78.81
360.709	89.81
360.936	77.81
361.163	89.81
361.39	90.81
361.616	79.81
361.843	81.81
362.07	85.81
362.296	90.81
362.523	109.81
362.749	98.81
362.976	82.81
363.203	99.81
363.429	84.81
363.656	76.81
363.882	87.81
364.109	81.81
364.335	79.81
364.562	73.81
364.788	84.81
365.015	86.81
365.241	77.81
365.468	98.81
365.694	91.81
365.92	81.81
366.147	86.81
366.373	65.81
366.599	86.81
366.826	69.81
367.052	86.81
367.278	86.81
367.505	86.81
367.731	81.81
367.957	80.81
368.184	85.81
368.41	87.81
368.636	113.81
368.862	79.81
369.089	103.81
369.315	90.81
369.541	80.81
369.767	94.81
369.993	76.81
370.219	77.81
370.445	86.81
370.672	76.81
370.898	86.81
371.124	81.81
371.35	77.81
371.576	95.81
371.802	85.81
372.028	79.81
372.254	68.81
372.48	71.81
372.706	81.81
372.932	91.81
373.158	85.81
373.384	94.81
373.61	79.81
373.835	83.81
374.061	81.81
374.287	81.81
374.513	84.81
374.739	75.81
374.965	95.81
375.191	92.81
375.416	90.81
375.642	93.81
375.868	84.81
376.094	77.81
376.319	76.81
376.545	83.81
376.771	80.81
376.997	96.81
377.222	78.81
377.448	81.81
377.674	97.81
377.899	79.81
378.125	96.81
378.35	81.81
378.576	82.81
378.802	79.81
379.027	77.81
379.253	87.81
379.478	85.81
379.704	98.81
379.929	86.81
380.155	93.81
380.38	90.81
380.606	86.81
380.831	87.81
381.057	92.81
381.282	85.81
381.507	75.81
381.733	103.81
381.958	81.81
382.184	74.81
382.409	94.81
382.634	94.81
382.86	90.81
383.085	98.81
383.31	97.81
383.535	90.81
383.761	93.81
383.986	82.81
384.211	89.81
384.436	95.81
384.662	92.81
384.887	96.81
385.112	86.81
385.337	93.81
385.562	97.81
385.787	111.81
386.013	120.81
386.238	103.81
386.463	95.81
386.688	108.81
386.913	89.81
387.138	112.81
387.363	93.81
387.588	99.81
387.813	88.81
388.038	92.81
388.263	91.81
388.488	112.81
388.713	91.81
388.938	100.81
389.163	93.81
389.387	86.81
389.612	97.81
389.837	82.81
390.062	97.81
390.287	81.81
390.512	82.81
390.736	98.81
390.961	89.81
391.186	99.81
391.411	86.81
391.636	84.81
391.86	75.81
392.085	74.81
392.31	69.81
392.534	75.81
392.759	85.81
392.984	85.81
393.208	84.81
393.433	97.81
393.658	93.81
393.882	68.81
394.107	79.81
394.331	98.81
394.556	81.81
394.78	97.81
395.005	68.81
395.229	76.81
395.454	76.81
395.678	90.81
395.903	83.81
396.127	81.81
396.352	83.81
396.576	93.81
396.801	73.81
397.025	94.81
397.249	95.81
397.474	86.81
397.698	75.81
397.922	88.81
398.147	80.81
398.371	76.81
398.595	79.81
398.82	78.81
399.044	85.81
399.268	80.81
399.492	87.81
399.717	86.81
399.941	78.81
400.165	78.81
400.389	68.81
400.613	90.81
400.837	100.81
401.062	77.81
401.286	84.81
401.51	79.81
401.734	95.81
401.958	87.81
402.182	106.81
402.406	129.81
402.63	95.81
402.854	81.81
403.078	75.81
403.302	65.81
403.526	79.81
403.75	78.81
403.974	74.81
404.198	83.81
404.422	78.81
404.645	80.81
404.869	83.81
405.093	83.81
405.317	92.81
405.541	95.81
405.765	81.81
405.988	106.81
406.212	144.81
406.436	182.81
406.66	130.81
406.883	99.81
407.107	93.81
407.331	94.81
407.555	84.81
407.778	81.81
408.002	90.81
408.226	87.81
408.449	87.81
408.673	90.81
408.896	85.81
409.12	85.81
409.344	89.81
409.567	85.81
409.791	105.81
410.014	78.81
410.238	79.81
410.461	81.81
410.685	69.81
410.908	87.81
411.132	97.81
411.355	80.81
411.578	90.81
411.802	85.81
412.025	83.81
412.249	66.81
412.472	77.81
412.695	87.81
412.919	90.81
413.142	82.81
413.365	83.81
413.589	64.81
413.812	80.81
414.035	85.81
414.258	77.81
414.482	84.81
414.705	92.81
414.928	99.81
415.151	92.81
415.374	107.81
415.597	83.81
415.821	93.81
416.044	82.81
416.267	93.81
416.49	86.81
416.713	68.81
416.936	95.81
417.159	81.81
417.382	91.81
417.605	91.81
417.828	92.81
418.051	83.81
418.274	74.81
418.497	84.81
418.72	83.81
418.943	85.81
419.166	79.81
419.389	87.81
419.611	79.81
419.834	91.81
420.057	75.81
420.28	70.81
420.503	89.81
420.726	81.81
420.948	78.81
421.171	78.81
421.394	82.81
421.617	91.81
421.839	91.81
422.062	82.81
422.285	88.81
422.507	87.81
422.73	106.81
422.953	86.81
423.175	80.81
423.398	88.81
423.621	85.81
423.843	82.81
424.066	79.81
424.288	89.81
424.511	76.81
424.733	81.81
424.956	97.81
425.178	90.81
425.401	85.81
425.623	83.81
425.846	93.81
426.068	90.81
426.291	86.81
426.513	91.81
426.735	90.81
426.958	101.81
427.18	104.81
427.402	118.81
427.625	138.81
427.847	130.81
428.069	88.81
428.292	81.81
428.514	78.81
428.736	81.81
428.958	66.81
429.181	101.81
429.403	81.81
429.625	93.81
429.847	84.81
430.069	82.81
430.292	78.81
430.514	70.81
430.736	82.81
430.958	104.81
431.18	88.81
431.402	92.81
431.624	60.81
431.846	75.81
432.068	79.81
432.29	85.81
432.512	89.81
432.734	90.81
432.956	81.81
433.178	84.81
433.4	85.81
433.622	92.81
433.844	93.81
434.066	94.81
434.287	78.81
434.509	78.81
434.731	88.81
434.953	86.81
435.175	77.81
435.397	83.81
435.618	86.81
435.84	88.81
436.062	105.81
436.284	113.81
436.505	95.81
436.727	100.81
436.949	84.81
437.17	72.81
437.392	74.81
437.614	80.81
437.835	94.81
438.057	108.81
438.278	95.81
438.5	94.81
438.721	111.81
438.943	98.81
439.165	94.81
439.386	76.81
439.608	72.81
439.829	85.81
440.05	98.81
440.272	114.81
440.493	87.81
440.715	81.81
440.936	63.81
441.158	82.81
441.379	79.81
441.6	94.81
441.822	88.81
442.043	81.81
442.264	98.81
442.486	83.81
442.707	106.81
442.928	99.81
443.149	107.81
443.371	120.81
443.592	103.81
443.813	102.81
444.034	93.81
444.255	93.81
444.476	77.81
444.698	83.81
444.919	87.81
445.14	122.81
445.361	118.81
445.582	105.81
445.803	107.81
446.024	116.81
446.245	128.81
446.466	102.81
446.687	77.81
446.908	98.81
447.129	83.81
447.35	81.81
447.571	92.81
447.792	85.81
448.013	93.81
448.234	101.81
448.455	89.81
448.675	94.81
448.896	98.81
449.117	96.81
449.338	104.81
449.559	123.81
449.779	114.81
450	84.81
450.221	91.81
450.442	86.81
450.662	86.81
450.883	89.81
451.104	101.81
451.324	81.81
451.545	82.81
451.766	93.81
451.986	84.81
452.207	100.81
452.428	96.81
452.648	89.81
452.869	103.81
453.089	89.81
453.31	112.81
453.53	85.81
453.751	77.81
453.971	86.81
454.192	88.81
454.412	80.81
454.633	76.81
454.853	73.81
455.073	80.81
455.294	81.81
455.514	90.81
455.734	81.81
455.955	76.81
456.175	76.81
456.395	94.81
456.616	69.81
456.836	82.81
457.056	79.81
457.276	75.81
457.497	85.81
457.717	69.81
457.937	93.81
458.157	78.81
458.377	73.81
458.598	93.81
458.818	114.81
459.038	142.81
459.258	97.81
459.478	93.81
459.698	96.81
459.918	93.81
460.138	86.81
460.358	65.81
460.578	84.81
460.798	89.81
461.018	88.81
461.238	79.81
461.458	80.81
461.678	87.81
461.898	78.81
462.118	90.81
462.338	78.81
462.558	75.81
462.777	74.81
462.997	80.81
463.217	88.81
463.437	85.81
463.657	92.81
463.876	76.81
464.096	89.81
464.316	99.81
464.536	86.81
464.755	97.81
464.975	112.81
465.195	151.81
465.414	124.81
465.634	100.81
465.854	83.81
466.073	84.81
466.293	89.81
466.512	80.81
466.732	67.81
466.951	79.81
467.171	84.81
467.391	90.81
467.61	97.81
467.829	88.81
468.049	101.81
468.268	108.81
468.488	77.81
468.707	89.81
468.927	89.81
469.146	80.81
469.365	82.81
469.585	82.81
469.804	77.81
470.023	102.81
470.243	86.81
470.462	92.81
470.681	93.81
470.901	91.81
471.12	98.81
471.339	84.81
471.558	94.81
471.777	70.81
471.997	83.81
472.216	102.81
472.435	146.81
472.654	96.81
472.873	100.81
473.092	87.81
473.311	73.81
473.53	90.81
473.749	78.81
473.968	87.81
474.187	96.81
474.406	76.81
474.625	82.81
474.844	77.81
475.063	79.81
475.282	70.81
475.501	86.81
475.72	93.81
475.939	90.81
476.158	82.81
476.377	81.81
476.596	80.81
476.814	80.81
477.033	84.81
477.252	85.81
477.471	78.81
477.69	91.81
477.908	77.81
478.127	77.81
478.346	84.81
478.564	75.81
478.783	84.81
479.002	77.81
479.22	73.81
479.439	94.81
479.658	91.81
479.876	81.81
480.095	92.81
480.313	95.81
480.532	86.81
480.751	106.81
480.969	119.81
481.188	176.81
481.406	138.81
481.624	89.81
481.843	79.81
482.061	83.81
482.28	63.81
482.498	88.81
482.717	91.81
482.935	86.81
483.153	89.81
483.372	93.81
483.59	86.81
483.808	86.81
484.027	86.81
484.245	83.81
484.463	82.81
484.681	91.81
484.9	86.81
485.118	91.81
485.336	95.81
485.554	92.81
485.772	101.81
485.99	97.81
486.209	81.81
486.427	103.81
486.645	105.81
486.863	103.81
487.081	99.81
487.299	84.81
487.517	97.81
487.735	94.81
487.953	101.81
488.171	91.81
488.389	93.81
488.607	87.81
488.825	91.81
489.043	73.81
489.261	103.81
489.479	93.81
489.696	92.81
489.914	88.81
490.132	91.81
490.35	107.81
490.568	92.81
490.786	90.81
491.003	75.81
491.221	71.81
491.439	90.81
491.657	74.81
491.874	81.81
492.092	79.81
492.31	86.81
492.527	84.81
492.745	80.81
492.963	87.81
493.18	91.81
493.398	77.81
493.615	89.81
493.833	87.81
494.05	77.81
494.268	90.81
494.485	73.81
494.703	85.81
494.92	77.81
495.138	89.81
495.355	90.81
495.573	75.81
495.79	63.81
496.008	81.81
496.225	94.81
496.442	84.81
496.66	92.81
496.877	79.81
497.094	93.81
497.312	78.81
497.529	88.81
497.746	92.81
497.963	75.81
498.181	99.81
498.398	94.81
498.615	113.81
498.832	112.81
499.049	89.81
499.267	79.81
499.484	78.81
499.701	77.81
499.918	80.81
500.135	84.81
500.352	76.81
500.569	98.81
500.786	85.81
501.003	93.81
501.22	74.81
501.437	85.81
501.654	85.81
501.871	83.81
502.088	87.81
502.305	78.81
502.522	90.81
502.739	103.81
502.956	76.81
503.172	84.81
503.389	86.81
503.606	89.81
503.823	89.81
504.04	99.81
504.256	83.81
504.473	97.81
504.69	78.81
504.907	89.81
505.123	79.81
505.34	85.81
505.557	77.81
505.773	77.81
505.99	77.81
506.207	73.81
506.423	80.81
506.64	79.81
506.856	68.81
507.073	70.81
507.289	87.81
507.506	90.81
507.722	101.81
507.939	93.81
508.155	86.81
508.372	87.81
508.588	76.81
508.805	70.81
509.021	91.81
509.238	91.81
509.454	74.81
509.67	92.81
509.887	103.81
510.103	116.81
510.319	203.81
510.536	671.81
510.752	1980.81
510.968	554.81
511.184	124.81
511.401	102.81
511.617	91.81
511.833	92.81
512.049	96.81
512.265	81.81
512.481	90.81
512.698	84.81
512.914	89.81
513.13	85.81
513.346	87.81
513.562	96.81
513.778	89.81
513.994	86.81
514.21	96.81
514.426	101.81
514.642	113.81
514.858	106.81
515.074	143.81
515.29	378.81
515.506	1134.81
515.721	415.81
515.937	131.81
516.153	89.81
516.369	86.81
516.585	79.81
516.801	93.81
517.016	88.81
517.232	80.81
517.448	101.81
517.664	95.81
