Data from Circ_1985_H10_HRD10591_00032.txt Node
Date: Wed Jan 03 12:19:29 EST 2024
User: Yrep
Spectrometer: HR+D1059
Trigger mode: 1
Integration Time (sec): 1.000000E-1
Scans to average: 1
Electric dark correction enabled: true
Nonlinearity correction enabled: false
Boxcar width: 0
XAxis mode: Wavelengths
Number of Pixels in Spectrum: 2048
>>>>>Begin Spectral Data<<<<<
223.165	-13.25
223.4	-13.25
223.635	-13.25
223.869	-21.25
224.104	-19.25
224.338	-20.25
224.573	-15.25
224.808	-29.25
225.042	-8.25
225.277	-9.25
225.511	-8.25
225.746	3.75
225.98	5.75
226.215	20.75
226.449	15.75
226.683	25.75
226.918	28.75
227.152	43.75
227.387	23.75
227.621	34.75
227.856	29.75
228.09	47.75
228.324	47.75
228.559	54.75
228.793	44.75
229.027	64.75
229.262	65.75
229.496	70.75
229.73	75.75
229.964	80.75
230.199	70.75
230.433	67.75
230.667	79.75
230.901	81.75
231.136	67.75
231.37	68.75
231.604	76.75
231.838	77.75
232.072	71.75
232.306	72.75
232.541	87.75
232.775	84.75
233.009	84.75
233.243	83.75
233.477	78.75
233.711	83.75
233.945	81.75
234.179	85.75
234.413	77.75
234.647	75.75
234.881	75.75
235.115	63.75
235.349	79.75
235.583	60.75
235.817	66.75
236.051	56.75
236.285	77.75
236.519	83.75
236.753	70.75
236.987	68.75
237.221	71.75
237.455	81.75
237.689	80.75
237.922	70.75
238.156	64.75
238.39	61.75
238.624	75.75
238.858	70.75
239.091	71.75
239.325	68.75
239.559	75.75
239.793	79.75
240.027	67.75
240.26	76.75
240.494	81.75
240.728	68.75
240.961	66.75
241.195	89.75
241.429	73.75
241.662	80.75
241.896	60.75
242.13	89.75
242.363	55.75
242.597	62.75
242.83	76.75
243.064	53.75
243.298	80.75
243.531	68.75
243.765	55.75
243.998	63.75
244.232	83.75
244.465	86.75
244.699	84.75
244.932	69.75
245.166	90.75
245.399	80.75
245.633	69.75
245.866	70.75
246.099	65.75
246.333	63.75
246.566	72.75
246.8	80.75
247.033	72.75
247.266	79.75
247.5	80.75
247.733	83.75
247.966	77.75
248.2	86.75
248.433	86.75
248.666	80.75
248.899	77.75
249.133	90.75
249.366	67.75
249.599	77.75
249.832	77.75
250.066	77.75
250.299	82.75
250.532	59.75
250.765	79.75
250.998	72.75
251.231	68.75
251.465	89.75
251.698	88.75
251.931	76.75
252.164	93.75
252.397	88.75
252.63	72.75
252.863	79.75
253.096	69.75
253.329	85.75
253.562	80.75
253.795	67.75
254.028	83.75
254.261	77.75
254.494	75.75
254.727	68.75
254.96	86.75
255.193	79.75
255.426	88.75
255.659	87.75
255.892	76.75
256.124	91.75
256.357	73.75
256.59	78.75
256.823	65.75
257.056	83.75
257.289	67.75
257.521	92.75
257.754	82.75
257.987	61.75
258.22	71.75
258.452	73.75
258.685	80.75
258.918	84.75
259.151	78.75
259.383	80.75
259.616	72.75
259.849	60.75
260.081	78.75
260.314	83.75
260.547	81.75
260.779	77.75
261.012	78.75
261.244	71.75
261.477	85.75
261.71	85.75
261.942	93.75
262.175	101.75
262.407	95.75
262.64	89.75
262.872	80.75
263.105	69.75
263.337	82.75
263.57	70.75
263.802	88.75
264.035	79.75
264.267	83.75
264.499	81.75
264.732	81.75
264.964	71.75
265.197	91.75
265.429	76.75
265.661	89.75
265.894	82.75
266.126	93.75
266.358	75.75
266.591	83.75
266.823	81.75
267.055	80.75
267.287	72.75
267.52	93.75
267.752	84.75
267.984	84.75
268.216	88.75
268.448	79.75
268.681	76.75
268.913	78.75
269.145	78.75
269.377	81.75
269.609	91.75
269.841	89.75
270.073	84.75
270.306	82.75
270.538	93.75
270.77	92.75
271.002	63.75
271.234	83.75
271.466	75.75
271.698	67.75
271.93	83.75
272.162	90.75
272.394	87.75
272.626	81.75
272.858	82.75
273.09	72.75
273.322	71.75
273.553	67.75
273.785	77.75
274.017	75.75
274.249	86.75
274.481	84.75
274.713	65.75
274.945	87.75
275.176	85.75
275.408	81.75
275.64	75.75
275.872	84.75
276.104	66.75
276.335	85.75
276.567	87.75
276.799	85.75
277.031	91.75
277.262	92.75
277.494	90.75
277.726	85.75
277.957	82.75
278.189	85.75
278.421	85.75
278.652	73.75
278.884	66.75
279.115	72.75
279.347	75.75
279.579	90.75
279.81	87.75
280.042	77.75
280.273	87.75
280.505	86.75
280.736	82.75
280.968	81.75
281.199	60.75
281.431	83.75
281.662	81.75
281.894	85.75
282.125	91.75
282.356	96.75
282.588	118.75
282.819	95.75
283.051	79.75
283.282	83.75
283.513	101.75
283.745	91.75
283.976	79.75
284.207	77.75
284.439	80.75
284.67	96.75
284.901	78.75
285.132	84.75
285.364	77.75
285.595	75.75
285.826	81.75
286.057	104.75
286.288	82.75
286.52	83.75
286.751	95.75
286.982	94.75
287.213	64.75
287.444	84.75
287.675	97.75
287.906	93.75
288.138	86.75
288.369	84.75
288.6	79.75
288.831	75.75
289.062	83.75
289.293	94.75
289.524	95.75
289.755	84.75
289.986	87.75
290.217	86.75
290.448	80.75
290.679	82.75
290.91	97.75
291.141	86.75
291.371	84.75
291.602	68.75
291.833	95.75
292.064	72.75
292.295	75.75
292.526	90.75
292.757	89.75
292.987	76.75
293.218	90.75
293.449	95.75
293.68	93.75
293.91	84.75
294.141	61.75
294.372	83.75
294.603	71.75
294.833	79.75
295.064	85.75
295.295	74.75
295.525	94.75
295.756	95.75
295.987	101.75
296.217	120.75
296.448	108.75
296.679	82.75
296.909	98.75
297.14	82.75
297.37	85.75
297.601	79.75
297.831	77.75
298.062	91.75
298.292	70.75
298.523	88.75
298.753	88.75
298.984	105.75
299.214	96.75
299.445	72.75
299.675	79.75
299.905	69.75
300.136	84.75
300.366	88.75
300.597	80.75
300.827	94.75
301.057	83.75
301.288	86.75
301.518	79.75
301.748	95.75
301.979	101.75
302.209	86.75
302.439	93.75
302.669	79.75
302.9	77.75
303.13	83.75
303.36	87.75
303.59	94.75
303.82	103.75
304.051	91.75
304.281	78.75
304.511	89.75
304.741	88.75
304.971	81.75
305.201	80.75
305.431	91.75
305.661	78.75
305.891	86.75
306.121	101.75
306.352	81.75
306.582	95.75
306.812	91.75
307.042	88.75
307.272	87.75
307.502	91.75
307.731	97.75
307.961	101.75
308.191	64.75
308.421	85.75
308.651	79.75
308.881	81.75
309.111	85.75
309.341	100.75
309.571	93.75
309.8	83.75
310.03	101.75
310.26	86.75
310.49	89.75
310.72	87.75
310.949	97.75
311.179	93.75
311.409	95.75
311.639	85.75
311.868	97.75
312.098	98.75
312.328	90.75
312.557	95.75
312.787	92.75
313.017	88.75
313.246	101.75
313.476	90.75
313.706	89.75
313.935	84.75
314.165	86.75
314.394	83.75
314.624	84.75
314.853	83.75
315.083	85.75
315.312	86.75
315.542	92.75
315.771	99.75
316.001	96.75
316.23	102.75
316.46	86.75
316.689	69.75
316.919	87.75
317.148	77.75
317.377	88.75
317.607	93.75
317.836	80.75
318.065	92.75
318.295	88.75
318.524	82.75
318.753	81.75
318.983	95.75
319.212	95.75
319.441	96.75
319.67	97.75
319.9	86.75
320.129	99.75
320.358	87.75
320.587	82.75
320.816	95.75
321.046	98.75
321.275	97.75
321.504	96.75
321.733	105.75
321.962	110.75
322.191	92.75
322.42	104.75
322.649	99.75
322.878	104.75
323.108	109.75
323.337	103.75
323.566	106.75
323.795	128.75
324.024	170.75
324.253	335.75
324.482	716.75
324.71	1472.75
324.939	1941.75
325.168	695.75
325.397	213.75
325.626	141.75
325.855	97.75
326.084	111.75
326.313	127.75
326.542	126.75
326.77	215.75
326.999	393.75
327.228	835.75
327.457	1560.75
327.686	1203.75
327.914	320.75
328.143	171.75
328.372	140.75
328.6	107.75
328.829	104.75
329.058	102.75
329.287	116.75
329.515	112.75
329.744	94.75
329.972	103.75
330.201	111.75
330.43	105.75
330.658	111.75
330.887	108.75
331.115	98.75
331.344	85.75
331.572	107.75
331.801	105.75
332.03	97.75
332.258	94.75
332.486	93.75
332.715	102.75
332.943	96.75
333.172	93.75
333.4	73.75
333.629	84.75
333.857	111.75
334.085	108.75
334.314	104.75
334.542	121.75
334.771	112.75
334.999	85.75
335.227	96.75
335.455	83.75
335.684	90.75
335.912	100.75
336.14	95.75
336.369	86.75
336.597	91.75
336.825	96.75
337.053	87.75
337.281	88.75
337.51	104.75
337.738	103.75
337.966	95.75
338.194	85.75
338.422	97.75
338.65	93.75
338.878	80.75
339.106	82.75
339.334	96.75
339.562	102.75
339.79	81.75
340.018	82.75
340.246	84.75
340.474	97.75
340.702	99.75
340.93	85.75
341.158	93.75
341.386	85.75
341.614	85.75
341.842	94.75
342.07	95.75
342.298	88.75
342.526	83.75
342.754	85.75
342.981	90.75
343.209	83.75
343.437	93.75
343.665	92.75
343.893	86.75
344.12	91.75
344.348	88.75
344.576	91.75
344.804	72.75
345.031	93.75
345.259	95.75
345.487	99.75
345.714	103.75
345.942	88.75
346.17	78.75
346.397	93.75
346.625	76.75
346.853	94.75
347.08	70.75
347.308	92.75
347.535	90.75
347.763	99.75
347.99	99.75
348.218	108.75
348.445	95.75
348.673	96.75
348.9	84.75
349.128	84.75
349.355	95.75
349.583	94.75
349.81	91.75
350.037	93.75
350.265	96.75
350.492	88.75
350.72	88.75
350.947	101.75
351.174	104.75
351.402	101.75
351.629	87.75
351.856	105.75
352.083	94.75
352.311	100.75
352.538	94.75
352.765	105.75
352.992	106.75
353.22	100.75
353.447	94.75
353.674	88.75
353.901	78.75
354.128	91.75
354.355	91.75
354.583	95.75
354.81	89.75
355.037	94.75
355.264	94.75
355.491	81.75
355.718	103.75
355.945	86.75
356.172	88.75
356.399	84.75
356.626	91.75
356.853	95.75
357.08	93.75
357.307	87.75
357.534	93.75
357.761	81.75
357.988	90.75
358.215	108.75
358.441	94.75
358.668	100.75
358.895	95.75
359.122	91.75
359.349	91.75
359.576	87.75
359.802	89.75
360.029	92.75
360.256	89.75
360.483	100.75
360.709	94.75
360.936	77.75
361.163	91.75
361.39	91.75
361.616	87.75
361.843	78.75
362.07	71.75
362.296	83.75
362.523	96.75
362.749	95.75
362.976	97.75
363.203	92.75
363.429	81.75
363.656	81.75
363.882	75.75
364.109	92.75
364.335	87.75
364.562	85.75
364.788	78.75
365.015	87.75
365.241	87.75
365.468	89.75
365.694	90.75
365.92	83.75
366.147	69.75
366.373	80.75
366.599	88.75
366.826	87.75
367.052	91.75
367.278	97.75
367.505	79.75
367.731	93.75
367.957	89.75
368.184	86.75
368.41	104.75
368.636	101.75
368.862	105.75
369.089	107.75
369.315	97.75
369.541	87.75
369.767	92.75
369.993	96.75
370.219	86.75
370.445	87.75
370.672	91.75
370.898	88.75
371.124	83.75
371.35	82.75
371.576	77.75
371.802	91.75
372.028	89.75
372.254	80.75
372.48	92.75
372.706	96.75
372.932	92.75
373.158	76.75
373.384	80.75
373.61	86.75
373.835	79.75
374.061	87.75
374.287	89.75
374.513	81.75
374.739	80.75
374.965	80.75
375.191	86.75
375.416	83.75
375.642	89.75
375.868	85.75
376.094	84.75
376.319	94.75
376.545	94.75
376.771	97.75
376.997	89.75
377.222	88.75
377.448	93.75
377.674	105.75
377.899	95.75
378.125	90.75
378.35	93.75
378.576	87.75
378.802	94.75
379.027	91.75
379.253	90.75
379.478	83.75
379.704	85.75
379.929	92.75
380.155	83.75
380.38	88.75
380.606	94.75
380.831	108.75
381.057	101.75
381.282	86.75
381.507	105.75
381.733	95.75
381.958	88.75
382.184	85.75
382.409	103.75
382.634	109.75
382.86	76.75
383.085	94.75
383.31	99.75
383.535	109.75
383.761	100.75
383.986	90.75
384.211	109.75
384.436	86.75
384.662	108.75
384.887	113.75
385.112	98.75
385.337	107.75
385.562	87.75
385.787	114.75
386.013	107.75
386.238	97.75
386.463	104.75
386.688	123.75
386.913	101.75
387.138	107.75
387.363	113.75
387.588	118.75
387.813	87.75
388.038	104.75
388.263	105.75
388.488	117.75
388.713	96.75
388.938	71.75
389.163	96.75
389.387	94.75
389.612	76.75
389.837	93.75
390.062	89.75
390.287	91.75
390.512	89.75
390.736	88.75
390.961	89.75
391.186	80.75
391.411	94.75
391.636	92.75
391.86	84.75
392.085	80.75
392.31	70.75
392.534	85.75
392.759	70.75
392.984	81.75
393.208	94.75
393.433	104.75
393.658	104.75
393.882	80.75
394.107	90.75
394.331	93.75
394.556	84.75
394.78	82.75
395.005	91.75
395.229	80.75
395.454	84.75
395.678	80.75
395.903	90.75
396.127	99.75
396.352	85.75
396.576	89.75
396.801	92.75
397.025	95.75
397.249	87.75
397.474	81.75
397.698	82.75
397.922	90.75
398.147	102.75
398.371	85.75
398.595	81.75
398.82	85.75
399.044	74.75
399.268	78.75
399.492	84.75
399.717	100.75
399.941	104.75
400.165	89.75
400.389	83.75
400.613	88.75
400.837	85.75
401.062	86.75
401.286	76.75
401.51	88.75
401.734	71.75
401.958	100.75
402.182	109.75
402.406	133.75
402.63	109.75
402.854	91.75
403.078	89.75
403.302	81.75
403.526	79.75
403.75	88.75
403.974	57.75
404.198	71.75
404.422	83.75
404.645	89.75
404.869	82.75
405.093	69.75
405.317	111.75
405.541	90.75
405.765	91.75
405.988	91.75
406.212	133.75
406.436	182.75
406.66	119.75
406.883	86.75
407.107	100.75
407.331	98.75
407.555	79.75
407.778	86.75
408.002	84.75
408.226	81.75
408.449	89.75
408.673	91.75
408.896	85.75
409.12	88.75
409.344	87.75
409.567	99.75
409.791	98.75
410.014	88.75
410.238	87.75
410.461	93.75
410.685	86.75
410.908	105.75
411.132	112.75
411.355	95.75
411.578	89.75
411.802	86.75
412.025	96.75
412.249	102.75
412.472	81.75
412.695	86.75
412.919	83.75
413.142	82.75
413.365	87.75
413.589	79.75
413.812	88.75
414.035	89.75
414.258	79.75
414.482	85.75
414.705	92.75
414.928	82.75
415.151	83.75
415.374	95.75
415.597	96.75
415.821	81.75
416.044	92.75
416.267	86.75
416.49	80.75
416.713	96.75
416.936	90.75
417.159	85.75
417.382	87.75
417.605	71.75
417.828	94.75
418.051	93.75
418.274	95.75
418.497	84.75
418.72	88.75
418.943	93.75
419.166	91.75
419.389	86.75
419.611	75.75
419.834	71.75
420.057	66.75
420.28	68.75
420.503	87.75
420.726	68.75
420.948	87.75
421.171	96.75
421.394	83.75
421.617	97.75
421.839	94.75
422.062	102.75
422.285	88.75
422.507	99.75
422.73	91.75
422.953	92.75
423.175	98.75
423.398	96.75
423.621	93.75
423.843	82.75
424.066	91.75
424.288	81.75
424.511	78.75
424.733	83.75
424.956	103.75
425.178	91.75
425.401	89.75
425.623	104.75
425.846	87.75
426.068	93.75
426.291	81.75
426.513	86.75
426.735	91.75
426.958	85.75
427.18	95.75
427.402	120.75
427.625	147.75
427.847	122.75
428.069	102.75
428.292	78.75
428.514	68.75
428.736	75.75
428.958	91.75
429.181	83.75
429.403	75.75
429.625	88.75
429.847	85.75
430.069	80.75
430.292	96.75
430.514	67.75
430.736	85.75
430.958	92.75
431.18	87.75
431.402	87.75
431.624	68.75
431.846	83.75
432.068	93.75
432.29	83.75
432.512	89.75
432.734	76.75
432.956	80.75
433.178	99.75
433.4	94.75
433.622	91.75
433.844	76.75
434.066	88.75
434.287	77.75
434.509	81.75
434.731	96.75
434.953	75.75
435.175	85.75
435.397	103.75
435.618	78.75
435.84	88.75
436.062	95.75
436.284	91.75
436.505	89.75
436.727	94.75
436.949	75.75
437.17	90.75
437.392	70.75
437.614	88.75
437.835	94.75
438.057	95.75
438.278	77.75
438.5	103.75
438.721	115.75
438.943	82.75
439.165	85.75
439.386	102.75
439.608	81.75
439.829	105.75
440.05	111.75
440.272	111.75
440.493	91.75
440.715	83.75
440.936	79.75
441.158	83.75
441.379	88.75
441.6	75.75
441.822	99.75
442.043	100.75
442.264	95.75
442.486	87.75
442.707	74.75
442.928	86.75
443.149	104.75
443.371	112.75
443.592	86.75
443.813	92.75
444.034	92.75
444.255	78.75
444.476	74.75
444.698	96.75
444.919	99.75
445.14	123.75
445.361	112.75
445.582	96.75
445.803	103.75
446.024	113.75
446.245	124.75
446.466	111.75
446.687	85.75
446.908	93.75
447.129	99.75
447.35	93.75
447.571	99.75
447.792	73.75
448.013	87.75
448.234	102.75
448.455	102.75
448.675	97.75
448.896	111.75
449.117	85.75
449.338	91.75
449.559	121.75
449.779	114.75
450	89.75
450.221	87.75
450.442	96.75
450.662	94.75
450.883	94.75
451.104	89.75
451.324	106.75
451.545	95.75
451.766	77.75
451.986	80.75
452.207	82.75
452.428	71.75
452.648	96.75
452.869	98.75
453.089	113.75
453.31	94.75
453.53	92.75
453.751	96.75
453.971	84.75
454.192	103.75
454.412	78.75
454.633	81.75
454.853	76.75
455.073	76.75
455.294	72.75
455.514	97.75
455.734	77.75
455.955	89.75
456.175	73.75
456.395	92.75
456.616	87.75
456.836	62.75
457.056	77.75
457.276	83.75
457.497	79.75
457.717	88.75
457.937	67.75
458.157	72.75
458.377	88.75
458.598	97.75
458.818	126.75
459.038	118.75
459.258	112.75
459.478	75.75
459.698	65.75
459.918	87.75
460.138	80.75
460.358	88.75
460.578	87.75
460.798	91.75
461.018	84.75
461.238	77.75
461.458	90.75
461.678	71.75
461.898	88.75
462.118	95.75
462.338	78.75
462.558	85.75
462.777	96.75
462.997	83.75
463.217	88.75
463.437	92.75
463.657	76.75
463.876	81.75
464.096	90.75
464.316	97.75
464.536	76.75
464.755	93.75
464.975	94.75
465.195	128.75
465.414	134.75
465.634	96.75
465.854	94.75
466.073	72.75
466.293	83.75
466.512	79.75
466.732	87.75
466.951	90.75
467.171	80.75
467.391	89.75
467.61	99.75
467.829	102.75
468.049	98.75
468.268	96.75
468.488	91.75
468.707	75.75
468.927	79.75
469.146	81.75
469.365	77.75
469.585	68.75
469.804	90.75
470.023	78.75
470.243	97.75
470.462	88.75
470.681	93.75
470.901	73.75
471.12	75.75
471.339	94.75
471.558	82.75
471.777	86.75
471.997	86.75
472.216	95.75
472.435	123.75
472.654	94.75
472.873	86.75
473.092	86.75
473.311	85.75
473.53	91.75
473.749	82.75
473.968	85.75
474.187	85.75
474.406	98.75
474.625	86.75
474.844	75.75
475.063	87.75
475.282	76.75
475.501	83.75
475.72	98.75
475.939	80.75
476.158	85.75
476.377	78.75
476.596	75.75
476.814	95.75
477.033	84.75
477.252	78.75
477.471	76.75
477.69	86.75
477.908	96.75
478.127	86.75
478.346	82.75
478.564	83.75
478.783	76.75
479.002	89.75
479.22	84.75
479.439	82.75
479.658	100.75
479.876	78.75
480.095	97.75
480.313	79.75
480.532	97.75
480.751	86.75
480.969	99.75
481.188	161.75
481.406	121.75
481.624	93.75
481.843	79.75
482.061	81.75
482.28	90.75
482.498	71.75
482.717	85.75
482.935	99.75
483.153	89.75
483.372	91.75
483.59	93.75
483.808	78.75
484.027	90.75
484.245	87.75
484.463	79.75
484.681	80.75
484.9	99.75
485.118	84.75
485.336	86.75
485.554	94.75
485.772	98.75
485.99	87.75
486.209	98.75
486.427	107.75
486.645	116.75
486.863	109.75
487.081	97.75
487.299	97.75
487.517	93.75
487.735	78.75
487.953	88.75
488.171	107.75
488.389	99.75
488.607	104.75
488.825	98.75
489.043	81.75
489.261	79.75
489.479	98.75
489.696	83.75
489.914	93.75
490.132	87.75
490.35	80.75
490.568	76.75
490.786	72.75
491.003	95.75
491.221	79.75
491.439	92.75
491.657	79.75
491.874	97.75
492.092	84.75
492.31	85.75
492.527	87.75
492.745	92.75
492.963	77.75
493.18	94.75
493.398	86.75
493.615	93.75
493.833	83.75
494.05	81.75
494.268	87.75
494.485	73.75
494.703	77.75
494.92	93.75
495.138	78.75
495.355	79.75
495.573	79.75
495.79	75.75
496.008	81.75
496.225	95.75
496.442	88.75
496.66	79.75
496.877	86.75
497.094	94.75
497.312	82.75
497.529	88.75
497.746	79.75
497.963	77.75
498.181	83.75
498.398	83.75
498.615	96.75
498.832	95.75
499.049	94.75
499.267	88.75
499.484	73.75
499.701	71.75
499.918	80.75
500.135	83.75
500.352	93.75
500.569	81.75
500.786	99.75
501.003	85.75
501.22	82.75
501.437	94.75
501.654	65.75
501.871	80.75
502.088	96.75
502.305	83.75
502.522	76.75
502.739	83.75
502.956	94.75
503.172	85.75
503.389	85.75
503.606	97.75
503.823	84.75
504.04	98.75
504.256	85.75
504.473	99.75
504.69	88.75
504.907	84.75
505.123	79.75
505.34	93.75
505.557	95.75
505.773	94.75
505.99	92.75
506.207	91.75
506.423	92.75
506.64	83.75
506.856	87.75
507.073	95.75
507.289	91.75
507.506	85.75
507.722	92.75
507.939	102.75
508.155	94.75
508.372	82.75
508.588	101.75
508.805	85.75
509.021	96.75
509.238	94.75
509.454	97.75
509.67	96.75
509.887	92.75
510.103	106.75
510.319	170.75
510.536	604.75
510.752	1886.75
510.968	524.75
511.184	128.75
511.401	117.75
511.617	97.75
511.833	88.75
512.049	93.75
512.265	86.75
512.481	78.75
512.698	93.75
512.914	86.75
513.13	71.75
513.346	87.75
513.562	74.75
513.778	79.75
513.994	105.75
514.21	92.75
514.426	107.75
514.642	109.75
514.858	122.75
515.074	146.75
515.29	351.75
515.506	1045.75
515.721	391.75
515.937	124.75
516.153	91.75
516.369	82.75
516.585	99.75
516.801	72.75
517.016	91.75
517.232	90.75
517.448	105.75
