Data from Circ_1985_H10_HRD10591_00080.txt Node
Date: Wed Jan 03 12:19:38 EST 2024
User: Yrep
Spectrometer: HR+D1059
Trigger mode: 1
Integration Time (sec): 1.000000E-1
Scans to average: 1
Electric dark correction enabled: true
Nonlinearity correction enabled: false
Boxcar width: 0
XAxis mode: Wavelengths
Number of Pixels in Spectrum: 2048
>>>>>Begin Spectral Data<<<<<
223.165	-20.44
223.4	-20.44
223.635	-20.44
223.869	-20.44
224.104	-11.44
224.338	-26.44
224.573	-10.44
224.808	-5.44
225.042	-11.44
225.277	-9.44
225.511	0.56
225.746	-6.44
225.98	9.56
226.215	12.56
226.449	13.56
226.683	23.56
226.918	18.56
227.152	43.56
227.387	46.56
227.621	39.56
227.856	46.56
228.09	47.56
228.324	68.56
228.559	59.56
228.793	69.56
229.027	83.56
229.262	71.56
229.496	72.56
229.73	78.56
229.964	82.56
230.199	85.56
230.433	81.56
230.667	77.56
230.901	68.56
231.136	67.56
231.37	86.56
231.604	87.56
231.838	86.56
232.072	103.56
232.306	82.56
232.541	88.56
232.775	107.56
233.009	83.56
233.243	82.56
233.477	90.56
233.711	87.56
233.945	93.56
234.179	93.56
234.413	91.56
234.647	80.56
234.881	89.56
235.115	77.56
235.349	68.56
235.583	93.56
235.817	84.56
236.051	91.56
236.285	85.56
236.519	76.56
236.753	79.56
236.987	86.56
237.221	96.56
237.455	70.56
237.689	78.56
237.922	83.56
238.156	85.56
238.39	81.56
238.624	56.56
238.858	77.56
239.091	70.56
239.325	78.56
239.559	83.56
239.793	81.56
240.027	84.56
240.26	79.56
240.494	79.56
240.728	70.56
240.961	74.56
241.195	82.56
241.429	82.56
241.662	76.56
241.896	81.56
242.13	78.56
242.363	73.56
242.597	76.56
242.83	75.56
243.064	97.56
243.298	88.56
243.531	79.56
243.765	103.56
243.998	78.56
244.232	89.56
244.465	93.56
244.699	73.56
244.932	78.56
245.166	72.56
245.399	82.56
245.633	93.56
245.866	75.56
246.099	81.56
246.333	84.56
246.566	85.56
246.8	77.56
247.033	104.56
247.266	83.56
247.5	72.56
247.733	82.56
247.966	78.56
248.2	94.56
248.433	77.56
248.666	79.56
248.899	103.56
249.133	87.56
249.366	91.56
249.599	94.56
249.832	90.56
250.066	84.56
250.299	85.56
250.532	85.56
250.765	89.56
250.998	90.56
251.231	81.56
251.465	83.56
251.698	88.56
251.931	90.56
252.164	98.56
252.397	82.56
252.63	70.56
252.863	81.56
253.096	90.56
253.329	83.56
253.562	86.56
253.795	86.56
254.028	92.56
254.261	86.56
254.494	69.56
254.727	93.56
254.96	89.56
255.193	81.56
255.426	85.56
255.659	79.56
255.892	87.56
256.124	94.56
256.357	75.56
256.59	77.56
256.823	77.56
257.056	62.56
257.289	76.56
257.521	89.56
257.754	83.56
257.987	85.56
258.22	90.56
258.452	78.56
258.685	77.56
258.918	83.56
259.151	88.56
259.383	84.56
259.616	96.56
259.849	92.56
260.081	81.56
260.314	84.56
260.547	87.56
260.779	89.56
261.012	74.56
261.244	77.56
261.477	91.56
261.71	107.56
261.942	110.56
262.175	115.56
262.407	96.56
262.64	79.56
262.872	81.56
263.105	85.56
263.337	90.56
263.57	89.56
263.802	77.56
264.035	78.56
264.267	90.56
264.499	87.56
264.732	98.56
264.964	90.56
265.197	100.56
265.429	81.56
265.661	81.56
265.894	92.56
266.126	85.56
266.358	79.56
266.591	83.56
266.823	75.56
267.055	94.56
267.287	86.56
267.52	78.56
267.752	81.56
267.984	89.56
268.216	79.56
268.448	93.56
268.681	85.56
268.913	86.56
269.145	81.56
269.377	82.56
269.609	98.56
269.841	90.56
270.073	83.56
270.306	79.56
270.538	97.56
270.77	83.56
271.002	87.56
271.234	92.56
271.466	89.56
271.698	99.56
271.93	80.56
272.162	83.56
272.394	85.56
272.626	94.56
272.858	100.56
273.09	91.56
273.322	105.56
273.553	99.56
273.785	90.56
274.017	86.56
274.249	93.56
274.481	85.56
274.713	78.56
274.945	95.56
275.176	88.56
275.408	87.56
275.64	94.56
275.872	85.56
276.104	85.56
276.335	95.56
276.567	99.56
276.799	100.56
277.031	108.56
277.262	101.56
277.494	99.56
277.726	94.56
277.957	89.56
278.189	90.56
278.421	85.56
278.652	103.56
278.884	87.56
279.115	80.56
279.347	99.56
279.579	76.56
279.81	86.56
280.042	105.56
280.273	98.56
280.505	96.56
280.736	99.56
280.968	87.56
281.199	95.56
281.431	86.56
281.662	94.56
281.894	100.56
282.125	101.56
282.356	109.56
282.588	129.56
282.819	106.56
283.051	99.56
283.282	77.56
283.513	103.56
283.745	86.56
283.976	71.56
284.207	75.56
284.439	85.56
284.67	83.56
284.901	100.56
285.132	95.56
285.364	77.56
285.595	86.56
285.826	97.56
286.057	86.56
286.288	94.56
286.52	82.56
286.751	82.56
286.982	90.56
287.213	90.56
287.444	96.56
287.675	102.56
287.906	82.56
288.138	78.56
288.369	80.56
288.6	90.56
288.831	92.56
289.062	85.56
289.293	83.56
289.524	90.56
289.755	89.56
289.986	71.56
290.217	96.56
290.448	86.56
290.679	89.56
290.91	91.56
291.141	108.56
291.371	94.56
291.602	93.56
291.833	88.56
292.064	86.56
292.295	102.56
292.526	97.56
292.757	80.56
292.987	87.56
293.218	97.56
293.449	101.56
293.68	85.56
293.91	93.56
294.141	88.56
294.372	102.56
294.603	90.56
294.833	93.56
295.064	85.56
295.295	104.56
295.525	93.56
295.756	101.56
295.987	124.56
296.217	131.56
296.448	124.56
296.679	94.56
296.909	77.56
297.14	93.56
297.37	81.56
297.601	91.56
297.831	95.56
298.062	92.56
298.292	84.56
298.523	88.56
298.753	86.56
298.984	99.56
299.214	73.56
299.445	90.56
299.675	92.56
299.905	90.56
300.136	100.56
300.366	83.56
300.597	99.56
300.827	91.56
301.057	105.56
301.288	95.56
301.518	105.56
301.748	85.56
301.979	95.56
302.209	106.56
302.439	90.56
302.669	89.56
302.9	91.56
303.13	106.56
303.36	68.56
303.59	107.56
303.82	99.56
304.051	93.56
304.281	79.56
304.511	97.56
304.741	98.56
304.971	90.56
305.201	94.56
305.431	98.56
305.661	97.56
305.891	101.56
306.121	82.56
306.352	107.56
306.582	97.56
306.812	102.56
307.042	106.56
307.272	113.56
307.502	106.56
307.731	109.56
307.961	98.56
308.191	95.56
308.421	106.56
308.651	93.56
308.881	105.56
309.111	98.56
309.341	104.56
309.571	95.56
309.8	103.56
310.03	98.56
310.26	101.56
310.49	83.56
310.72	98.56
310.949	97.56
311.179	106.56
311.409	95.56
311.639	89.56
311.868	100.56
312.098	89.56
312.328	103.56
312.557	113.56
312.787	89.56
313.017	106.56
313.246	95.56
313.476	92.56
313.706	95.56
313.935	93.56
314.165	95.56
314.394	94.56
314.624	87.56
314.853	98.56
315.083	98.56
315.312	106.56
315.542	96.56
315.771	92.56
316.001	93.56
316.23	83.56
316.46	104.56
316.689	97.56
316.919	97.56
317.148	90.56
317.377	95.56
317.607	93.56
317.836	93.56
318.065	82.56
318.295	95.56
318.524	91.56
318.753	104.56
318.983	89.56
319.212	105.56
319.441	110.56
319.67	110.56
319.9	96.56
320.129	83.56
320.358	97.56
320.587	99.56
320.816	96.56
321.046	101.56
321.275	101.56
321.504	109.56
321.733	105.56
321.962	101.56
322.191	93.56
322.42	103.56
322.649	97.56
322.878	109.56
323.108	110.56
323.337	134.56
323.566	137.56
323.795	148.56
324.024	209.56
324.253	381.56
324.482	824.56
324.71	1723.56
324.939	2282.56
325.168	835.56
325.397	248.56
325.626	149.56
325.855	138.56
326.084	126.56
326.313	145.56
326.542	153.56
326.77	226.56
326.999	473.56
327.228	981.56
327.457	1765.56
327.686	1400.56
327.914	377.56
328.143	200.56
328.372	151.56
328.6	134.56
328.829	119.56
329.058	124.56
329.287	120.56
329.515	120.56
329.744	115.56
329.972	116.56
330.201	133.56
330.43	149.56
330.658	136.56
330.887	129.56
331.115	114.56
331.344	113.56
331.572	106.56
331.801	95.56
332.03	97.56
332.258	93.56
332.486	95.56
332.715	103.56
332.943	107.56
333.172	99.56
333.4	95.56
333.629	104.56
333.857	115.56
334.085	116.56
334.314	129.56
334.542	171.56
334.771	173.56
334.999	109.56
335.227	98.56
335.455	104.56
335.684	98.56
335.912	81.56
336.14	107.56
336.369	94.56
336.597	103.56
336.825	107.56
337.053	86.56
337.281	89.56
337.51	89.56
337.738	101.56
337.966	104.56
338.194	99.56
338.422	93.56
338.65	92.56
338.878	87.56
339.106	79.56
339.334	93.56
339.562	96.56
339.79	102.56
340.018	108.56
340.246	87.56
340.474	97.56
340.702	91.56
340.93	84.56
341.158	107.56
341.386	107.56
341.614	109.56
341.842	102.56
342.07	88.56
342.298	98.56
342.526	91.56
342.754	91.56
342.981	92.56
343.209	107.56
343.437	100.56
343.665	87.56
343.893	99.56
344.12	108.56
344.348	100.56
344.576	93.56
344.804	82.56
345.031	107.56
345.259	88.56
345.487	103.56
345.714	95.56
345.942	98.56
346.17	90.56
346.397	90.56
346.625	96.56
346.853	83.56
347.08	87.56
347.308	107.56
347.535	93.56
347.763	90.56
347.99	86.56
348.218	108.56
348.445	117.56
348.673	90.56
348.9	106.56
349.128	99.56
349.355	81.56
349.583	93.56
349.81	102.56
350.037	100.56
350.265	112.56
350.492	87.56
350.72	95.56
350.947	111.56
351.174	107.56
351.402	100.56
351.629	110.56
351.856	109.56
352.083	93.56
352.311	93.56
352.538	114.56
352.765	109.56
352.992	126.56
353.22	97.56
353.447	95.56
353.674	104.56
353.901	97.56
354.128	105.56
354.355	97.56
354.583	100.56
354.81	87.56
355.037	97.56
355.264	105.56
355.491	97.56
355.718	101.56
355.945	96.56
356.172	97.56
356.399	89.56
356.626	102.56
356.853	98.56
357.08	99.56
357.307	99.56
357.534	97.56
357.761	111.56
357.988	109.56
358.215	97.56
358.441	94.56
358.668	108.56
358.895	105.56
359.122	93.56
359.349	103.56
359.576	117.56
359.802	103.56
360.029	111.56
360.256	103.56
360.483	91.56
360.709	82.56
360.936	93.56
361.163	94.56
361.39	102.56
361.616	97.56
361.843	94.56
362.07	93.56
362.296	97.56
362.523	93.56
362.749	92.56
362.976	101.56
363.203	111.56
363.429	90.56
363.656	89.56
363.882	111.56
364.109	74.56
364.335	87.56
364.562	92.56
364.788	93.56
365.015	90.56
365.241	104.56
365.468	110.56
365.694	94.56
365.92	107.56
366.147	101.56
366.373	88.56
366.599	91.56
366.826	95.56
367.052	106.56
367.278	86.56
367.505	94.56
367.731	100.56
367.957	89.56
368.184	95.56
368.41	94.56
368.636	105.56
368.862	111.56
369.089	111.56
369.315	106.56
369.541	101.56
369.767	100.56
369.993	88.56
370.219	87.56
370.445	92.56
370.672	85.56
370.898	87.56
371.124	89.56
371.35	93.56
371.576	74.56
371.802	90.56
372.028	101.56
372.254	84.56
372.48	96.56
372.706	94.56
372.932	99.56
373.158	73.56
373.384	93.56
373.61	88.56
373.835	86.56
374.061	94.56
374.287	93.56
374.513	84.56
374.739	89.56
374.965	110.56
375.191	88.56
375.416	89.56
375.642	98.56
375.868	87.56
376.094	92.56
376.319	85.56
376.545	92.56
376.771	101.56
376.997	78.56
377.222	86.56
377.448	98.56
377.674	94.56
377.899	99.56
378.125	90.56
378.35	84.56
378.576	104.56
378.802	101.56
379.027	93.56
379.253	89.56
379.478	88.56
379.704	102.56
379.929	95.56
380.155	93.56
380.38	84.56
380.606	95.56
380.831	87.56
381.057	97.56
381.282	106.56
381.507	101.56
381.733	107.56
381.958	88.56
382.184	96.56
382.409	94.56
382.634	102.56
382.86	94.56
383.085	107.56
383.31	109.56
383.535	105.56
383.761	98.56
383.986	102.56
384.211	92.56
384.436	109.56
384.662	105.56
384.887	99.56
385.112	115.56
385.337	108.56
385.562	100.56
385.787	113.56
386.013	118.56
386.238	119.56
386.463	99.56
386.688	109.56
386.913	100.56
387.138	97.56
387.363	105.56
387.588	95.56
387.813	91.56
388.038	99.56
388.263	121.56
388.488	117.56
388.713	98.56
388.938	100.56
389.163	102.56
389.387	119.56
389.612	87.56
389.837	98.56
390.062	87.56
390.287	93.56
390.512	98.56
390.736	110.56
390.961	93.56
391.186	85.56
391.411	88.56
391.636	88.56
391.86	95.56
392.085	86.56
392.31	79.56
392.534	94.56
392.759	97.56
392.984	86.56
393.208	97.56
393.433	89.56
393.658	97.56
393.882	95.56
394.107	102.56
394.331	94.56
394.556	89.56
394.78	90.56
395.005	95.56
395.229	99.56
395.454	94.56
395.678	82.56
395.903	102.56
396.127	98.56
396.352	101.56
396.576	95.56
396.801	87.56
397.025	98.56
397.249	102.56
397.474	92.56
397.698	92.56
397.922	81.56
398.147	91.56
398.371	90.56
398.595	100.56
398.82	99.56
399.044	91.56
399.268	86.56
399.492	118.56
399.717	83.56
399.941	92.56
400.165	87.56
400.389	88.56
400.613	83.56
400.837	77.56
401.062	95.56
401.286	84.56
401.51	97.56
401.734	100.56
401.958	107.56
402.182	110.56
402.406	148.56
402.63	115.56
402.854	105.56
403.078	111.56
403.302	97.56
403.526	94.56
403.75	87.56
403.974	82.56
404.198	95.56
404.422	94.56
404.645	83.56
404.869	89.56
405.093	95.56
405.317	102.56
405.541	109.56
405.765	93.56
405.988	115.56
406.212	161.56
406.436	190.56
406.66	139.56
406.883	110.56
407.107	98.56
407.331	101.56
407.555	96.56
407.778	81.56
408.002	83.56
408.226	100.56
408.449	85.56
408.673	102.56
408.896	102.56
409.12	101.56
409.344	79.56
409.567	94.56
409.791	97.56
410.014	97.56
410.238	81.56
410.461	90.56
410.685	86.56
410.908	89.56
411.132	92.56
411.355	98.56
411.578	105.56
411.802	84.56
412.025	71.56
412.249	102.56
412.472	98.56
412.695	117.56
412.919	91.56
413.142	98.56
413.365	84.56
413.589	76.56
413.812	99.56
414.035	91.56
414.258	99.56
414.482	87.56
414.705	92.56
414.928	95.56
415.151	96.56
415.374	89.56
415.597	101.56
415.821	86.56
416.044	90.56
416.267	88.56
416.49	88.56
416.713	91.56
416.936	108.56
417.159	84.56
417.382	104.56
417.605	87.56
417.828	101.56
418.051	87.56
418.274	92.56
418.497	99.56
418.72	79.56
418.943	89.56
419.166	91.56
419.389	91.56
419.611	101.56
419.834	83.56
420.057	89.56
420.28	97.56
420.503	101.56
420.726	106.56
420.948	99.56
421.171	91.56
421.394	85.56
421.617	91.56
421.839	86.56
422.062	89.56
422.285	103.56
422.507	111.56
422.73	104.56
422.953	93.56
423.175	83.56
423.398	91.56
423.621	90.56
423.843	97.56
424.066	99.56
424.288	89.56
424.511	83.56
424.733	100.56
424.956	106.56
425.178	94.56
425.401	94.56
425.623	94.56
425.846	90.56
426.068	83.56
426.291	98.56
426.513	90.56
426.735	86.56
426.958	93.56
427.18	108.56
427.402	131.56
427.625	159.56
427.847	130.56
428.069	121.56
428.292	85.56
428.514	86.56
428.736	75.56
428.958	91.56
429.181	94.56
429.403	88.56
429.625	90.56
429.847	92.56
430.069	99.56
430.292	100.56
430.514	78.56
430.736	89.56
430.958	89.56
431.18	91.56
431.402	91.56
431.624	89.56
431.846	103.56
432.068	77.56
432.29	84.56
432.512	87.56
432.734	86.56
432.956	88.56
433.178	89.56
433.4	95.56
433.622	86.56
433.844	92.56
434.066	93.56
434.287	98.56
434.509	85.56
434.731	90.56
434.953	89.56
435.175	100.56
435.397	96.56
435.618	94.56
435.84	87.56
436.062	109.56
436.284	91.56
436.505	107.56
436.727	117.56
436.949	108.56
437.17	95.56
437.392	92.56
437.614	89.56
437.835	93.56
438.057	119.56
438.278	105.56
438.5	106.56
438.721	105.56
438.943	104.56
439.165	103.56
439.386	95.56
439.608	95.56
439.829	102.56
440.05	114.56
440.272	125.56
440.493	91.56
440.715	83.56
440.936	113.56
441.158	83.56
441.379	90.56
441.6	90.56
441.822	98.56
442.043	97.56
442.264	109.56
442.486	113.56
442.707	101.56
442.928	103.56
443.149	124.56
443.371	122.56
443.592	106.56
443.813	107.56
444.034	114.56
444.255	87.56
444.476	86.56
444.698	101.56
444.919	95.56
445.14	135.56
445.361	124.56
445.582	105.56
445.803	127.56
446.024	121.56
446.245	134.56
446.466	114.56
446.687	95.56
446.908	83.56
447.129	98.56
447.35	89.56
447.571	87.56
447.792	88.56
448.013	90.56
448.234	95.56
448.455	107.56
448.675	115.56
448.896	117.56
449.117	93.56
449.338	110.56
449.559	121.56
449.779	103.56
450	84.56
450.221	98.56
450.442	98.56
450.662	98.56
450.883	103.56
451.104	100.56
451.324	75.56
451.545	95.56
451.766	92.56
451.986	97.56
452.207	89.56
452.428	95.56
452.648	87.56
452.869	111.56
453.089	109.56
453.31	130.56
453.53	93.56
453.751	100.56
453.971	99.56
454.192	108.56
454.412	90.56
454.633	90.56
454.853	86.56
455.073	85.56
455.294	74.56
455.514	89.56
455.734	87.56
455.955	78.56
456.175	86.56
456.395	79.56
456.616	100.56
456.836	89.56
457.056	95.56
457.276	86.56
457.497	89.56
457.717	89.56
457.937	88.56
458.157	93.56
458.377	92.56
458.598	96.56
458.818	132.56
459.038	139.56
459.258	100.56
459.478	88.56
459.698	94.56
459.918	101.56
460.138	83.56
460.358	87.56
460.578	83.56
460.798	101.56
461.018	95.56
461.238	97.56
461.458	105.56
461.678	100.56
461.898	93.56
462.118	94.56
462.338	89.56
462.558	102.56
462.777	81.56
462.997	87.56
463.217	86.56
463.437	97.56
463.657	92.56
463.876	103.56
464.096	92.56
464.316	84.56
464.536	98.56
464.755	94.56
464.975	99.56
465.195	153.56
465.414	148.56
465.634	102.56
465.854	106.56
466.073	93.56
466.293	89.56
466.512	95.56
466.732	97.56
466.951	94.56
467.171	89.56
467.391	74.56
467.61	99.56
467.829	98.56
468.049	106.56
468.268	109.56
468.488	95.56
468.707	102.56
468.927	100.56
469.146	74.56
469.365	82.56
469.585	96.56
469.804	103.56
470.023	100.56
470.243	96.56
470.462	92.56
470.681	89.56
470.901	87.56
471.12	88.56
471.339	97.56
471.558	82.56
471.777	98.56
471.997	91.56
472.216	130.56
472.435	208.56
472.654	117.56
472.873	96.56
473.092	95.56
473.311	105.56
473.53	90.56
473.749	93.56
473.968	100.56
474.187	93.56
474.406	86.56
474.625	86.56
474.844	82.56
475.063	95.56
475.282	92.56
475.501	89.56
475.72	94.56
475.939	84.56
476.158	85.56
476.377	75.56
476.596	99.56
476.814	87.56
477.033	102.56
477.252	95.56
477.471	79.56
477.69	87.56
477.908	89.56
478.127	88.56
478.346	87.56
478.564	85.56
478.783	97.56
479.002	95.56
479.22	89.56
479.439	114.56
479.658	98.56
479.876	90.56
480.095	101.56
480.313	95.56
480.532	86.56
480.751	99.56
480.969	150.56
481.188	302.56
481.406	225.56
481.624	99.56
481.843	96.56
482.061	81.56
482.28	92.56
482.498	96.56
482.717	96.56
482.935	79.56
483.153	79.56
483.372	93.56
483.59	86.56
483.808	98.56
484.027	98.56
484.245	91.56
484.463	104.56
484.681	120.56
484.9	106.56
485.118	109.56
485.336	106.56
485.554	97.56
485.772	93.56
485.99	101.56
486.209	93.56
486.427	99.56
486.645	120.56
486.863	110.56
487.081	87.56
487.299	92.56
487.517	84.56
487.735	87.56
487.953	94.56
488.171	95.56
488.389	106.56
488.607	83.56
488.825	100.56
489.043	101.56
489.261	108.56
489.479	93.56
489.696	87.56
489.914	94.56
490.132	85.56
490.35	93.56
490.568	90.56
490.786	89.56
491.003	93.56
491.221	108.56
491.439	91.56
491.657	95.56
491.874	96.56
492.092	77.56
492.31	77.56
492.527	107.56
492.745	87.56
492.963	93.56
493.18	92.56
493.398	85.56
493.615	92.56
493.833	96.56
494.05	98.56
494.268	82.56
494.485	93.56
494.703	86.56
494.92	79.56
495.138	87.56
495.355	82.56
495.573	98.56
495.79	86.56
496.008	95.56
496.225	92.56
496.442	93.56
496.66	94.56
496.877	94.56
497.094	109.56
497.312	99.56
497.529	86.56
497.746	83.56
497.963	89.56
498.181	89.56
498.398	91.56
498.615	108.56
498.832	115.56
499.049	97.56
499.267	98.56
499.484	88.56
499.701	95.56
499.918	81.56
500.135	83.56
500.352	83.56
500.569	103.56
500.786	95.56
501.003	93.56
501.22	102.56
501.437	83.56
501.654	92.56
501.871	104.56
502.088	85.56
502.305	93.56
502.522	97.56
502.739	78.56
502.956	72.56
503.172	91.56
503.389	103.56
503.606	91.56
503.823	89.56
504.04	102.56
504.256	89.56
504.473	89.56
504.69	84.56
504.907	93.56
505.123	93.56
505.34	86.56
505.557	99.56
505.773	102.56
505.99	95.56
506.207	87.56
506.423	74.56
506.64	87.56
506.856	88.56
507.073	86.56
507.289	87.56
507.506	98.56
507.722	114.56
507.939	105.56
508.155	91.56
508.372	93.56
508.588	94.56
508.805	92.56
509.021	100.56
509.238	106.56
509.454	91.56
509.67	104.56
509.887	105.56
510.103	122.56
510.319	207.56
510.536	669.56
510.752	2108.56
510.968	580.56
511.184	156.56
511.401	116.56
511.617	110.56
511.833	107.56
512.049	95.56
512.265	94.56
512.481	83.56
512.698	99.56
512.914	114.56
513.13	102.56
513.346	105.56
513.562	95.56
513.778	101.56
513.994	110.56
514.21	101.56
514.426	115.56
514.642	117.56
