Data from Circ_1985_H10_HRD10591_00056.txt Node
Date: Wed Jan 03 12:19:33 EST 2024
User: Yrep
Spectrometer: HR+D1059
Trigger mode: 1
Integration Time (sec): 1.000000E-1
Scans to average: 1
Electric dark correction enabled: true
Nonlinearity correction enabled: false
Boxcar width: 0
XAxis mode: Wavelengths
Number of Pixels in Spectrum: 2048
>>>>>Begin Spectral Data<<<<<
223.165	-6.81
223.4	-6.81
223.635	-6.81
223.869	-28.81
224.104	-21.81
224.338	-9.81
224.573	-10.81
224.808	-17.81
225.042	-5.81
225.277	-6.81
225.511	-4.81
225.746	9.19
225.98	15.19
226.215	23.19
226.449	-2.81
226.683	17.19
226.918	25.19
227.152	26.19
227.387	26.19
227.621	42.19
227.856	49.19
228.09	37.19
228.324	46.19
228.559	73.19
228.793	66.19
229.027	69.19
229.262	55.19
229.496	58.19
229.73	91.19
229.964	68.19
230.199	65.19
230.433	71.19
230.667	78.19
230.901	90.19
231.136	69.19
231.37	84.19
231.604	87.19
231.838	81.19
232.072	77.19
232.306	96.19
232.541	84.19
232.775	97.19
233.009	95.19
233.243	78.19
233.477	87.19
233.711	88.19
233.945	85.19
234.179	73.19
234.413	81.19
234.647	94.19
234.881	86.19
235.115	78.19
235.349	81.19
235.583	97.19
235.817	87.19
236.051	95.19
236.285	82.19
236.519	86.19
236.753	82.19
236.987	83.19
237.221	100.19
237.455	91.19
237.689	70.19
237.922	71.19
238.156	78.19
238.39	75.19
238.624	70.19
238.858	76.19
239.091	86.19
239.325	73.19
239.559	82.19
239.793	84.19
240.027	87.19
240.26	99.19
240.494	85.19
240.728	69.19
240.961	79.19
241.195	82.19
241.429	91.19
241.662	90.19
241.896	67.19
242.13	65.19
242.363	60.19
242.597	81.19
242.83	73.19
243.064	87.19
243.298	77.19
243.531	77.19
243.765	87.19
243.998	70.19
244.232	79.19
244.465	89.19
244.699	74.19
244.932	76.19
245.166	68.19
245.399	101.19
245.633	86.19
245.866	80.19
246.099	76.19
246.333	75.19
246.566	81.19
246.8	91.19
247.033	76.19
247.266	78.19
247.5	69.19
247.733	65.19
247.966	83.19
248.2	72.19
248.433	88.19
248.666	87.19
248.899	73.19
249.133	75.19
249.366	102.19
249.599	103.19
249.832	82.19
250.066	93.19
250.299	86.19
250.532	78.19
250.765	92.19
250.998	87.19
251.231	96.19
251.465	76.19
251.698	81.19
251.931	85.19
252.164	78.19
252.397	81.19
252.63	76.19
252.863	93.19
253.096	88.19
253.329	85.19
253.562	89.19
253.795	94.19
254.028	76.19
254.261	84.19
254.494	94.19
254.727	70.19
254.96	87.19
255.193	95.19
255.426	91.19
255.659	88.19
255.892	84.19
256.124	69.19
256.357	85.19
256.59	93.19
256.823	81.19
257.056	90.19
257.289	97.19
257.521	81.19
257.754	96.19
257.987	97.19
258.22	84.19
258.452	99.19
258.685	79.19
258.918	92.19
259.151	95.19
259.383	83.19
259.616	79.19
259.849	93.19
260.081	77.19
260.314	61.19
260.547	80.19
260.779	81.19
261.012	74.19
261.244	90.19
261.477	95.19
261.71	93.19
261.942	94.19
262.175	114.19
262.407	84.19
262.64	79.19
262.872	89.19
263.105	77.19
263.337	90.19
263.57	86.19
263.802	71.19
264.035	86.19
264.267	98.19
264.499	86.19
264.732	89.19
264.964	92.19
265.197	92.19
265.429	83.19
265.661	83.19
265.894	85.19
266.126	94.19
266.358	86.19
266.591	87.19
266.823	86.19
267.055	81.19
267.287	81.19
267.52	83.19
267.752	98.19
267.984	71.19
268.216	79.19
268.448	91.19
268.681	82.19
268.913	91.19
269.145	70.19
269.377	89.19
269.609	81.19
269.841	90.19
270.073	82.19
270.306	89.19
270.538	85.19
270.77	99.19
271.002	100.19
271.234	85.19
271.466	94.19
271.698	82.19
271.93	81.19
272.162	95.19
272.394	82.19
272.626	74.19
272.858	77.19
273.09	94.19
273.322	99.19
273.553	86.19
273.785	88.19
274.017	87.19
274.249	79.19
274.481	78.19
274.713	76.19
274.945	103.19
275.176	88.19
275.408	91.19
275.64	90.19
275.872	78.19
276.104	91.19
276.335	99.19
276.567	92.19
276.799	98.19
277.031	94.19
277.262	90.19
277.494	106.19
277.726	83.19
277.957	79.19
278.189	117.19
278.421	83.19
278.652	101.19
278.884	90.19
279.115	98.19
279.347	87.19
279.579	89.19
279.81	91.19
280.042	93.19
280.273	94.19
280.505	102.19
280.736	86.19
280.968	90.19
281.199	88.19
281.431	89.19
281.662	89.19
281.894	102.19
282.125	104.19
282.356	102.19
282.588	127.19
282.819	99.19
283.051	91.19
283.282	95.19
283.513	88.19
283.745	81.19
283.976	83.19
284.207	88.19
284.439	86.19
284.67	91.19
284.901	84.19
285.132	79.19
285.364	80.19
285.595	88.19
285.826	103.19
286.057	87.19
286.288	93.19
286.52	89.19
286.751	86.19
286.982	89.19
287.213	85.19
287.444	94.19
287.675	69.19
287.906	90.19
288.138	91.19
288.369	98.19
288.6	107.19
288.831	94.19
289.062	87.19
289.293	83.19
289.524	81.19
289.755	83.19
289.986	77.19
290.217	87.19
290.448	69.19
290.679	86.19
290.91	89.19
291.141	79.19
291.371	99.19
291.602	96.19
291.833	89.19
292.064	90.19
292.295	87.19
292.526	95.19
292.757	83.19
292.987	107.19
293.218	96.19
293.449	80.19
293.68	84.19
293.91	90.19
294.141	78.19
294.372	107.19
294.603	90.19
294.833	84.19
295.064	97.19
295.295	93.19
295.525	94.19
295.756	111.19
295.987	120.19
296.217	117.19
296.448	119.19
296.679	93.19
296.909	89.19
297.14	100.19
297.37	87.19
297.601	97.19
297.831	94.19
298.062	85.19
298.292	82.19
298.523	96.19
298.753	105.19
298.984	98.19
299.214	93.19
299.445	92.19
299.675	94.19
299.905	90.19
300.136	94.19
300.366	79.19
300.597	85.19
300.827	86.19
301.057	66.19
301.288	95.19
301.518	98.19
301.748	101.19
301.979	95.19
302.209	94.19
302.439	91.19
302.669	90.19
302.9	89.19
303.13	92.19
303.36	97.19
303.59	99.19
303.82	101.19
304.051	89.19
304.281	97.19
304.511	102.19
304.741	76.19
304.971	80.19
305.201	94.19
305.431	95.19
305.661	95.19
305.891	101.19
306.121	100.19
306.352	115.19
306.582	99.19
306.812	98.19
307.042	93.19
307.272	92.19
307.502	97.19
307.731	97.19
307.961	87.19
308.191	94.19
308.421	92.19
308.651	96.19
308.881	93.19
309.111	90.19
309.341	92.19
309.571	86.19
309.8	95.19
310.03	78.19
310.26	92.19
310.49	102.19
310.72	110.19
310.949	108.19
311.179	100.19
311.409	87.19
311.639	84.19
311.868	92.19
312.098	97.19
312.328	93.19
312.557	103.19
312.787	99.19
313.017	99.19
313.246	91.19
313.476	98.19
313.706	86.19
313.935	105.19
314.165	106.19
314.394	90.19
314.624	91.19
314.853	90.19
315.083	95.19
315.312	105.19
315.542	110.19
315.771	100.19
316.001	98.19
316.23	108.19
316.46	93.19
316.689	93.19
316.919	98.19
317.148	108.19
317.377	94.19
317.607	95.19
317.836	111.19
318.065	94.19
318.295	89.19
318.524	90.19
318.753	99.19
318.983	77.19
319.212	89.19
319.441	100.19
319.67	109.19
319.9	91.19
320.129	98.19
320.358	85.19
320.587	101.19
320.816	89.19
321.046	97.19
321.275	101.19
321.504	92.19
321.733	84.19
321.962	120.19
322.191	105.19
322.42	91.19
322.649	108.19
322.878	117.19
323.108	113.19
323.337	108.19
323.566	137.19
323.795	135.19
324.024	189.19
324.253	355.19
324.482	762.19
324.71	1579.19
324.939	2047.19
325.168	763.19
325.397	245.19
325.626	140.19
325.855	129.19
326.084	124.19
326.313	135.19
326.542	147.19
326.77	233.19
326.999	435.19
327.228	879.19
327.457	1621.19
327.686	1267.19
327.914	339.19
328.143	191.19
328.372	129.19
328.6	107.19
328.829	104.19
329.058	118.19
329.287	115.19
329.515	107.19
329.744	107.19
329.972	87.19
330.201	103.19
330.43	118.19
330.658	118.19
330.887	137.19
331.115	121.19
331.344	109.19
331.572	103.19
331.801	113.19
332.03	91.19
332.258	100.19
332.486	91.19
332.715	95.19
332.943	93.19
333.172	92.19
333.4	82.19
333.629	106.19
333.857	116.19
334.085	114.19
334.314	132.19
334.542	128.19
334.771	138.19
334.999	111.19
335.227	87.19
335.455	98.19
335.684	104.19
335.912	103.19
336.14	103.19
336.369	98.19
336.597	91.19
336.825	98.19
337.053	105.19
337.281	91.19
337.51	76.19
337.738	104.19
337.966	108.19
338.194	103.19
338.422	93.19
338.65	100.19
338.878	90.19
339.106	101.19
339.334	97.19
339.562	100.19
339.79	92.19
340.018	87.19
340.246	108.19
340.474	88.19
340.702	89.19
340.93	105.19
341.158	94.19
341.386	85.19
341.614	95.19
341.842	87.19
342.07	102.19
342.298	82.19
342.526	94.19
342.754	104.19
342.981	92.19
343.209	111.19
343.437	102.19
343.665	82.19
343.893	85.19
344.12	93.19
344.348	101.19
344.576	99.19
344.804	101.19
345.031	82.19
345.259	101.19
345.487	88.19
345.714	102.19
345.942	94.19
346.17	100.19
346.397	91.19
346.625	87.19
346.853	96.19
347.08	102.19
347.308	101.19
347.535	99.19
347.763	95.19
347.99	96.19
348.218	108.19
348.445	103.19
348.673	103.19
348.9	103.19
349.128	89.19
349.355	89.19
349.583	91.19
349.81	82.19
350.037	107.19
350.265	104.19
350.492	99.19
350.72	91.19
350.947	89.19
351.174	106.19
351.402	108.19
351.629	81.19
351.856	101.19
352.083	109.19
352.311	110.19
352.538	110.19
352.765	108.19
352.992	109.19
353.22	116.19
353.447	96.19
353.674	97.19
353.901	102.19
354.128	115.19
354.355	97.19
354.583	100.19
354.81	93.19
355.037	97.19
355.264	93.19
355.491	96.19
355.718	85.19
355.945	99.19
356.172	102.19
356.399	101.19
356.626	91.19
356.853	100.19
357.08	104.19
357.307	97.19
357.534	89.19
357.761	90.19
357.988	98.19
358.215	97.19
358.441	97.19
358.668	102.19
358.895	100.19
359.122	94.19
359.349	84.19
359.576	82.19
359.802	95.19
360.029	110.19
360.256	95.19
360.483	95.19
360.709	89.19
360.936	100.19
361.163	92.19
361.39	97.19
361.616	79.19
361.843	85.19
362.07	112.19
362.296	102.19
362.523	94.19
362.749	95.19
362.976	83.19
363.203	94.19
363.429	81.19
363.656	89.19
363.882	79.19
364.109	100.19
364.335	105.19
364.562	102.19
364.788	91.19
365.015	92.19
365.241	90.19
365.468	105.19
365.694	88.19
365.92	107.19
366.147	92.19
366.373	81.19
366.599	78.19
366.826	99.19
367.052	89.19
367.278	78.19
367.505	76.19
367.731	87.19
367.957	96.19
368.184	81.19
368.41	99.19
368.636	97.19
368.862	105.19
369.089	111.19
369.315	102.19
369.541	82.19
369.767	89.19
369.993	86.19
370.219	97.19
370.445	85.19
370.672	87.19
370.898	84.19
371.124	88.19
371.35	82.19
371.576	97.19
371.802	91.19
372.028	91.19
372.254	104.19
372.48	96.19
372.706	76.19
372.932	91.19
373.158	95.19
373.384	92.19
373.61	97.19
373.835	96.19
374.061	100.19
374.287	92.19
374.513	87.19
374.739	102.19
374.965	84.19
375.191	92.19
375.416	98.19
375.642	84.19
375.868	85.19
376.094	92.19
376.319	103.19
376.545	100.19
376.771	88.19
376.997	93.19
377.222	91.19
377.448	97.19
377.674	89.19
377.899	87.19
378.125	101.19
378.35	77.19
378.576	93.19
378.802	96.19
379.027	90.19
379.253	100.19
379.478	98.19
379.704	88.19
379.929	103.19
380.155	109.19
380.38	85.19
380.606	98.19
380.831	98.19
381.057	98.19
381.282	95.19
381.507	90.19
381.733	102.19
381.958	91.19
382.184	104.19
382.409	95.19
382.634	91.19
382.86	102.19
383.085	106.19
383.31	117.19
383.535	107.19
383.761	99.19
383.986	96.19
384.211	112.19
384.436	101.19
384.662	102.19
384.887	96.19
385.112	102.19
385.337	104.19
385.562	114.19
385.787	114.19
386.013	99.19
386.238	117.19
386.463	120.19
386.688	105.19
386.913	111.19
387.138	102.19
387.363	100.19
387.588	97.19
387.813	114.19
388.038	102.19
388.263	101.19
388.488	117.19
388.713	108.19
388.938	105.19
389.163	109.19
389.387	104.19
389.612	92.19
389.837	102.19
390.062	97.19
390.287	115.19
390.512	84.19
390.736	84.19
390.961	103.19
391.186	116.19
391.411	104.19
391.636	98.19
391.86	100.19
392.085	90.19
392.31	75.19
392.534	83.19
392.759	93.19
392.984	94.19
393.208	89.19
393.433	99.19
393.658	110.19
393.882	90.19
394.107	70.19
394.331	85.19
394.556	85.19
394.78	94.19
395.005	85.19
395.229	88.19
395.454	91.19
395.678	90.19
395.903	91.19
396.127	87.19
396.352	85.19
396.576	85.19
396.801	97.19
397.025	95.19
397.249	89.19
397.474	82.19
397.698	82.19
397.922	86.19
398.147	97.19
398.371	93.19
398.595	97.19
398.82	78.19
399.044	90.19
399.268	93.19
399.492	93.19
399.717	88.19
399.941	94.19
400.165	95.19
400.389	82.19
400.613	90.19
400.837	89.19
401.062	89.19
401.286	106.19
401.51	81.19
401.734	84.19
401.958	98.19
402.182	120.19
402.406	135.19
402.63	111.19
402.854	93.19
403.078	96.19
403.302	84.19
403.526	82.19
403.75	91.19
403.974	81.19
404.198	91.19
404.422	85.19
404.645	90.19
404.869	99.19
405.093	116.19
405.317	96.19
405.541	96.19
405.765	98.19
405.988	115.19
406.212	155.19
406.436	196.19
406.66	140.19
406.883	105.19
407.107	85.19
407.331	88.19
407.555	86.19
407.778	94.19
408.002	97.19
408.226	87.19
408.449	95.19
408.673	87.19
408.896	101.19
409.12	93.19
409.344	83.19
409.567	73.19
409.791	97.19
410.014	105.19
410.238	92.19
410.461	88.19
410.685	88.19
410.908	93.19
411.132	83.19
411.355	115.19
411.578	94.19
411.802	76.19
412.025	89.19
412.249	82.19
412.472	88.19
412.695	99.19
412.919	95.19
413.142	89.19
413.365	86.19
413.589	98.19
413.812	84.19
414.035	81.19
414.258	87.19
414.482	87.19
414.705	96.19
414.928	93.19
415.151	89.19
415.374	99.19
415.597	95.19
415.821	91.19
416.044	94.19
416.267	102.19
416.49	92.19
416.713	92.19
416.936	95.19
417.159	101.19
417.382	89.19
417.605	91.19
417.828	102.19
418.051	89.19
418.274	97.19
418.497	82.19
418.72	88.19
418.943	99.19
419.166	77.19
419.389	71.19
419.611	92.19
419.834	95.19
420.057	81.19
420.28	85.19
420.503	79.19
420.726	105.19
420.948	87.19
421.171	89.19
421.394	91.19
421.617	92.19
421.839	89.19
422.062	91.19
422.285	104.19
422.507	102.19
422.73	114.19
422.953	107.19
423.175	83.19
423.398	92.19
423.621	96.19
423.843	86.19
424.066	92.19
424.288	97.19
424.511	90.19
424.733	85.19
424.956	86.19
425.178	108.19
425.401	95.19
425.623	91.19
425.846	103.19
426.068	95.19
426.291	102.19
426.513	99.19
426.735	74.19
426.958	105.19
427.18	101.19
427.402	129.19
427.625	152.19
427.847	124.19
428.069	117.19
428.292	92.19
428.514	82.19
428.736	82.19
428.958	101.19
429.181	94.19
429.403	84.19
429.625	83.19
429.847	92.19
430.069	96.19
430.292	101.19
430.514	85.19
430.736	94.19
430.958	75.19
431.18	97.19
431.402	100.19
431.624	92.19
431.846	77.19
432.068	85.19
432.29	85.19
432.512	93.19
432.734	71.19
432.956	91.19
433.178	96.19
433.4	117.19
433.622	102.19
433.844	95.19
434.066	74.19
434.287	87.19
434.509	93.19
434.731	91.19
434.953	95.19
435.175	99.19
435.397	88.19
435.618	83.19
435.84	96.19
436.062	117.19
436.284	109.19
436.505	89.19
436.727	99.19
436.949	99.19
437.17	93.19
437.392	88.19
437.614	96.19
437.835	98.19
438.057	100.19
438.278	98.19
438.5	108.19
438.721	99.19
438.943	106.19
439.165	84.19
439.386	92.19
439.608	91.19
439.829	108.19
440.05	131.19
440.272	143.19
440.493	102.19
440.715	89.19
440.936	84.19
441.158	99.19
441.379	86.19
441.6	96.19
441.822	92.19
442.043	90.19
442.264	92.19
442.486	98.19
442.707	89.19
442.928	90.19
443.149	123.19
443.371	110.19
443.592	103.19
443.813	111.19
444.034	99.19
444.255	90.19
444.476	87.19
444.698	78.19
444.919	95.19
445.14	126.19
445.361	126.19
445.582	115.19
445.803	123.19
446.024	124.19
446.245	119.19
446.466	114.19
446.687	89.19
446.908	85.19
447.129	90.19
447.35	89.19
447.571	90.19
447.792	92.19
448.013	99.19
448.234	97.19
448.455	109.19
448.675	101.19
448.896	108.19
449.117	98.19
449.338	101.19
449.559	120.19
449.779	121.19
450	98.19
450.221	89.19
450.442	76.19
450.662	108.19
450.883	94.19
451.104	94.19
451.324	104.19
451.545	79.19
451.766	92.19
451.986	75.19
452.207	91.19
452.428	100.19
452.648	97.19
452.869	111.19
453.089	122.19
453.31	106.19
453.53	95.19
453.751	96.19
453.971	107.19
454.192	96.19
454.412	91.19
454.633	83.19
454.853	99.19
455.073	80.19
455.294	90.19
455.514	101.19
455.734	86.19
455.955	97.19
456.175	85.19
456.395	76.19
456.616	97.19
456.836	82.19
457.056	71.19
457.276	85.19
457.497	79.19
457.717	74.19
457.937	99.19
458.157	86.19
458.377	97.19
458.598	101.19
458.818	120.19
459.038	126.19
459.258	112.19
459.478	91.19
459.698	93.19
459.918	100.19
460.138	86.19
460.358	95.19
460.578	83.19
460.798	98.19
461.018	94.19
461.238	97.19
461.458	91.19
461.678	91.19
461.898	93.19
462.118	87.19
462.338	84.19
462.558	85.19
462.777	72.19
462.997	84.19
463.217	100.19
463.437	89.19
463.657	81.19
463.876	92.19
464.096	92.19
464.316	87.19
464.536	101.19
464.755	91.19
464.975	95.19
465.195	151.19
465.414	133.19
465.634	110.19
465.854	88.19
466.073	94.19
466.293	109.19
466.512	87.19
466.732	84.19
466.951	94.19
467.171	101.19
467.391	94.19
467.61	96.19
467.829	103.19
468.049	85.19
468.268	96.19
468.488	89.19
468.707	88.19
468.927	93.19
469.146	72.19
469.365	94.19
469.585	85.19
469.804	92.19
470.023	95.19
470.243	106.19
470.462	97.19
470.681	103.19
470.901	88.19
471.12	91.19
471.339	96.19
471.558	92.19
471.777	95.19
471.997	104.19
472.216	121.19
472.435	144.19
472.654	103.19
472.873	85.19
473.092	90.19
473.311	101.19
473.53	92.19
473.749	114.19
473.968	92.19
474.187	109.19
474.406	113.19
474.625	93.19
474.844	104.19
475.063	84.19
475.282	113.19
475.501	92.19
475.72	99.19
475.939	91.19
476.158	86.19
476.377	89.19
476.596	102.19
476.814	92.19
477.033	100.19
477.252	91.19
477.471	79.19
477.69	82.19
477.908	97.19
478.127	72.19
478.346	89.19
478.564	90.19
478.783	99.19
479.002	94.19
479.22	101.19
479.439	98.19
479.658	95.19
479.876	97.19
480.095	84.19
480.313	93.19
480.532	84.19
480.751	96.19
480.969	115.19
481.188	198.19
481.406	140.19
481.624	97.19
481.843	92.19
482.061	80.19
482.28	76.19
482.498	81.19
482.717	102.19
482.935	91.19
483.153	97.19
483.372	78.19
483.59	95.19
483.808	97.19
484.027	90.19
484.245	91.19
484.463	101.19
484.681	99.19
484.9	99.19
485.118	98.19
485.336	97.19
485.554	97.19
485.772	92.19
485.99	105.19
486.209	111.19
486.427	100.19
486.645	113.19
486.863	101.19
487.081	100.19
487.299	89.19
487.517	96.19
487.735	89.19
487.953	94.19
488.171	97.19
488.389	97.19
488.607	90.19
488.825	90.19
489.043	101.19
489.261	97.19
489.479	81.19
489.696	99.19
489.914	103.19
490.132	94.19
490.35	93.19
490.568	89.19
490.786	90.19
491.003	102.19
491.221	76.19
491.439	102.19
491.657	114.19
491.874	99.19
492.092	107.19
492.31	98.19
492.527	90.19
492.745	81.19
492.963	93.19
493.18	88.19
493.398	102.19
493.615	88.19
493.833	110.19
494.05	82.19
494.268	91.19
494.485	98.19
494.703	103.19
494.92	85.19
495.138	97.19
495.355	88.19
495.573	90.19
495.79	93.19
496.008	83.19
496.225	99.19
496.442	89.19
496.66	85.19
496.877	91.19
497.094	90.19
497.312	91.19
497.529	95.19
497.746	91.19
497.963	104.19
498.181	89.19
498.398	112.19
498.615	106.19
498.832	103.19
499.049	94.19
499.267	96.19
499.484	96.19
499.701	98.19
499.918	84.19
500.135	81.19
500.352	94.19
500.569	90.19
500.786	106.19
501.003	87.19
501.22	92.19
501.437	95.19
501.654	92.19
501.871	105.19
502.088	81.19
502.305	100.19
502.522	96.19
502.739	94.19
502.956	103.19
503.172	99.19
503.389	90.19
503.606	100.19
503.823	95.19
504.04	106.19
504.256	86.19
504.473	89.19
504.69	85.19
504.907	90.19
505.123	86.19
505.34	92.19
505.557	98.19
505.773	81.19
505.99	106.19
506.207	85.19
506.423	78.19
506.64	99.19
506.856	102.19
507.073	95.19
507.289	96.19
507.506	96.19
507.722	111.19
507.939	100.19
508.155	94.19
508.372	102.19
508.588	108.19
508.805	108.19
509.021	117.19
509.238	95.19
509.454	97.19
509.67	93.19
509.887	104.19
510.103	131.19
510.319	205.19
510.536	680.19
510.752	2060.19
510.968	563.19
511.184	133.19
511.401	116.19
511.617	106.19
511.833	100.19
512.049	107.19
512.265	98.19
512.481	97.19
512.698	83.19
512.914	84.19
513.13	109.19
513.346	89.19
513.562	95.19
513.778	92.19
513.994	87.19
514.21	97.19
514.426	114.19
514.642	123.19
514.858	124.19
515.074	148.19
