Data from Circ_1985_H10_HRD10591_00086.txt Node
Date: Wed Jan 03 12:19:39 EST 2024
User: Yrep
Spectrometer: HR+D1059
Trigger mode: 1
Integration Time (sec): 1.000000E-1
Scans to average: 1
Electric dark correction enabled: true
Nonlinearity correction enabled: false
Boxcar width: 0
XAxis mode: Wavelengths
Number of Pixels in Spectrum: 2048
>>>>>Begin Spectral Data<<<<<
223.165	-16.19
223.4	-16.19
223.635	-16.19
223.869	-22.19
224.104	-28.19
224.338	-14.19
224.573	-24.19
224.808	-25.19
225.042	-4.19
225.277	2.81
225.511	-1.19
225.746	8.81
225.98	17.81
226.215	3.81
226.449	27.81
226.683	17.81
226.918	26.81
227.152	29.81
227.387	40.81
227.621	44.81
227.856	49.81
228.09	41.81
228.324	38.81
228.559	58.81
228.793	53.81
229.027	66.81
229.262	61.81
229.496	73.81
229.73	75.81
229.964	84.81
230.199	83.81
230.433	71.81
230.667	75.81
230.901	82.81
231.136	67.81
231.37	73.81
231.604	73.81
231.838	87.81
232.072	81.81
232.306	92.81
232.541	77.81
232.775	64.81
233.009	79.81
233.243	85.81
233.477	84.81
233.711	91.81
233.945	71.81
234.179	74.81
234.413	77.81
234.647	76.81
234.881	80.81
235.115	69.81
235.349	83.81
235.583	73.81
235.817	80.81
236.051	72.81
236.285	85.81
236.519	73.81
236.753	77.81
236.987	80.81
237.221	87.81
237.455	79.81
237.689	89.81
237.922	88.81
238.156	71.81
238.39	70.81
238.624	67.81
238.858	87.81
239.091	83.81
239.325	100.81
239.559	80.81
239.793	84.81
240.027	83.81
240.26	69.81
240.494	76.81
240.728	76.81
240.961	71.81
241.195	81.81
241.429	89.81
241.662	74.81
241.896	91.81
242.13	71.81
242.363	95.81
242.597	81.81
242.83	75.81
243.064	66.81
243.298	72.81
243.531	69.81
243.765	72.81
243.998	89.81
244.232	94.81
244.465	87.81
244.699	84.81
244.932	76.81
245.166	75.81
245.399	67.81
245.633	85.81
245.866	90.81
246.099	81.81
246.333	85.81
246.566	82.81
246.8	72.81
247.033	68.81
247.266	76.81
247.5	76.81
247.733	94.81
247.966	86.81
248.2	88.81
248.433	87.81
248.666	72.81
248.899	70.81
249.133	93.81
249.366	93.81
249.599	87.81
249.832	97.81
250.066	85.81
250.299	93.81
250.532	88.81
250.765	91.81
250.998	79.81
251.231	75.81
251.465	85.81
251.698	85.81
251.931	84.81
252.164	80.81
252.397	77.81
252.63	87.81
252.863	65.81
253.096	74.81
253.329	82.81
253.562	63.81
253.795	64.81
254.028	77.81
254.261	87.81
254.494	89.81
254.727	95.81
254.96	72.81
255.193	84.81
255.426	81.81
255.659	81.81
255.892	71.81
256.124	98.81
256.357	88.81
256.59	80.81
256.823	68.81
257.056	91.81
257.289	82.81
257.521	85.81
257.754	80.81
257.987	69.81
258.22	80.81
258.452	82.81
258.685	74.81
258.918	79.81
259.151	63.81
259.383	77.81
259.616	85.81
259.849	97.81
260.081	91.81
260.314	82.81
260.547	75.81
260.779	76.81
261.012	88.81
261.244	74.81
261.477	90.81
261.71	97.81
261.942	103.81
262.175	110.81
262.407	105.81
262.64	109.81
262.872	72.81
263.105	84.81
263.337	92.81
263.57	83.81
263.802	82.81
264.035	95.81
264.267	74.81
264.499	79.81
264.732	95.81
264.964	87.81
265.197	76.81
265.429	83.81
265.661	85.81
265.894	67.81
266.126	97.81
266.358	69.81
266.591	76.81
266.823	81.81
267.055	74.81
267.287	99.81
267.52	81.81
267.752	93.81
267.984	79.81
268.216	84.81
268.448	88.81
268.681	91.81
268.913	97.81
269.145	97.81
269.377	92.81
269.609	82.81
269.841	75.81
270.073	96.81
270.306	71.81
270.538	87.81
270.77	92.81
271.002	72.81
271.234	85.81
271.466	73.81
271.698	76.81
271.93	80.81
272.162	87.81
272.394	85.81
272.626	83.81
272.858	106.81
273.09	95.81
273.322	97.81
273.553	77.81
273.785	87.81
274.017	81.81
274.249	76.81
274.481	91.81
274.713	101.81
274.945	94.81
275.176	85.81
275.408	88.81
275.64	74.81
275.872	80.81
276.104	92.81
276.335	85.81
276.567	92.81
276.799	105.81
277.031	101.81
277.262	90.81
277.494	85.81
277.726	87.81
277.957	82.81
278.189	104.81
278.421	79.81
278.652	86.81
278.884	83.81
279.115	95.81
279.347	90.81
279.579	92.81
279.81	92.81
280.042	84.81
280.273	76.81
280.505	88.81
280.736	96.81
280.968	89.81
281.199	88.81
281.431	84.81
281.662	94.81
281.894	83.81
282.125	80.81
282.356	115.81
282.588	123.81
282.819	124.81
283.051	91.81
283.282	82.81
283.513	89.81
283.745	90.81
283.976	59.81
284.207	85.81
284.439	84.81
284.67	92.81
284.901	76.81
285.132	76.81
285.364	80.81
285.595	84.81
285.826	84.81
286.057	88.81
286.288	73.81
286.52	95.81
286.751	81.81
286.982	77.81
287.213	91.81
287.444	88.81
287.675	84.81
287.906	82.81
288.138	79.81
288.369	94.81
288.6	91.81
288.831	93.81
289.062	86.81
289.293	84.81
289.524	72.81
289.755	87.81
289.986	70.81
290.217	87.81
290.448	87.81
290.679	88.81
290.91	83.81
291.141	99.81
291.371	92.81
291.602	89.81
291.833	90.81
292.064	91.81
292.295	85.81
292.526	87.81
292.757	76.81
292.987	103.81
293.218	95.81
293.449	90.81
293.68	88.81
293.91	81.81
294.141	76.81
294.372	87.81
294.603	77.81
294.833	77.81
295.064	84.81
295.295	94.81
295.525	94.81
295.756	103.81
295.987	116.81
296.217	119.81
296.448	107.81
296.679	100.81
296.909	74.81
297.14	95.81
297.37	103.81
297.601	89.81
297.831	92.81
298.062	84.81
298.292	91.81
298.523	86.81
298.753	86.81
298.984	87.81
299.214	79.81
299.445	82.81
299.675	91.81
299.905	92.81
300.136	83.81
300.366	75.81
300.597	87.81
300.827	101.81
301.057	77.81
301.288	84.81
301.518	90.81
301.748	90.81
301.979	91.81
302.209	104.81
302.439	101.81
302.669	89.81
302.9	79.81
303.13	86.81
303.36	89.81
303.59	85.81
303.82	88.81
304.051	98.81
304.281	90.81
304.511	101.81
304.741	92.81
304.971	91.81
305.201	88.81
305.431	91.81
305.661	92.81
305.891	93.81
306.121	101.81
306.352	96.81
306.582	102.81
306.812	86.81
307.042	98.81
307.272	91.81
307.502	97.81
307.731	95.81
307.961	87.81
308.191	93.81
308.421	73.81
308.651	77.81
308.881	94.81
309.111	103.81
309.341	90.81
309.571	96.81
309.8	124.81
310.03	95.81
310.26	114.81
310.49	107.81
310.72	103.81
310.949	95.81
311.179	82.81
311.409	87.81
311.639	100.81
311.868	88.81
312.098	97.81
312.328	88.81
312.557	107.81
312.787	113.81
313.017	107.81
313.246	108.81
313.476	96.81
313.706	89.81
313.935	97.81
314.165	80.81
314.394	90.81
314.624	109.81
314.853	91.81
315.083	93.81
315.312	104.81
315.542	88.81
315.771	108.81
316.001	103.81
316.23	107.81
316.46	84.81
316.689	99.81
316.919	74.81
317.148	89.81
317.377	76.81
317.607	115.81
317.836	108.81
318.065	93.81
318.295	91.81
318.524	97.81
318.753	94.81
318.983	85.81
319.212	103.81
319.441	100.81
319.67	103.81
319.9	86.81
320.129	96.81
320.358	90.81
320.587	95.81
320.816	97.81
321.046	106.81
321.275	107.81
321.504	93.81
321.733	103.81
321.962	103.81
322.191	92.81
322.42	93.81
322.649	105.81
322.878	100.81
323.108	108.81
323.337	117.81
323.566	115.81
323.795	151.81
324.024	181.81
324.253	359.81
324.482	775.81
324.71	1573.81
324.939	2093.81
325.168	756.81
325.397	230.81
325.626	155.81
325.855	133.81
326.084	121.81
326.313	125.81
326.542	157.81
326.77	220.81
326.999	443.81
327.228	888.81
327.457	1674.81
327.686	1319.81
327.914	375.81
328.143	174.81
328.372	151.81
328.6	117.81
328.829	109.81
329.058	106.81
329.287	107.81
329.515	106.81
329.744	108.81
329.972	114.81
330.201	145.81
330.43	150.81
330.658	125.81
330.887	136.81
331.115	132.81
331.344	100.81
331.572	101.81
331.801	92.81
332.03	95.81
332.258	87.81
332.486	98.81
332.715	87.81
332.943	92.81
333.172	96.81
333.4	90.81
333.629	105.81
333.857	106.81
334.085	112.81
334.314	130.81
334.542	171.81
334.771	175.81
334.999	112.81
335.227	98.81
335.455	100.81
335.684	92.81
335.912	87.81
336.14	87.81
336.369	90.81
336.597	94.81
336.825	89.81
337.053	80.81
337.281	96.81
337.51	92.81
337.738	89.81
337.966	102.81
338.194	89.81
338.422	85.81
338.65	75.81
338.878	91.81
339.106	95.81
339.334	106.81
339.562	106.81
339.79	100.81
340.018	101.81
340.246	94.81
340.474	86.81
340.702	97.81
340.93	79.81
341.158	103.81
341.386	109.81
341.614	95.81
341.842	83.81
342.07	101.81
342.298	103.81
342.526	90.81
342.754	105.81
342.981	91.81
343.209	85.81
343.437	107.81
343.665	92.81
343.893	96.81
344.12	95.81
344.348	114.81
344.576	74.81
344.804	91.81
345.031	99.81
345.259	104.81
345.487	89.81
345.714	95.81
345.942	100.81
346.17	83.81
346.397	73.81
346.625	95.81
346.853	84.81
347.08	91.81
347.308	101.81
347.535	90.81
347.763	109.81
347.99	90.81
348.218	95.81
348.445	89.81
348.673	92.81
348.9	95.81
349.128	113.81
349.355	97.81
349.583	79.81
349.81	94.81
350.037	93.81
350.265	83.81
350.492	89.81
350.72	85.81
350.947	103.81
351.174	102.81
351.402	100.81
351.629	96.81
351.856	104.81
352.083	99.81
352.311	108.81
352.538	87.81
352.765	106.81
352.992	102.81
353.22	106.81
353.447	95.81
353.674	94.81
353.901	96.81
354.128	84.81
354.355	89.81
354.583	121.81
354.81	100.81
355.037	111.81
355.264	99.81
355.491	99.81
355.718	85.81
355.945	92.81
356.172	107.81
356.399	98.81
356.626	96.81
356.853	96.81
357.08	99.81
357.307	105.81
357.534	92.81
357.761	88.81
357.988	93.81
358.215	92.81
358.441	94.81
358.668	101.81
358.895	71.81
359.122	91.81
359.349	95.81
359.576	108.81
359.802	100.81
360.029	99.81
360.256	94.81
360.483	95.81
360.709	97.81
360.936	101.81
361.163	94.81
361.39	100.81
361.616	99.81
361.843	97.81
362.07	79.81
362.296	95.81
362.523	86.81
362.749	92.81
362.976	101.81
363.203	103.81
363.429	91.81
363.656	82.81
363.882	88.81
364.109	96.81
364.335	94.81
364.562	89.81
364.788	104.81
365.015	95.81
365.241	95.81
365.468	115.81
365.694	75.81
365.92	101.81
366.147	82.81
366.373	86.81
366.599	80.81
366.826	83.81
367.052	82.81
367.278	82.81
367.505	87.81
367.731	95.81
367.957	96.81
368.184	87.81
368.41	81.81
368.636	107.81
368.862	117.81
369.089	103.81
369.315	95.81
369.541	92.81
369.767	83.81
369.993	83.81
370.219	92.81
370.445	89.81
370.672	97.81
370.898	88.81
371.124	85.81
371.35	87.81
371.576	95.81
371.802	85.81
372.028	88.81
372.254	96.81
372.48	84.81
372.706	76.81
372.932	86.81
373.158	87.81
373.384	95.81
373.61	93.81
373.835	92.81
374.061	88.81
374.287	89.81
374.513	79.81
374.739	103.81
374.965	100.81
375.191	88.81
375.416	81.81
375.642	90.81
375.868	96.81
376.094	88.81
376.319	84.81
376.545	90.81
376.771	93.81
376.997	88.81
377.222	88.81
377.448	88.81
377.674	94.81
377.899	84.81
378.125	84.81
378.35	83.81
378.576	94.81
378.802	108.81
379.027	83.81
379.253	99.81
379.478	90.81
379.704	106.81
379.929	104.81
380.155	98.81
380.38	92.81
380.606	90.81
380.831	79.81
381.057	91.81
381.282	85.81
381.507	102.81
381.733	99.81
381.958	91.81
382.184	88.81
382.409	92.81
382.634	99.81
382.86	91.81
383.085	112.81
383.31	103.81
383.535	108.81
383.761	96.81
383.986	84.81
384.211	100.81
384.436	102.81
384.662	96.81
384.887	103.81
385.112	100.81
385.337	109.81
385.562	109.81
385.787	96.81
386.013	109.81
386.238	104.81
386.463	97.81
386.688	114.81
386.913	103.81
387.138	98.81
387.363	96.81
387.588	93.81
387.813	108.81
388.038	110.81
388.263	109.81
388.488	119.81
388.713	93.81
388.938	94.81
389.163	95.81
389.387	106.81
389.612	83.81
389.837	98.81
390.062	84.81
390.287	83.81
390.512	97.81
390.736	99.81
390.961	100.81
391.186	101.81
391.411	107.81
391.636	82.81
391.86	89.81
392.085	93.81
392.31	84.81
392.534	81.81
392.759	77.81
392.984	74.81
393.208	90.81
393.433	99.81
393.658	97.81
393.882	87.81
394.107	87.81
394.331	84.81
394.556	77.81
394.78	98.81
395.005	89.81
395.229	82.81
395.454	76.81
395.678	97.81
395.903	82.81
396.127	97.81
396.352	85.81
396.576	66.81
396.801	80.81
397.025	95.81
397.249	85.81
397.474	105.81
397.698	102.81
397.922	91.81
398.147	103.81
398.371	77.81
398.595	79.81
398.82	86.81
399.044	95.81
399.268	98.81
399.492	74.81
399.717	90.81
399.941	96.81
400.165	95.81
400.389	99.81
400.613	87.81
400.837	82.81
401.062	88.81
401.286	85.81
401.51	80.81
401.734	91.81
401.958	94.81
402.182	108.81
402.406	140.81
402.63	108.81
402.854	96.81
403.078	81.81
403.302	82.81
403.526	105.81
403.75	95.81
403.974	93.81
404.198	86.81
404.422	82.81
404.645	89.81
404.869	97.81
405.093	102.81
405.317	98.81
405.541	96.81
405.765	97.81
405.988	87.81
406.212	132.81
406.436	173.81
406.66	132.81
406.883	106.81
407.107	115.81
407.331	108.81
407.555	101.81
407.778	106.81
408.002	104.81
408.226	91.81
408.449	89.81
408.673	95.81
408.896	87.81
409.12	95.81
409.344	95.81
409.567	99.81
409.791	89.81
410.014	87.81
410.238	84.81
410.461	94.81
410.685	92.81
410.908	99.81
411.132	105.81
411.355	100.81
411.578	92.81
411.802	71.81
412.025	86.81
412.249	87.81
412.472	82.81
412.695	93.81
412.919	84.81
413.142	97.81
413.365	95.81
413.589	95.81
413.812	82.81
414.035	88.81
414.258	79.81
414.482	84.81
414.705	84.81
414.928	89.81
415.151	104.81
415.374	104.81
415.597	88.81
415.821	101.81
416.044	86.81
416.267	94.81
416.49	87.81
416.713	101.81
416.936	93.81
417.159	99.81
417.382	97.81
417.605	89.81
417.828	83.81
418.051	92.81
418.274	97.81
418.497	91.81
418.72	81.81
418.943	83.81
419.166	83.81
419.389	84.81
419.611	81.81
419.834	89.81
420.057	88.81
420.28	86.81
420.503	81.81
420.726	79.81
420.948	86.81
421.171	82.81
421.394	87.81
421.617	89.81
421.839	93.81
422.062	100.81
422.285	85.81
422.507	86.81
422.73	100.81
422.953	91.81
423.175	101.81
423.398	83.81
423.621	99.81
423.843	96.81
424.066	83.81
424.288	74.81
424.511	85.81
424.733	104.81
424.956	91.81
425.178	95.81
425.401	104.81
425.623	99.81
425.846	84.81
426.068	100.81
426.291	98.81
426.513	77.81
426.735	99.81
426.958	97.81
427.18	103.81
427.402	118.81
427.625	162.81
427.847	130.81
428.069	108.81
428.292	83.81
428.514	86.81
428.736	90.81
428.958	94.81
429.181	96.81
429.403	76.81
429.625	87.81
429.847	83.81
430.069	91.81
430.292	86.81
430.514	101.81
430.736	94.81
430.958	84.81
431.18	81.81
431.402	85.81
431.624	88.81
431.846	73.81
432.068	97.81
432.29	91.81
432.512	86.81
432.734	91.81
432.956	94.81
433.178	117.81
433.4	110.81
433.622	91.81
433.844	97.81
434.066	109.81
434.287	87.81
434.509	88.81
434.731	85.81
434.953	84.81
435.175	89.81
435.397	96.81
435.618	90.81
435.84	103.81
436.062	127.81
436.284	99.81
436.505	88.81
436.727	104.81
436.949	92.81
437.17	104.81
437.392	89.81
437.614	87.81
437.835	80.81
438.057	99.81
438.278	113.81
438.5	102.81
438.721	115.81
438.943	96.81
439.165	98.81
439.386	85.81
439.608	95.81
439.829	98.81
440.05	109.81
440.272	140.81
440.493	95.81
440.715	85.81
440.936	97.81
441.158	109.81
441.379	89.81
441.6	98.81
441.822	91.81
442.043	103.81
442.264	95.81
442.486	94.81
442.707	99.81
442.928	87.81
443.149	114.81
443.371	119.81
443.592	99.81
443.813	101.81
444.034	96.81
444.255	90.81
444.476	84.81
444.698	107.81
444.919	95.81
445.14	135.81
445.361	137.81
445.582	105.81
445.803	118.81
446.024	131.81
446.245	124.81
446.466	103.81
446.687	87.81
446.908	80.81
447.129	80.81
447.35	76.81
447.571	81.81
447.792	97.81
448.013	100.81
448.234	94.81
448.455	96.81
448.675	101.81
448.896	113.81
449.117	97.81
449.338	100.81
449.559	129.81
449.779	130.81
450	103.81
450.221	92.81
450.442	93.81
450.662	108.81
450.883	95.81
451.104	88.81
451.324	86.81
451.545	85.81
451.766	86.81
451.986	75.81
452.207	93.81
452.428	95.81
452.648	105.81
452.869	98.81
453.089	118.81
453.31	93.81
453.53	102.81
453.751	80.81
453.971	123.81
454.192	107.81
454.412	87.81
454.633	77.81
454.853	79.81
455.073	83.81
455.294	89.81
455.514	76.81
455.734	99.81
455.955	93.81
456.175	75.81
456.395	72.81
456.616	82.81
456.836	82.81
457.056	67.81
457.276	89.81
457.497	73.81
457.717	90.81
457.937	85.81
458.157	92.81
458.377	96.81
458.598	93.81
458.818	137.81
459.038	138.81
459.258	112.81
459.478	97.81
459.698	75.81
459.918	81.81
460.138	79.81
460.358	94.81
460.578	87.81
460.798	91.81
461.018	89.81
461.238	75.81
461.458	79.81
461.678	76.81
461.898	83.81
462.118	73.81
462.338	93.81
462.558	91.81
462.777	83.81
462.997	96.81
463.217	83.81
463.437	89.81
463.657	85.81
463.876	84.81
464.096	82.81
464.316	86.81
464.536	94.81
464.755	86.81
464.975	103.81
465.195	135.81
465.414	131.81
465.634	80.81
465.854	88.81
466.073	83.81
466.293	89.81
466.512	81.81
466.732	80.81
466.951	83.81
467.171	72.81
467.391	99.81
467.61	95.81
467.829	100.81
468.049	103.81
468.268	103.81
468.488	88.81
468.707	81.81
468.927	87.81
469.146	90.81
469.365	85.81
469.585	90.81
469.804	82.81
470.023	98.81
470.243	83.81
470.462	91.81
470.681	70.81
470.901	103.81
471.12	80.81
471.339	82.81
471.558	83.81
471.777	85.81
471.997	117.81
472.216	130.81
472.435	181.81
472.654	105.81
472.873	95.81
473.092	89.81
473.311	89.81
473.53	84.81
473.749	79.81
473.968	85.81
474.187	103.81
474.406	90.81
474.625	76.81
474.844	83.81
475.063	80.81
475.282	84.81
475.501	101.81
475.72	106.81
475.939	79.81
476.158	87.81
476.377	85.81
476.596	76.81
476.814	97.81
477.033	80.81
477.252	86.81
477.471	76.81
477.69	82.81
477.908	92.81
478.127	80.81
478.346	85.81
478.564	85.81
478.783	95.81
479.002	80.81
479.22	86.81
479.439	97.81
479.658	102.81
479.876	94.81
480.095	93.81
480.313	98.81
480.532	97.81
480.751	92.81
480.969	117.81
481.188	295.81
481.406	202.81
481.624	106.81
481.843	84.81
482.061	80.81
482.28	97.81
482.498	85.81
482.717	85.81
482.935	80.81
483.153	90.81
483.372	71.81
483.59	106.81
483.808	91.81
484.027	93.81
484.245	95.81
484.463	99.81
484.681	99.81
484.9	96.81
485.118	98.81
485.336	95.81
485.554	109.81
485.772	90.81
485.99	95.81
486.209	113.81
486.427	101.81
486.645	93.81
486.863	103.81
487.081	96.81
487.299	97.81
487.517	104.81
487.735	89.81
487.953	88.81
488.171	95.81
488.389	92.81
488.607	98.81
488.825	96.81
489.043	97.81
489.261	100.81
489.479	93.81
489.696	88.81
489.914	79.81
490.132	89.81
490.35	100.81
490.568	89.81
490.786	107.81
491.003	84.81
491.221	91.81
491.439	90.81
491.657	85.81
491.874	96.81
492.092	92.81
492.31	95.81
492.527	81.81
492.745	92.81
492.963	96.81
493.18	87.81
493.398	86.81
493.615	93.81
493.833	93.81
494.05	96.81
494.268	75.81
494.485	90.81
494.703	100.81
494.92	100.81
495.138	91.81
495.355	103.81
495.573	99.81
495.79	72.81
496.008	93.81
496.225	94.81
496.442	98.81
496.66	107.81
496.877	100.81
497.094	90.81
497.312	89.81
497.529	92.81
497.746	79.81
497.963	103.81
498.181	90.81
498.398	101.81
498.615	98.81
498.832	104.81
499.049	100.81
499.267	103.81
499.484	92.81
499.701	83.81
499.918	102.81
500.135	91.81
500.352	85.81
500.569	92.81
500.786	97.81
501.003	85.81
501.22	83.81
501.437	102.81
501.654	98.81
501.871	104.81
502.088	75.81
502.305	108.81
502.522	91.81
502.739	99.81
502.956	99.81
503.172	97.81
503.389	93.81
503.606	94.81
503.823	94.81
504.04	79.81
504.256	96.81
504.473	82.81
504.69	74.81
504.907	87.81
505.123	78.81
505.34	63.81
505.557	77.81
505.773	79.81
505.99	106.81
506.207	79.81
506.423	102.81
506.64	87.81
506.856	95.81
507.073	80.81
507.289	99.81
507.506	90.81
507.722	99.81
507.939	100.81
508.155	96.81
508.372	99.81
508.588	101.81
508.805	96.81
509.021	96.81
509.238	106.81
509.454	90.81
509.67	103.81
509.887	109.81
510.103	122.81
510.319	199.81
510.536	597.81
510.752	1857.81
510.968	540.81
511.184	143.81
511.401	128.81
511.617	95.81
511.833	82.81
512.049	99.81
512.265	90.81
512.481	96.81
512.698	85.81
512.914	108.81
513.13	101.81
513.346	97.81
513.562	91.81
513.778	97.81
513.994	91.81
514.21	105.81
514.426	108.81
514.642	120.81
514.858	110.81
515.074	137.81
515.29	346.81
515.506	1063.81
515.721	413.81
