Data from Circ_1985_H10_HRD10591_00007.txt Node
Date: Wed Jan 03 12:19:24 EST 2024
User: Yrep
Spectrometer: HR+D1059
Trigger mode: 1
Integration Time (sec): 1.000000E-1
Scans to average: 1
Electric dark correction enabled: true
Nonlinearity correction enabled: false
Boxcar width: 0
XAxis mode: Wavelengths
Number of Pixels in Spectrum: 2048
>>>>>Begin Spectral Data<<<<<
223.165	-16.31
223.4	-16.31
223.635	-16.31
223.869	-15.31
224.104	-26.31
224.338	-16.31
224.573	-33.31
224.808	-4.31
225.042	-12.31
225.277	-5.31
225.511	-0.31
225.746	-0.31
225.98	5.69
226.215	25.69
226.449	12.69
226.683	25.69
226.918	30.69
227.152	29.69
227.387	44.69
227.621	31.69
227.856	45.69
228.09	33.69
228.324	64.69
228.559	62.69
228.793	65.69
229.027	65.69
229.262	73.69
229.496	62.69
229.73	75.69
229.964	83.69
230.199	73.69
230.433	73.69
230.667	90.69
230.901	68.69
231.136	69.69
231.37	80.69
231.604	65.69
231.838	90.69
232.072	87.69
232.306	77.69
232.541	85.69
232.775	80.69
233.009	87.69
233.243	98.69
233.477	85.69
233.711	84.69
233.945	82.69
234.179	79.69
234.413	82.69
234.647	76.69
234.881	89.69
235.115	92.69
235.349	92.69
235.583	95.69
235.817	89.69
236.051	87.69
236.285	63.69
236.519	76.69
236.753	85.69
236.987	76.69
237.221	64.69
237.455	89.69
237.689	59.69
237.922	70.69
238.156	82.69
238.39	79.69
238.624	71.69
238.858	64.69
239.091	91.69
239.325	83.69
239.559	71.69
239.793	74.69
240.027	78.69
240.26	76.69
240.494	85.69
240.728	68.69
240.961	62.69
241.195	87.69
241.429	70.69
241.662	69.69
241.896	73.69
242.13	64.69
242.363	71.69
242.597	81.69
242.83	85.69
243.064	68.69
243.298	83.69
243.531	80.69
243.765	81.69
243.998	77.69
244.232	92.69
244.465	74.69
244.699	84.69
244.932	95.69
245.166	82.69
245.399	82.69
245.633	82.69
245.866	69.69
246.099	81.69
246.333	72.69
246.566	95.69
246.8	84.69
247.033	84.69
247.266	87.69
247.5	72.69
247.733	87.69
247.966	79.69
248.2	97.69
248.433	77.69
248.666	83.69
248.899	92.69
249.133	88.69
249.366	89.69
249.599	90.69
249.832	74.69
250.066	91.69
250.299	85.69
250.532	86.69
250.765	69.69
250.998	79.69
251.231	69.69
251.465	84.69
251.698	80.69
251.931	75.69
252.164	88.69
252.397	79.69
252.63	82.69
252.863	99.69
253.096	83.69
253.329	83.69
253.562	90.69
253.795	82.69
254.028	86.69
254.261	72.69
254.494	77.69
254.727	84.69
254.96	81.69
255.193	96.69
255.426	81.69
255.659	75.69
255.892	81.69
256.124	77.69
256.357	80.69
256.59	86.69
256.823	74.69
257.056	85.69
257.289	82.69
257.521	91.69
257.754	70.69
257.987	82.69
258.22	76.69
258.452	74.69
258.685	85.69
258.918	79.69
259.151	78.69
259.383	91.69
259.616	83.69
259.849	73.69
260.081	83.69
260.314	85.69
260.547	86.69
260.779	79.69
261.012	82.69
261.244	75.69
261.477	88.69
261.71	76.69
261.942	100.69
262.175	124.69
262.407	83.69
262.64	81.69
262.872	80.69
263.105	87.69
263.337	75.69
263.57	64.69
263.802	75.69
264.035	84.69
264.267	83.69
264.499	90.69
264.732	77.69
264.964	87.69
265.197	84.69
265.429	86.69
265.661	85.69
265.894	84.69
266.126	76.69
266.358	81.69
266.591	84.69
266.823	83.69
267.055	72.69
267.287	73.69
267.52	76.69
267.752	91.69
267.984	85.69
268.216	84.69
268.448	92.69
268.681	105.69
268.913	96.69
269.145	91.69
269.377	95.69
269.609	85.69
269.841	79.69
270.073	81.69
270.306	83.69
270.538	77.69
270.77	99.69
271.002	91.69
271.234	77.69
271.466	93.69
271.698	79.69
271.93	85.69
272.162	82.69
272.394	84.69
272.626	81.69
272.858	87.69
273.09	89.69
273.322	63.69
273.553	91.69
273.785	89.69
274.017	99.69
274.249	81.69
274.481	69.69
274.713	81.69
274.945	81.69
275.176	92.69
275.408	86.69
275.64	81.69
275.872	92.69
276.104	76.69
276.335	87.69
276.567	97.69
276.799	106.69
277.031	88.69
277.262	86.69
277.494	100.69
277.726	105.69
277.957	95.69
278.189	83.69
278.421	81.69
278.652	87.69
278.884	85.69
279.115	97.69
279.347	71.69
279.579	86.69
279.81	85.69
280.042	82.69
280.273	72.69
280.505	83.69
280.736	87.69
280.968	81.69
281.199	87.69
281.431	94.69
281.662	95.69
281.894	93.69
282.125	99.69
282.356	116.69
282.588	124.69
282.819	97.69
283.051	81.69
283.282	87.69
283.513	94.69
283.745	93.69
283.976	89.69
284.207	83.69
284.439	99.69
284.67	99.69
284.901	104.69
285.132	92.69
285.364	88.69
285.595	76.69
285.826	80.69
286.057	93.69
286.288	85.69
286.52	81.69
286.751	84.69
286.982	74.69
287.213	91.69
287.444	84.69
287.675	89.69
287.906	99.69
288.138	90.69
288.369	88.69
288.6	92.69
288.831	98.69
289.062	90.69
289.293	92.69
289.524	84.69
289.755	80.69
289.986	93.69
290.217	80.69
290.448	75.69
290.679	82.69
290.91	85.69
291.141	95.69
291.371	79.69
291.602	88.69
291.833	94.69
292.064	82.69
292.295	90.69
292.526	91.69
292.757	76.69
292.987	81.69
293.218	89.69
293.449	84.69
293.68	95.69
293.91	87.69
294.141	101.69
294.372	100.69
294.603	89.69
294.833	93.69
295.064	76.69
295.295	84.69
295.525	83.69
295.756	88.69
295.987	115.69
296.217	110.69
296.448	126.69
296.679	93.69
296.909	91.69
297.14	87.69
297.37	101.69
297.601	104.69
297.831	96.69
298.062	89.69
298.292	88.69
298.523	81.69
298.753	91.69
298.984	73.69
299.214	90.69
299.445	87.69
299.675	96.69
299.905	93.69
300.136	90.69
300.366	102.69
300.597	84.69
300.827	101.69
301.057	101.69
301.288	106.69
301.518	85.69
301.748	101.69
301.979	112.69
302.209	86.69
302.439	91.69
302.669	74.69
302.9	100.69
303.13	92.69
303.36	88.69
303.59	102.69
303.82	98.69
304.051	84.69
304.281	80.69
304.511	99.69
304.741	98.69
304.971	84.69
305.201	100.69
305.431	90.69
305.661	93.69
305.891	72.69
306.121	101.69
306.352	107.69
306.582	100.69
306.812	91.69
307.042	76.69
307.272	91.69
307.502	103.69
307.731	95.69
307.961	90.69
308.191	96.69
308.421	97.69
308.651	96.69
308.881	73.69
309.111	99.69
309.341	97.69
309.571	79.69
309.8	97.69
310.03	106.69
310.26	91.69
310.49	98.69
310.72	103.69
310.949	99.69
311.179	108.69
311.409	96.69
311.639	94.69
311.868	98.69
312.098	104.69
312.328	92.69
312.557	101.69
312.787	87.69
313.017	97.69
313.246	100.69
313.476	92.69
313.706	89.69
313.935	92.69
314.165	95.69
314.394	79.69
314.624	90.69
314.853	86.69
315.083	88.69
315.312	98.69
315.542	88.69
315.771	93.69
316.001	95.69
316.23	86.69
316.46	87.69
316.689	89.69
316.919	86.69
317.148	104.69
317.377	96.69
317.607	102.69
317.836	95.69
318.065	86.69
318.295	73.69
318.524	92.69
318.753	99.69
318.983	97.69
319.212	93.69
319.441	104.69
319.67	115.69
319.9	90.69
320.129	105.69
320.358	89.69
320.587	82.69
320.816	101.69
321.046	85.69
321.275	111.69
321.504	69.69
321.733	83.69
321.962	100.69
322.191	106.69
322.42	91.69
322.649	108.69
322.878	109.69
323.108	117.69
323.337	103.69
323.566	135.69
323.795	135.69
324.024	189.69
324.253	349.69
324.482	737.69
324.71	1535.69
324.939	2055.69
325.168	749.69
325.397	234.69
325.626	145.69
325.855	127.69
326.084	115.69
326.313	116.69
326.542	149.69
326.77	217.69
326.999	412.69
327.228	876.69
327.457	1631.69
327.686	1311.69
327.914	346.69
328.143	179.69
328.372	140.69
328.6	130.69
328.829	115.69
329.058	127.69
329.287	96.69
329.515	92.69
329.744	100.69
329.972	93.69
330.201	106.69
330.43	98.69
330.658	114.69
330.887	122.69
331.115	97.69
331.344	96.69
331.572	88.69
331.801	100.69
332.03	110.69
332.258	95.69
332.486	92.69
332.715	90.69
332.943	95.69
333.172	82.69
333.4	96.69
333.629	99.69
333.857	82.69
334.085	109.69
334.314	97.69
334.542	88.69
334.771	104.69
334.999	90.69
335.227	103.69
335.455	96.69
335.684	102.69
335.912	91.69
336.14	91.69
336.369	108.69
336.597	101.69
336.825	93.69
337.053	95.69
337.281	81.69
337.51	81.69
337.738	81.69
337.966	89.69
338.194	95.69
338.422	87.69
338.65	87.69
338.878	84.69
339.106	87.69
339.334	83.69
339.562	100.69
339.79	99.69
340.018	101.69
340.246	98.69
340.474	96.69
340.702	83.69
340.93	91.69
341.158	76.69
341.386	87.69
341.614	99.69
341.842	92.69
342.07	88.69
342.298	92.69
342.526	99.69
342.754	79.69
342.981	68.69
343.209	82.69
343.437	95.69
343.665	89.69
343.893	93.69
344.12	99.69
344.348	92.69
344.576	97.69
344.804	95.69
345.031	82.69
345.259	89.69
345.487	100.69
345.714	91.69
345.942	92.69
346.17	110.69
346.397	88.69
346.625	88.69
346.853	83.69
347.08	87.69
347.308	97.69
347.535	79.69
347.763	87.69
347.99	106.69
348.218	95.69
348.445	108.69
348.673	82.69
348.9	92.69
349.128	104.69
349.355	93.69
349.583	87.69
349.81	102.69
350.037	93.69
350.265	100.69
350.492	101.69
350.72	100.69
350.947	105.69
351.174	92.69
351.402	101.69
351.629	91.69
351.856	105.69
352.083	104.69
352.311	108.69
352.538	113.69
352.765	117.69
352.992	106.69
353.22	113.69
353.447	109.69
353.674	98.69
353.901	109.69
354.128	94.69
354.355	95.69
354.583	99.69
354.81	106.69
355.037	98.69
355.264	98.69
355.491	80.69
355.718	91.69
355.945	101.69
356.172	101.69
356.399	101.69
356.626	90.69
356.853	88.69
357.08	93.69
357.307	87.69
357.534	96.69
357.761	91.69
357.988	92.69
358.215	107.69
358.441	100.69
358.668	110.69
358.895	108.69
359.122	96.69
359.349	109.69
359.576	94.69
359.802	98.69
360.029	108.69
360.256	107.69
360.483	104.69
360.709	93.69
360.936	93.69
361.163	101.69
361.39	89.69
361.616	77.69
361.843	95.69
362.07	87.69
362.296	85.69
362.523	95.69
362.749	74.69
362.976	81.69
363.203	100.69
363.429	89.69
363.656	86.69
363.882	77.69
364.109	97.69
364.335	96.69
364.562	88.69
364.788	80.69
365.015	90.69
365.241	71.69
365.468	82.69
365.694	101.69
365.92	100.69
366.147	89.69
366.373	90.69
366.599	89.69
366.826	80.69
367.052	78.69
367.278	77.69
367.505	75.69
367.731	81.69
367.957	95.69
368.184	91.69
368.41	95.69
368.636	92.69
368.862	91.69
369.089	95.69
369.315	90.69
369.541	99.69
369.767	100.69
369.993	87.69
370.219	75.69
370.445	92.69
370.672	84.69
370.898	87.69
371.124	96.69
371.35	77.69
371.576	84.69
371.802	85.69
372.028	91.69
372.254	96.69
372.48	97.69
372.706	88.69
372.932	117.69
373.158	88.69
373.384	103.69
373.61	86.69
373.835	108.69
374.061	89.69
374.287	101.69
374.513	79.69
374.739	107.69
374.965	97.69
375.191	83.69
375.416	85.69
375.642	93.69
375.868	100.69
376.094	104.69
376.319	102.69
376.545	102.69
376.771	91.69
376.997	82.69
377.222	73.69
377.448	89.69
377.674	91.69
377.899	80.69
378.125	89.69
378.35	83.69
378.576	98.69
378.802	104.69
379.027	105.69
379.253	100.69
379.478	98.69
379.704	96.69
379.929	86.69
380.155	97.69
380.38	106.69
380.606	105.69
380.831	103.69
381.057	111.69
381.282	106.69
381.507	103.69
381.733	112.69
381.958	119.69
382.184	111.69
382.409	117.69
382.634	118.69
382.86	108.69
383.085	113.69
383.31	111.69
383.535	113.69
383.761	105.69
383.986	115.69
384.211	127.69
384.436	121.69
384.662	123.69
384.887	136.69
385.112	136.69
385.337	135.69
385.562	153.69
385.787	134.69
386.013	115.69
386.238	127.69
386.463	128.69
386.688	139.69
386.913	120.69
387.138	133.69
387.363	127.69
387.588	131.69
387.813	115.69
388.038	144.69
388.263	144.69
388.488	134.69
388.713	103.69
388.938	89.69
389.163	84.69
389.387	100.69
389.612	100.69
389.837	77.69
390.062	102.69
390.287	83.69
390.512	79.69
390.736	103.69
390.961	75.69
391.186	79.69
391.411	95.69
391.636	99.69
391.86	90.69
392.085	81.69
392.31	91.69
392.534	76.69
392.759	70.69
392.984	86.69
393.208	95.69
393.433	124.69
393.658	107.69
393.882	83.69
394.107	105.69
394.331	99.69
394.556	84.69
394.78	96.69
395.005	100.69
395.229	83.69
395.454	89.69
395.678	91.69
395.903	100.69
396.127	86.69
396.352	87.69
396.576	85.69
396.801	90.69
397.025	98.69
397.249	84.69
397.474	85.69
397.698	98.69
397.922	90.69
398.147	92.69
398.371	84.69
398.595	69.69
398.82	108.69
399.044	83.69
399.268	95.69
399.492	80.69
399.717	96.69
399.941	87.69
400.165	94.69
400.389	92.69
400.613	88.69
400.837	93.69
401.062	88.69
401.286	77.69
401.51	85.69
401.734	80.69
401.958	85.69
402.182	115.69
402.406	135.69
402.63	115.69
402.854	89.69
403.078	91.69
403.302	98.69
403.526	92.69
403.75	87.69
403.974	96.69
404.198	87.69
404.422	96.69
404.645	93.69
404.869	83.69
405.093	98.69
405.317	111.69
405.541	108.69
405.765	89.69
405.988	114.69
406.212	133.69
406.436	186.69
406.66	121.69
406.883	92.69
407.107	101.69
407.331	95.69
407.555	94.69
407.778	106.69
408.002	90.69
408.226	101.69
408.449	101.69
408.673	75.69
408.896	82.69
409.12	115.69
409.344	92.69
409.567	100.69
409.791	99.69
410.014	90.69
410.238	88.69
410.461	96.69
410.685	81.69
410.908	102.69
411.132	115.69
411.355	106.69
411.578	97.69
411.802	84.69
412.025	73.69
412.249	85.69
412.472	105.69
412.695	69.69
412.919	90.69
413.142	86.69
413.365	83.69
413.589	90.69
413.812	94.69
414.035	84.69
414.258	89.69
414.482	83.69
414.705	95.69
414.928	87.69
415.151	102.69
415.374	88.69
415.597	88.69
415.821	103.69
416.044	97.69
416.267	101.69
416.49	90.69
416.713	99.69
416.936	85.69
417.159	98.69
417.382	96.69
417.605	109.69
417.828	104.69
418.051	85.69
418.274	86.69
418.497	79.69
418.72	100.69
418.943	96.69
419.166	92.69
419.389	105.69
419.611	92.69
419.834	98.69
420.057	91.69
420.28	88.69
420.503	107.69
420.726	68.69
420.948	93.69
421.171	89.69
421.394	104.69
421.617	82.69
421.839	88.69
422.062	103.69
422.285	83.69
422.507	111.69
422.73	108.69
422.953	98.69
423.175	83.69
423.398	81.69
423.621	91.69
423.843	91.69
424.066	76.69
424.288	76.69
424.511	83.69
424.733	105.69
424.956	98.69
425.178	105.69
425.401	93.69
425.623	85.69
425.846	93.69
426.068	91.69
426.291	85.69
426.513	108.69
426.735	84.69
426.958	106.69
427.18	109.69
427.402	135.69
427.625	150.69
427.847	107.69
428.069	115.69
428.292	93.69
428.514	85.69
428.736	88.69
428.958	72.69
429.181	98.69
429.403	91.69
429.625	95.69
429.847	92.69
430.069	102.69
430.292	80.69
430.514	91.69
430.736	85.69
430.958	94.69
431.18	87.69
431.402	86.69
431.624	77.69
431.846	102.69
432.068	93.69
432.29	91.69
432.512	86.69
432.734	87.69
432.956	103.69
433.178	101.69
433.4	97.69
433.622	105.69
433.844	101.69
434.066	102.69
434.287	81.69
434.509	85.69
434.731	98.69
434.953	101.69
435.175	82.69
435.397	89.69
435.618	79.69
435.84	103.69
436.062	111.69
436.284	103.69
436.505	103.69
436.727	103.69
436.949	92.69
437.17	80.69
437.392	89.69
437.614	95.69
437.835	99.69
438.057	109.69
438.278	106.69
438.5	93.69
438.721	113.69
438.943	113.69
439.165	102.69
439.386	87.69
439.608	96.69
439.829	91.69
440.05	108.69
440.272	112.69
440.493	103.69
440.715	75.69
440.936	87.69
441.158	81.69
441.379	98.69
441.6	91.69
441.822	84.69
442.043	89.69
442.264	100.69
442.486	87.69
442.707	91.69
442.928	99.69
443.149	120.69
443.371	109.69
443.592	102.69
443.813	97.69
444.034	94.69
444.255	97.69
444.476	84.69
444.698	69.69
444.919	107.69
445.14	143.69
445.361	119.69
445.582	118.69
445.803	122.69
446.024	117.69
446.245	115.69
446.466	116.69
446.687	96.69
446.908	86.69
447.129	78.69
447.35	77.69
447.571	85.69
447.792	87.69
448.013	80.69
448.234	79.69
448.455	98.69
448.675	114.69
448.896	112.69
449.117	90.69
449.338	108.69
449.559	125.69
449.779	120.69
450	86.69
450.221	100.69
450.442	80.69
450.662	92.69
450.883	90.69
451.104	97.69
451.324	101.69
451.545	96.69
451.766	65.69
451.986	83.69
452.207	87.69
452.428	91.69
452.648	85.69
452.869	104.69
453.089	106.69
453.31	108.69
453.53	103.69
453.751	93.69
453.971	95.69
454.192	103.69
454.412	92.69
454.633	81.69
454.853	85.69
455.073	86.69
455.294	93.69
455.514	91.69
455.734	86.69
455.955	94.69
456.175	91.69
456.395	72.69
456.616	93.69
456.836	86.69
457.056	90.69
457.276	91.69
457.497	93.69
457.717	88.69
457.937	85.69
458.157	74.69
458.377	81.69
458.598	94.69
458.818	111.69
459.038	131.69
459.258	108.69
459.478	105.69
459.698	87.69
459.918	91.69
460.138	84.69
460.358	99.69
460.578	91.69
460.798	99.69
461.018	90.69
461.238	77.69
461.458	87.69
461.678	75.69
461.898	95.69
462.118	80.69
462.338	92.69
462.558	91.69
462.777	81.69
462.997	92.69
463.217	68.69
463.437	92.69
463.657	89.69
463.876	95.69
464.096	96.69
464.316	92.69
464.536	85.69
464.755	92.69
464.975	98.69
465.195	139.69
465.414	140.69
465.634	88.69
465.854	100.69
466.073	76.69
466.293	96.69
466.512	79.69
466.732	87.69
466.951	85.69
467.171	72.69
467.391	95.69
467.61	101.69
467.829	83.69
468.049	88.69
468.268	84.69
468.488	84.69
468.707	101.69
468.927	93.69
469.146	83.69
469.365	89.69
469.585	98.69
469.804	95.69
470.023	89.69
470.243	89.69
470.462	99.69
470.681	91.69
470.901	92.69
471.12	84.69
471.339	89.69
471.558	97.69
471.777	84.69
471.997	90.69
472.216	87.69
472.435	102.69
472.654	98.69
472.873	97.69
473.092	82.69
473.311	83.69
473.53	82.69
473.749	88.69
473.968	108.69
474.187	102.69
474.406	89.69
474.625	89.69
474.844	85.69
475.063	91.69
475.282	97.69
475.501	91.69
475.72	92.69
475.939	84.69
476.158	86.69
476.377	90.69
476.596	82.69
476.814	87.69
477.033	88.69
477.252	91.69
477.471	73.69
477.69	95.69
477.908	92.69
478.127	98.69
478.346	101.69
478.564	81.69
478.783	98.69
479.002	84.69
479.22	82.69
479.439	97.69
479.658	97.69
479.876	81.69
480.095	97.69
480.313	81.69
480.532	76.69
480.751	96.69
480.969	96.69
481.188	114.69
481.406	103.69
481.624	91.69
481.843	99.69
482.061	86.69
482.28	95.69
482.498	95.69
482.717	95.69
482.935	91.69
483.153	94.69
483.372	92.69
483.59	87.69
483.808	90.69
484.027	94.69
484.245	98.69
484.463	88.69
484.681	89.69
484.9	84.69
485.118	103.69
485.336	95.69
485.554	107.69
485.772	109.69
485.99	103.69
486.209	108.69
486.427	103.69
486.645	90.69
486.863	114.69
487.081	105.69
487.299	93.69
487.517	83.69
487.735	95.69
487.953	106.69
488.171	95.69
488.389	87.69
488.607	114.69
488.825	93.69
489.043	92.69
489.261	94.69
489.479	105.69
489.696	95.69
489.914	73.69
490.132	87.69
490.35	79.69
490.568	103.69
490.786	81.69
491.003	82.69
491.221	86.69
491.439	80.69
491.657	91.69
491.874	79.69
492.092	98.69
492.31	88.69
492.527	90.69
492.745	91.69
492.963	90.69
493.18	89.69
493.398	87.69
493.615	99.69
493.833	94.69
494.05	96.69
494.268	87.69
494.485	87.69
494.703	98.69
494.92	93.69
495.138	85.69
495.355	104.69
495.573	100.69
495.79	79.69
496.008	86.69
496.225	84.69
496.442	91.69
496.66	103.69
496.877	89.69
497.094	83.69
497.312	97.69
497.529	89.69
497.746	92.69
497.963	96.69
498.181	98.69
498.398	102.69
498.615	117.69
498.832	105.69
499.049	90.69
499.267	91.69
499.484	91.69
499.701	102.69
499.918	75.69
500.135	72.69
500.352	94.69
500.569	91.69
500.786	93.69
501.003	96.69
501.22	98.69
501.437	107.69
501.654	97.69
501.871	104.69
502.088	103.69
502.305	96.69
502.522	91.69
502.739	85.69
502.956	93.69
503.172	104.69
503.389	109.69
503.606	89.69
503.823	93.69
504.04	87.69
504.256	88.69
504.473	90.69
504.69	82.69
504.907	107.69
505.123	98.69
505.34	94.69
505.557	82.69
505.773	98.69
505.99	101.69
506.207	83.69
506.423	100.69
506.64	82.69
506.856	92.69
507.073	88.69
507.289	95.69
507.506	96.69
507.722	108.69
507.939	105.69
508.155	97.69
508.372	105.69
508.588	93.69
508.805	82.69
509.021	90.69
509.238	86.69
509.454	88.69
509.67	98.69
509.887	86.69
510.103	105.69
510.319	186.69
510.536	588.69
510.752	1738.69
510.968	489.69
511.184	129.69
511.401	91.69
511.617	87.69
511.833	87.69
512.049	99.69
512.265	96.69
512.481	97.69
512.698	66.69
512.914	104.69
513.13	83.69
513.346	92.69
513.562	102.69
513.778	96.69
513.994	115.69
514.21	100.69
514.426	97.69
514.642	108.69
514.858	114.69
515.074	149.69
515.29	304.69
