Data from Circ_1985_H10_HRD10591_00002.txt Node
Date: Wed Jan 03 12:19:23 EST 2024
User: Yrep
Spectrometer: HR+D1059
Trigger mode: 1
Integration Time (sec): 1.000000E-1
Scans to average: 1
Electric dark correction enabled: true
Nonlinearity correction enabled: false
Boxcar width: 0
XAxis mode: Wavelengths
Number of Pixels in Spectrum: 2048
>>>>>Begin Spectral Data<<<<<
223.165	-21.88
223.4	-21.88
223.635	-21.88
223.869	-17.88
224.104	-10.88
224.338	-14.88
224.573	-2.88
224.808	-9.88
225.042	-13.88
225.277	8.12
225.511	-10.88
225.746	1.12
225.98	3.12
226.215	2.12
226.449	18.12
226.683	24.12
226.918	20.12
227.152	26.12
227.387	36.12
227.621	39.12
227.856	41.12
228.09	41.12
228.324	34.12
228.559	49.12
228.793	63.12
229.027	58.12
229.262	59.12
229.496	71.12
229.73	77.12
229.964	65.12
230.199	77.12
230.433	70.12
230.667	73.12
230.901	60.12
231.136	83.12
231.37	79.12
231.604	74.12
231.838	79.12
232.072	78.12
232.306	94.12
232.541	82.12
232.775	90.12
233.009	74.12
233.243	90.12
233.477	85.12
233.711	78.12
233.945	85.12
234.179	90.12
234.413	77.12
234.647	81.12
234.881	70.12
235.115	71.12
235.349	88.12
235.583	81.12
235.817	80.12
236.051	70.12
236.285	70.12
236.519	79.12
236.753	69.12
236.987	70.12
237.221	70.12
237.455	74.12
237.689	70.12
237.922	81.12
238.156	81.12
238.39	81.12
238.624	85.12
238.858	68.12
239.091	72.12
239.325	79.12
239.559	79.12
239.793	65.12
240.027	91.12
240.26	77.12
240.494	83.12
240.728	84.12
240.961	89.12
241.195	86.12
241.429	78.12
241.662	73.12
241.896	67.12
242.13	81.12
242.363	78.12
242.597	75.12
242.83	74.12
243.064	77.12
243.298	73.12
243.531	79.12
243.765	72.12
243.998	84.12
244.232	76.12
244.465	71.12
244.699	81.12
244.932	94.12
245.166	72.12
245.399	93.12
245.633	69.12
245.866	84.12
246.099	64.12
246.333	64.12
246.566	87.12
246.8	91.12
247.033	92.12
247.266	70.12
247.5	75.12
247.733	83.12
247.966	83.12
248.2	72.12
248.433	61.12
248.666	79.12
248.899	76.12
249.133	72.12
249.366	95.12
249.599	79.12
249.832	80.12
250.066	67.12
250.299	80.12
250.532	65.12
250.765	66.12
250.998	76.12
251.231	83.12
251.465	72.12
251.698	91.12
251.931	79.12
252.164	75.12
252.397	77.12
252.63	85.12
252.863	82.12
253.096	74.12
253.329	70.12
253.562	69.12
253.795	81.12
254.028	65.12
254.261	85.12
254.494	79.12
254.727	82.12
254.96	79.12
255.193	65.12
255.426	95.12
255.659	74.12
255.892	65.12
256.124	79.12
256.357	79.12
256.59	83.12
256.823	83.12
257.056	88.12
257.289	79.12
257.521	90.12
257.754	79.12
257.987	86.12
258.22	93.12
258.452	95.12
258.685	68.12
258.918	86.12
259.151	79.12
259.383	82.12
259.616	74.12
259.849	90.12
260.081	71.12
260.314	86.12
260.547	87.12
260.779	75.12
261.012	78.12
261.244	74.12
261.477	93.12
261.71	78.12
261.942	100.12
262.175	97.12
262.407	102.12
262.64	93.12
262.872	78.12
263.105	74.12
263.337	82.12
263.57	81.12
263.802	80.12
264.035	90.12
264.267	81.12
264.499	74.12
264.732	86.12
264.964	74.12
265.197	90.12
265.429	89.12
265.661	78.12
265.894	83.12
266.126	91.12
266.358	82.12
266.591	87.12
266.823	72.12
267.055	81.12
267.287	64.12
267.52	83.12
267.752	80.12
267.984	85.12
268.216	87.12
268.448	64.12
268.681	69.12
268.913	78.12
269.145	83.12
269.377	91.12
269.609	81.12
269.841	82.12
270.073	86.12
270.306	72.12
270.538	91.12
270.77	94.12
271.002	81.12
271.234	83.12
271.466	71.12
271.698	57.12
271.93	86.12
272.162	90.12
272.394	79.12
272.626	90.12
272.858	69.12
273.09	83.12
273.322	87.12
273.553	77.12
273.785	94.12
274.017	79.12
274.249	93.12
274.481	62.12
274.713	81.12
274.945	87.12
275.176	86.12
275.408	80.12
275.64	85.12
275.872	81.12
276.104	91.12
276.335	82.12
276.567	86.12
276.799	105.12
277.031	98.12
277.262	90.12
277.494	81.12
277.726	73.12
277.957	83.12
278.189	97.12
278.421	90.12
278.652	86.12
278.884	86.12
279.115	64.12
279.347	89.12
279.579	77.12
279.81	87.12
280.042	86.12
280.273	103.12
280.505	89.12
280.736	91.12
280.968	89.12
281.199	70.12
281.431	85.12
281.662	92.12
281.894	84.12
282.125	98.12
282.356	113.12
282.588	114.12
282.819	101.12
283.051	94.12
283.282	95.12
283.513	92.12
283.745	89.12
283.976	101.12
284.207	89.12
284.439	89.12
284.67	86.12
284.901	80.12
285.132	84.12
285.364	83.12
285.595	77.12
285.826	80.12
286.057	89.12
286.288	80.12
286.52	88.12
286.751	83.12
286.982	84.12
287.213	89.12
287.444	85.12
287.675	89.12
287.906	81.12
288.138	98.12
288.369	86.12
288.6	94.12
288.831	100.12
289.062	89.12
289.293	85.12
289.524	82.12
289.755	83.12
289.986	95.12
290.217	70.12
290.448	85.12
290.679	89.12
290.91	89.12
291.141	84.12
291.371	90.12
291.602	96.12
291.833	81.12
292.064	81.12
292.295	78.12
292.526	83.12
292.757	75.12
292.987	75.12
293.218	82.12
293.449	87.12
293.68	96.12
293.91	79.12
294.141	90.12
294.372	93.12
294.603	86.12
294.833	83.12
295.064	93.12
295.295	79.12
295.525	107.12
295.756	98.12
295.987	105.12
296.217	128.12
296.448	110.12
296.679	86.12
296.909	72.12
297.14	94.12
297.37	85.12
297.601	71.12
297.831	83.12
298.062	89.12
298.292	89.12
298.523	85.12
298.753	91.12
298.984	85.12
299.214	95.12
299.445	94.12
299.675	88.12
299.905	97.12
300.136	88.12
300.366	85.12
300.597	90.12
300.827	81.12
301.057	90.12
301.288	92.12
301.518	73.12
301.748	93.12
301.979	97.12
302.209	81.12
302.439	84.12
302.669	93.12
302.9	82.12
303.13	79.12
303.36	87.12
303.59	82.12
303.82	96.12
304.051	86.12
304.281	70.12
304.511	85.12
304.741	99.12
304.971	90.12
305.201	91.12
305.431	97.12
305.661	83.12
305.891	81.12
306.121	87.12
306.352	99.12
306.582	96.12
306.812	85.12
307.042	85.12
307.272	80.12
307.502	90.12
307.731	91.12
307.961	93.12
308.191	83.12
308.421	86.12
308.651	90.12
308.881	81.12
309.111	87.12
309.341	88.12
309.571	89.12
309.8	84.12
310.03	86.12
310.26	97.12
310.49	86.12
310.72	74.12
310.949	104.12
311.179	89.12
311.409	101.12
311.639	93.12
311.868	94.12
312.098	90.12
312.328	97.12
312.557	99.12
312.787	101.12
313.017	103.12
313.246	105.12
313.476	80.12
313.706	97.12
313.935	85.12
314.165	97.12
314.394	89.12
314.624	90.12
314.853	72.12
315.083	100.12
315.312	103.12
315.542	85.12
315.771	88.12
316.001	85.12
316.23	80.12
316.46	92.12
316.689	97.12
316.919	105.12
317.148	98.12
317.377	95.12
317.607	99.12
317.836	88.12
318.065	97.12
318.295	99.12
318.524	107.12
318.753	85.12
318.983	95.12
319.212	106.12
319.441	101.12
319.67	91.12
319.9	83.12
320.129	79.12
320.358	85.12
320.587	89.12
320.816	88.12
321.046	107.12
321.275	106.12
321.504	89.12
321.733	97.12
321.962	101.12
322.191	95.12
322.42	109.12
322.649	115.12
322.878	92.12
323.108	116.12
323.337	113.12
323.566	135.12
323.795	123.12
324.024	182.12
324.253	358.12
324.482	714.12
324.71	1505.12
324.939	2000.12
325.168	746.12
325.397	234.12
325.626	124.12
325.855	113.12
326.084	119.12
326.313	120.12
326.542	141.12
326.77	215.12
326.999	433.12
327.228	858.12
327.457	1571.12
327.686	1275.12
327.914	333.12
328.143	188.12
328.372	148.12
328.6	115.12
328.829	99.12
329.058	111.12
329.287	115.12
329.515	106.12
329.744	105.12
329.972	97.12
330.201	100.12
330.43	112.12
330.658	97.12
330.887	125.12
331.115	101.12
331.344	95.12
331.572	119.12
331.801	93.12
332.03	94.12
332.258	91.12
332.486	107.12
332.715	81.12
332.943	100.12
333.172	81.12
333.4	91.12
333.629	100.12
333.857	105.12
334.085	94.12
334.314	97.12
334.542	112.12
334.771	106.12
334.999	102.12
335.227	85.12
335.455	87.12
335.684	95.12
335.912	92.12
336.14	102.12
336.369	94.12
336.597	94.12
336.825	109.12
337.053	94.12
337.281	94.12
337.51	99.12
337.738	101.12
337.966	82.12
338.194	89.12
338.422	64.12
338.65	96.12
338.878	94.12
339.106	87.12
339.334	89.12
339.562	91.12
339.79	92.12
340.018	101.12
340.246	99.12
340.474	96.12
340.702	91.12
340.93	98.12
341.158	93.12
341.386	97.12
341.614	93.12
341.842	93.12
342.07	105.12
342.298	90.12
342.526	79.12
342.754	99.12
342.981	87.12
343.209	86.12
343.437	107.12
343.665	98.12
343.893	88.12
344.12	98.12
344.348	81.12
344.576	79.12
344.804	96.12
345.031	107.12
345.259	90.12
345.487	91.12
345.714	98.12
345.942	80.12
346.17	96.12
346.397	94.12
346.625	96.12
346.853	89.12
347.08	89.12
347.308	98.12
347.535	97.12
347.763	116.12
347.99	95.12
348.218	81.12
348.445	95.12
348.673	92.12
348.9	96.12
349.128	91.12
349.355	97.12
349.583	90.12
349.81	94.12
350.037	95.12
350.265	91.12
350.492	89.12
350.72	84.12
350.947	100.12
351.174	112.12
351.402	109.12
351.629	100.12
351.856	102.12
352.083	105.12
352.311	106.12
352.538	116.12
352.765	100.12
352.992	114.12
353.22	95.12
353.447	98.12
353.674	110.12
353.901	119.12
354.128	95.12
354.355	99.12
354.583	102.12
354.81	102.12
355.037	110.12
355.264	106.12
355.491	103.12
355.718	90.12
355.945	105.12
356.172	100.12
356.399	104.12
356.626	93.12
356.853	94.12
357.08	93.12
357.307	82.12
357.534	98.12
357.761	97.12
357.988	91.12
358.215	110.12
358.441	97.12
358.668	99.12
358.895	107.12
359.122	102.12
359.349	106.12
359.576	91.12
359.802	96.12
360.029	103.12
360.256	97.12
360.483	97.12
360.709	95.12
360.936	109.12
361.163	82.12
361.39	105.12
361.616	98.12
361.843	74.12
362.07	98.12
362.296	97.12
362.523	90.12
362.749	90.12
362.976	99.12
363.203	89.12
363.429	95.12
363.656	90.12
363.882	88.12
364.109	81.12
364.335	84.12
364.562	76.12
364.788	97.12
365.015	88.12
365.241	80.12
365.468	87.12
365.694	99.12
365.92	79.12
366.147	90.12
366.373	95.12
366.599	79.12
366.826	94.12
367.052	82.12
367.278	85.12
367.505	84.12
367.731	89.12
367.957	101.12
368.184	93.12
368.41	83.12
368.636	109.12
368.862	123.12
369.089	93.12
369.315	75.12
369.541	93.12
369.767	95.12
369.993	94.12
370.219	89.12
370.445	95.12
370.672	83.12
370.898	81.12
371.124	91.12
371.35	94.12
371.576	98.12
371.802	94.12
372.028	91.12
372.254	77.12
372.48	77.12
372.706	79.12
372.932	81.12
373.158	90.12
373.384	86.12
373.61	85.12
373.835	98.12
374.061	93.12
374.287	83.12
374.513	88.12
374.739	79.12
374.965	90.12
375.191	98.12
375.416	98.12
375.642	94.12
375.868	95.12
376.094	84.12
376.319	97.12
376.545	88.12
376.771	85.12
376.997	104.12
377.222	94.12
377.448	83.12
377.674	94.12
377.899	104.12
378.125	97.12
378.35	83.12
378.576	91.12
378.802	91.12
379.027	95.12
379.253	92.12
379.478	91.12
379.704	118.12
379.929	112.12
380.155	111.12
380.38	98.12
380.606	105.12
380.831	102.12
381.057	105.12
381.282	109.12
381.507	119.12
381.733	109.12
381.958	124.12
382.184	110.12
382.409	104.12
382.634	135.12
382.86	115.12
383.085	118.12
383.31	114.12
383.535	114.12
383.761	106.12
383.986	114.12
384.211	129.12
384.436	121.12
384.662	135.12
384.887	143.12
385.112	137.12
385.337	129.12
385.562	138.12
385.787	118.12
386.013	135.12
386.238	161.12
386.463	116.12
386.688	121.12
386.913	139.12
387.138	152.12
387.363	144.12
387.588	130.12
387.813	131.12
388.038	146.12
388.263	163.12
388.488	153.12
388.713	115.12
388.938	113.12
389.163	97.12
389.387	83.12
389.612	84.12
389.837	97.12
390.062	97.12
390.287	92.12
390.512	94.12
390.736	100.12
390.961	102.12
391.186	107.12
391.411	106.12
391.636	96.12
391.86	76.12
392.085	93.12
392.31	97.12
392.534	92.12
392.759	95.12
392.984	97.12
393.208	114.12
393.433	124.12
393.658	104.12
393.882	89.12
394.107	74.12
394.331	87.12
394.556	72.12
394.78	98.12
395.005	82.12
395.229	94.12
395.454	91.12
395.678	85.12
395.903	98.12
396.127	87.12
396.352	98.12
396.576	101.12
396.801	93.12
397.025	108.12
397.249	103.12
397.474	99.12
397.698	93.12
397.922	87.12
398.147	85.12
398.371	86.12
398.595	91.12
398.82	85.12
399.044	91.12
399.268	87.12
399.492	77.12
399.717	94.12
399.941	86.12
400.165	83.12
400.389	98.12
400.613	70.12
400.837	93.12
401.062	79.12
401.286	86.12
401.51	89.12
401.734	81.12
401.958	95.12
402.182	121.12
402.406	132.12
402.63	119.12
402.854	78.12
403.078	91.12
403.302	83.12
403.526	82.12
403.75	84.12
403.974	84.12
404.198	66.12
404.422	77.12
404.645	84.12
404.869	84.12
405.093	97.12
405.317	75.12
405.541	87.12
405.765	99.12
405.988	108.12
406.212	134.12
406.436	194.12
406.66	121.12
406.883	99.12
407.107	80.12
407.331	101.12
407.555	88.12
407.778	89.12
408.002	95.12
408.226	85.12
408.449	85.12
408.673	75.12
408.896	97.12
409.12	88.12
409.344	95.12
409.567	99.12
409.791	93.12
410.014	96.12
410.238	92.12
410.461	90.12
410.685	83.12
410.908	105.12
411.132	98.12
411.355	95.12
411.578	97.12
411.802	104.12
412.025	81.12
412.249	91.12
412.472	92.12
412.695	94.12
412.919	101.12
413.142	95.12
413.365	93.12
413.589	85.12
413.812	97.12
414.035	87.12
414.258	95.12
414.482	89.12
414.705	93.12
414.928	97.12
415.151	88.12
415.374	93.12
415.597	101.12
415.821	90.12
416.044	93.12
416.267	101.12
416.49	93.12
416.713	87.12
416.936	82.12
417.159	91.12
417.382	85.12
417.605	96.12
417.828	97.12
418.051	90.12
418.274	92.12
418.497	87.12
418.72	86.12
418.943	84.12
419.166	98.12
419.389	99.12
419.611	89.12
419.834	93.12
420.057	88.12
420.28	85.12
420.503	100.12
420.726	90.12
420.948	86.12
421.171	83.12
421.394	94.12
421.617	88.12
421.839	91.12
422.062	89.12
422.285	89.12
422.507	104.12
422.73	118.12
422.953	108.12
423.175	87.12
423.398	85.12
423.621	88.12
423.843	95.12
424.066	82.12
424.288	92.12
424.511	82.12
424.733	99.12
424.956	100.12
425.178	109.12
425.401	97.12
425.623	98.12
425.846	85.12
426.068	81.12
426.291	96.12
426.513	83.12
426.735	75.12
426.958	98.12
427.18	107.12
427.402	134.12
427.625	144.12
427.847	111.12
428.069	98.12
428.292	82.12
428.514	83.12
428.736	86.12
428.958	97.12
429.181	87.12
429.403	85.12
429.625	75.12
429.847	85.12
430.069	98.12
430.292	101.12
430.514	78.12
430.736	99.12
430.958	108.12
431.18	72.12
431.402	83.12
431.624	89.12
431.846	84.12
432.068	94.12
432.29	93.12
432.512	86.12
432.734	72.12
432.956	103.12
433.178	102.12
433.4	101.12
433.622	80.12
433.844	89.12
434.066	95.12
434.287	92.12
434.509	85.12
434.731	88.12
434.953	82.12
435.175	91.12
435.397	78.12
435.618	79.12
435.84	97.12
436.062	115.12
436.284	82.12
436.505	91.12
436.727	91.12
436.949	92.12
437.17	103.12
437.392	72.12
437.614	90.12
437.835	82.12
438.057	106.12
438.278	105.12
438.5	100.12
438.721	107.12
438.943	105.12
439.165	68.12
439.386	86.12
439.608	89.12
439.829	96.12
440.05	117.12
440.272	133.12
440.493	98.12
440.715	94.12
440.936	89.12
441.158	81.12
441.379	87.12
441.6	103.12
441.822	72.12
442.043	97.12
442.264	90.12
442.486	91.12
442.707	95.12
442.928	98.12
443.149	117.12
443.371	99.12
443.592	107.12
443.813	101.12
444.034	89.12
444.255	97.12
444.476	85.12
444.698	92.12
444.919	98.12
445.14	123.12
445.361	119.12
445.582	112.12
445.803	139.12
446.024	99.12
446.245	126.12
446.466	91.12
446.687	98.12
446.908	101.12
447.129	99.12
447.35	81.12
447.571	85.12
447.792	89.12
448.013	91.12
448.234	105.12
448.455	102.12
448.675	103.12
448.896	117.12
449.117	91.12
449.338	87.12
449.559	113.12
449.779	120.12
450	95.12
450.221	85.12
450.442	96.12
450.662	97.12
450.883	89.12
451.104	106.12
451.324	99.12
451.545	71.12
451.766	101.12
451.986	94.12
452.207	89.12
452.428	95.12
452.648	90.12
452.869	100.12
453.089	106.12
453.31	99.12
453.53	87.12
453.751	86.12
453.971	103.12
454.192	102.12
454.412	84.12
454.633	84.12
454.853	80.12
455.073	89.12
455.294	84.12
455.514	88.12
455.734	79.12
455.955	72.12
456.175	81.12
456.395	95.12
456.616	83.12
456.836	89.12
457.056	81.12
457.276	84.12
457.497	81.12
457.717	87.12
457.937	96.12
458.157	91.12
458.377	97.12
458.598	101.12
458.818	113.12
459.038	126.12
459.258	105.12
459.478	91.12
459.698	86.12
459.918	89.12
460.138	73.12
460.358	84.12
460.578	80.12
460.798	86.12
461.018	83.12
461.238	83.12
461.458	92.12
461.678	92.12
461.898	81.12
462.118	87.12
462.338	83.12
462.558	82.12
462.777	70.12
462.997	89.12
463.217	81.12
463.437	87.12
463.657	90.12
463.876	99.12
464.096	83.12
464.316	89.12
464.536	96.12
464.755	88.12
464.975	101.12
465.195	136.12
465.414	119.12
465.634	91.12
465.854	77.12
466.073	75.12
466.293	77.12
466.512	82.12
466.732	79.12
466.951	87.12
467.171	100.12
467.391	95.12
467.61	95.12
467.829	92.12
468.049	88.12
468.268	89.12
468.488	72.12
468.707	64.12
468.927	83.12
469.146	101.12
469.365	77.12
469.585	83.12
469.804	99.12
470.023	79.12
470.243	87.12
470.462	96.12
470.681	90.12
470.901	88.12
471.12	94.12
471.339	93.12
471.558	82.12
471.777	92.12
471.997	89.12
472.216	83.12
472.435	101.12
472.654	81.12
472.873	79.12
473.092	81.12
473.311	91.12
473.53	87.12
473.749	83.12
473.968	91.12
474.187	104.12
474.406	101.12
474.625	72.12
474.844	92.12
475.063	95.12
475.282	86.12
475.501	82.12
475.72	89.12
475.939	87.12
476.158	83.12
476.377	94.12
476.596	93.12
476.814	85.12
477.033	76.12
477.252	96.12
477.471	79.12
477.69	101.12
477.908	70.12
478.127	73.12
478.346	94.12
478.564	84.12
478.783	92.12
479.002	90.12
479.22	101.12
479.439	79.12
479.658	102.12
479.876	98.12
480.095	82.12
480.313	94.12
480.532	97.12
480.751	87.12
480.969	77.12
481.188	111.12
481.406	112.12
481.624	80.12
481.843	85.12
482.061	70.12
482.28	98.12
482.498	93.12
482.717	94.12
482.935	70.12
483.153	94.12
483.372	79.12
483.59	95.12
483.808	85.12
484.027	89.12
484.245	87.12
484.463	92.12
484.681	88.12
484.9	106.12
485.118	95.12
485.336	96.12
485.554	103.12
485.772	112.12
485.99	92.12
486.209	104.12
486.427	103.12
486.645	117.12
486.863	119.12
487.081	95.12
487.299	90.12
487.517	106.12
487.735	111.12
487.953	87.12
488.171	86.12
488.389	91.12
488.607	105.12
488.825	100.12
489.043	89.12
489.261	104.12
489.479	88.12
489.696	91.12
489.914	101.12
490.132	91.12
490.35	82.12
490.568	102.12
490.786	87.12
491.003	100.12
491.221	99.12
491.439	80.12
491.657	98.12
491.874	102.12
492.092	93.12
492.31	86.12
492.527	82.12
492.745	87.12
492.963	98.12
493.18	87.12
493.398	101.12
493.615	106.12
493.833	86.12
494.05	83.12
494.268	89.12
494.485	90.12
494.703	89.12
494.92	105.12
495.138	81.12
495.355	95.12
495.573	91.12
495.79	83.12
496.008	95.12
496.225	94.12
496.442	73.12
496.66	88.12
496.877	90.12
497.094	82.12
497.312	86.12
497.529	80.12
497.746	93.12
497.963	98.12
498.181	93.12
498.398	109.12
498.615	105.12
498.832	97.12
499.049	91.12
499.267	77.12
499.484	89.12
499.701	101.12
499.918	92.12
500.135	86.12
500.352	86.12
500.569	92.12
500.786	104.12
501.003	105.12
501.22	77.12
501.437	92.12
501.654	107.12
501.871	99.12
502.088	92.12
502.305	97.12
502.522	83.12
502.739	90.12
502.956	87.12
503.172	72.12
503.389	91.12
503.606	101.12
503.823	94.12
504.04	93.12
504.256	96.12
504.473	98.12
504.69	81.12
504.907	98.12
505.123	92.12
505.34	102.12
505.557	79.12
505.773	85.12
505.99	102.12
506.207	94.12
506.423	93.12
506.64	91.12
506.856	93.12
507.073	92.12
507.289	85.12
507.506	81.12
507.722	93.12
507.939	116.12
508.155	83.12
508.372	91.12
508.588	94.12
508.805	88.12
509.021	107.12
509.238	93.12
509.454	104.12
509.67	101.12
509.887	98.12
510.103	102.12
510.319	169.12
510.536	552.12
510.752	1640.12
510.968	465.12
511.184	137.12
511.401	99.12
511.617	78.12
511.833	87.12
512.049	92.12
512.265	87.12
512.481	77.12
512.698	83.12
512.914	74.12
513.13	89.12
513.346	80.12
513.562	82.12
513.778	91.12
513.994	82.12
514.21	94.12
514.426	112.12
514.642	115.12
514.858	122.12
515.074	143.12
515.29	318.12
515.506	982.12
515.721	400.12
515.937	125.12
516.153	97.12
