Data from Circ_1985_H10_HRD10591_00067.txt Node
Date: Wed Jan 03 12:19:36 EST 2024
User: Yrep
Spectrometer: HR+D1059
Trigger mode: 1
Integration Time (sec): 1.000000E-1
Scans to average: 1
Electric dark correction enabled: true
Nonlinearity correction enabled: false
Boxcar width: 0
XAxis mode: Wavelengths
Number of Pixels in Spectrum: 2048
>>>>>Begin Spectral Data<<<<<
223.165	-20.31
223.4	-20.31
223.635	-20.31
223.869	-13.31
224.104	-8.31
224.338	-18.31
224.573	-22.31
224.808	-11.31
225.042	-0.31
225.277	-8.31
225.511	-1.31
225.746	-3.31
225.98	4.69
226.215	33.69
226.449	0.69
226.683	9.69
226.918	24.69
227.152	33.69
227.387	26.69
227.621	29.69
227.856	38.69
228.09	41.69
228.324	51.69
228.559	48.69
228.793	65.69
229.027	59.69
229.262	69.69
229.496	81.69
229.73	77.69
229.964	69.69
230.199	78.69
230.433	64.69
230.667	77.69
230.901	65.69
231.136	85.69
231.37	73.69
231.604	81.69
231.838	67.69
232.072	78.69
232.306	67.69
232.541	66.69
232.775	88.69
233.009	89.69
233.243	75.69
233.477	72.69
233.711	83.69
233.945	85.69
234.179	91.69
234.413	70.69
234.647	71.69
234.881	75.69
235.115	69.69
235.349	72.69
235.583	79.69
235.817	81.69
236.051	82.69
236.285	57.69
236.519	73.69
236.753	72.69
236.987	83.69
237.221	90.69
237.455	88.69
237.689	70.69
237.922	80.69
238.156	79.69
238.39	70.69
238.624	82.69
238.858	67.69
239.091	82.69
239.325	74.69
239.559	74.69
239.793	74.69
240.027	83.69
240.26	71.69
240.494	71.69
240.728	78.69
240.961	65.69
241.195	79.69
241.429	68.69
241.662	70.69
241.896	77.69
242.13	68.69
242.363	67.69
242.597	78.69
242.83	82.69
243.064	79.69
243.298	79.69
243.531	81.69
243.765	102.69
243.998	86.69
244.232	85.69
244.465	77.69
244.699	78.69
244.932	75.69
245.166	86.69
245.399	81.69
245.633	84.69
245.866	75.69
246.099	63.69
246.333	79.69
246.566	72.69
246.8	65.69
247.033	96.69
247.266	81.69
247.5	67.69
247.733	77.69
247.966	81.69
248.2	88.69
248.433	81.69
248.666	78.69
248.899	85.69
249.133	86.69
249.366	92.69
249.599	105.69
249.832	87.69
250.066	79.69
250.299	64.69
250.532	69.69
250.765	77.69
250.998	71.69
251.231	78.69
251.465	80.69
251.698	82.69
251.931	73.69
252.164	69.69
252.397	81.69
252.63	69.69
252.863	67.69
253.096	103.69
253.329	89.69
253.562	79.69
253.795	77.69
254.028	84.69
254.261	88.69
254.494	67.69
254.727	86.69
254.96	87.69
255.193	87.69
255.426	90.69
255.659	77.69
255.892	78.69
256.124	78.69
256.357	83.69
256.59	73.69
256.823	90.69
257.056	83.69
257.289	74.69
257.521	66.69
257.754	77.69
257.987	86.69
258.22	80.69
258.452	78.69
258.685	79.69
258.918	78.69
259.151	69.69
259.383	77.69
259.616	85.69
259.849	83.69
260.081	95.69
260.314	83.69
260.547	85.69
260.779	56.69
261.012	77.69
261.244	89.69
261.477	81.69
261.71	74.69
261.942	97.69
262.175	110.69
262.407	95.69
262.64	85.69
262.872	81.69
263.105	78.69
263.337	81.69
263.57	77.69
263.802	90.69
264.035	77.69
264.267	86.69
264.499	71.69
264.732	78.69
264.964	74.69
265.197	83.69
265.429	87.69
265.661	86.69
265.894	89.69
266.126	88.69
266.358	81.69
266.591	79.69
266.823	91.69
267.055	70.69
267.287	73.69
267.52	88.69
267.752	83.69
267.984	89.69
268.216	82.69
268.448	88.69
268.681	77.69
268.913	88.69
269.145	71.69
269.377	85.69
269.609	85.69
269.841	96.69
270.073	70.69
270.306	89.69
270.538	81.69
270.77	90.69
271.002	90.69
271.234	85.69
271.466	75.69
271.698	72.69
271.93	81.69
272.162	85.69
272.394	79.69
272.626	71.69
272.858	76.69
273.09	69.69
273.322	86.69
273.553	78.69
273.785	89.69
274.017	97.69
274.249	89.69
274.481	82.69
274.713	81.69
274.945	83.69
275.176	87.69
275.408	83.69
275.64	105.69
275.872	70.69
276.104	97.69
276.335	91.69
276.567	93.69
276.799	101.69
277.031	94.69
277.262	95.69
277.494	101.69
277.726	99.69
277.957	68.69
278.189	88.69
278.421	80.69
278.652	84.69
278.884	87.69
279.115	86.69
279.347	88.69
279.579	98.69
279.81	75.69
280.042	91.69
280.273	95.69
280.505	90.69
280.736	80.69
280.968	82.69
281.199	79.69
281.431	83.69
281.662	82.69
281.894	90.69
282.125	93.69
282.356	94.69
282.588	135.69
282.819	115.69
283.051	89.69
283.282	77.69
283.513	70.69
283.745	94.69
283.976	75.69
284.207	92.69
284.439	91.69
284.67	83.69
284.901	83.69
285.132	96.69
285.364	84.69
285.595	84.69
285.826	79.69
286.057	105.69
286.288	92.69
286.52	89.69
286.751	79.69
286.982	73.69
287.213	77.69
287.444	81.69
287.675	88.69
287.906	98.69
288.138	89.69
288.369	89.69
288.6	95.69
288.831	90.69
289.062	78.69
289.293	95.69
289.524	81.69
289.755	80.69
289.986	86.69
290.217	73.69
290.448	96.69
290.679	88.69
290.91	100.69
291.141	97.69
291.371	85.69
291.602	79.69
291.833	82.69
292.064	94.69
292.295	90.69
292.526	86.69
292.757	80.69
292.987	75.69
293.218	81.69
293.449	93.69
293.68	72.69
293.91	84.69
294.141	98.69
294.372	90.69
294.603	78.69
294.833	98.69
295.064	88.69
295.295	89.69
295.525	84.69
295.756	88.69
295.987	96.69
296.217	120.69
296.448	113.69
296.679	83.69
296.909	73.69
297.14	88.69
297.37	87.69
297.601	93.69
297.831	77.69
298.062	75.69
298.292	92.69
298.523	95.69
298.753	74.69
298.984	89.69
299.214	93.69
299.445	87.69
299.675	89.69
299.905	97.69
300.136	88.69
300.366	90.69
300.597	90.69
300.827	96.69
301.057	93.69
301.288	101.69
301.518	83.69
301.748	89.69
301.979	90.69
302.209	85.69
302.439	91.69
302.669	83.69
302.9	79.69
303.13	85.69
303.36	91.69
303.59	94.69
303.82	119.69
304.051	81.69
304.281	91.69
304.511	97.69
304.741	96.69
304.971	82.69
305.201	85.69
305.431	76.69
305.661	80.69
305.891	89.69
306.121	99.69
306.352	93.69
306.582	91.69
306.812	91.69
307.042	73.69
307.272	84.69
307.502	98.69
307.731	94.69
307.961	98.69
308.191	82.69
308.421	94.69
308.651	94.69
308.881	90.69
309.111	89.69
309.341	82.69
309.571	81.69
309.8	87.69
310.03	78.69
310.26	107.69
310.49	94.69
310.72	101.69
310.949	89.69
311.179	104.69
311.409	82.69
311.639	85.69
311.868	94.69
312.098	89.69
312.328	103.69
312.557	89.69
312.787	99.69
313.017	91.69
313.246	88.69
313.476	82.69
313.706	104.69
313.935	74.69
314.165	81.69
314.394	101.69
314.624	93.69
314.853	83.69
315.083	96.69
315.312	86.69
315.542	91.69
315.771	89.69
316.001	99.69
316.23	80.69
316.46	87.69
316.689	95.69
316.919	80.69
317.148	89.69
317.377	82.69
317.607	92.69
317.836	85.69
318.065	90.69
318.295	71.69
318.524	85.69
318.753	96.69
318.983	95.69
319.212	100.69
319.441	99.69
319.67	94.69
319.9	102.69
320.129	116.69
320.358	94.69
320.587	104.69
320.816	105.69
321.046	87.69
321.275	95.69
321.504	96.69
321.733	87.69
321.962	100.69
322.191	85.69
322.42	90.69
322.649	96.69
322.878	111.69
323.108	115.69
323.337	107.69
323.566	129.69
323.795	142.69
324.024	187.69
324.253	339.69
324.482	746.69
324.71	1507.69
324.939	2000.69
325.168	742.69
325.397	222.69
325.626	130.69
325.855	121.69
326.084	124.69
326.313	120.69
326.542	145.69
326.77	213.69
326.999	427.69
327.228	858.69
327.457	1641.69
327.686	1284.69
327.914	344.69
328.143	175.69
328.372	143.69
328.6	127.69
328.829	106.69
329.058	110.69
329.287	117.69
329.515	105.69
329.744	102.69
329.972	104.69
330.201	115.69
330.43	149.69
330.658	113.69
330.887	124.69
331.115	110.69
331.344	109.69
331.572	84.69
331.801	90.69
332.03	90.69
332.258	94.69
332.486	88.69
332.715	79.69
332.943	93.69
333.172	84.69
333.4	97.69
333.629	100.69
333.857	106.69
334.085	90.69
334.314	121.69
334.542	138.69
334.771	139.69
334.999	94.69
335.227	93.69
335.455	100.69
335.684	88.69
335.912	88.69
336.14	98.69
336.369	101.69
336.597	104.69
336.825	99.69
337.053	92.69
337.281	90.69
337.51	103.69
337.738	90.69
337.966	102.69
338.194	94.69
338.422	80.69
338.65	96.69
338.878	99.69
339.106	98.69
339.334	97.69
339.562	95.69
339.79	81.69
340.018	73.69
340.246	91.69
340.474	95.69
340.702	105.69
340.93	87.69
341.158	81.69
341.386	91.69
341.614	88.69
341.842	86.69
342.07	92.69
342.298	86.69
342.526	97.69
342.754	97.69
342.981	78.69
343.209	96.69
343.437	104.69
343.665	90.69
343.893	78.69
344.12	78.69
344.348	95.69
344.576	91.69
344.804	106.69
345.031	92.69
345.259	75.69
345.487	75.69
345.714	98.69
345.942	85.69
346.17	87.69
346.397	95.69
346.625	94.69
346.853	91.69
347.08	100.69
347.308	86.69
347.535	88.69
347.763	94.69
347.99	99.69
348.218	85.69
348.445	94.69
348.673	96.69
348.9	86.69
349.128	94.69
349.355	90.69
349.583	91.69
349.81	87.69
350.037	107.69
350.265	97.69
350.492	90.69
350.72	83.69
350.947	89.69
351.174	97.69
351.402	87.69
351.629	96.69
351.856	113.69
352.083	102.69
352.311	94.69
352.538	112.69
352.765	103.69
352.992	117.69
353.22	111.69
353.447	91.69
353.674	91.69
353.901	85.69
354.128	98.69
354.355	99.69
354.583	93.69
354.81	101.69
355.037	89.69
355.264	93.69
355.491	89.69
355.718	85.69
355.945	81.69
356.172	93.69
356.399	80.69
356.626	106.69
356.853	93.69
357.08	78.69
357.307	85.69
357.534	80.69
357.761	83.69
357.988	97.69
358.215	107.69
358.441	80.69
358.668	99.69
358.895	84.69
359.122	98.69
359.349	97.69
359.576	90.69
359.802	101.69
360.029	111.69
360.256	109.69
360.483	86.69
360.709	79.69
360.936	82.69
361.163	101.69
361.39	79.69
361.616	85.69
361.843	83.69
362.07	85.69
362.296	82.69
362.523	93.69
362.749	78.69
362.976	98.69
363.203	94.69
363.429	80.69
363.656	97.69
363.882	93.69
364.109	93.69
364.335	96.69
364.562	84.69
364.788	70.69
365.015	97.69
365.241	104.69
365.468	98.69
365.694	107.69
365.92	76.69
366.147	89.69
366.373	90.69
366.599	97.69
366.826	84.69
367.052	83.69
367.278	87.69
367.505	79.69
367.731	88.69
367.957	89.69
368.184	89.69
368.41	104.69
368.636	111.69
368.862	117.69
369.089	101.69
369.315	95.69
369.541	77.69
369.767	81.69
369.993	88.69
370.219	77.69
370.445	95.69
370.672	72.69
370.898	94.69
371.124	86.69
371.35	87.69
371.576	90.69
371.802	94.69
372.028	85.69
372.254	86.69
372.48	84.69
372.706	88.69
372.932	90.69
373.158	82.69
373.384	98.69
373.61	83.69
373.835	101.69
374.061	93.69
374.287	97.69
374.513	98.69
374.739	89.69
374.965	84.69
375.191	86.69
375.416	89.69
375.642	109.69
375.868	95.69
376.094	93.69
376.319	89.69
376.545	90.69
376.771	71.69
376.997	83.69
377.222	95.69
377.448	102.69
377.674	91.69
377.899	88.69
378.125	89.69
378.35	82.69
378.576	94.69
378.802	100.69
379.027	98.69
379.253	95.69
379.478	90.69
379.704	72.69
379.929	93.69
380.155	89.69
380.38	93.69
380.606	90.69
380.831	88.69
381.057	103.69
381.282	99.69
381.507	91.69
381.733	101.69
381.958	86.69
382.184	99.69
382.409	95.69
382.634	105.69
382.86	106.69
383.085	93.69
383.31	98.69
383.535	96.69
383.761	100.69
383.986	106.69
384.211	98.69
384.436	110.69
384.662	102.69
384.887	102.69
385.112	106.69
385.337	115.69
385.562	112.69
385.787	101.69
386.013	100.69
386.238	103.69
386.463	102.69
386.688	105.69
386.913	112.69
387.138	106.69
387.363	96.69
387.588	115.69
387.813	93.69
388.038	99.69
388.263	109.69
388.488	106.69
388.713	98.69
388.938	99.69
389.163	88.69
389.387	101.69
389.612	91.69
389.837	95.69
390.062	87.69
390.287	94.69
390.512	98.69
390.736	81.69
390.961	89.69
391.186	95.69
391.411	86.69
391.636	89.69
391.86	86.69
392.085	97.69
392.31	75.69
392.534	82.69
392.759	81.69
392.984	89.69
393.208	89.69
393.433	94.69
393.658	87.69
393.882	94.69
394.107	86.69
394.331	70.69
394.556	88.69
394.78	82.69
395.005	86.69
395.229	99.69
395.454	87.69
395.678	77.69
395.903	70.69
396.127	93.69
396.352	107.69
396.576	90.69
396.801	95.69
397.025	91.69
397.249	83.69
397.474	79.69
397.698	90.69
397.922	82.69
398.147	79.69
398.371	78.69
398.595	77.69
398.82	93.69
399.044	92.69
399.268	84.69
399.492	81.69
399.717	85.69
399.941	83.69
400.165	95.69
400.389	84.69
400.613	83.69
400.837	86.69
401.062	79.69
401.286	90.69
401.51	77.69
401.734	103.69
401.958	92.69
402.182	117.69
402.406	142.69
402.63	96.69
402.854	79.69
403.078	91.69
403.302	80.69
403.526	92.69
403.75	96.69
403.974	74.69
404.198	80.69
404.422	87.69
404.645	95.69
404.869	97.69
405.093	86.69
405.317	111.69
405.541	85.69
405.765	94.69
405.988	106.69
406.212	147.69
406.436	170.69
406.66	120.69
406.883	103.69
407.107	103.69
407.331	91.69
407.555	93.69
407.778	95.69
408.002	70.69
408.226	96.69
408.449	89.69
408.673	81.69
408.896	105.69
409.12	90.69
409.344	98.69
409.567	80.69
409.791	93.69
410.014	87.69
410.238	74.69
410.461	88.69
410.685	108.69
410.908	99.69
411.132	100.69
411.355	103.69
411.578	90.69
411.802	94.69
412.025	88.69
412.249	83.69
412.472	94.69
412.695	115.69
412.919	81.69
413.142	81.69
413.365	87.69
413.589	85.69
413.812	80.69
414.035	88.69
414.258	99.69
414.482	93.69
414.705	97.69
414.928	101.69
415.151	86.69
415.374	94.69
415.597	68.69
415.821	80.69
416.044	87.69
416.267	87.69
416.49	84.69
416.713	96.69
416.936	99.69
417.159	80.69
417.382	90.69
417.605	97.69
417.828	98.69
418.051	89.69
418.274	86.69
418.497	93.69
418.72	90.69
418.943	72.69
419.166	78.69
419.389	89.69
419.611	102.69
419.834	85.69
420.057	80.69
420.28	89.69
420.503	89.69
420.726	79.69
420.948	85.69
421.171	101.69
421.394	83.69
421.617	83.69
421.839	80.69
422.062	92.69
422.285	98.69
422.507	87.69
422.73	105.69
422.953	91.69
423.175	71.69
423.398	81.69
423.621	97.69
423.843	86.69
424.066	98.69
424.288	90.69
424.511	90.69
424.733	86.69
424.956	99.69
425.178	98.69
425.401	103.69
425.623	93.69
425.846	102.69
426.068	95.69
426.291	71.69
426.513	81.69
426.735	79.69
426.958	90.69
427.18	88.69
427.402	128.69
427.625	142.69
427.847	130.69
428.069	111.69
428.292	87.69
428.514	88.69
428.736	93.69
428.958	65.69
429.181	77.69
429.403	69.69
429.625	88.69
429.847	86.69
430.069	75.69
430.292	83.69
430.514	87.69
430.736	67.69
430.958	97.69
431.18	67.69
431.402	78.69
431.624	88.69
431.846	85.69
432.068	87.69
432.29	83.69
432.512	83.69
432.734	104.69
432.956	90.69
433.178	86.69
433.4	87.69
433.622	78.69
433.844	84.69
434.066	86.69
434.287	85.69
434.509	89.69
434.731	87.69
434.953	78.69
435.175	77.69
435.397	78.69
435.618	81.69
435.84	105.69
436.062	116.69
436.284	102.69
436.505	98.69
436.727	86.69
436.949	90.69
437.17	77.69
437.392	73.69
437.614	82.69
437.835	102.69
438.057	97.69
438.278	103.69
438.5	95.69
438.721	112.69
438.943	93.69
439.165	96.69
439.386	100.69
439.608	96.69
439.829	86.69
440.05	106.69
440.272	115.69
440.493	82.69
440.715	100.69
440.936	83.69
441.158	93.69
441.379	87.69
441.6	93.69
441.822	102.69
442.043	86.69
442.264	98.69
442.486	91.69
442.707	89.69
442.928	105.69
443.149	130.69
443.371	116.69
443.592	107.69
443.813	108.69
444.034	98.69
444.255	93.69
444.476	87.69
444.698	83.69
444.919	78.69
445.14	139.69
445.361	113.69
445.582	125.69
445.803	126.69
446.024	113.69
446.245	130.69
446.466	110.69
446.687	86.69
446.908	88.69
447.129	95.69
447.35	87.69
447.571	86.69
447.792	98.69
448.013	88.69
448.234	108.69
448.455	89.69
448.675	78.69
448.896	105.69
449.117	85.69
449.338	91.69
449.559	119.69
449.779	120.69
450	104.69
450.221	87.69
450.442	105.69
450.662	96.69
450.883	99.69
451.104	99.69
451.324	105.69
451.545	86.69
451.766	87.69
451.986	84.69
452.207	68.69
452.428	81.69
452.648	86.69
452.869	107.69
453.089	102.69
453.31	103.69
453.53	106.69
453.751	86.69
453.971	93.69
454.192	99.69
454.412	86.69
454.633	98.69
454.853	83.69
455.073	89.69
455.294	83.69
455.514	94.69
455.734	93.69
455.955	79.69
456.175	82.69
456.395	83.69
456.616	90.69
456.836	80.69
457.056	86.69
457.276	91.69
457.497	73.69
457.717	74.69
457.937	62.69
458.157	93.69
458.377	90.69
458.598	96.69
458.818	123.69
459.038	135.69
459.258	107.69
459.478	95.69
459.698	98.69
459.918	84.69
460.138	88.69
460.358	84.69
460.578	79.69
460.798	104.69
461.018	79.69
461.238	81.69
461.458	81.69
461.678	85.69
461.898	96.69
462.118	75.69
462.338	79.69
462.558	88.69
462.777	75.69
462.997	81.69
463.217	89.69
463.437	84.69
463.657	92.69
463.876	80.69
464.096	78.69
464.316	83.69
464.536	94.69
464.755	87.69
464.975	106.69
465.195	145.69
465.414	145.69
465.634	96.69
465.854	90.69
466.073	91.69
466.293	86.69
466.512	93.69
466.732	87.69
466.951	94.69
467.171	83.69
467.391	87.69
467.61	106.69
467.829	91.69
468.049	97.69
468.268	103.69
468.488	95.69
468.707	85.69
468.927	106.69
469.146	93.69
469.365	81.69
469.585	90.69
469.804	88.69
470.023	74.69
470.243	75.69
470.462	91.69
470.681	104.69
470.901	96.69
471.12	99.69
471.339	90.69
471.558	100.69
471.777	90.69
471.997	92.69
472.216	130.69
472.435	157.69
472.654	107.69
472.873	70.69
473.092	106.69
473.311	87.69
473.53	83.69
473.749	78.69
473.968	104.69
474.187	103.69
474.406	98.69
474.625	87.69
474.844	85.69
475.063	88.69
475.282	83.69
475.501	87.69
475.72	84.69
475.939	87.69
476.158	111.69
476.377	88.69
476.596	75.69
476.814	88.69
477.033	89.69
477.252	78.69
477.471	75.69
477.69	83.69
477.908	87.69
478.127	96.69
478.346	99.69
478.564	80.69
478.783	95.69
479.002	96.69
479.22	82.69
479.439	97.69
479.658	105.69
479.876	88.69
480.095	93.69
480.313	101.69
480.532	98.69
480.751	107.69
480.969	116.69
481.188	258.69
481.406	195.69
481.624	112.69
481.843	97.69
482.061	72.69
482.28	80.69
482.498	87.69
482.717	93.69
482.935	90.69
483.153	80.69
483.372	88.69
483.59	95.69
483.808	76.69
484.027	91.69
484.245	98.69
484.463	102.69
484.681	95.69
484.9	90.69
485.118	93.69
485.336	85.69
485.554	101.69
485.772	88.69
485.99	103.69
486.209	112.69
486.427	111.69
486.645	122.69
486.863	107.69
487.081	100.69
487.299	85.69
487.517	91.69
487.735	83.69
487.953	100.69
488.171	89.69
488.389	86.69
488.607	84.69
488.825	96.69
489.043	81.69
489.261	83.69
489.479	69.69
489.696	85.69
489.914	92.69
490.132	88.69
490.35	93.69
490.568	85.69
490.786	84.69
491.003	99.69
491.221	72.69
491.439	97.69
491.657	90.69
491.874	81.69
492.092	97.69
492.31	103.69
492.527	83.69
492.745	99.69
492.963	87.69
493.18	87.69
493.398	91.69
493.615	101.69
493.833	103.69
494.05	79.69
494.268	92.69
494.485	84.69
494.703	90.69
494.92	87.69
495.138	82.69
495.355	88.69
495.573	99.69
495.79	68.69
496.008	73.69
496.225	104.69
496.442	84.69
496.66	94.69
496.877	89.69
497.094	87.69
497.312	70.69
497.529	90.69
497.746	85.69
497.963	90.69
498.181	93.69
498.398	99.69
498.615	117.69
498.832	106.69
499.049	80.69
499.267	102.69
499.484	85.69
499.701	85.69
499.918	98.69
500.135	80.69
500.352	89.69
500.569	95.69
500.786	102.69
501.003	93.69
501.22	85.69
501.437	82.69
501.654	96.69
501.871	107.69
502.088	91.69
502.305	95.69
502.522	76.69
502.739	97.69
502.956	95.69
503.172	81.69
503.389	90.69
503.606	101.69
503.823	93.69
504.04	96.69
504.256	90.69
504.473	88.69
504.69	105.69
504.907	94.69
505.123	87.69
505.34	79.69
505.557	84.69
505.773	89.69
505.99	86.69
506.207	86.69
506.423	82.69
506.64	85.69
506.856	101.69
507.073	94.69
507.289	81.69
507.506	111.69
507.722	104.69
507.939	105.69
508.155	86.69
508.372	88.69
508.588	99.69
508.805	79.69
509.021	85.69
509.238	81.69
509.454	86.69
509.67	96.69
509.887	110.69
510.103	127.69
510.319	199.69
510.536	629.69
510.752	1893.69
510.968	533.69
511.184	137.69
511.401	108.69
511.617	79.69
511.833	90.69
512.049	81.69
512.265	90.69
512.481	82.69
512.698	82.69
512.914	99.69
513.13	90.69
513.346	95.69
513.562	87.69
513.778	91.69
513.994	92.69
514.21	95.69
514.426	112.69
514.642	112.69
514.858	113.69
515.074	136.69
515.29	366.69
515.506	1105.69
515.721	431.69
515.937	153.69
516.153	108.69
516.369	93.69
516.585	97.69
