Data from Circ_1985_H10_HRD10591_00064.txt Node
Date: Wed Jan 03 12:19:35 EST 2024
User: Yrep
Spectrometer: HR+D1059
Trigger mode: 1
Integration Time (sec): 1.000000E-1
Scans to average: 1
Electric dark correction enabled: true
Nonlinearity correction enabled: false
Boxcar width: 0
XAxis mode: Wavelengths
Number of Pixels in Spectrum: 2048
>>>>>Begin Spectral Data<<<<<
223.165	-15.69
223.4	-15.69
223.635	-15.69
223.869	-14.69
224.104	-20.69
224.338	-11.69
224.573	-16.69
224.808	-11.69
225.042	-4.69
225.277	-0.69
225.511	-6.69
225.746	6.31
225.98	0.31
226.215	12.31
226.449	16.31
226.683	15.31
226.918	13.31
227.152	39.31
227.387	37.31
227.621	42.31
227.856	55.31
228.09	52.31
228.324	50.31
228.559	56.31
228.793	57.31
229.027	66.31
229.262	80.31
229.496	61.31
229.73	77.31
229.964	70.31
230.199	74.31
230.433	78.31
230.667	71.31
230.901	67.31
231.136	75.31
231.37	80.31
231.604	60.31
231.838	80.31
232.072	55.31
232.306	71.31
232.541	67.31
232.775	81.31
233.009	81.31
233.243	69.31
233.477	73.31
233.711	81.31
233.945	89.31
234.179	77.31
234.413	83.31
234.647	76.31
234.881	63.31
235.115	94.31
235.349	84.31
235.583	89.31
235.817	77.31
236.051	76.31
236.285	75.31
236.519	77.31
236.753	80.31
236.987	83.31
237.221	70.31
237.455	74.31
237.689	63.31
237.922	68.31
238.156	73.31
238.39	72.31
238.624	69.31
238.858	71.31
239.091	66.31
239.325	81.31
239.559	81.31
239.793	76.31
240.027	72.31
240.26	69.31
240.494	81.31
240.728	79.31
240.961	77.31
241.195	97.31
241.429	77.31
241.662	74.31
241.896	76.31
242.13	77.31
242.363	75.31
242.597	74.31
242.83	81.31
243.064	83.31
243.298	74.31
243.531	71.31
243.765	76.31
243.998	79.31
244.232	77.31
244.465	87.31
244.699	86.31
244.932	86.31
245.166	67.31
245.399	85.31
245.633	71.31
245.866	76.31
246.099	64.31
246.333	73.31
246.566	68.31
246.8	88.31
247.033	84.31
247.266	77.31
247.5	67.31
247.733	81.31
247.966	75.31
248.2	76.31
248.433	80.31
248.666	86.31
248.899	85.31
249.133	84.31
249.366	106.31
249.599	94.31
249.832	76.31
250.066	80.31
250.299	85.31
250.532	66.31
250.765	81.31
250.998	85.31
251.231	80.31
251.465	75.31
251.698	81.31
251.931	84.31
252.164	82.31
252.397	79.31
252.63	81.31
252.863	86.31
253.096	73.31
253.329	84.31
253.562	85.31
253.795	73.31
254.028	87.31
254.261	81.31
254.494	82.31
254.727	68.31
254.96	90.31
255.193	92.31
255.426	81.31
255.659	72.31
255.892	83.31
256.124	88.31
256.357	86.31
256.59	74.31
256.823	84.31
257.056	70.31
257.289	83.31
257.521	68.31
257.754	74.31
257.987	82.31
258.22	92.31
258.452	79.31
258.685	85.31
258.918	86.31
259.151	71.31
259.383	75.31
259.616	79.31
259.849	80.31
260.081	99.31
260.314	69.31
260.547	84.31
260.779	82.31
261.012	85.31
261.244	72.31
261.477	78.31
261.71	89.31
261.942	102.31
262.175	104.31
262.407	89.31
262.64	83.31
262.872	83.31
263.105	79.31
263.337	79.31
263.57	92.31
263.802	88.31
264.035	80.31
264.267	88.31
264.499	77.31
264.732	68.31
264.964	84.31
265.197	85.31
265.429	77.31
265.661	82.31
265.894	67.31
266.126	97.31
266.358	82.31
266.591	80.31
266.823	83.31
267.055	90.31
267.287	98.31
267.52	83.31
267.752	85.31
267.984	77.31
268.216	93.31
268.448	93.31
268.681	84.31
268.913	89.31
269.145	83.31
269.377	80.31
269.609	85.31
269.841	74.31
270.073	88.31
270.306	72.31
270.538	71.31
270.77	88.31
271.002	83.31
271.234	85.31
271.466	93.31
271.698	87.31
271.93	83.31
272.162	88.31
272.394	83.31
272.626	59.31
272.858	70.31
273.09	85.31
273.322	97.31
273.553	88.31
273.785	85.31
274.017	82.31
274.249	81.31
274.481	81.31
274.713	88.31
274.945	83.31
275.176	87.31
275.408	84.31
275.64	92.31
275.872	81.31
276.104	102.31
276.335	81.31
276.567	92.31
276.799	90.31
277.031	94.31
277.262	76.31
277.494	87.31
277.726	89.31
277.957	88.31
278.189	79.31
278.421	81.31
278.652	90.31
278.884	92.31
279.115	81.31
279.347	79.31
279.579	87.31
279.81	87.31
280.042	84.31
280.273	81.31
280.505	68.31
280.736	84.31
280.968	69.31
281.199	86.31
281.431	91.31
281.662	95.31
281.894	74.31
282.125	95.31
282.356	114.31
282.588	129.31
282.819	119.31
283.051	88.31
283.282	92.31
283.513	93.31
283.745	88.31
283.976	90.31
284.207	83.31
284.439	97.31
284.67	90.31
284.901	86.31
285.132	79.31
285.364	88.31
285.595	89.31
285.826	80.31
286.057	80.31
286.288	97.31
286.52	76.31
286.751	91.31
286.982	79.31
287.213	90.31
287.444	96.31
287.675	74.31
287.906	101.31
288.138	91.31
288.369	92.31
288.6	90.31
288.831	84.31
289.062	90.31
289.293	92.31
289.524	90.31
289.755	98.31
289.986	90.31
290.217	88.31
290.448	75.31
290.679	92.31
290.91	92.31
291.141	94.31
291.371	84.31
291.602	81.31
291.833	90.31
292.064	94.31
292.295	67.31
292.526	100.31
292.757	99.31
292.987	77.31
293.218	81.31
293.449	77.31
293.68	91.31
293.91	97.31
294.141	105.31
294.372	86.31
294.603	81.31
294.833	90.31
295.064	82.31
295.295	85.31
295.525	86.31
295.756	97.31
295.987	115.31
296.217	122.31
296.448	105.31
296.679	98.31
296.909	97.31
297.14	93.31
297.37	99.31
297.601	92.31
297.831	82.31
298.062	83.31
298.292	89.31
298.523	76.31
298.753	79.31
298.984	90.31
299.214	66.31
299.445	92.31
299.675	91.31
299.905	95.31
300.136	100.31
300.366	84.31
300.597	90.31
300.827	97.31
301.057	117.31
301.288	99.31
301.518	84.31
301.748	87.31
301.979	101.31
302.209	87.31
302.439	92.31
302.669	95.31
302.9	88.31
303.13	93.31
303.36	91.31
303.59	106.31
303.82	83.31
304.051	91.31
304.281	114.31
304.511	95.31
304.741	79.31
304.971	87.31
305.201	83.31
305.431	82.31
305.661	85.31
305.891	87.31
306.121	90.31
306.352	99.31
306.582	108.31
306.812	93.31
307.042	88.31
307.272	91.31
307.502	87.31
307.731	85.31
307.961	87.31
308.191	94.31
308.421	90.31
308.651	101.31
308.881	92.31
309.111	92.31
309.341	76.31
309.571	89.31
309.8	82.31
310.03	103.31
310.26	83.31
310.49	93.31
310.72	100.31
310.949	91.31
311.179	85.31
311.409	82.31
311.639	88.31
311.868	78.31
312.098	101.31
312.328	91.31
312.557	105.31
312.787	113.31
313.017	106.31
313.246	83.31
313.476	96.31
313.706	93.31
313.935	93.31
314.165	104.31
314.394	85.31
314.624	97.31
314.853	98.31
315.083	83.31
315.312	94.31
315.542	99.31
315.771	98.31
316.001	88.31
316.23	91.31
316.46	91.31
316.689	87.31
316.919	109.31
317.148	89.31
317.377	90.31
317.607	99.31
317.836	95.31
318.065	106.31
318.295	85.31
318.524	92.31
318.753	90.31
318.983	98.31
319.212	96.31
319.441	104.31
319.67	93.31
319.9	94.31
320.129	90.31
320.358	100.31
320.587	98.31
320.816	99.31
321.046	104.31
321.275	89.31
321.504	89.31
321.733	88.31
321.962	95.31
322.191	101.31
322.42	92.31
322.649	103.31
322.878	100.31
323.108	122.31
323.337	128.31
323.566	115.31
323.795	144.31
324.024	191.31
324.253	337.31
324.482	717.31
324.71	1430.31
324.939	1864.31
325.168	689.31
325.397	227.31
325.626	153.31
325.855	119.31
326.084	123.31
326.313	123.31
326.542	143.31
326.77	200.31
326.999	385.31
327.228	836.31
327.457	1496.31
327.686	1189.31
327.914	348.31
328.143	177.31
328.372	137.31
328.6	107.31
328.829	116.31
329.058	126.31
329.287	110.31
329.515	102.31
329.744	99.31
329.972	109.31
330.201	122.31
330.43	124.31
330.658	124.31
330.887	116.31
331.115	104.31
331.344	92.31
331.572	108.31
331.801	96.31
332.03	87.31
332.258	88.31
332.486	108.31
332.715	96.31
332.943	91.31
333.172	91.31
333.4	102.31
333.629	96.31
333.857	113.31
334.085	113.31
334.314	87.31
334.542	143.31
334.771	120.31
334.999	95.31
335.227	96.31
335.455	89.31
335.684	97.31
335.912	104.31
336.14	103.31
336.369	87.31
336.597	98.31
336.825	93.31
337.053	94.31
337.281	83.31
337.51	104.31
337.738	99.31
337.966	89.31
338.194	76.31
338.422	103.31
338.65	97.31
338.878	96.31
339.106	97.31
339.334	103.31
339.562	93.31
339.79	71.31
340.018	90.31
340.246	91.31
340.474	108.31
340.702	85.31
340.93	90.31
341.158	83.31
341.386	91.31
341.614	93.31
341.842	88.31
342.07	82.31
342.298	91.31
342.526	95.31
342.754	98.31
342.981	93.31
343.209	86.31
343.437	107.31
343.665	91.31
343.893	101.31
344.12	94.31
344.348	95.31
344.576	85.31
344.804	93.31
345.031	105.31
345.259	97.31
345.487	93.31
345.714	83.31
345.942	88.31
346.17	98.31
346.397	90.31
346.625	70.31
346.853	88.31
347.08	83.31
347.308	103.31
347.535	105.31
347.763	99.31
347.99	91.31
348.218	93.31
348.445	109.31
348.673	95.31
348.9	113.31
349.128	97.31
349.355	92.31
349.583	101.31
349.81	90.31
350.037	94.31
350.265	95.31
350.492	110.31
350.72	87.31
350.947	103.31
351.174	112.31
351.402	108.31
351.629	113.31
351.856	92.31
352.083	101.31
352.311	108.31
352.538	110.31
352.765	97.31
352.992	116.31
353.22	110.31
353.447	96.31
353.674	105.31
353.901	96.31
354.128	96.31
354.355	104.31
354.583	97.31
354.81	106.31
355.037	105.31
355.264	102.31
355.491	102.31
355.718	92.31
355.945	90.31
356.172	84.31
356.399	93.31
356.626	89.31
356.853	90.31
357.08	98.31
357.307	92.31
357.534	91.31
357.761	85.31
357.988	111.31
358.215	105.31
358.441	95.31
358.668	103.31
358.895	83.31
359.122	91.31
359.349	90.31
359.576	88.31
359.802	97.31
360.029	105.31
360.256	98.31
360.483	104.31
360.709	89.31
360.936	84.31
361.163	70.31
361.39	99.31
361.616	92.31
361.843	95.31
362.07	97.31
362.296	114.31
362.523	95.31
362.749	70.31
362.976	90.31
363.203	100.31
363.429	87.31
363.656	90.31
363.882	88.31
364.109	89.31
364.335	88.31
364.562	86.31
364.788	82.31
365.015	107.31
365.241	110.31
365.468	100.31
365.694	91.31
365.92	104.31
366.147	90.31
366.373	91.31
366.599	89.31
366.826	98.31
367.052	87.31
367.278	98.31
367.505	92.31
367.731	92.31
367.957	84.31
368.184	95.31
368.41	96.31
368.636	103.31
368.862	121.31
369.089	111.31
369.315	97.31
369.541	95.31
369.767	86.31
369.993	87.31
370.219	86.31
370.445	96.31
370.672	83.31
370.898	93.31
371.124	89.31
371.35	89.31
371.576	90.31
371.802	96.31
372.028	83.31
372.254	91.31
372.48	76.31
372.706	92.31
372.932	88.31
373.158	95.31
373.384	94.31
373.61	85.31
373.835	99.31
374.061	89.31
374.287	91.31
374.513	102.31
374.739	109.31
374.965	103.31
375.191	103.31
375.416	93.31
375.642	80.31
375.868	89.31
376.094	85.31
376.319	79.31
376.545	90.31
376.771	84.31
376.997	99.31
377.222	88.31
377.448	105.31
377.674	92.31
377.899	89.31
378.125	79.31
378.35	101.31
378.576	109.31
378.802	95.31
379.027	96.31
379.253	87.31
379.478	89.31
379.704	97.31
379.929	88.31
380.155	88.31
380.38	99.31
380.606	87.31
380.831	105.31
381.057	107.31
381.282	89.31
381.507	90.31
381.733	84.31
381.958	100.31
382.184	89.31
382.409	114.31
382.634	99.31
382.86	100.31
383.085	88.31
383.31	100.31
383.535	96.31
383.761	90.31
383.986	95.31
384.211	91.31
384.436	82.31
384.662	105.31
384.887	95.31
385.112	102.31
385.337	104.31
385.562	100.31
385.787	115.31
386.013	111.31
386.238	120.31
386.463	105.31
386.688	106.31
386.913	109.31
387.138	92.31
387.363	94.31
387.588	90.31
387.813	100.31
388.038	102.31
388.263	106.31
388.488	120.31
388.713	88.31
388.938	86.31
389.163	85.31
389.387	102.31
389.612	95.31
389.837	98.31
390.062	101.31
390.287	87.31
390.512	91.31
390.736	93.31
390.961	85.31
391.186	93.31
391.411	95.31
391.636	88.31
391.86	96.31
392.085	82.31
392.31	93.31
392.534	89.31
392.759	89.31
392.984	89.31
393.208	99.31
393.433	93.31
393.658	96.31
393.882	104.31
394.107	68.31
394.331	98.31
394.556	84.31
394.78	96.31
395.005	91.31
395.229	85.31
395.454	104.31
395.678	85.31
395.903	93.31
396.127	99.31
396.352	87.31
396.576	96.31
396.801	85.31
397.025	98.31
397.249	70.31
397.474	91.31
397.698	92.31
397.922	83.31
398.147	84.31
398.371	92.31
398.595	92.31
398.82	93.31
399.044	85.31
399.268	88.31
399.492	101.31
399.717	88.31
399.941	81.31
400.165	90.31
400.389	85.31
400.613	92.31
400.837	98.31
401.062	81.31
401.286	91.31
401.51	92.31
401.734	82.31
401.958	89.31
402.182	115.31
402.406	120.31
402.63	99.31
402.854	85.31
403.078	96.31
403.302	84.31
403.526	88.31
403.75	99.31
403.974	83.31
404.198	106.31
404.422	92.31
404.645	86.31
404.869	79.31
405.093	86.31
405.317	74.31
405.541	109.31
405.765	93.31
405.988	102.31
406.212	144.31
406.436	190.31
406.66	127.31
406.883	94.31
407.107	97.31
407.331	98.31
407.555	85.31
407.778	105.31
408.002	89.31
408.226	90.31
408.449	99.31
408.673	80.31
408.896	86.31
409.12	99.31
409.344	89.31
409.567	83.31
409.791	92.31
410.014	96.31
410.238	94.31
410.461	103.31
410.685	107.31
410.908	104.31
411.132	103.31
411.355	101.31
411.578	100.31
411.802	75.31
412.025	94.31
412.249	91.31
412.472	96.31
412.695	93.31
412.919	89.31
413.142	83.31
413.365	92.31
413.589	95.31
413.812	84.31
414.035	97.31
414.258	93.31
414.482	99.31
414.705	92.31
414.928	93.31
415.151	88.31
415.374	89.31
415.597	92.31
415.821	91.31
416.044	92.31
416.267	93.31
416.49	84.31
416.713	88.31
416.936	79.31
417.159	78.31
417.382	87.31
417.605	107.31
417.828	83.31
418.051	89.31
418.274	87.31
418.497	79.31
418.72	90.31
418.943	81.31
419.166	77.31
419.389	85.31
419.611	79.31
419.834	91.31
420.057	109.31
420.28	90.31
420.503	97.31
420.726	97.31
420.948	88.31
421.171	88.31
421.394	111.31
421.617	97.31
421.839	94.31
422.062	94.31
422.285	81.31
422.507	94.31
422.73	97.31
422.953	84.31
423.175	91.31
423.398	93.31
423.621	98.31
423.843	82.31
424.066	92.31
424.288	81.31
424.511	106.31
424.733	96.31
424.956	95.31
425.178	114.31
425.401	94.31
425.623	105.31
425.846	69.31
426.068	82.31
426.291	95.31
426.513	87.31
426.735	94.31
426.958	84.31
427.18	100.31
427.402	126.31
427.625	127.31
427.847	124.31
428.069	111.31
428.292	89.31
428.514	88.31
428.736	91.31
428.958	97.31
429.181	84.31
429.403	83.31
429.625	93.31
429.847	97.31
430.069	90.31
430.292	96.31
430.514	83.31
430.736	81.31
430.958	86.31
431.18	97.31
431.402	85.31
431.624	89.31
431.846	81.31
432.068	92.31
432.29	101.31
432.512	95.31
432.734	89.31
432.956	84.31
433.178	95.31
433.4	96.31
433.622	101.31
433.844	97.31
434.066	93.31
434.287	86.31
434.509	75.31
434.731	99.31
434.953	90.31
435.175	87.31
435.397	85.31
435.618	92.31
435.84	97.31
436.062	121.31
436.284	101.31
436.505	94.31
436.727	93.31
436.949	91.31
437.17	88.31
437.392	85.31
437.614	96.31
437.835	95.31
438.057	109.31
438.278	116.31
438.5	99.31
438.721	114.31
438.943	94.31
439.165	79.31
439.386	86.31
439.608	92.31
439.829	80.31
440.05	114.31
440.272	125.31
440.493	107.31
440.715	77.31
440.936	82.31
441.158	106.31
441.379	81.31
441.6	74.31
441.822	71.31
442.043	101.31
442.264	107.31
442.486	103.31
442.707	88.31
442.928	88.31
443.149	114.31
443.371	128.31
443.592	97.31
443.813	104.31
444.034	106.31
444.255	100.31
444.476	88.31
444.698	111.31
444.919	91.31
445.14	105.31
445.361	122.31
445.582	102.31
445.803	120.31
446.024	116.31
446.245	120.31
446.466	102.31
446.687	94.31
446.908	92.31
447.129	90.31
447.35	82.31
447.571	97.31
447.792	112.31
448.013	97.31
448.234	87.31
448.455	89.31
448.675	99.31
448.896	107.31
449.117	94.31
449.338	115.31
449.559	108.31
449.779	126.31
450	91.31
450.221	72.31
450.442	99.31
450.662	105.31
450.883	95.31
451.104	109.31
451.324	96.31
451.545	93.31
451.766	82.31
451.986	84.31
452.207	93.31
452.428	76.31
452.648	85.31
452.869	94.31
453.089	97.31
453.31	113.31
453.53	102.31
453.751	103.31
453.971	73.31
454.192	93.31
454.412	79.31
454.633	83.31
454.853	84.31
455.073	81.31
455.294	91.31
455.514	94.31
455.734	93.31
455.955	96.31
456.175	92.31
456.395	98.31
456.616	91.31
456.836	90.31
457.056	87.31
457.276	87.31
457.497	90.31
457.717	87.31
457.937	84.31
458.157	87.31
458.377	79.31
458.598	98.31
458.818	139.31
459.038	139.31
459.258	97.31
459.478	91.31
459.698	90.31
459.918	98.31
460.138	66.31
460.358	78.31
460.578	77.31
460.798	96.31
461.018	84.31
461.238	97.31
461.458	95.31
461.678	96.31
461.898	92.31
462.118	83.31
462.338	88.31
462.558	95.31
462.777	91.31
462.997	92.31
463.217	86.31
463.437	90.31
463.657	82.31
463.876	83.31
464.096	100.31
464.316	98.31
464.536	81.31
464.755	88.31
464.975	98.31
465.195	132.31
465.414	138.31
465.634	89.31
465.854	83.31
466.073	87.31
466.293	81.31
466.512	78.31
466.732	87.31
466.951	87.31
467.171	99.31
467.391	91.31
467.61	90.31
467.829	72.31
468.049	101.31
468.268	112.31
468.488	88.31
468.707	91.31
468.927	92.31
469.146	88.31
469.365	81.31
469.585	86.31
469.804	73.31
470.023	104.31
470.243	95.31
470.462	99.31
470.681	101.31
470.901	91.31
471.12	73.31
471.339	96.31
471.558	86.31
471.777	81.31
471.997	100.31
472.216	132.31
472.435	159.31
472.654	99.31
472.873	105.31
473.092	84.31
473.311	83.31
473.53	91.31
473.749	76.31
473.968	88.31
474.187	99.31
474.406	72.31
474.625	82.31
474.844	89.31
475.063	81.31
475.282	91.31
475.501	88.31
475.72	87.31
475.939	87.31
476.158	81.31
476.377	90.31
476.596	83.31
476.814	85.31
477.033	92.31
477.252	92.31
477.471	97.31
477.69	76.31
477.908	86.31
478.127	89.31
478.346	107.31
478.564	90.31
478.783	91.31
479.002	75.31
479.22	83.31
479.439	96.31
479.658	107.31
479.876	91.31
480.095	100.31
480.313	90.31
480.532	95.31
480.751	92.31
480.969	116.31
481.188	228.31
481.406	163.31
481.624	102.31
481.843	86.31
482.061	102.31
482.28	91.31
482.498	86.31
482.717	91.31
482.935	88.31
483.153	75.31
483.372	85.31
483.59	89.31
483.808	90.31
484.027	107.31
484.245	90.31
484.463	90.31
484.681	111.31
484.9	89.31
485.118	94.31
485.336	76.31
485.554	95.31
485.772	97.31
485.99	103.31
486.209	101.31
486.427	103.31
486.645	107.31
486.863	105.31
487.081	92.31
487.299	96.31
487.517	76.31
487.735	91.31
487.953	87.31
488.171	88.31
488.389	93.31
488.607	101.31
488.825	83.31
489.043	87.31
489.261	83.31
489.479	82.31
489.696	80.31
489.914	87.31
490.132	90.31
490.35	75.31
490.568	83.31
490.786	96.31
491.003	97.31
491.221	98.31
491.439	90.31
491.657	102.31
491.874	95.31
492.092	92.31
492.31	92.31
492.527	79.31
492.745	84.31
492.963	97.31
493.18	87.31
493.398	98.31
493.615	101.31
493.833	112.31
494.05	83.31
494.268	85.31
494.485	90.31
494.703	86.31
494.92	84.31
495.138	103.31
495.355	83.31
495.573	74.31
495.79	101.31
496.008	108.31
496.225	77.31
496.442	89.31
496.66	84.31
496.877	92.31
497.094	103.31
497.312	103.31
497.529	84.31
497.746	87.31
497.963	96.31
498.181	83.31
498.398	82.31
498.615	105.31
498.832	94.31
499.049	87.31
499.267	89.31
499.484	80.31
499.701	90.31
499.918	97.31
500.135	91.31
500.352	97.31
500.569	94.31
500.786	91.31
501.003	84.31
501.22	95.31
501.437	98.31
501.654	98.31
501.871	106.31
502.088	87.31
502.305	101.31
502.522	92.31
502.739	103.31
502.956	96.31
503.172	99.31
503.389	96.31
503.606	91.31
503.823	87.31
504.04	99.31
504.256	87.31
504.473	82.31
504.69	82.31
504.907	92.31
505.123	91.31
505.34	86.31
505.557	91.31
505.773	99.31
505.99	79.31
506.207	98.31
506.423	95.31
506.64	95.31
506.856	91.31
507.073	88.31
507.289	104.31
507.506	101.31
507.722	100.31
507.939	113.31
508.155	89.31
508.372	106.31
508.588	98.31
508.805	102.31
509.021	95.31
509.238	88.31
509.454	85.31
509.67	86.31
509.887	113.31
510.103	121.31
510.319	194.31
510.536	610.31
510.752	1859.31
510.968	526.31
511.184	140.31
511.401	120.31
511.617	74.31
511.833	89.31
512.049	81.31
512.265	92.31
512.481	81.31
512.698	101.31
512.914	85.31
513.13	107.31
513.346	90.31
513.562	93.31
513.778	90.31
513.994	105.31
514.21	104.31
514.426	103.31
514.642	123.31
514.858	123.31
515.074	132.31
515.29	343.31
515.506	1074.31
515.721	391.31
515.937	136.31
