Data from Circ_1985_H10_HRD10591_00020.txt Node
Date: Wed Jan 03 12:19:26 EST 2024
User: Yrep
Spectrometer: HR+D1059
Trigger mode: 1
Integration Time (sec): 1.000000E-1
Scans to average: 1
Electric dark correction enabled: true
Nonlinearity correction enabled: false
Boxcar width: 0
XAxis mode: Wavelengths
Number of Pixels in Spectrum: 2048
>>>>>Begin Spectral Data<<<<<
223.165	-18.25
223.4	-18.25
223.635	-18.25
223.869	-8.25
224.104	-14.25
224.338	-14.25
224.573	-17.25
224.808	-1.25
225.042	-25.25
225.277	-14.25
225.511	-7.25
225.746	1.75
225.98	7.75
226.215	18.75
226.449	13.75
226.683	14.75
226.918	28.75
227.152	34.75
227.387	34.75
227.621	20.75
227.856	56.75
228.09	53.75
228.324	34.75
228.559	39.75
228.793	58.75
229.027	66.75
229.262	51.75
229.496	76.75
229.73	67.75
229.964	55.75
230.199	67.75
230.433	74.75
230.667	77.75
230.901	68.75
231.136	70.75
231.37	75.75
231.604	78.75
231.838	78.75
232.072	80.75
232.306	86.75
232.541	79.75
232.775	63.75
233.009	82.75
233.243	87.75
233.477	85.75
233.711	69.75
233.945	85.75
234.179	80.75
234.413	85.75
234.647	77.75
234.881	70.75
235.115	80.75
235.349	74.75
235.583	60.75
235.817	60.75
236.051	67.75
236.285	66.75
236.519	81.75
236.753	82.75
236.987	76.75
237.221	77.75
237.455	84.75
237.689	78.75
237.922	60.75
238.156	76.75
238.39	70.75
238.624	69.75
238.858	86.75
239.091	74.75
239.325	68.75
239.559	83.75
239.793	68.75
240.027	59.75
240.26	74.75
240.494	67.75
240.728	81.75
240.961	79.75
241.195	79.75
241.429	71.75
241.662	63.75
241.896	66.75
242.13	72.75
242.363	74.75
242.597	74.75
242.83	75.75
243.064	87.75
243.298	78.75
243.531	67.75
243.765	74.75
243.998	80.75
244.232	74.75
244.465	74.75
244.699	64.75
244.932	70.75
245.166	71.75
245.399	68.75
245.633	67.75
245.866	66.75
246.099	63.75
246.333	78.75
246.566	76.75
246.8	71.75
247.033	71.75
247.266	74.75
247.5	70.75
247.733	79.75
247.966	71.75
248.2	67.75
248.433	80.75
248.666	71.75
248.899	75.75
249.133	86.75
249.366	87.75
249.599	79.75
249.832	78.75
250.066	58.75
250.299	82.75
250.532	80.75
250.765	62.75
250.998	77.75
251.231	77.75
251.465	76.75
251.698	69.75
251.931	82.75
252.164	79.75
252.397	84.75
252.63	74.75
252.863	85.75
253.096	63.75
253.329	69.75
253.562	62.75
253.795	68.75
254.028	82.75
254.261	75.75
254.494	83.75
254.727	90.75
254.96	79.75
255.193	67.75
255.426	77.75
255.659	73.75
255.892	73.75
256.124	77.75
256.357	81.75
256.59	70.75
256.823	77.75
257.056	83.75
257.289	78.75
257.521	66.75
257.754	61.75
257.987	74.75
258.22	92.75
258.452	76.75
258.685	68.75
258.918	78.75
259.151	64.75
259.383	80.75
259.616	71.75
259.849	83.75
260.081	76.75
260.314	65.75
260.547	77.75
260.779	87.75
261.012	72.75
261.244	84.75
261.477	74.75
261.71	86.75
261.942	91.75
262.175	102.75
262.407	81.75
262.64	87.75
262.872	84.75
263.105	71.75
263.337	70.75
263.57	83.75
263.802	97.75
264.035	74.75
264.267	80.75
264.499	71.75
264.732	70.75
264.964	82.75
265.197	70.75
265.429	79.75
265.661	74.75
265.894	75.75
266.126	79.75
266.358	87.75
266.591	67.75
266.823	77.75
267.055	78.75
267.287	72.75
267.52	74.75
267.752	83.75
267.984	80.75
268.216	71.75
268.448	74.75
268.681	80.75
268.913	82.75
269.145	76.75
269.377	84.75
269.609	77.75
269.841	80.75
270.073	78.75
270.306	78.75
270.538	80.75
270.77	88.75
271.002	96.75
271.234	65.75
271.466	74.75
271.698	78.75
271.93	82.75
272.162	87.75
272.394	90.75
272.626	99.75
272.858	70.75
273.09	77.75
273.322	90.75
273.553	74.75
273.785	94.75
274.017	79.75
274.249	68.75
274.481	52.75
274.713	76.75
274.945	79.75
275.176	63.75
275.408	83.75
275.64	94.75
275.872	96.75
276.104	76.75
276.335	82.75
276.567	76.75
276.799	83.75
277.031	103.75
277.262	94.75
277.494	76.75
277.726	80.75
277.957	63.75
278.189	78.75
278.421	75.75
278.652	82.75
278.884	80.75
279.115	89.75
279.347	77.75
279.579	85.75
279.81	99.75
280.042	92.75
280.273	87.75
280.505	96.75
280.736	67.75
280.968	86.75
281.199	89.75
281.431	84.75
281.662	84.75
281.894	89.75
282.125	86.75
282.356	104.75
282.588	118.75
282.819	91.75
283.051	80.75
283.282	83.75
283.513	68.75
283.745	71.75
283.976	81.75
284.207	69.75
284.439	84.75
284.67	74.75
284.901	79.75
285.132	89.75
285.364	84.75
285.595	78.75
285.826	88.75
286.057	88.75
286.288	65.75
286.52	73.75
286.751	86.75
286.982	82.75
287.213	82.75
287.444	78.75
287.675	76.75
287.906	75.75
288.138	75.75
288.369	72.75
288.6	77.75
288.831	82.75
289.062	68.75
289.293	86.75
289.524	87.75
289.755	81.75
289.986	95.75
290.217	78.75
290.448	75.75
290.679	83.75
290.91	86.75
291.141	84.75
291.371	72.75
291.602	76.75
291.833	85.75
292.064	87.75
292.295	74.75
292.526	82.75
292.757	81.75
292.987	75.75
293.218	71.75
293.449	74.75
293.68	90.75
293.91	87.75
294.141	75.75
294.372	80.75
294.603	86.75
294.833	87.75
295.064	82.75
295.295	84.75
295.525	89.75
295.756	94.75
295.987	101.75
296.217	112.75
296.448	103.75
296.679	86.75
296.909	77.75
297.14	83.75
297.37	86.75
297.601	84.75
297.831	94.75
298.062	106.75
298.292	78.75
298.523	84.75
298.753	88.75
298.984	87.75
299.214	79.75
299.445	79.75
299.675	84.75
299.905	89.75
300.136	83.75
300.366	79.75
300.597	77.75
300.827	86.75
301.057	88.75
301.288	93.75
301.518	91.75
301.748	77.75
301.979	98.75
302.209	80.75
302.439	96.75
302.669	81.75
302.9	88.75
303.13	60.75
303.36	90.75
303.59	88.75
303.82	92.75
304.051	94.75
304.281	86.75
304.511	85.75
304.741	82.75
304.971	95.75
305.201	91.75
305.431	79.75
305.661	101.75
305.891	94.75
306.121	97.75
306.352	92.75
306.582	86.75
306.812	88.75
307.042	77.75
307.272	79.75
307.502	90.75
307.731	80.75
307.961	83.75
308.191	89.75
308.421	90.75
308.651	94.75
308.881	79.75
309.111	80.75
309.341	92.75
309.571	100.75
309.8	103.75
310.03	84.75
310.26	94.75
310.49	85.75
310.72	79.75
310.949	93.75
311.179	80.75
311.409	78.75
311.639	90.75
311.868	94.75
312.098	86.75
312.328	99.75
312.557	82.75
312.787	90.75
313.017	90.75
313.246	83.75
313.476	85.75
313.706	90.75
313.935	86.75
314.165	96.75
314.394	78.75
314.624	96.75
314.853	85.75
315.083	69.75
315.312	94.75
315.542	76.75
315.771	77.75
316.001	95.75
316.23	94.75
316.46	78.75
316.689	79.75
316.919	79.75
317.148	85.75
317.377	99.75
317.607	96.75
317.836	87.75
318.065	88.75
318.295	81.75
318.524	87.75
318.753	91.75
318.983	95.75
319.212	87.75
319.441	111.75
319.67	92.75
319.9	66.75
320.129	86.75
320.358	87.75
320.587	104.75
320.816	90.75
321.046	105.75
321.275	86.75
321.504	92.75
321.733	81.75
321.962	95.75
322.191	103.75
322.42	76.75
322.649	84.75
322.878	100.75
323.108	112.75
323.337	121.75
323.566	118.75
323.795	127.75
324.024	179.75
324.253	325.75
324.482	660.75
324.71	1379.75
324.939	1814.75
325.168	678.75
325.397	192.75
325.626	128.75
325.855	132.75
326.084	124.75
326.313	103.75
326.542	134.75
326.77	191.75
326.999	396.75
327.228	771.75
327.457	1474.75
327.686	1151.75
327.914	314.75
328.143	152.75
328.372	124.75
328.6	115.75
328.829	109.75
329.058	116.75
329.287	112.75
329.515	83.75
329.744	99.75
329.972	94.75
330.201	103.75
330.43	100.75
330.658	95.75
330.887	108.75
331.115	97.75
331.344	94.75
331.572	97.75
331.801	95.75
332.03	78.75
332.258	79.75
332.486	83.75
332.715	87.75
332.943	89.75
333.172	82.75
333.4	87.75
333.629	89.75
333.857	98.75
334.085	92.75
334.314	80.75
334.542	112.75
334.771	101.75
334.999	74.75
335.227	82.75
335.455	84.75
335.684	96.75
335.912	92.75
336.14	95.75
336.369	86.75
336.597	81.75
336.825	102.75
337.053	86.75
337.281	95.75
337.51	86.75
337.738	87.75
337.966	87.75
338.194	77.75
338.422	77.75
338.65	85.75
338.878	87.75
339.106	78.75
339.334	84.75
339.562	93.75
339.79	78.75
340.018	87.75
340.246	86.75
340.474	81.75
340.702	83.75
340.93	90.75
341.158	84.75
341.386	81.75
341.614	91.75
341.842	81.75
342.07	79.75
342.298	98.75
342.526	84.75
342.754	73.75
342.981	90.75
343.209	65.75
343.437	92.75
343.665	78.75
343.893	75.75
344.12	86.75
344.348	78.75
344.576	85.75
344.804	97.75
345.031	100.75
345.259	86.75
345.487	91.75
345.714	87.75
345.942	93.75
346.17	79.75
346.397	77.75
346.625	83.75
346.853	103.75
347.08	84.75
347.308	91.75
347.535	70.75
347.763	92.75
347.99	93.75
348.218	100.75
348.445	92.75
348.673	77.75
348.9	97.75
349.128	97.75
349.355	76.75
349.583	86.75
349.81	87.75
350.037	88.75
350.265	91.75
350.492	82.75
350.72	101.75
350.947	102.75
351.174	104.75
351.402	84.75
351.629	94.75
351.856	103.75
352.083	103.75
352.311	105.75
352.538	91.75
352.765	96.75
352.992	97.75
353.22	91.75
353.447	102.75
353.674	93.75
353.901	90.75
354.128	85.75
354.355	89.75
354.583	92.75
354.81	80.75
355.037	85.75
355.264	87.75
355.491	88.75
355.718	85.75
355.945	100.75
356.172	79.75
356.399	84.75
356.626	82.75
356.853	77.75
357.08	95.75
357.307	76.75
357.534	85.75
357.761	87.75
357.988	94.75
358.215	82.75
358.441	99.75
358.668	90.75
358.895	76.75
359.122	84.75
359.349	83.75
359.576	84.75
359.802	95.75
360.029	96.75
360.256	91.75
360.483	91.75
360.709	77.75
360.936	96.75
361.163	81.75
361.39	91.75
361.616	74.75
361.843	84.75
362.07	96.75
362.296	84.75
362.523	86.75
362.749	66.75
362.976	80.75
363.203	80.75
363.429	88.75
363.656	94.75
363.882	74.75
364.109	82.75
364.335	96.75
364.562	83.75
364.788	77.75
365.015	82.75
365.241	94.75
365.468	103.75
365.694	100.75
365.92	86.75
366.147	70.75
366.373	82.75
366.599	96.75
366.826	82.75
367.052	84.75
367.278	83.75
367.505	82.75
367.731	84.75
367.957	81.75
368.184	83.75
368.41	81.75
368.636	87.75
368.862	99.75
369.089	78.75
369.315	84.75
369.541	77.75
369.767	86.75
369.993	84.75
370.219	63.75
370.445	86.75
370.672	86.75
370.898	69.75
371.124	83.75
371.35	88.75
371.576	92.75
371.802	81.75
372.028	85.75
372.254	80.75
372.48	71.75
372.706	74.75
372.932	82.75
373.158	88.75
373.384	91.75
373.61	86.75
373.835	87.75
374.061	83.75
374.287	71.75
374.513	99.75
374.739	88.75
374.965	78.75
375.191	90.75
375.416	82.75
375.642	78.75
375.868	92.75
376.094	79.75
376.319	92.75
376.545	81.75
376.771	78.75
376.997	82.75
377.222	77.75
377.448	90.75
377.674	91.75
377.899	95.75
378.125	87.75
378.35	86.75
378.576	78.75
378.802	71.75
379.027	87.75
379.253	91.75
379.478	84.75
379.704	92.75
379.929	81.75
380.155	80.75
380.38	86.75
380.606	86.75
380.831	79.75
381.057	87.75
381.282	93.75
381.507	89.75
381.733	91.75
381.958	99.75
382.184	106.75
382.409	94.75
382.634	122.75
382.86	100.75
383.085	98.75
383.31	98.75
383.535	96.75
383.761	77.75
383.986	86.75
384.211	110.75
384.436	98.75
384.662	103.75
384.887	111.75
385.112	110.75
385.337	104.75
385.562	108.75
385.787	126.75
386.013	104.75
386.238	125.75
386.463	110.75
386.688	107.75
386.913	124.75
387.138	99.75
387.363	92.75
387.588	103.75
387.813	96.75
388.038	115.75
388.263	126.75
388.488	123.75
388.713	98.75
388.938	84.75
389.163	95.75
389.387	97.75
389.612	95.75
389.837	90.75
390.062	87.75
390.287	101.75
390.512	86.75
390.736	95.75
390.961	78.75
391.186	103.75
391.411	79.75
391.636	82.75
391.86	89.75
392.085	90.75
392.31	92.75
392.534	86.75
392.759	71.75
392.984	81.75
393.208	104.75
393.433	110.75
393.658	108.75
393.882	99.75
394.107	96.75
394.331	81.75
394.556	78.75
394.78	83.75
395.005	87.75
395.229	88.75
395.454	78.75
395.678	86.75
395.903	72.75
396.127	78.75
396.352	87.75
396.576	95.75
396.801	95.75
397.025	121.75
397.249	88.75
397.474	78.75
397.698	94.75
397.922	85.75
398.147	83.75
398.371	80.75
398.595	79.75
398.82	68.75
399.044	86.75
399.268	88.75
399.492	70.75
399.717	79.75
399.941	81.75
400.165	92.75
400.389	94.75
400.613	84.75
400.837	69.75
401.062	77.75
401.286	78.75
401.51	72.75
401.734	75.75
401.958	75.75
402.182	123.75
402.406	131.75
402.63	102.75
402.854	76.75
403.078	79.75
403.302	92.75
403.526	78.75
403.75	97.75
403.974	88.75
404.198	92.75
404.422	80.75
404.645	75.75
404.869	78.75
405.093	88.75
405.317	92.75
405.541	87.75
405.765	80.75
405.988	94.75
406.212	135.75
406.436	180.75
406.66	108.75
406.883	89.75
407.107	94.75
407.331	94.75
407.555	90.75
407.778	92.75
408.002	77.75
408.226	81.75
408.449	86.75
408.673	80.75
408.896	79.75
409.12	80.75
409.344	99.75
409.567	85.75
409.791	91.75
410.014	94.75
410.238	93.75
410.461	89.75
410.685	84.75
410.908	76.75
411.132	82.75
411.355	92.75
411.578	81.75
411.802	94.75
412.025	91.75
412.249	82.75
412.472	93.75
412.695	86.75
412.919	95.75
413.142	67.75
413.365	79.75
413.589	90.75
413.812	81.75
414.035	79.75
414.258	85.75
414.482	67.75
414.705	68.75
414.928	75.75
415.151	83.75
415.374	85.75
415.597	95.75
415.821	99.75
416.044	87.75
416.267	85.75
416.49	87.75
416.713	89.75
416.936	81.75
417.159	67.75
417.382	84.75
417.605	84.75
417.828	86.75
418.051	82.75
418.274	86.75
418.497	86.75
418.72	84.75
418.943	90.75
419.166	94.75
419.389	83.75
419.611	101.75
419.834	94.75
420.057	69.75
420.28	78.75
420.503	84.75
420.726	81.75
420.948	92.75
421.171	77.75
421.394	79.75
421.617	101.75
421.839	90.75
422.062	66.75
422.285	95.75
422.507	91.75
422.73	84.75
422.953	102.75
423.175	82.75
423.398	81.75
423.621	87.75
423.843	68.75
424.066	82.75
424.288	82.75
424.511	82.75
424.733	87.75
424.956	97.75
425.178	86.75
425.401	80.75
425.623	103.75
425.846	86.75
426.068	86.75
426.291	86.75
426.513	93.75
426.735	84.75
426.958	97.75
427.18	88.75
427.402	111.75
427.625	129.75
427.847	116.75
428.069	102.75
428.292	68.75
428.514	84.75
428.736	86.75
428.958	84.75
429.181	80.75
429.403	74.75
429.625	82.75
429.847	71.75
430.069	100.75
430.292	83.75
430.514	77.75
430.736	71.75
430.958	74.75
431.18	74.75
431.402	84.75
431.624	86.75
431.846	88.75
432.068	80.75
432.29	93.75
432.512	79.75
432.734	86.75
432.956	102.75
433.178	94.75
433.4	88.75
433.622	84.75
433.844	82.75
434.066	87.75
434.287	86.75
434.509	91.75
434.731	71.75
434.953	86.75
435.175	90.75
435.397	100.75
435.618	91.75
435.84	88.75
436.062	91.75
436.284	106.75
436.505	90.75
436.727	86.75
436.949	86.75
437.17	80.75
437.392	84.75
437.614	82.75
437.835	84.75
438.057	93.75
438.278	92.75
438.5	85.75
438.721	104.75
438.943	98.75
439.165	87.75
439.386	86.75
439.608	87.75
439.829	86.75
440.05	103.75
440.272	106.75
440.493	88.75
440.715	67.75
440.936	80.75
441.158	86.75
441.379	78.75
441.6	91.75
441.822	85.75
442.043	106.75
442.264	82.75
442.486	104.75
442.707	94.75
442.928	96.75
443.149	104.75
443.371	102.75
443.592	92.75
443.813	97.75
444.034	92.75
444.255	100.75
444.476	75.75
444.698	79.75
444.919	99.75
445.14	124.75
445.361	123.75
445.582	100.75
445.803	111.75
446.024	116.75
446.245	104.75
446.466	99.75
446.687	95.75
446.908	83.75
447.129	83.75
447.35	86.75
447.571	98.75
447.792	88.75
448.013	87.75
448.234	94.75
448.455	98.75
448.675	107.75
448.896	100.75
449.117	88.75
449.338	88.75
449.559	120.75
449.779	109.75
450	84.75
450.221	81.75
450.442	81.75
450.662	78.75
450.883	98.75
451.104	93.75
451.324	93.75
451.545	91.75
451.766	81.75
451.986	86.75
452.207	76.75
452.428	93.75
452.648	76.75
452.869	97.75
453.089	120.75
453.31	105.75
453.53	84.75
453.751	91.75
453.971	97.75
454.192	87.75
454.412	82.75
454.633	100.75
454.853	83.75
455.073	69.75
455.294	79.75
455.514	83.75
455.734	87.75
455.955	83.75
456.175	78.75
456.395	76.75
456.616	85.75
456.836	91.75
457.056	85.75
457.276	72.75
457.497	85.75
457.717	69.75
457.937	84.75
458.157	78.75
458.377	94.75
458.598	95.75
458.818	111.75
459.038	123.75
459.258	112.75
459.478	91.75
459.698	60.75
459.918	72.75
460.138	84.75
460.358	78.75
460.578	103.75
460.798	86.75
461.018	85.75
461.238	90.75
461.458	90.75
461.678	77.75
461.898	90.75
462.118	80.75
462.338	68.75
462.558	82.75
462.777	68.75
462.997	82.75
463.217	78.75
463.437	95.75
463.657	84.75
463.876	78.75
464.096	95.75
464.316	94.75
464.536	86.75
464.755	100.75
464.975	93.75
465.195	125.75
465.414	118.75
465.634	97.75
465.854	78.75
466.073	79.75
466.293	90.75
466.512	103.75
466.732	74.75
466.951	83.75
467.171	84.75
467.391	97.75
467.61	85.75
467.829	89.75
468.049	91.75
468.268	92.75
468.488	86.75
468.707	92.75
468.927	80.75
469.146	78.75
469.365	77.75
469.585	70.75
469.804	91.75
470.023	83.75
470.243	70.75
470.462	94.75
470.681	103.75
470.901	87.75
471.12	86.75
471.339	96.75
471.558	83.75
471.777	87.75
471.997	90.75
472.216	102.75
472.435	107.75
472.654	87.75
472.873	78.75
473.092	94.75
473.311	84.75
473.53	60.75
473.749	84.75
473.968	91.75
474.187	90.75
474.406	85.75
474.625	93.75
474.844	80.75
475.063	84.75
475.282	81.75
475.501	97.75
475.72	92.75
475.939	92.75
476.158	81.75
476.377	87.75
476.596	91.75
476.814	92.75
477.033	96.75
477.252	78.75
477.471	86.75
477.69	86.75
477.908	81.75
478.127	78.75
478.346	91.75
478.564	83.75
478.783	97.75
479.002	88.75
479.22	93.75
479.439	94.75
479.658	98.75
479.876	85.75
480.095	97.75
480.313	90.75
480.532	82.75
480.751	84.75
480.969	83.75
481.188	127.75
481.406	106.75
481.624	94.75
481.843	82.75
482.061	103.75
482.28	95.75
482.498	87.75
482.717	83.75
482.935	72.75
483.153	82.75
483.372	80.75
483.59	94.75
483.808	93.75
484.027	87.75
484.245	82.75
484.463	97.75
484.681	96.75
484.9	94.75
485.118	83.75
485.336	86.75
485.554	99.75
485.772	100.75
485.99	108.75
486.209	97.75
486.427	103.75
486.645	105.75
486.863	108.75
487.081	98.75
487.299	110.75
487.517	103.75
487.735	81.75
487.953	103.75
488.171	98.75
488.389	94.75
488.607	86.75
488.825	66.75
489.043	88.75
489.261	98.75
489.479	93.75
489.696	77.75
489.914	88.75
490.132	78.75
490.35	85.75
490.568	84.75
490.786	86.75
491.003	96.75
491.221	65.75
491.439	72.75
491.657	95.75
491.874	100.75
492.092	99.75
492.31	84.75
492.527	91.75
492.745	79.75
492.963	78.75
493.18	73.75
493.398	81.75
493.615	94.75
493.833	99.75
494.05	95.75
494.268	67.75
494.485	76.75
494.703	81.75
494.92	72.75
495.138	90.75
495.355	88.75
495.573	81.75
495.79	98.75
496.008	79.75
496.225	72.75
496.442	79.75
496.66	90.75
496.877	79.75
497.094	83.75
497.312	61.75
497.529	90.75
497.746	98.75
497.963	86.75
498.181	96.75
498.398	91.75
498.615	98.75
498.832	95.75
499.049	93.75
499.267	98.75
499.484	87.75
499.701	103.75
499.918	86.75
500.135	102.75
500.352	84.75
500.569	88.75
500.786	88.75
501.003	84.75
501.22	83.75
501.437	86.75
501.654	95.75
501.871	99.75
502.088	82.75
502.305	88.75
502.522	86.75
502.739	77.75
502.956	71.75
503.172	82.75
503.389	82.75
503.606	85.75
503.823	86.75
504.04	83.75
504.256	92.75
504.473	84.75
504.69	87.75
504.907	84.75
505.123	87.75
505.34	82.75
505.557	87.75
505.773	94.75
505.99	81.75
506.207	79.75
506.423	86.75
506.64	88.75
506.856	84.75
507.073	80.75
507.289	89.75
507.506	84.75
507.722	100.75
507.939	95.75
508.155	80.75
508.372	89.75
508.588	106.75
508.805	88.75
509.021	81.75
509.238	84.75
509.454	88.75
509.67	85.75
509.887	104.75
510.103	95.75
510.319	173.75
510.536	544.75
510.752	1645.75
510.968	484.75
511.184	124.75
511.401	88.75
511.617	93.75
511.833	78.75
512.049	88.75
512.265	87.75
512.481	97.75
512.698	102.75
512.914	103.75
513.13	86.75
513.346	82.75
513.562	85.75
513.778	75.75
513.994	90.75
514.21	90.75
514.426	94.75
514.642	115.75
514.858	106.75
515.074	137.75
515.29	295.75
515.506	956.75
515.721	355.75
515.937	130.75
516.153	93.75
516.369	96.75
516.585	86.75
516.801	96.75
517.016	87.75
517.232	96.75
517.448	104.75
517.664	94.75
