Data from Circ_1985_H10_HRD10591_00005.txt Node
Date: Wed Jan 03 12:19:23 EST 2024
User: Yrep
Spectrometer: HR+D1059
Trigger mode: 1
Integration Time (sec): 1.000000E-1
Scans to average: 1
Electric dark correction enabled: true
Nonlinearity correction enabled: false
Boxcar width: 0
XAxis mode: Wavelengths
Number of Pixels in Spectrum: 2048
>>>>>Begin Spectral Data<<<<<
223.165	-25.25
223.4	-25.25
223.635	-25.25
223.869	-11.25
224.104	-18.25
224.338	-23.25
224.573	-15.25
224.808	-8.25
225.042	-6.25
225.277	-3.25
225.511	-3.25
225.746	2.75
225.98	2.75
226.215	8.75
226.449	9.75
226.683	31.75
226.918	31.75
227.152	26.75
227.387	20.75
227.621	34.75
227.856	35.75
228.09	31.75
228.324	37.75
228.559	54.75
228.793	57.75
229.027	67.75
229.262	62.75
229.496	59.75
229.73	63.75
229.964	75.75
230.199	60.75
230.433	76.75
230.667	69.75
230.901	86.75
231.136	73.75
231.37	66.75
231.604	91.75
231.838	74.75
232.072	76.75
232.306	94.75
232.541	69.75
232.775	78.75
233.009	78.75
233.243	61.75
233.477	77.75
233.711	81.75
233.945	81.75
234.179	75.75
234.413	66.75
234.647	69.75
234.881	73.75
235.115	81.75
235.349	83.75
235.583	69.75
235.817	86.75
236.051	73.75
236.285	73.75
236.519	77.75
236.753	66.75
236.987	68.75
237.221	84.75
237.455	75.75
237.689	79.75
237.922	65.75
238.156	65.75
238.39	73.75
238.624	74.75
238.858	67.75
239.091	74.75
239.325	78.75
239.559	75.75
239.793	58.75
240.027	75.75
240.26	74.75
240.494	79.75
240.728	73.75
240.961	77.75
241.195	74.75
241.429	82.75
241.662	68.75
241.896	78.75
242.13	59.75
242.363	65.75
242.597	76.75
242.83	82.75
243.064	65.75
243.298	70.75
243.531	65.75
243.765	78.75
243.998	68.75
244.232	64.75
244.465	63.75
244.699	83.75
244.932	78.75
245.166	77.75
245.399	68.75
245.633	75.75
245.866	73.75
246.099	78.75
246.333	74.75
246.566	71.75
246.8	70.75
247.033	70.75
247.266	81.75
247.5	62.75
247.733	86.75
247.966	85.75
248.2	77.75
248.433	67.75
248.666	62.75
248.899	70.75
249.133	73.75
249.366	92.75
249.599	97.75
249.832	74.75
250.066	76.75
250.299	81.75
250.532	54.75
250.765	68.75
250.998	75.75
251.231	87.75
251.465	77.75
251.698	68.75
251.931	82.75
252.164	74.75
252.397	75.75
252.63	84.75
252.863	66.75
253.096	73.75
253.329	79.75
253.562	89.75
253.795	82.75
254.028	76.75
254.261	73.75
254.494	77.75
254.727	91.75
254.96	85.75
255.193	75.75
255.426	81.75
255.659	75.75
255.892	83.75
256.124	82.75
256.357	82.75
256.59	89.75
256.823	64.75
257.056	84.75
257.289	78.75
257.521	70.75
257.754	80.75
257.987	69.75
258.22	79.75
258.452	83.75
258.685	74.75
258.918	65.75
259.151	66.75
259.383	67.75
259.616	75.75
259.849	78.75
260.081	80.75
260.314	82.75
260.547	93.75
260.779	64.75
261.012	80.75
261.244	85.75
261.477	70.75
261.71	68.75
261.942	100.75
262.175	90.75
262.407	85.75
262.64	80.75
262.872	85.75
263.105	84.75
263.337	82.75
263.57	86.75
263.802	76.75
264.035	69.75
264.267	80.75
264.499	83.75
264.732	85.75
264.964	100.75
265.197	63.75
265.429	78.75
265.661	73.75
265.894	83.75
266.126	75.75
266.358	70.75
266.591	85.75
266.823	91.75
267.055	84.75
267.287	72.75
267.52	82.75
267.752	86.75
267.984	77.75
268.216	92.75
268.448	82.75
268.681	77.75
268.913	83.75
269.145	68.75
269.377	73.75
269.609	68.75
269.841	79.75
270.073	89.75
270.306	95.75
270.538	76.75
270.77	89.75
271.002	79.75
271.234	67.75
271.466	72.75
271.698	77.75
271.93	77.75
272.162	71.75
272.394	77.75
272.626	80.75
272.858	90.75
273.09	81.75
273.322	87.75
273.553	88.75
273.785	81.75
274.017	97.75
274.249	79.75
274.481	91.75
274.713	81.75
274.945	76.75
275.176	73.75
275.408	84.75
275.64	85.75
275.872	79.75
276.104	81.75
276.335	94.75
276.567	91.75
276.799	100.75
277.031	89.75
277.262	93.75
277.494	85.75
277.726	75.75
277.957	75.75
278.189	91.75
278.421	75.75
278.652	73.75
278.884	86.75
279.115	68.75
279.347	89.75
279.579	91.75
279.81	82.75
280.042	64.75
280.273	77.75
280.505	80.75
280.736	86.75
280.968	91.75
281.199	84.75
281.431	79.75
281.662	84.75
281.894	81.75
282.125	93.75
282.356	107.75
282.588	102.75
282.819	106.75
283.051	84.75
283.282	85.75
283.513	78.75
283.745	84.75
283.976	79.75
284.207	86.75
284.439	83.75
284.67	88.75
284.901	94.75
285.132	85.75
285.364	83.75
285.595	89.75
285.826	85.75
286.057	85.75
286.288	73.75
286.52	102.75
286.751	85.75
286.982	86.75
287.213	81.75
287.444	73.75
287.675	79.75
287.906	94.75
288.138	99.75
288.369	84.75
288.6	88.75
288.831	66.75
289.062	81.75
289.293	77.75
289.524	82.75
289.755	90.75
289.986	82.75
290.217	87.75
290.448	67.75
290.679	92.75
290.91	98.75
291.141	87.75
291.371	88.75
291.602	82.75
291.833	75.75
292.064	99.75
292.295	81.75
292.526	75.75
292.757	89.75
292.987	92.75
293.218	79.75
293.449	86.75
293.68	85.75
293.91	79.75
294.141	94.75
294.372	89.75
294.603	82.75
294.833	97.75
295.064	84.75
295.295	83.75
295.525	82.75
295.756	101.75
295.987	94.75
296.217	108.75
296.448	97.75
296.679	98.75
296.909	81.75
297.14	87.75
297.37	74.75
297.601	83.75
297.831	84.75
298.062	92.75
298.292	92.75
298.523	78.75
298.753	84.75
298.984	83.75
299.214	86.75
299.445	107.75
299.675	81.75
299.905	89.75
300.136	88.75
300.366	80.75
300.597	70.75
300.827	86.75
301.057	89.75
301.288	89.75
301.518	84.75
301.748	67.75
301.979	99.75
302.209	85.75
302.439	72.75
302.669	85.75
302.9	77.75
303.13	96.75
303.36	83.75
303.59	92.75
303.82	88.75
304.051	86.75
304.281	81.75
304.511	92.75
304.741	85.75
304.971	85.75
305.201	91.75
305.431	89.75
305.661	87.75
305.891	71.75
306.121	90.75
306.352	86.75
306.582	88.75
306.812	88.75
307.042	86.75
307.272	81.75
307.502	101.75
307.731	86.75
307.961	79.75
308.191	89.75
308.421	82.75
308.651	95.75
308.881	84.75
309.111	86.75
309.341	74.75
309.571	82.75
309.8	106.75
310.03	76.75
310.26	92.75
310.49	78.75
310.72	87.75
310.949	83.75
311.179	95.75
311.409	85.75
311.639	91.75
311.868	81.75
312.098	88.75
312.328	87.75
312.557	89.75
312.787	79.75
313.017	89.75
313.246	81.75
313.476	88.75
313.706	95.75
313.935	77.75
314.165	92.75
314.394	85.75
314.624	93.75
314.853	83.75
315.083	92.75
315.312	95.75
315.542	99.75
315.771	90.75
316.001	96.75
316.23	74.75
316.46	75.75
316.689	86.75
316.919	80.75
317.148	79.75
317.377	87.75
317.607	91.75
317.836	81.75
318.065	73.75
318.295	78.75
318.524	83.75
318.753	95.75
318.983	87.75
319.212	81.75
319.441	103.75
319.67	84.75
319.9	83.75
320.129	80.75
320.358	95.75
320.587	89.75
320.816	76.75
321.046	81.75
321.275	92.75
321.504	90.75
321.733	85.75
321.962	102.75
322.191	93.75
322.42	92.75
322.649	90.75
322.878	94.75
323.108	100.75
323.337	111.75
323.566	117.75
323.795	137.75
324.024	172.75
324.253	328.75
324.482	683.75
324.71	1375.75
324.939	1813.75
325.168	652.75
325.397	199.75
325.626	139.75
325.855	124.75
326.084	109.75
326.313	118.75
326.542	139.75
326.77	211.75
326.999	395.75
327.228	790.75
327.457	1442.75
327.686	1142.75
327.914	306.75
328.143	180.75
328.372	130.75
328.6	110.75
328.829	107.75
329.058	104.75
329.287	83.75
329.515	91.75
329.744	83.75
329.972	102.75
330.201	96.75
330.43	95.75
330.658	101.75
330.887	113.75
331.115	104.75
331.344	94.75
331.572	85.75
331.801	104.75
332.03	90.75
332.258	68.75
332.486	103.75
332.715	81.75
332.943	87.75
333.172	91.75
333.4	101.75
333.629	112.75
333.857	83.75
334.085	91.75
334.314	93.75
334.542	94.75
334.771	89.75
334.999	81.75
335.227	95.75
335.455	80.75
335.684	85.75
335.912	69.75
336.14	99.75
336.369	95.75
336.597	86.75
336.825	103.75
337.053	83.75
337.281	95.75
337.51	87.75
337.738	84.75
337.966	81.75
338.194	91.75
338.422	97.75
338.65	86.75
338.878	78.75
339.106	92.75
339.334	84.75
339.562	82.75
339.79	91.75
340.018	85.75
340.246	77.75
340.474	82.75
340.702	87.75
340.93	84.75
341.158	85.75
341.386	79.75
341.614	103.75
341.842	101.75
342.07	91.75
342.298	74.75
342.526	63.75
342.754	76.75
342.981	73.75
343.209	88.75
343.437	89.75
343.665	81.75
343.893	73.75
344.12	81.75
344.348	95.75
344.576	81.75
344.804	87.75
345.031	92.75
345.259	88.75
345.487	92.75
345.714	91.75
345.942	93.75
346.17	82.75
346.397	77.75
346.625	80.75
346.853	91.75
347.08	95.75
347.308	94.75
347.535	92.75
347.763	89.75
347.99	96.75
348.218	89.75
348.445	92.75
348.673	106.75
348.9	97.75
349.128	105.75
349.355	102.75
349.583	95.75
349.81	101.75
350.037	70.75
350.265	87.75
350.492	89.75
350.72	97.75
350.947	89.75
351.174	97.75
351.402	103.75
351.629	100.75
351.856	96.75
352.083	101.75
352.311	91.75
352.538	106.75
352.765	93.75
352.992	110.75
353.22	103.75
353.447	116.75
353.674	91.75
353.901	91.75
354.128	106.75
354.355	95.75
354.583	94.75
354.81	100.75
355.037	94.75
355.264	93.75
355.491	91.75
355.718	89.75
355.945	87.75
356.172	87.75
356.399	102.75
356.626	94.75
356.853	92.75
357.08	96.75
357.307	80.75
357.534	103.75
357.761	94.75
357.988	95.75
358.215	99.75
358.441	89.75
358.668	89.75
358.895	87.75
359.122	87.75
359.349	80.75
359.576	83.75
359.802	80.75
360.029	99.75
360.256	108.75
360.483	92.75
360.709	90.75
360.936	84.75
361.163	74.75
361.39	92.75
361.616	84.75
361.843	83.75
362.07	79.75
362.296	89.75
362.523	76.75
362.749	82.75
362.976	81.75
363.203	91.75
363.429	84.75
363.656	91.75
363.882	77.75
364.109	76.75
364.335	82.75
364.562	84.75
364.788	95.75
365.015	89.75
365.241	82.75
365.468	100.75
365.694	93.75
365.92	105.75
366.147	86.75
366.373	80.75
366.599	86.75
366.826	84.75
367.052	92.75
367.278	81.75
367.505	81.75
367.731	95.75
367.957	86.75
368.184	81.75
368.41	98.75
368.636	101.75
368.862	104.75
369.089	89.75
369.315	96.75
369.541	78.75
369.767	89.75
369.993	92.75
370.219	84.75
370.445	86.75
370.672	81.75
370.898	95.75
371.124	100.75
371.35	103.75
371.576	84.75
371.802	82.75
372.028	75.75
372.254	74.75
372.48	82.75
372.706	87.75
372.932	95.75
373.158	96.75
373.384	89.75
373.61	66.75
373.835	89.75
374.061	91.75
374.287	77.75
374.513	78.75
374.739	87.75
374.965	91.75
375.191	84.75
375.416	92.75
375.642	86.75
375.868	98.75
376.094	90.75
376.319	79.75
376.545	81.75
376.771	83.75
376.997	81.75
377.222	94.75
377.448	100.75
377.674	89.75
377.899	82.75
378.125	100.75
378.35	93.75
378.576	94.75
378.802	82.75
379.027	85.75
379.253	85.75
379.478	96.75
379.704	91.75
379.929	87.75
380.155	105.75
380.38	114.75
380.606	95.75
380.831	99.75
381.057	102.75
381.282	93.75
381.507	118.75
381.733	93.75
381.958	98.75
382.184	93.75
382.409	121.75
382.634	111.75
382.86	109.75
383.085	113.75
383.31	110.75
383.535	113.75
383.761	95.75
383.986	103.75
384.211	107.75
384.436	121.75
384.662	118.75
384.887	112.75
385.112	128.75
385.337	127.75
385.562	118.75
385.787	112.75
386.013	138.75
386.238	122.75
386.463	134.75
386.688	133.75
386.913	119.75
387.138	133.75
387.363	111.75
387.588	109.75
387.813	118.75
388.038	120.75
388.263	157.75
388.488	137.75
388.713	104.75
388.938	103.75
389.163	89.75
389.387	85.75
389.612	92.75
389.837	86.75
390.062	89.75
390.287	95.75
390.512	76.75
390.736	100.75
390.961	83.75
391.186	92.75
391.411	97.75
391.636	89.75
391.86	89.75
392.085	82.75
392.31	73.75
392.534	85.75
392.759	85.75
392.984	90.75
393.208	99.75
393.433	118.75
393.658	109.75
393.882	89.75
394.107	81.75
394.331	81.75
394.556	84.75
394.78	85.75
395.005	84.75
395.229	79.75
395.454	84.75
395.678	69.75
395.903	99.75
396.127	85.75
396.352	91.75
396.576	83.75
396.801	84.75
397.025	97.75
397.249	97.75
397.474	86.75
397.698	86.75
397.922	75.75
398.147	79.75
398.371	88.75
398.595	85.75
398.82	81.75
399.044	74.75
399.268	86.75
399.492	81.75
399.717	82.75
399.941	97.75
400.165	99.75
400.389	93.75
400.613	92.75
400.837	93.75
401.062	70.75
401.286	81.75
401.51	77.75
401.734	88.75
401.958	81.75
402.182	103.75
402.406	114.75
402.63	93.75
402.854	90.75
403.078	86.75
403.302	81.75
403.526	79.75
403.75	80.75
403.974	86.75
404.198	87.75
404.422	76.75
404.645	70.75
404.869	67.75
405.093	88.75
405.317	86.75
405.541	87.75
405.765	90.75
405.988	101.75
406.212	139.75
406.436	169.75
406.66	98.75
406.883	85.75
407.107	89.75
407.331	99.75
407.555	87.75
407.778	81.75
408.002	87.75
408.226	68.75
408.449	85.75
408.673	85.75
408.896	107.75
409.12	94.75
409.344	83.75
409.567	84.75
409.791	80.75
410.014	100.75
410.238	79.75
410.461	79.75
410.685	89.75
410.908	83.75
411.132	104.75
411.355	96.75
411.578	85.75
411.802	92.75
412.025	81.75
412.249	87.75
412.472	86.75
412.695	83.75
412.919	77.75
413.142	84.75
413.365	80.75
413.589	81.75
413.812	92.75
414.035	84.75
414.258	84.75
414.482	81.75
414.705	86.75
414.928	105.75
415.151	84.75
415.374	102.75
415.597	93.75
415.821	86.75
416.044	81.75
416.267	96.75
416.49	67.75
416.713	80.75
416.936	83.75
417.159	88.75
417.382	89.75
417.605	74.75
417.828	81.75
418.051	84.75
418.274	90.75
418.497	76.75
418.72	79.75
418.943	77.75
419.166	68.75
419.389	87.75
419.611	87.75
419.834	79.75
420.057	69.75
420.28	69.75
420.503	74.75
420.726	87.75
420.948	82.75
421.171	63.75
421.394	86.75
421.617	79.75
421.839	85.75
422.062	84.75
422.285	83.75
422.507	87.75
422.73	95.75
422.953	88.75
423.175	86.75
423.398	96.75
423.621	90.75
423.843	80.75
424.066	82.75
424.288	74.75
424.511	90.75
424.733	82.75
424.956	94.75
425.178	81.75
425.401	90.75
425.623	91.75
425.846	79.75
426.068	89.75
426.291	96.75
426.513	75.75
426.735	81.75
426.958	78.75
427.18	110.75
427.402	97.75
427.625	118.75
427.847	101.75
428.069	95.75
428.292	82.75
428.514	79.75
428.736	91.75
428.958	89.75
429.181	78.75
429.403	73.75
429.625	74.75
429.847	88.75
430.069	69.75
430.292	85.75
430.514	83.75
430.736	81.75
430.958	84.75
431.18	75.75
431.402	80.75
431.624	76.75
431.846	84.75
432.068	77.75
432.29	90.75
432.512	96.75
432.734	75.75
432.956	84.75
433.178	99.75
433.4	101.75
433.622	89.75
433.844	97.75
434.066	86.75
434.287	85.75
434.509	82.75
434.731	76.75
434.953	87.75
435.175	81.75
435.397	76.75
435.618	79.75
435.84	91.75
436.062	88.75
436.284	101.75
436.505	89.75
436.727	93.75
436.949	75.75
437.17	68.75
437.392	73.75
437.614	85.75
437.835	94.75
438.057	99.75
438.278	104.75
438.5	91.75
438.721	103.75
438.943	108.75
439.165	70.75
439.386	71.75
439.608	94.75
439.829	86.75
440.05	85.75
440.272	119.75
440.493	86.75
440.715	86.75
440.936	86.75
441.158	86.75
441.379	79.75
441.6	83.75
441.822	76.75
442.043	85.75
442.264	81.75
442.486	84.75
442.707	83.75
442.928	89.75
443.149	106.75
443.371	109.75
443.592	99.75
443.813	100.75
444.034	97.75
444.255	93.75
444.476	89.75
444.698	78.75
444.919	74.75
445.14	138.75
445.361	109.75
445.582	96.75
445.803	109.75
446.024	115.75
446.245	99.75
446.466	105.75
446.687	86.75
446.908	78.75
447.129	80.75
447.35	85.75
447.571	85.75
447.792	87.75
448.013	76.75
448.234	83.75
448.455	79.75
448.675	92.75
448.896	104.75
449.117	89.75
449.338	90.75
449.559	101.75
449.779	108.75
450	98.75
450.221	81.75
450.442	84.75
450.662	94.75
450.883	89.75
451.104	91.75
451.324	80.75
451.545	86.75
451.766	76.75
451.986	70.75
452.207	89.75
452.428	87.75
452.648	89.75
452.869	90.75
453.089	101.75
453.31	98.75
453.53	84.75
453.751	89.75
453.971	84.75
454.192	84.75
454.412	92.75
454.633	75.75
454.853	77.75
455.073	87.75
455.294	88.75
455.514	101.75
455.734	81.75
455.955	75.75
456.175	81.75
456.395	84.75
456.616	77.75
456.836	72.75
457.056	85.75
457.276	75.75
457.497	77.75
457.717	79.75
457.937	81.75
458.157	76.75
458.377	80.75
458.598	100.75
458.818	103.75
459.038	132.75
459.258	97.75
459.478	86.75
459.698	85.75
459.918	89.75
460.138	74.75
460.358	89.75
460.578	86.75
460.798	75.75
461.018	81.75
461.238	96.75
461.458	68.75
461.678	78.75
461.898	74.75
462.118	79.75
462.338	93.75
462.558	79.75
462.777	74.75
462.997	85.75
463.217	79.75
463.437	68.75
463.657	89.75
463.876	74.75
464.096	81.75
464.316	66.75
464.536	89.75
464.755	92.75
464.975	98.75
465.195	130.75
465.414	116.75
465.634	83.75
465.854	80.75
466.073	85.75
466.293	81.75
466.512	79.75
466.732	69.75
466.951	92.75
467.171	93.75
467.391	77.75
467.61	92.75
467.829	87.75
468.049	84.75
468.268	81.75
468.488	81.75
468.707	77.75
468.927	66.75
469.146	86.75
469.365	80.75
469.585	78.75
469.804	98.75
470.023	85.75
470.243	70.75
470.462	85.75
470.681	93.75
470.901	107.75
471.12	78.75
471.339	66.75
471.558	79.75
471.777	95.75
471.997	88.75
472.216	86.75
472.435	95.75
472.654	76.75
472.873	84.75
473.092	87.75
473.311	75.75
473.53	86.75
473.749	86.75
473.968	81.75
474.187	81.75
474.406	83.75
474.625	70.75
474.844	78.75
475.063	79.75
475.282	81.75
475.501	92.75
475.72	91.75
475.939	72.75
476.158	66.75
476.377	85.75
476.596	98.75
476.814	95.75
477.033	72.75
477.252	82.75
477.471	80.75
477.69	97.75
477.908	89.75
478.127	74.75
478.346	91.75
478.564	98.75
478.783	80.75
479.002	86.75
479.22	82.75
479.439	93.75
479.658	89.75
479.876	77.75
480.095	64.75
480.313	87.75
480.532	74.75
480.751	95.75
480.969	77.75
481.188	107.75
481.406	78.75
481.624	90.75
481.843	91.75
482.061	86.75
482.28	79.75
482.498	79.75
482.717	71.75
482.935	88.75
483.153	85.75
483.372	78.75
483.59	79.75
483.808	90.75
484.027	73.75
484.245	83.75
484.463	76.75
484.681	97.75
484.9	85.75
485.118	95.75
485.336	88.75
485.554	93.75
485.772	98.75
485.99	98.75
486.209	97.75
486.427	109.75
486.645	97.75
486.863	101.75
487.081	102.75
487.299	82.75
487.517	94.75
487.735	98.75
487.953	93.75
488.171	89.75
488.389	80.75
488.607	110.75
488.825	103.75
489.043	97.75
489.261	104.75
489.479	93.75
489.696	102.75
489.914	83.75
490.132	84.75
490.35	85.75
490.568	82.75
490.786	78.75
491.003	94.75
491.221	103.75
491.439	77.75
491.657	84.75
491.874	73.75
492.092	71.75
492.31	83.75
492.527	77.75
492.745	94.75
492.963	94.75
493.18	81.75
493.398	91.75
493.615	106.75
493.833	92.75
494.05	92.75
494.268	89.75
494.485	83.75
494.703	87.75
494.92	93.75
495.138	98.75
495.355	94.75
495.573	83.75
495.79	86.75
496.008	101.75
496.225	93.75
496.442	99.75
496.66	96.75
496.877	81.75
497.094	97.75
497.312	97.75
497.529	81.75
497.746	89.75
497.963	89.75
498.181	84.75
498.398	97.75
498.615	90.75
498.832	89.75
499.049	85.75
499.267	88.75
499.484	85.75
499.701	81.75
499.918	92.75
500.135	87.75
500.352	111.75
500.569	91.75
500.786	91.75
501.003	95.75
501.22	77.75
501.437	74.75
501.654	92.75
501.871	96.75
502.088	90.75
502.305	89.75
502.522	73.75
502.739	75.75
502.956	85.75
503.172	81.75
503.389	87.75
503.606	100.75
503.823	105.75
504.04	90.75
504.256	84.75
504.473	86.75
504.69	91.75
504.907	82.75
505.123	75.75
505.34	79.75
505.557	80.75
505.773	89.75
505.99	100.75
506.207	86.75
506.423	76.75
506.64	76.75
506.856	68.75
507.073	89.75
507.289	96.75
507.506	92.75
507.722	89.75
507.939	93.75
508.155	95.75
508.372	89.75
508.588	81.75
508.805	87.75
509.021	97.75
509.238	81.75
509.454	101.75
509.67	96.75
509.887	106.75
510.103	113.75
510.319	177.75
510.536	544.75
510.752	1565.75
510.968	464.75
511.184	114.75
511.401	100.75
511.617	91.75
511.833	94.75
512.049	76.75
512.265	76.75
512.481	82.75
512.698	98.75
512.914	82.75
513.13	66.75
513.346	83.75
513.562	79.75
513.778	91.75
513.994	93.75
514.21	96.75
514.426	104.75
514.642	108.75
514.858	102.75
515.074	125.75
515.29	301.75
515.506	920.75
515.721	340.75
515.937	113.75
516.153	93.75
516.369	86.75
516.585	96.75
516.801	85.75
517.016	77.75
517.232	84.75
517.448	94.75
517.664	80.75
