Data from Circ_1985_H10_HRD10591_00066.txt Node
Date: Wed Jan 03 12:19:35 EST 2024
User: Yrep
Spectrometer: HR+D1059
Trigger mode: 1
Integration Time (sec): 1.000000E-1
Scans to average: 1
Electric dark correction enabled: true
Nonlinearity correction enabled: false
Boxcar width: 0
XAxis mode: Wavelengths
Number of Pixels in Spectrum: 2048
>>>>>Begin Spectral Data<<<<<
223.165	-10.5
223.4	-10.5
223.635	-10.5
223.869	-19.5
224.104	-27.5
224.338	-21.5
224.573	-21.5
224.808	-11.5
225.042	-9.5
225.277	-9.5
225.511	2.5
225.746	8.5
225.98	20.5
226.215	14.5
226.449	18.5
226.683	17.5
226.918	15.5
227.152	33.5
227.387	31.5
227.621	48.5
227.856	38.5
228.09	39.5
228.324	45.5
228.559	68.5
228.793	173.5
229.027	434.5
229.262	471.5
229.496	572.5
229.73	751.5
229.964	740.5
230.199	538.5
230.433	446.5
230.667	460.5
230.901	451.5
231.136	418.5
231.37	449.5
231.604	446.5
231.838	443.5
232.072	445.5
232.306	440.5
232.541	442.5
232.775	470.5
233.009	451.5
233.243	473.5
233.477	469.5
233.711	476.5
233.945	490.5
234.179	494.5
234.413	515.5
234.647	516.5
234.881	490.5
235.115	512.5
235.349	519.5
235.583	574.5
235.817	557.5
236.051	616.5
236.285	590.5
236.519	596.5
236.753	704.5
236.987	868.5
237.221	1284.5
237.455	1389.5
237.689	844.5
237.922	703.5
238.156	690.5
238.39	662.5
238.624	638.5
238.858	614.5
239.091	626.5
239.325	656.5
239.559	670.5
239.793	681.5
240.027	721.5
240.26	840.5
240.494	926.5
240.728	911.5
240.961	872.5
241.195	806.5
241.429	781.5
241.662	736.5
241.896	768.5
242.13	744.5
242.363	751.5
242.597	764.5
242.83	834.5
243.064	807.5
243.298	822.5
243.531	802.5
243.765	819.5
243.998	834.5
244.232	840.5
244.465	878.5
244.699	873.5
244.932	894.5
245.166	888.5
245.399	917.5
245.633	913.5
245.866	896.5
246.099	879.5
246.333	932.5
246.566	908.5
246.8	949.5
247.033	982.5
247.266	1017.5
247.5	1105.5
247.733	1126.5
247.966	1117.5
248.2	1102.5
248.433	1124.5
248.666	1198.5
248.899	1274.5
249.133	1398.5
249.366	1358.5
249.599	1271.5
249.832	1244.5
250.066	1274.5
250.299	1356.5
250.532	1517.5
250.765	1720.5
250.998	1761.5
251.231	1665.5
251.465	1485.5
251.698	1410.5
251.931	1369.5
252.164	1360.5
252.397	1409.5
252.63	1407.5
252.863	1494.5
253.096	1624.5
253.329	1680.5
253.562	1577.5
253.795	1517.5
254.028	1496.5
254.261	1570.5
254.494	1749.5
254.727	2014.5
254.96	2139.5
255.193	1919.5
255.426	1790.5
255.659	1785.5
255.892	1944.5
256.124	2228.5
256.357	2098.5
256.59	1782.5
256.823	1684.5
257.056	1624.5
257.289	1570.5
257.521	1574.5
257.754	1573.5
257.987	1555.5
258.22	1512.5
258.452	1553.5
258.685	1514.5
258.918	1570.5
259.151	1582.5
259.383	1663.5
259.616	1638.5
259.849	1686.5
260.081	1858.5
260.314	1964.5
260.547	1951.5
260.779	1767.5
261.012	1722.5
261.244	1692.5
261.477	1678.5
261.71	1653.5
261.942	1703.5
262.175	1697.5
262.407	1677.5
262.64	1609.5
262.872	1630.5
263.105	1577.5
263.337	1620.5
263.57	1595.5
263.802	1646.5
264.035	1627.5
264.267	1666.5
264.499	1632.5
264.732	1682.5
264.964	1657.5
265.197	1680.5
265.429	1678.5
265.661	1685.5
265.894	1677.5
266.126	1725.5
266.358	1728.5
266.591	1775.5
266.823	1828.5
267.055	1830.5
267.287	1812.5
267.52	1828.5
267.752	1820.5
267.984	1827.5
268.216	1831.5
268.448	1913.5
268.681	1993.5
268.913	1992.5
269.145	2237.5
269.377	2277.5
269.609	2164.5
269.841	2158.5
270.073	2250.5
270.306	2530.5
270.538	2646.5
270.77	2537.5
271.002	2421.5
271.234	2401.5
271.466	2521.5
271.698	2617.5
271.93	2593.5
272.162	2602.5
272.394	2553.5
272.626	2406.5
272.858	2299.5
273.09	2228.5
273.322	2207.5
273.553	2181.5
273.785	2192.5
274.017	2168.5
274.249	2194.5
274.481	2200.5
274.713	2244.5
274.945	2222.5
275.176	2208.5
275.408	2209.5
275.64	2175.5
275.872	2244.5
276.104	2249.5
276.335	2230.5
276.567	2327.5
276.799	2474.5
277.031	2685.5
277.262	2780.5
277.494	2682.5
277.726	2551.5
277.957	2433.5
278.189	2387.5
278.421	2337.5
278.652	2360.5
278.884	2368.5
279.115	2313.5
279.347	2330.5
279.579	2290.5
279.81	2361.5
280.042	2357.5
280.273	2405.5
280.505	2367.5
280.736	2405.5
280.968	2376.5
281.199	2441.5
281.431	2407.5
281.662	2406.5
281.894	2442.5
282.125	2450.5
282.356	2588.5
282.588	2676.5
282.819	2596.5
283.051	2506.5
283.282	2470.5
283.513	2508.5
283.745	2584.5
283.976	2603.5
284.207	2617.5
284.439	2617.5
284.67	2534.5
284.901	2564.5
285.132	2594.5
285.364	2558.5
285.595	2574.5
285.826	2558.5
286.057	2561.5
286.288	2592.5
286.52	2609.5
286.751	2629.5
286.982	2620.5
287.213	2644.5
287.444	2672.5
287.675	2695.5
287.906	2821.5
288.138	2828.5
288.369	2868.5
288.6	2876.5
288.831	2781.5
289.062	2756.5
289.293	2750.5
289.524	2783.5
289.755	2757.5
289.986	2773.5
290.217	2787.5
290.448	2762.5
290.679	2777.5
290.91	2766.5
291.141	2793.5
291.371	2718.5
291.602	2804.5
291.833	2720.5
292.064	2786.5
292.295	2751.5
292.526	2716.5
292.757	2710.5
292.987	2736.5
293.218	2739.5
293.449	2816.5
293.68	2769.5
293.91	2787.5
294.141	2755.5
294.372	2762.5
294.603	2773.5
294.833	2807.5
295.064	2799.5
295.295	2831.5
295.525	2804.5
295.756	2842.5
295.987	2894.5
296.217	3065.5
296.448	2969.5
296.679	2842.5
296.909	2862.5
297.14	2883.5
297.37	2954.5
297.601	2964.5
297.831	3024.5
298.062	2946.5
298.292	2981.5
298.523	3032.5
298.753	3007.5
298.984	2992.5
299.214	2996.5
299.445	2999.5
299.675	2997.5
299.905	3055.5
300.136	3106.5
300.366	3142.5
300.597	3089.5
300.827	3196.5
301.057	3252.5
301.288	3300.5
301.518	3249.5
301.748	3244.5
301.979	3276.5
302.209	3277.5
302.439	3280.5
302.669	3208.5
302.9	3136.5
303.13	3181.5
303.36	3228.5
303.59	3269.5
303.82	3334.5
304.051	3247.5
304.281	3205.5
304.511	3128.5
304.741	3185.5
304.971	3181.5
305.201	3222.5
305.431	3198.5
305.661	3162.5
305.891	3167.5
306.121	3217.5
306.352	3262.5
306.582	3200.5
306.812	3142.5
307.042	3172.5
307.272	3242.5
307.502	3157.5
307.731	3235.5
307.961	3208.5
308.191	3202.5
308.421	3207.5
308.651	3236.5
308.881	3196.5
309.111	3227.5
309.341	3240.5
309.571	3362.5
309.8	3424.5
310.03	3455.5
310.26	3425.5
310.49	3420.5
310.72	3577.5
310.949	3614.5
311.179	3540.5
311.409	3454.5
311.639	3481.5
311.868	3478.5
312.098	3583.5
312.328	3554.5
312.557	3774.5
312.787	3746.5
313.017	3696.5
313.246	3618.5
313.476	3548.5
313.706	3649.5
313.935	3728.5
314.165	3752.5
314.394	3765.5
314.624	3733.5
314.853	3683.5
315.083	3688.5
315.312	3597.5
315.542	3593.5
315.771	3560.5
316.001	3587.5
316.23	3556.5
316.46	3551.5
316.689	3603.5
316.919	3632.5
317.148	3599.5
317.377	3593.5
317.607	3645.5
317.836	3588.5
318.065	3562.5
318.295	3528.5
318.524	3540.5
318.753	3553.5
318.983	3569.5
319.212	3546.5
319.441	3624.5
319.67	3596.5
319.9	3608.5
320.129	3617.5
320.358	3575.5
320.587	3589.5
320.816	3697.5
321.046	3708.5
321.275	3715.5
321.504	3756.5
321.733	3711.5
321.962	3781.5
322.191	3868.5
322.42	3997.5
322.649	4028.5
322.878	4066.5
323.108	4079.5
323.337	4315.5
323.566	4481.5
323.795	4692.5
324.024	5188.5
324.253	6572.5
324.482	9780.5
324.71	14185.5
324.939	15626.5
325.168	10918.5
325.397	6100.5
325.626	4984.5
325.855	4665.5
326.084	4558.5
326.313	4611.5
326.542	4698.5
326.77	5173.5
326.999	6462.5
327.228	9240.5
327.457	13385.5
327.686	12420.5
327.914	6916.5
328.143	5672.5
328.372	5471.5
328.6	5128.5
328.829	5036.5
329.058	5211.5
329.287	5108.5
329.515	4924.5
329.744	4846.5
329.972	5132.5
330.201	5455.5
330.43	5803.5
330.658	5607.5
330.887	5609.5
331.115	5174.5
331.344	4868.5
331.572	4789.5
331.801	4893.5
332.03	4864.5
332.258	4796.5
332.486	4842.5
332.715	5006.5
332.943	5111.5
333.172	5333.5
333.4	5497.5
333.629	5660.5
333.857	5849.5
334.085	5997.5
334.314	6371.5
334.542	6760.5
334.771	6462.5
334.999	5670.5
335.227	5329.5
335.455	5224.5
335.684	5033.5
335.912	4969.5
336.14	4829.5
336.369	4859.5
336.597	4885.5
336.825	4821.5
337.053	4758.5
337.281	4686.5
337.51	4649.5
337.738	4579.5
337.966	4518.5
338.194	4613.5
338.422	4512.5
338.65	4358.5
338.878	4392.5
339.106	4396.5
339.334	4356.5
339.562	4291.5
339.79	4233.5
340.018	4278.5
340.246	4268.5
340.474	4265.5
340.702	4327.5
340.93	4236.5
341.158	4256.5
341.386	4259.5
341.614	4207.5
341.842	4200.5
342.07	4161.5
342.298	4185.5
342.526	4085.5
342.754	4172.5
342.981	4171.5
343.209	4241.5
343.437	4478.5
343.665	4766.5
343.893	5072.5
344.12	5088.5
344.348	4728.5
344.576	4561.5
344.804	4517.5
345.031	4434.5
345.259	4456.5
345.487	4317.5
345.714	4220.5
345.942	4084.5
346.17	4108.5
346.397	4052.5
346.625	4028.5
346.853	4047.5
347.08	4028.5
347.308	3990.5
347.535	4136.5
347.763	4159.5
347.99	4099.5
348.218	4117.5
348.445	4144.5
348.673	4044.5
348.9	4002.5
349.128	4020.5
349.355	3920.5
349.583	3945.5
349.81	3898.5
350.037	3874.5
350.265	3903.5
350.492	3895.5
350.72	3950.5
350.947	3968.5
351.174	4017.5
351.402	4030.5
351.629	3987.5
351.856	4031.5
352.083	4054.5
352.311	4054.5
352.538	4078.5
352.765	4046.5
352.992	4034.5
353.22	3918.5
353.447	3917.5
353.674	3831.5
353.901	3838.5
354.128	3876.5
354.355	3825.5
354.583	3777.5
354.81	3824.5
355.037	3877.5
355.264	3782.5
355.491	3780.5
355.718	3857.5
355.945	3767.5
356.172	3844.5
356.399	3807.5
356.626	3837.5
356.853	3874.5
357.08	3737.5
357.307	3813.5
357.534	3781.5
357.761	3815.5
357.988	3863.5
358.215	3879.5
358.441	3849.5
358.668	3856.5
358.895	3920.5
359.122	3903.5
359.349	4025.5
359.576	4058.5
359.802	4201.5
360.029	4374.5
360.256	4365.5
360.483	4190.5
360.709	4103.5
360.936	4007.5
361.163	4052.5
361.39	4071.5
361.616	4025.5
361.843	4020.5
362.07	4076.5
362.296	4054.5
362.523	4063.5
362.749	4065.5
362.976	3923.5
363.203	3922.5
363.429	3937.5
363.656	3887.5
363.882	3924.5
364.109	3866.5
364.335	3898.5
364.562	3890.5
364.788	3892.5
365.015	3898.5
365.241	3906.5
365.468	3925.5
365.694	3941.5
365.92	3927.5
366.147	3876.5
366.373	3890.5
366.599	3911.5
366.826	3853.5
367.052	3828.5
367.278	3891.5
367.505	3934.5
367.731	3957.5
367.957	3931.5
368.184	3939.5
368.41	4034.5
368.636	4044.5
368.862	4072.5
369.089	4073.5
369.315	4028.5
369.541	3966.5
369.767	4025.5
369.993	4026.5
370.219	4014.5
370.445	4100.5
370.672	4084.5
370.898	4049.5
371.124	4156.5
371.35	4190.5
371.576	4166.5
371.802	4220.5
372.028	4096.5
372.254	4140.5
372.48	4202.5
372.706	4289.5
372.932	4316.5
373.158	4252.5
373.384	4272.5
373.61	4165.5
373.835	4178.5
374.061	4228.5
374.287	4255.5
374.513	4390.5
374.739	4434.5
374.965	4575.5
375.191	4590.5
375.416	4483.5
375.642	4345.5
375.868	4325.5
376.094	4302.5
376.319	4237.5
376.545	4198.5
376.771	4262.5
376.997	4164.5
377.222	4168.5
377.448	4095.5
377.674	4126.5
377.899	4136.5
378.125	4124.5
378.35	4088.5
378.576	4114.5
378.802	4124.5
379.027	4127.5
379.253	4150.5
379.478	4051.5
379.704	4103.5
379.929	4150.5
380.155	4167.5
380.38	4158.5
380.606	4190.5
380.831	4130.5
381.057	4152.5
381.282	4114.5
381.507	4208.5
381.733	4217.5
381.958	4210.5
382.184	4348.5
382.409	4440.5
382.634	4400.5
382.86	4393.5
383.085	4422.5
383.31	4570.5
383.535	4565.5
383.761	4612.5
383.986	4700.5
384.211	4800.5
384.436	4863.5
384.662	4937.5
384.887	5068.5
385.112	4984.5
385.337	5027.5
385.562	5015.5
385.787	5079.5
386.013	5078.5
386.238	5134.5
386.463	5103.5
386.688	5166.5
386.913	4983.5
387.138	4942.5
387.363	4957.5
387.588	4921.5
387.813	4915.5
388.038	4947.5
388.263	4997.5
388.488	5090.5
388.713	4989.5
388.938	4981.5
389.163	4931.5
389.387	4898.5
389.612	4863.5
389.837	4934.5
390.062	4886.5
390.287	4892.5
390.512	4861.5
390.736	4980.5
390.961	5070.5
391.186	5126.5
391.411	5264.5
391.636	5377.5
391.86	5553.5
392.085	5616.5
392.31	5523.5
392.534	5369.5
392.759	5305.5
392.984	5231.5
393.208	5225.5
393.433	5229.5
393.658	5273.5
393.882	5167.5
394.107	5166.5
394.331	5289.5
394.556	5226.5
394.78	5347.5
395.005	5330.5
395.229	5332.5
395.454	5490.5
395.678	5582.5
395.903	5624.5
396.127	5596.5
396.352	5494.5
396.576	5299.5
396.801	5286.5
397.025	5379.5
397.249	5489.5
397.474	5556.5
397.698	5563.5
397.922	5735.5
398.147	5785.5
398.371	5989.5
398.595	6073.5
398.82	6367.5
399.044	6877.5
399.268	7686.5
399.492	8720.5
399.717	9360.5
399.941	8992.5
400.165	8444.5
400.389	7694.5
400.613	6985.5
400.837	6570.5
401.062	6385.5
401.286	6273.5
401.51	6323.5
401.734	6241.5
401.958	6404.5
402.182	6450.5
402.406	6646.5
402.63	6632.5
402.854	6756.5
403.078	6768.5
403.302	6947.5
403.526	7085.5
403.75	7096.5
403.974	7200.5
404.198	7208.5
404.422	7295.5
404.645	7258.5
404.869	7256.5
405.093	7638.5
405.317	7913.5
405.541	7867.5
405.765	7313.5
405.988	7088.5
406.212	7156.5
406.436	7301.5
406.66	7496.5
406.883	7431.5
407.107	8120.5
407.331	8458.5
407.555	8895.5
407.778	8636.5
408.002	7985.5
408.226	7654.5
408.449	7530.5
408.673	7308.5
408.896	7591.5
409.12	7660.5
409.344	7248.5
409.567	6914.5
409.791	6945.5
410.014	6709.5
410.238	6661.5
410.461	6767.5
410.685	6850.5
410.908	6883.5
411.132	7097.5
411.355	7055.5
411.578	6779.5
411.802	6638.5
412.025	6651.5
412.249	6910.5
412.472	7217.5
412.695	7434.5
412.919	6885.5
413.142	6647.5
413.365	6496.5
413.589	6466.5
413.812	6344.5
414.035	6185.5
414.258	6299.5
414.482	6290.5
414.705	6333.5
414.928	6243.5
415.151	6213.5
415.374	6251.5
415.597	6118.5
415.821	6077.5
416.044	6094.5
416.267	6092.5
416.49	6065.5
416.713	5966.5
416.936	6153.5
417.159	6079.5
417.382	6190.5
417.605	6209.5
417.828	6314.5
418.051	6450.5
418.274	6320.5
418.497	6238.5
418.72	6288.5
418.943	6323.5
419.166	6693.5
419.389	7086.5
419.611	6996.5
419.834	6788.5
420.057	6732.5
420.28	6658.5
420.503	6596.5
420.726	6458.5
420.948	6598.5
421.171	6963.5
421.394	6827.5
421.617	6388.5
421.839	6295.5
422.062	6374.5
422.285	6623.5
422.507	7201.5
422.73	7540.5
422.953	7084.5
423.175	6760.5
423.398	6801.5
423.621	6776.5
423.843	7034.5
424.066	6953.5
424.288	6901.5
424.511	7074.5
424.733	7488.5
424.956	7857.5
425.178	7414.5
425.401	7582.5
425.623	7381.5
425.846	6519.5
426.068	6368.5
426.291	6292.5
426.513	6303.5
426.735	6440.5
426.958	6746.5
427.18	7428.5
427.402	8474.5
427.625	8524.5
427.847	7489.5
428.069	6963.5
428.292	6362.5
428.514	5882.5
428.736	5752.5
428.958	5790.5
429.181	5606.5
429.403	5592.5
429.625	5769.5
429.847	6052.5
430.069	6574.5
430.292	6148.5
430.514	5572.5
430.736	5674.5
430.958	5479.5
431.18	5436.5
431.402	5408.5
431.624	5466.5
431.846	5613.5
432.068	5656.5
432.29	5628.5
432.512	5544.5
432.734	5636.5
432.956	5593.5
433.178	5665.5
433.4	5563.5
433.622	5536.5
433.844	5648.5
434.066	5625.5
434.287	5690.5
434.509	5926.5
434.731	6113.5
434.953	6254.5
435.175	6280.5
435.397	6451.5
435.618	6339.5
435.84	6630.5
436.062	7374.5
436.284	7316.5
436.505	6288.5
436.727	5968.5
436.949	5734.5
437.17	5662.5
437.392	5597.5
437.614	5788.5
437.835	6005.5
438.057	6810.5
438.278	7460.5
438.5	7412.5
438.721	8080.5
438.943	7174.5
439.165	6114.5
439.386	5928.5
439.608	5965.5
439.829	6065.5
440.05	6423.5
440.272	6748.5
440.493	6144.5
440.715	5953.5
440.936	5919.5
441.158	5933.5
441.379	6102.5
441.6	6292.5
441.822	6589.5
442.043	6968.5
442.264	7599.5
442.486	7304.5
442.707	6632.5
442.928	6482.5
443.149	6643.5
443.371	6831.5
443.592	7329.5
443.813	8193.5
444.034	8146.5
444.255	7212.5
444.476	7068.5
444.698	7262.5
444.919	7318.5
445.14	7155.5
445.361	6958.5
445.582	7124.5
445.803	7505.5
446.024	8102.5
446.245	7826.5
446.466	6968.5
446.687	6110.5
446.908	5871.5
447.129	5618.5
447.35	5459.5
447.571	5466.5
447.792	5412.5
448.013	5449.5
448.234	5470.5
448.455	6167.5
448.675	7271.5
448.896	7582.5
449.117	6388.5
449.338	6576.5
449.559	7740.5
449.779	7916.5
450	6078.5
450.221	5520.5
450.442	5292.5
450.662	5189.5
450.883	5300.5
451.104	5403.5
451.324	5236.5
451.545	5118.5
451.766	4993.5
451.986	4903.5
452.207	4863.5
452.428	4807.5
452.648	4940.5
452.869	4958.5
453.089	5013.5
453.31	5041.5
453.53	4840.5
453.751	4855.5
453.971	4843.5
454.192	4982.5
454.412	4801.5
454.633	4766.5
454.853	4786.5
455.073	4763.5
455.294	5077.5
455.514	5558.5
455.734	5148.5
455.955	4568.5
456.175	4567.5
456.395	4542.5
456.616	4487.5
456.836	4520.5
457.056	4474.5
457.276	4406.5
457.497	4537.5
457.717	4567.5
457.937	4656.5
458.157	4681.5
458.377	4830.5
458.598	5091.5
458.818	5662.5
459.038	6364.5
459.258	6270.5
459.478	5669.5
459.698	5542.5
459.918	5705.5
460.138	5859.5
460.358	6060.5
460.578	6088.5
460.798	6178.5
461.018	6147.5
461.238	5979.5
461.458	6032.5
461.678	5957.5
461.898	6143.5
462.118	6243.5
462.338	6480.5
462.558	6658.5
462.777	6888.5
462.997	7530.5
463.217	7944.5
463.437	7706.5
463.657	7137.5
463.876	6888.5
464.096	6996.5
464.316	6879.5
464.536	6905.5
464.755	6733.5
464.975	6633.5
465.195	6694.5
465.414	6613.5
465.634	5935.5
465.854	5656.5
466.073	5441.5
466.293	5271.5
466.512	5112.5
466.732	5040.5
466.951	4999.5
467.171	5005.5
467.391	5097.5
467.61	5064.5
467.829	5043.5
468.049	5109.5
468.268	5077.5
468.488	4930.5
468.707	4915.5
468.927	4850.5
469.146	4875.5
469.365	4927.5
469.585	4950.5
469.804	5134.5
470.023	5237.5
470.243	5209.5
470.462	5267.5
470.681	5433.5
470.901	5368.5
471.12	5172.5
471.339	5149.5
471.558	5118.5
471.777	5062.5
471.997	5038.5
472.216	5245.5
472.435	5574.5
472.654	5281.5
472.873	5094.5
473.092	4920.5
473.311	4890.5
473.53	4960.5
473.749	5054.5
473.968	5493.5
474.187	6336.5
474.406	5900.5
474.625	5146.5
474.844	4959.5
475.063	4834.5
475.282	4869.5
475.501	4941.5
475.72	4948.5
475.939	4940.5
476.158	5116.5
476.377	5087.5
476.596	5091.5
476.814	5225.5
477.033	5242.5
477.252	5258.5
477.471	5335.5
477.69	5437.5
477.908	5554.5
478.127	5757.5
478.346	5816.5
478.564	5861.5
478.783	5986.5
479.002	6128.5
479.22	6122.5
479.439	6161.5
479.658	6316.5
479.876	6428.5
480.095	6541.5
480.313	6927.5
480.532	6861.5
480.751	6786.5
480.969	6946.5
481.188	7742.5
481.406	7518.5
481.624	6665.5
481.843	6371.5
482.061	6090.5
482.28	5887.5
482.498	5817.5
482.717	5865.5
482.935	5826.5
483.153	5721.5
483.372	5792.5
483.59	5692.5
483.808	5732.5
484.027	5776.5
484.245	5751.5
484.463	5842.5
484.681	5844.5
484.9	5881.5
485.118	6002.5
485.336	6038.5
485.554	6117.5
485.772	6081.5
485.99	6183.5
486.209	6073.5
486.427	6205.5
486.645	6246.5
486.863	6353.5
487.081	6163.5
487.299	6198.5
487.517	6191.5
487.735	6138.5
487.953	6096.5
488.171	6161.5
488.389	6145.5
488.607	6184.5
488.825	6159.5
489.043	6151.5
489.261	6332.5
489.479	6293.5
489.696	6261.5
489.914	6352.5
490.132	6446.5
490.35	6480.5
490.568	6657.5
490.786	6678.5
491.003	6739.5
491.221	6984.5
491.439	7088.5
491.657	7119.5
491.874	7221.5
492.092	7246.5
492.31	7268.5
492.527	7286.5
492.745	7472.5
492.963	7409.5
493.18	7484.5
493.398	7462.5
493.615	7585.5
493.833	7600.5
494.05	7528.5
494.268	7487.5
494.485	7429.5
494.703	7472.5
494.92	7414.5
495.138	7478.5
495.355	7398.5
495.573	7420.5
495.79	7373.5
496.008	7420.5
496.225	7333.5
496.442	7337.5
496.66	7409.5
496.877	7446.5
497.094	7536.5
497.312	7610.5
497.529	7821.5
497.746	7918.5
497.963	8190.5
498.181	8597.5
498.398	8782.5
498.615	9196.5
498.832	9594.5
499.049	10121.5
499.267	10759.5
499.484	11458.5
499.701	12296.5
499.918	13169.5
500.135	14041.5
500.352	14657.5
500.569	14808.5
500.786	14697.5
501.003	14202.5
501.22	13552.5
501.437	12699.5
501.654	11862.5
501.871	11222.5
502.088	10494.5
502.305	9842.5
502.522	9340.5
502.739	9092.5
502.956	8544.5
503.172	8277.5
503.389	8094.5
503.606	7884.5
