Data from Circ_1985_H10_HRD10591_00088.txt Node
Date: Wed Jan 03 12:19:40 EST 2024
User: Yrep
Spectrometer: HR+D1059
Trigger mode: 1
Integration Time (sec): 1.000000E-1
Scans to average: 1
Electric dark correction enabled: true
Nonlinearity correction enabled: false
Boxcar width: 0
XAxis mode: Wavelengths
Number of Pixels in Spectrum: 2048
>>>>>Begin Spectral Data<<<<<
223.165	-18.94
223.4	-18.94
223.635	-18.94
223.869	-4.94
224.104	-9.94
224.338	-14.94
224.573	-13.94
224.808	-4.94
225.042	-14.94
225.277	-7.94
225.511	-9.94
225.746	-7.94
225.98	9.06
226.215	21.06
226.449	17.06
226.683	13.06
226.918	22.06
227.152	26.06
227.387	49.06
227.621	38.06
227.856	36.06
228.09	49.06
228.324	56.06
228.559	52.06
228.793	64.06
229.027	68.06
229.262	71.06
229.496	79.06
229.73	68.06
229.964	74.06
230.199	65.06
230.433	86.06
230.667	88.06
230.901	82.06
231.136	70.06
231.37	86.06
231.604	98.06
231.838	65.06
232.072	86.06
232.306	88.06
232.541	80.06
232.775	93.06
233.009	96.06
233.243	79.06
233.477	88.06
233.711	99.06
233.945	90.06
234.179	89.06
234.413	80.06
234.647	84.06
234.881	80.06
235.115	69.06
235.349	75.06
235.583	83.06
235.817	64.06
236.051	84.06
236.285	86.06
236.519	92.06
236.753	81.06
236.987	91.06
237.221	74.06
237.455	84.06
237.689	68.06
237.922	84.06
238.156	92.06
238.39	82.06
238.624	78.06
238.858	73.06
239.091	60.06
239.325	75.06
239.559	87.06
239.793	77.06
240.027	74.06
240.26	75.06
240.494	68.06
240.728	72.06
240.961	73.06
241.195	80.06
241.429	77.06
241.662	73.06
241.896	72.06
242.13	75.06
242.363	85.06
242.597	74.06
242.83	75.06
243.064	91.06
243.298	66.06
243.531	68.06
243.765	71.06
243.998	93.06
244.232	77.06
244.465	80.06
244.699	86.06
244.932	85.06
245.166	80.06
245.399	72.06
245.633	82.06
245.866	70.06
246.099	90.06
246.333	73.06
246.566	84.06
246.8	80.06
247.033	83.06
247.266	83.06
247.5	78.06
247.733	74.06
247.966	81.06
248.2	74.06
248.433	71.06
248.666	73.06
248.899	84.06
249.133	74.06
249.366	90.06
249.599	90.06
249.832	75.06
250.066	95.06
250.299	86.06
250.532	90.06
250.765	69.06
250.998	77.06
251.231	77.06
251.465	81.06
251.698	80.06
251.931	72.06
252.164	76.06
252.397	80.06
252.63	75.06
252.863	85.06
253.096	85.06
253.329	69.06
253.562	80.06
253.795	78.06
254.028	65.06
254.261	84.06
254.494	93.06
254.727	82.06
254.96	76.06
255.193	77.06
255.426	85.06
255.659	77.06
255.892	87.06
256.124	77.06
256.357	78.06
256.59	87.06
256.823	85.06
257.056	88.06
257.289	89.06
257.521	57.06
257.754	72.06
257.987	86.06
258.22	94.06
258.452	94.06
258.685	79.06
258.918	80.06
259.151	84.06
259.383	92.06
259.616	69.06
259.849	64.06
260.081	87.06
260.314	71.06
260.547	85.06
260.779	87.06
261.012	96.06
261.244	91.06
261.477	85.06
261.71	70.06
261.942	107.06
262.175	105.06
262.407	79.06
262.64	94.06
262.872	95.06
263.105	87.06
263.337	83.06
263.57	82.06
263.802	98.06
264.035	89.06
264.267	81.06
264.499	93.06
264.732	79.06
264.964	74.06
265.197	76.06
265.429	100.06
265.661	88.06
265.894	84.06
266.126	98.06
266.358	81.06
266.591	70.06
266.823	86.06
267.055	97.06
267.287	81.06
267.52	75.06
267.752	90.06
267.984	86.06
268.216	98.06
268.448	84.06
268.681	95.06
268.913	91.06
269.145	83.06
269.377	77.06
269.609	80.06
269.841	85.06
270.073	82.06
270.306	86.06
270.538	93.06
270.77	91.06
271.002	93.06
271.234	84.06
271.466	83.06
271.698	89.06
271.93	104.06
272.162	91.06
272.394	98.06
272.626	93.06
272.858	83.06
273.09	86.06
273.322	95.06
273.553	89.06
273.785	78.06
274.017	80.06
274.249	84.06
274.481	93.06
274.713	100.06
274.945	86.06
275.176	107.06
275.408	107.06
275.64	93.06
275.872	79.06
276.104	89.06
276.335	94.06
276.567	105.06
276.799	106.06
277.031	91.06
277.262	86.06
277.494	110.06
277.726	86.06
277.957	74.06
278.189	77.06
278.421	77.06
278.652	93.06
278.884	85.06
279.115	87.06
279.347	83.06
279.579	89.06
279.81	78.06
280.042	90.06
280.273	97.06
280.505	88.06
280.736	91.06
280.968	85.06
281.199	96.06
281.431	83.06
281.662	85.06
281.894	88.06
282.125	93.06
282.356	107.06
282.588	123.06
282.819	118.06
283.051	90.06
283.282	90.06
283.513	91.06
283.745	91.06
283.976	86.06
284.207	75.06
284.439	101.06
284.67	84.06
284.901	92.06
285.132	97.06
285.364	100.06
285.595	86.06
285.826	92.06
286.057	90.06
286.288	87.06
286.52	96.06
286.751	90.06
286.982	99.06
287.213	90.06
287.444	92.06
287.675	90.06
287.906	95.06
288.138	96.06
288.369	101.06
288.6	83.06
288.831	94.06
289.062	89.06
289.293	81.06
289.524	97.06
289.755	81.06
289.986	107.06
290.217	84.06
290.448	91.06
290.679	76.06
290.91	96.06
291.141	92.06
291.371	91.06
291.602	79.06
291.833	96.06
292.064	73.06
292.295	100.06
292.526	100.06
292.757	102.06
292.987	99.06
293.218	81.06
293.449	99.06
293.68	105.06
293.91	93.06
294.141	83.06
294.372	85.06
294.603	83.06
294.833	99.06
295.064	93.06
295.295	89.06
295.525	94.06
295.756	113.06
295.987	117.06
296.217	120.06
296.448	132.06
296.679	87.06
296.909	102.06
297.14	102.06
297.37	96.06
297.601	85.06
297.831	100.06
298.062	94.06
298.292	89.06
298.523	87.06
298.753	96.06
298.984	75.06
299.214	91.06
299.445	106.06
299.675	108.06
299.905	103.06
300.136	106.06
300.366	102.06
300.597	89.06
300.827	101.06
301.057	91.06
301.288	98.06
301.518	72.06
301.748	86.06
301.979	98.06
302.209	90.06
302.439	82.06
302.669	97.06
302.9	84.06
303.13	107.06
303.36	89.06
303.59	112.06
303.82	116.06
304.051	106.06
304.281	93.06
304.511	103.06
304.741	80.06
304.971	84.06
305.201	76.06
305.431	94.06
305.661	93.06
305.891	93.06
306.121	92.06
306.352	95.06
306.582	88.06
306.812	78.06
307.042	88.06
307.272	96.06
307.502	100.06
307.731	99.06
307.961	109.06
308.191	89.06
308.421	101.06
308.651	106.06
308.881	88.06
309.111	99.06
309.341	94.06
309.571	98.06
309.8	101.06
310.03	110.06
310.26	93.06
310.49	97.06
310.72	109.06
310.949	94.06
311.179	98.06
311.409	101.06
311.639	103.06
311.868	97.06
312.098	107.06
312.328	104.06
312.557	101.06
312.787	84.06
313.017	103.06
313.246	97.06
313.476	86.06
313.706	97.06
313.935	93.06
314.165	95.06
314.394	95.06
314.624	90.06
314.853	98.06
315.083	91.06
315.312	101.06
315.542	86.06
315.771	90.06
316.001	93.06
316.23	88.06
316.46	97.06
316.689	101.06
316.919	92.06
317.148	85.06
317.377	101.06
317.607	99.06
317.836	94.06
318.065	92.06
318.295	86.06
318.524	102.06
318.753	98.06
318.983	81.06
319.212	107.06
319.441	106.06
319.67	96.06
319.9	97.06
320.129	95.06
320.358	94.06
320.587	100.06
320.816	82.06
321.046	98.06
321.275	103.06
321.504	109.06
321.733	93.06
321.962	98.06
322.191	108.06
322.42	121.06
322.649	112.06
322.878	97.06
323.108	115.06
323.337	121.06
323.566	136.06
323.795	135.06
324.024	197.06
324.253	355.06
324.482	746.06
324.71	1521.06
324.939	1960.06
325.168	720.06
325.397	219.06
325.626	143.06
325.855	134.06
326.084	114.06
326.313	142.06
326.542	159.06
326.77	202.06
326.999	408.06
327.228	854.06
327.457	1571.06
327.686	1259.06
327.914	357.06
328.143	184.06
328.372	156.06
328.6	124.06
328.829	106.06
329.058	108.06
329.287	120.06
329.515	111.06
329.744	118.06
329.972	106.06
330.201	115.06
330.43	148.06
330.658	126.06
330.887	125.06
331.115	122.06
331.344	104.06
331.572	100.06
331.801	100.06
332.03	97.06
332.258	88.06
332.486	92.06
332.715	96.06
332.943	88.06
333.172	103.06
333.4	96.06
333.629	110.06
333.857	97.06
334.085	128.06
334.314	138.06
334.542	156.06
334.771	145.06
334.999	100.06
335.227	104.06
335.455	92.06
335.684	92.06
335.912	93.06
336.14	102.06
336.369	98.06
336.597	101.06
336.825	99.06
337.053	92.06
337.281	85.06
337.51	100.06
337.738	92.06
337.966	93.06
338.194	98.06
338.422	90.06
338.65	87.06
338.878	96.06
339.106	105.06
339.334	101.06
339.562	97.06
339.79	90.06
340.018	92.06
340.246	100.06
340.474	92.06
340.702	109.06
340.93	103.06
341.158	96.06
341.386	104.06
341.614	97.06
341.842	101.06
342.07	104.06
342.298	99.06
342.526	92.06
342.754	90.06
342.981	80.06
343.209	88.06
343.437	105.06
343.665	95.06
343.893	74.06
344.12	114.06
344.348	90.06
344.576	92.06
344.804	96.06
345.031	91.06
345.259	86.06
345.487	77.06
345.714	91.06
345.942	91.06
346.17	96.06
346.397	109.06
346.625	94.06
346.853	85.06
347.08	88.06
347.308	97.06
347.535	90.06
347.763	98.06
347.99	107.06
348.218	93.06
348.445	123.06
348.673	100.06
348.9	92.06
349.128	96.06
349.355	88.06
349.583	98.06
349.81	96.06
350.037	91.06
350.265	102.06
350.492	92.06
350.72	87.06
350.947	92.06
351.174	93.06
351.402	102.06
351.629	106.06
351.856	99.06
352.083	109.06
352.311	104.06
352.538	97.06
352.765	108.06
352.992	101.06
353.22	95.06
353.447	100.06
353.674	97.06
353.901	83.06
354.128	87.06
354.355	90.06
354.583	108.06
354.81	92.06
355.037	96.06
355.264	87.06
355.491	100.06
355.718	95.06
355.945	103.06
356.172	78.06
356.399	86.06
356.626	97.06
356.853	92.06
357.08	100.06
357.307	93.06
357.534	100.06
357.761	110.06
357.988	97.06
358.215	95.06
358.441	91.06
358.668	93.06
358.895	86.06
359.122	98.06
359.349	90.06
359.576	107.06
359.802	104.06
360.029	109.06
360.256	128.06
360.483	96.06
360.709	85.06
360.936	100.06
361.163	93.06
361.39	104.06
361.616	89.06
361.843	73.06
362.07	73.06
362.296	100.06
362.523	90.06
362.749	85.06
362.976	108.06
363.203	86.06
363.429	89.06
363.656	105.06
363.882	109.06
364.109	101.06
364.335	99.06
364.562	92.06
364.788	81.06
365.015	87.06
365.241	92.06
365.468	111.06
365.694	100.06
365.92	101.06
366.147	74.06
366.373	97.06
366.599	88.06
366.826	81.06
367.052	85.06
367.278	102.06
367.505	91.06
367.731	100.06
367.957	95.06
368.184	93.06
368.41	106.06
368.636	107.06
368.862	115.06
369.089	105.06
369.315	108.06
369.541	91.06
369.767	98.06
369.993	84.06
370.219	96.06
370.445	100.06
370.672	99.06
370.898	84.06
371.124	84.06
371.35	88.06
371.576	89.06
371.802	99.06
372.028	84.06
372.254	101.06
372.48	81.06
372.706	96.06
372.932	94.06
373.158	88.06
373.384	102.06
373.61	90.06
373.835	91.06
374.061	102.06
374.287	93.06
374.513	92.06
374.739	100.06
374.965	102.06
375.191	106.06
375.416	90.06
375.642	84.06
375.868	89.06
376.094	87.06
376.319	91.06
376.545	101.06
376.771	91.06
376.997	93.06
377.222	85.06
377.448	81.06
377.674	85.06
377.899	94.06
378.125	110.06
378.35	87.06
378.576	92.06
378.802	86.06
379.027	97.06
379.253	88.06
379.478	105.06
379.704	83.06
379.929	92.06
380.155	91.06
380.38	111.06
380.606	77.06
380.831	90.06
381.057	96.06
381.282	82.06
381.507	88.06
381.733	113.06
381.958	102.06
382.184	101.06
382.409	95.06
382.634	100.06
382.86	112.06
383.085	98.06
383.31	97.06
383.535	85.06
383.761	101.06
383.986	107.06
384.211	115.06
384.436	96.06
384.662	90.06
384.887	106.06
385.112	94.06
385.337	112.06
385.562	112.06
385.787	101.06
386.013	105.06
386.238	96.06
386.463	100.06
386.688	100.06
386.913	89.06
387.138	106.06
387.363	116.06
387.588	107.06
387.813	107.06
388.038	97.06
388.263	104.06
388.488	98.06
388.713	97.06
388.938	107.06
389.163	103.06
389.387	98.06
389.612	103.06
389.837	87.06
390.062	90.06
390.287	101.06
390.512	94.06
390.736	105.06
390.961	104.06
391.186	91.06
391.411	98.06
391.636	99.06
391.86	83.06
392.085	83.06
392.31	81.06
392.534	90.06
392.759	84.06
392.984	84.06
393.208	99.06
393.433	108.06
393.658	83.06
393.882	88.06
394.107	91.06
394.331	97.06
394.556	84.06
394.78	73.06
395.005	89.06
395.229	74.06
395.454	82.06
395.678	83.06
395.903	90.06
396.127	90.06
396.352	96.06
396.576	95.06
396.801	97.06
397.025	90.06
397.249	100.06
397.474	97.06
397.698	97.06
397.922	87.06
398.147	96.06
398.371	94.06
398.595	86.06
398.82	92.06
399.044	83.06
399.268	71.06
399.492	80.06
399.717	100.06
399.941	89.06
400.165	84.06
400.389	96.06
400.613	89.06
400.837	92.06
401.062	86.06
401.286	82.06
401.51	85.06
401.734	91.06
401.958	104.06
402.182	115.06
402.406	151.06
402.63	113.06
402.854	109.06
403.078	105.06
403.302	98.06
403.526	85.06
403.75	86.06
403.974	86.06
404.198	86.06
404.422	96.06
404.645	95.06
404.869	94.06
405.093	105.06
405.317	105.06
405.541	96.06
405.765	94.06
405.988	121.06
406.212	154.06
406.436	194.06
406.66	122.06
406.883	104.06
407.107	81.06
407.331	91.06
407.555	96.06
407.778	85.06
408.002	90.06
408.226	86.06
408.449	90.06
408.673	104.06
408.896	92.06
409.12	90.06
409.344	82.06
409.567	82.06
409.791	95.06
410.014	98.06
410.238	108.06
410.461	89.06
410.685	82.06
410.908	105.06
411.132	110.06
411.355	84.06
411.578	94.06
411.802	113.06
412.025	80.06
412.249	94.06
412.472	102.06
412.695	97.06
412.919	92.06
413.142	94.06
413.365	74.06
413.589	92.06
413.812	109.06
414.035	85.06
414.258	94.06
414.482	87.06
414.705	94.06
414.928	96.06
415.151	92.06
415.374	98.06
415.597	89.06
415.821	87.06
416.044	91.06
416.267	101.06
416.49	80.06
416.713	82.06
416.936	103.06
417.159	78.06
417.382	72.06
417.605	81.06
417.828	90.06
418.051	89.06
418.274	93.06
418.497	84.06
418.72	90.06
418.943	108.06
419.166	89.06
419.389	89.06
419.611	93.06
419.834	92.06
420.057	83.06
420.28	91.06
420.503	80.06
420.726	85.06
420.948	98.06
421.171	97.06
421.394	100.06
421.617	86.06
421.839	100.06
422.062	96.06
422.285	92.06
422.507	96.06
422.73	103.06
422.953	91.06
423.175	89.06
423.398	84.06
423.621	100.06
423.843	93.06
424.066	75.06
424.288	91.06
424.511	88.06
424.733	91.06
424.956	96.06
425.178	106.06
425.401	93.06
425.623	110.06
425.846	92.06
426.068	101.06
426.291	98.06
426.513	100.06
426.735	93.06
426.958	96.06
427.18	88.06
427.402	120.06
427.625	142.06
427.847	128.06
428.069	106.06
428.292	98.06
428.514	98.06
428.736	88.06
428.958	82.06
429.181	78.06
429.403	81.06
429.625	92.06
429.847	88.06
430.069	88.06
430.292	94.06
430.514	82.06
430.736	90.06
430.958	96.06
431.18	93.06
431.402	79.06
431.624	101.06
431.846	84.06
432.068	75.06
432.29	90.06
432.512	91.06
432.734	92.06
432.956	98.06
433.178	98.06
433.4	89.06
433.622	90.06
433.844	101.06
434.066	90.06
434.287	86.06
434.509	79.06
434.731	97.06
434.953	88.06
435.175	92.06
435.397	96.06
435.618	89.06
435.84	90.06
436.062	104.06
436.284	109.06
436.505	101.06
436.727	104.06
436.949	94.06
437.17	90.06
437.392	87.06
437.614	101.06
437.835	98.06
438.057	82.06
438.278	113.06
438.5	101.06
438.721	125.06
438.943	109.06
439.165	100.06
439.386	83.06
439.608	97.06
439.829	101.06
440.05	100.06
440.272	107.06
440.493	92.06
440.715	85.06
440.936	87.06
441.158	86.06
441.379	90.06
441.6	78.06
441.822	88.06
442.043	104.06
442.264	94.06
442.486	96.06
442.707	93.06
442.928	106.06
443.149	117.06
443.371	109.06
443.592	108.06
443.813	116.06
444.034	87.06
444.255	96.06
444.476	84.06
444.698	84.06
444.919	84.06
445.14	132.06
445.361	119.06
445.582	100.06
445.803	109.06
446.024	125.06
446.245	121.06
446.466	97.06
446.687	95.06
446.908	78.06
447.129	99.06
447.35	93.06
447.571	103.06
447.792	93.06
448.013	80.06
448.234	93.06
448.455	94.06
448.675	95.06
448.896	105.06
449.117	97.06
449.338	105.06
449.559	120.06
449.779	123.06
450	89.06
450.221	80.06
450.442	98.06
450.662	95.06
450.883	105.06
451.104	121.06
451.324	81.06
451.545	89.06
451.766	91.06
451.986	94.06
452.207	89.06
452.428	98.06
452.648	107.06
452.869	89.06
453.089	113.06
453.31	108.06
453.53	84.06
453.751	95.06
453.971	109.06
454.192	105.06
454.412	94.06
454.633	86.06
454.853	80.06
455.073	74.06
455.294	93.06
455.514	109.06
455.734	93.06
455.955	104.06
456.175	94.06
456.395	84.06
456.616	98.06
456.836	80.06
457.056	92.06
457.276	86.06
457.497	90.06
457.717	70.06
457.937	82.06
458.157	80.06
458.377	103.06
458.598	104.06
458.818	125.06
459.038	126.06
459.258	106.06
459.478	74.06
459.698	76.06
459.918	79.06
460.138	84.06
460.358	90.06
460.578	86.06
460.798	93.06
461.018	91.06
461.238	77.06
461.458	87.06
461.678	94.06
461.898	88.06
462.118	83.06
462.338	87.06
462.558	97.06
462.777	92.06
462.997	90.06
463.217	94.06
463.437	78.06
463.657	93.06
463.876	77.06
464.096	86.06
464.316	101.06
464.536	99.06
464.755	90.06
464.975	97.06
465.195	144.06
465.414	137.06
465.634	81.06
465.854	73.06
466.073	91.06
466.293	85.06
466.512	102.06
466.732	90.06
466.951	91.06
467.171	104.06
467.391	90.06
467.61	92.06
467.829	101.06
468.049	93.06
468.268	132.06
468.488	86.06
468.707	83.06
468.927	87.06
469.146	78.06
469.365	85.06
469.585	85.06
469.804	99.06
470.023	80.06
470.243	73.06
470.462	92.06
470.681	108.06
470.901	87.06
471.12	99.06
471.339	89.06
471.558	97.06
471.777	90.06
471.997	99.06
472.216	129.06
472.435	189.06
472.654	102.06
472.873	82.06
473.092	94.06
473.311	80.06
473.53	82.06
473.749	88.06
473.968	90.06
474.187	92.06
474.406	98.06
474.625	88.06
474.844	85.06
475.063	85.06
475.282	92.06
475.501	97.06
475.72	95.06
475.939	92.06
476.158	82.06
476.377	102.06
476.596	87.06
476.814	105.06
477.033	110.06
477.252	101.06
477.471	92.06
477.69	77.06
477.908	103.06
478.127	84.06
478.346	103.06
478.564	86.06
478.783	107.06
479.002	81.06
479.22	102.06
479.439	85.06
479.658	104.06
479.876	89.06
480.095	94.06
480.313	109.06
480.532	86.06
480.751	99.06
480.969	137.06
481.188	301.06
481.406	197.06
481.624	100.06
481.843	106.06
482.061	85.06
482.28	96.06
482.498	92.06
482.717	93.06
482.935	86.06
483.153	98.06
483.372	97.06
483.59	98.06
483.808	95.06
484.027	102.06
484.245	94.06
484.463	101.06
484.681	96.06
484.9	98.06
485.118	101.06
485.336	102.06
485.554	83.06
485.772	113.06
485.99	98.06
486.209	89.06
486.427	99.06
486.645	107.06
486.863	96.06
487.081	85.06
487.299	91.06
487.517	93.06
487.735	92.06
487.953	84.06
488.171	108.06
488.389	90.06
488.607	94.06
488.825	97.06
489.043	77.06
489.261	87.06
489.479	90.06
489.696	94.06
489.914	100.06
490.132	105.06
490.35	96.06
490.568	80.06
490.786	76.06
491.003	88.06
491.221	97.06
491.439	86.06
491.657	99.06
491.874	86.06
492.092	102.06
492.31	96.06
492.527	77.06
492.745	75.06
492.963	103.06
493.18	88.06
493.398	96.06
493.615	83.06
493.833	96.06
494.05	100.06
494.268	95.06
494.485	88.06
494.703	101.06
494.92	99.06
495.138	87.06
495.355	84.06
495.573	93.06
495.79	85.06
496.008	97.06
496.225	90.06
496.442	92.06
496.66	92.06
496.877	98.06
497.094	106.06
497.312	84.06
497.529	86.06
497.746	102.06
497.963	97.06
498.181	96.06
498.398	90.06
498.615	114.06
498.832	110.06
499.049	73.06
499.267	92.06
499.484	102.06
499.701	92.06
499.918	86.06
500.135	94.06
500.352	93.06
500.569	81.06
500.786	98.06
501.003	96.06
501.22	80.06
501.437	97.06
501.654	89.06
501.871	102.06
502.088	90.06
502.305	80.06
502.522	101.06
502.739	93.06
502.956	89.06
503.172	95.06
503.389	84.06
503.606	98.06
503.823	78.06
504.04	85.06
504.256	98.06
504.473	89.06
504.69	90.06
504.907	86.06
505.123	77.06
505.34	82.06
505.557	102.06
505.773	91.06
505.99	90.06
506.207	81.06
506.423	97.06
506.64	84.06
506.856	84.06
507.073	96.06
507.289	92.06
507.506	86.06
507.722	108.06
507.939	104.06
508.155	108.06
508.372	101.06
508.588	104.06
508.805	89.06
509.021	98.06
509.238	101.06
509.454	101.06
509.67	93.06
509.887	101.06
510.103	109.06
510.319	202.06
510.536	645.06
510.752	1960.06
510.968	562.06
511.184	139.06
511.401	100.06
511.617	85.06
511.833	100.06
512.049	93.06
512.265	105.06
512.481	91.06
512.698	104.06
512.914	87.06
513.13	89.06
513.346	107.06
513.562	89.06
513.778	92.06
513.994	93.06
514.21	87.06
514.426	111.06
514.642	117.06
514.858	111.06
515.074	149.06
