Data from Circ_1985_H10_HRD10591_00093.txt Node
Date: Wed Jan 03 12:19:41 EST 2024
User: Yrep
Spectrometer: HR+D1059
Trigger mode: 1
Integration Time (sec): 1.000000E-1
Scans to average: 1
Electric dark correction enabled: true
Nonlinearity correction enabled: false
Boxcar width: 0
XAxis mode: Wavelengths
Number of Pixels in Spectrum: 2048
>>>>>Begin Spectral Data<<<<<
223.165	-15.56
223.4	-15.56
223.635	-15.56
223.869	-29.56
224.104	-10.56
224.338	-13.56
224.573	-20.56
224.808	-21.56
225.042	-16.56
225.277	-1.56
225.511	3.44
225.746	7.44
225.98	10.44
226.215	16.44
226.449	4.44
226.683	20.44
226.918	31.44
227.152	35.44
227.387	37.44
227.621	36.44
227.856	42.44
228.09	51.44
228.324	54.44
228.559	47.44
228.793	147.44
229.027	423.44
229.262	496.44
229.496	579.44
229.73	772.44
229.964	752.44
230.199	517.44
230.433	462.44
230.667	438.44
230.901	442.44
231.136	433.44
231.37	455.44
231.604	453.44
231.838	464.44
232.072	473.44
232.306	454.44
232.541	460.44
232.775	486.44
233.009	490.44
233.243	496.44
233.477	482.44
233.711	474.44
233.945	504.44
234.179	522.44
234.413	521.44
234.647	528.44
234.881	510.44
235.115	528.44
235.349	552.44
235.583	542.44
235.817	571.44
236.051	598.44
236.285	598.44
236.519	587.44
236.753	673.44
236.987	864.44
237.221	1259.44
237.455	1396.44
237.689	866.44
237.922	718.44
238.156	712.44
238.39	683.44
238.624	630.44
238.858	633.44
239.091	615.44
239.325	676.44
239.559	688.44
239.793	687.44
240.027	724.44
240.26	899.44
240.494	928.44
240.728	924.44
240.961	877.44
241.195	795.44
241.429	812.44
241.662	778.44
241.896	768.44
242.13	776.44
242.363	786.44
242.597	811.44
242.83	834.44
243.064	833.44
243.298	840.44
243.531	858.44
243.765	853.44
243.998	859.44
244.232	855.44
244.465	874.44
244.699	901.44
244.932	907.44
245.166	930.44
245.399	905.44
245.633	912.44
245.866	901.44
246.099	927.44
246.333	952.44
246.566	947.44
246.8	964.44
247.033	1028.44
247.266	1059.44
247.5	1091.44
247.733	1132.44
247.966	1145.44
248.2	1177.44
248.433	1160.44
248.666	1193.44
248.899	1332.44
249.133	1393.44
249.366	1435.44
249.599	1326.44
249.832	1252.44
250.066	1310.44
250.299	1492.44
250.532	1722.44
250.765	1862.44
250.998	1872.44
251.231	1704.44
251.465	1566.44
251.698	1476.44
251.931	1431.44
252.164	1428.44
252.397	1428.44
252.63	1474.44
252.863	1528.44
253.096	1628.44
253.329	1694.44
253.562	1664.44
253.795	1518.44
254.028	1579.44
254.261	1592.44
254.494	1811.44
254.727	2061.44
254.96	2172.44
255.193	1959.44
255.426	1849.44
255.659	1893.44
255.892	2209.44
256.124	2561.44
256.357	2406.44
256.59	2012.44
256.823	1820.44
257.056	1722.44
257.289	1666.44
257.521	1649.44
257.754	1650.44
257.987	1589.44
258.22	1562.44
258.452	1542.44
258.685	1580.44
258.918	1577.44
259.151	1625.44
259.383	1657.44
259.616	1716.44
259.849	1730.44
260.081	1898.44
260.314	2015.44
260.547	2004.44
260.779	1771.44
261.012	1731.44
261.244	1699.44
261.477	1665.44
261.71	1658.44
261.942	1751.44
262.175	1735.44
262.407	1671.44
262.64	1630.44
262.872	1685.44
263.105	1667.44
263.337	1630.44
263.57	1616.44
263.802	1645.44
264.035	1663.44
264.267	1617.44
264.499	1690.44
264.732	1638.44
264.964	1704.44
265.197	1695.44
265.429	1727.44
265.661	1675.44
265.894	1706.44
266.126	1715.44
266.358	1737.44
266.591	1796.44
266.823	1835.44
267.055	1847.44
267.287	1849.44
267.52	1832.44
267.752	1864.44
267.984	1864.44
268.216	1882.44
268.448	1886.44
268.681	1955.44
268.913	2094.44
269.145	2281.44
269.377	2243.44
269.609	2196.44
269.841	2196.44
270.073	2319.44
270.306	2506.44
270.538	2612.44
270.77	2518.44
271.002	2424.44
271.234	2398.44
271.466	2507.44
271.698	2643.44
271.93	2662.44
272.162	2612.44
272.394	2538.44
272.626	2418.44
272.858	2317.44
273.09	2245.44
273.322	2248.44
273.553	2199.44
273.785	2178.44
274.017	2222.44
274.249	2170.44
274.481	2212.44
274.713	2214.44
274.945	2279.44
275.176	2281.44
275.408	2223.44
275.64	2228.44
275.872	2267.44
276.104	2270.44
276.335	2290.44
276.567	2377.44
276.799	2547.44
277.031	2728.44
277.262	2843.44
277.494	2710.44
277.726	2576.44
277.957	2494.44
278.189	2438.44
278.421	2382.44
278.652	2386.44
278.884	2389.44
279.115	2379.44
279.347	2374.44
279.579	2390.44
279.81	2431.44
280.042	2439.44
280.273	2483.44
280.505	2438.44
280.736	2466.44
280.968	2398.44
281.199	2417.44
281.431	2475.44
281.662	2439.44
281.894	2409.44
282.125	2496.44
282.356	2622.44
282.588	2770.44
282.819	2596.44
283.051	2477.44
283.282	2498.44
283.513	2520.44
283.745	2571.44
283.976	2586.44
284.207	2590.44
284.439	2570.44
284.67	2605.44
284.901	2574.44
285.132	2586.44
285.364	2601.44
285.595	2632.44
285.826	2605.44
286.057	2651.44
286.288	2588.44
286.52	2646.44
286.751	2626.44
286.982	2706.44
287.213	2665.44
287.444	2702.44
287.675	2760.44
287.906	2817.44
288.138	2928.44
288.369	2879.44
288.6	2860.44
288.831	2811.44
289.062	2759.44
289.293	2743.44
289.524	2739.44
289.755	2769.44
289.986	2784.44
290.217	2753.44
290.448	2759.44
290.679	2792.44
290.91	2764.44
291.141	2766.44
291.371	2797.44
291.602	2764.44
291.833	2769.44
292.064	2787.44
292.295	2770.44
292.526	2792.44
292.757	2734.44
292.987	2770.44
293.218	2738.44
293.449	2799.44
293.68	2789.44
293.91	2745.44
294.141	2793.44
294.372	2754.44
294.603	2806.44
294.833	2873.44
295.064	2896.44
295.295	2866.44
295.525	2811.44
295.756	2896.44
295.987	2928.44
296.217	3116.44
296.448	2987.44
296.679	2898.44
296.909	2899.44
297.14	2904.44
297.37	2926.44
297.601	2965.44
297.831	3005.44
298.062	2979.44
298.292	3029.44
298.523	3036.44
298.753	3038.44
298.984	3017.44
299.214	3022.44
299.445	3020.44
299.675	3087.44
299.905	3102.44
300.136	3051.44
300.366	3094.44
300.597	3114.44
300.827	3238.44
301.057	3260.44
301.288	3301.44
301.518	3249.44
301.748	3281.44
301.979	3332.44
302.209	3279.44
302.439	3312.44
302.669	3190.44
302.9	3238.44
303.13	3203.44
303.36	3250.44
303.59	3278.44
303.82	3298.44
304.051	3305.44
304.281	3243.44
304.511	3192.44
304.741	3222.44
304.971	3209.44
305.201	3244.44
305.431	3193.44
305.661	3206.44
305.891	3161.44
306.121	3172.44
306.352	3284.44
306.582	3224.44
306.812	3147.44
307.042	3202.44
307.272	3264.44
307.502	3281.44
307.731	3240.44
307.961	3209.44
308.191	3232.44
308.421	3251.44
308.651	3256.44
308.881	3195.44
309.111	3212.44
309.341	3264.44
309.571	3387.44
309.8	3399.44
310.03	3457.44
310.26	3528.44
310.49	3439.44
310.72	3599.44
310.949	3635.44
311.179	3559.44
311.409	3537.44
311.639	3478.44
311.868	3515.44
312.098	3550.44
312.328	3656.44
312.557	3768.44
312.787	3817.44
313.017	3679.44
313.246	3649.44
313.476	3598.44
313.706	3626.44
313.935	3763.44
314.165	3870.44
314.394	3846.44
314.624	3775.44
314.853	3715.44
315.083	3685.44
315.312	3665.44
315.542	3633.44
315.771	3621.44
316.001	3531.44
316.23	3640.44
316.46	3574.44
316.689	3602.44
316.919	3659.44
317.148	3702.44
317.377	3683.44
317.607	3628.44
317.836	3578.44
318.065	3575.44
318.295	3576.44
318.524	3617.44
318.753	3558.44
318.983	3614.44
319.212	3591.44
319.441	3703.44
319.67	3671.44
319.9	3641.44
320.129	3614.44
320.358	3626.44
320.587	3676.44
320.816	3718.44
321.046	3737.44
321.275	3706.44
321.504	3742.44
321.733	3766.44
321.962	3798.44
322.191	3903.44
322.42	4016.44
322.649	4052.44
322.878	4120.44
323.108	4260.44
323.337	4412.44
323.566	4490.44
323.795	4802.44
324.024	5221.44
324.253	6844.44
324.482	10134.44
324.71	14627.44
324.939	15628.44
325.168	11702.44
325.397	6192.44
325.626	5071.44
325.855	4672.44
326.084	4634.44
326.313	4718.44
326.542	4807.44
326.77	5322.44
326.999	6695.44
327.228	9566.44
327.457	13806.44
327.686	12959.44
327.914	7248.44
328.143	6063.44
328.372	5830.44
328.6	5373.44
328.829	5266.44
329.058	5363.44
329.287	5318.44
329.515	5176.44
329.744	5190.44
329.972	5628.44
330.201	6200.44
330.43	6619.44
330.658	6077.44
330.887	5922.44
331.115	5383.44
331.344	5005.44
331.572	4933.44
331.801	4958.44
332.03	5008.44
332.258	4952.44
332.486	4993.44
332.715	5205.44
332.943	5280.44
333.172	5430.44
333.4	5678.44
333.629	5936.44
333.857	6131.44
334.085	6619.44
334.314	7287.44
334.542	7966.44
334.771	7467.44
334.999	6107.44
335.227	5566.44
335.455	5300.44
335.684	5163.44
335.912	5103.44
336.14	4984.44
336.369	4948.44
336.597	5030.44
336.825	4867.44
337.053	4817.44
337.281	4773.44
337.51	4709.44
337.738	4609.44
337.966	4595.44
338.194	4659.44
338.422	4550.44
338.65	4495.44
338.878	4412.44
339.106	4396.44
339.334	4457.44
339.562	4341.44
339.79	4300.44
340.018	4305.44
340.246	4317.44
340.474	4348.44
340.702	4280.44
340.93	4304.44
341.158	4346.44
341.386	4268.44
341.614	4290.44
341.842	4257.44
342.07	4228.44
342.298	4229.44
342.526	4156.44
342.754	4207.44
342.981	4219.44
343.209	4283.44
343.437	4533.44
343.665	4886.44
343.893	5025.44
344.12	5033.44
344.348	4859.44
344.576	4669.44
344.804	4598.44
345.031	4465.44
345.259	4483.44
345.487	4259.44
345.714	4258.44
345.942	4174.44
346.17	4118.44
346.397	4170.44
346.625	4111.44
346.853	4087.44
347.08	4076.44
347.308	4084.44
347.535	4102.44
347.763	4190.44
347.99	4110.44
348.218	4140.44
348.445	4179.44
348.673	4071.44
348.9	4045.44
349.128	4009.44
349.355	3959.44
349.583	3935.44
349.81	3913.44
350.037	3927.44
350.265	3890.44
350.492	3895.44
350.72	3969.44
350.947	4024.44
351.174	4053.44
351.402	4089.44
351.629	4043.44
351.856	4089.44
352.083	4105.44
352.311	4069.44
352.538	4062.44
352.765	4030.44
352.992	4058.44
353.22	3943.44
353.447	4000.44
353.674	3866.44
353.901	3851.44
354.128	3826.44
354.355	3870.44
354.583	3824.44
354.81	3846.44
355.037	3794.44
355.264	3855.44
355.491	3784.44
355.718	3845.44
355.945	3839.44
356.172	3858.44
356.399	3812.44
356.626	3788.44
356.853	3838.44
357.08	3840.44
357.307	3866.44
357.534	3786.44
357.761	3862.44
357.988	3949.44
358.215	3874.44
358.441	3845.44
358.668	3889.44
358.895	3894.44
359.122	3872.44
359.349	4086.44
359.576	4084.44
359.802	4272.44
360.029	4433.44
360.256	4373.44
360.483	4203.44
360.709	4073.44
360.936	4086.44
361.163	4094.44
361.39	4018.44
361.616	4122.44
361.843	4036.44
362.07	4058.44
362.296	4053.44
362.523	3969.44
362.749	4025.44
362.976	3990.44
363.203	3934.44
363.429	3922.44
363.656	3986.44
363.882	3923.44
364.109	3914.44
364.335	3909.44
364.562	3934.44
364.788	3919.44
365.015	3950.44
365.241	4003.44
365.468	3908.44
365.694	3966.44
365.92	3982.44
366.147	3914.44
366.373	3954.44
366.599	3887.44
366.826	3902.44
367.052	3885.44
367.278	3892.44
367.505	3929.44
367.731	3968.44
367.957	3971.44
368.184	4034.44
368.41	4107.44
368.636	4107.44
368.862	4148.44
369.089	4048.44
369.315	4044.44
369.541	4008.44
369.767	4015.44
369.993	4068.44
370.219	4055.44
370.445	4084.44
370.672	4088.44
370.898	4101.44
371.124	4141.44
371.35	4246.44
371.576	4164.44
371.802	4132.44
372.028	4175.44
372.254	4206.44
372.48	4294.44
372.706	4310.44
372.932	4368.44
373.158	4277.44
373.384	4288.44
373.61	4147.44
373.835	4226.44
374.061	4250.44
374.287	4380.44
374.513	4370.44
374.739	4511.44
374.965	4567.44
375.191	4606.44
375.416	4521.44
375.642	4362.44
375.868	4375.44
376.094	4323.44
376.319	4282.44
376.545	4286.44
376.771	4239.44
376.997	4166.44
377.222	4164.44
377.448	4146.44
377.674	4146.44
377.899	4141.44
378.125	4116.44
378.35	4144.44
378.576	4118.44
378.802	4138.44
379.027	4099.44
379.253	4168.44
379.478	4085.44
379.704	4119.44
379.929	4194.44
380.155	4139.44
380.38	4131.44
380.606	4233.44
380.831	4150.44
381.057	4235.44
381.282	4187.44
381.507	4247.44
381.733	4274.44
381.958	4247.44
382.184	4318.44
382.409	4407.44
382.634	4420.44
382.86	4407.44
383.085	4540.44
383.31	4525.44
383.535	4593.44
383.761	4665.44
383.986	4756.44
384.211	4824.44
384.436	4896.44
384.662	4930.44
384.887	4970.44
385.112	4961.44
385.337	5050.44
385.562	5046.44
385.787	5074.44
386.013	5105.44
386.238	5123.44
386.463	5151.44
386.688	5086.44
386.913	4992.44
387.138	5016.44
387.363	4945.44
387.588	4932.44
387.813	5003.44
388.038	5010.44
388.263	4977.44
388.488	5071.44
388.713	5003.44
388.938	4984.44
389.163	4955.44
389.387	4960.44
389.612	4842.44
389.837	4899.44
390.062	4899.44
390.287	4939.44
390.512	4950.44
390.736	4983.44
390.961	5076.44
391.186	5104.44
391.411	5276.44
391.636	5355.44
391.86	5635.44
392.085	5567.44
392.31	5464.44
392.534	5376.44
392.759	5304.44
392.984	5245.44
393.208	5129.44
393.433	5238.44
393.658	5169.44
393.882	5147.44
394.107	5161.44
394.331	5230.44
394.556	5214.44
394.78	5352.44
395.005	5327.44
395.229	5399.44
395.454	5522.44
395.678	5666.44
395.903	5700.44
396.127	5707.44
396.352	5496.44
396.576	5333.44
396.801	5314.44
397.025	5369.44
397.249	5462.44
397.474	5635.44
397.698	5657.44
397.922	5718.44
398.147	5862.44
398.371	5974.44
398.595	6004.44
398.82	6310.44
399.044	6870.44
399.268	7590.44
399.492	8608.44
399.717	9236.44
399.941	9018.44
400.165	8425.44
400.389	7759.44
400.613	6977.44
400.837	6529.44
401.062	6402.44
401.286	6339.44
401.51	6323.44
401.734	6276.44
401.958	6297.44
402.182	6542.44
402.406	6578.44
402.63	6710.44
402.854	6808.44
403.078	6835.44
403.302	6953.44
403.526	7078.44
403.75	7220.44
403.974	7238.44
404.198	7199.44
404.422	7378.44
404.645	7376.44
404.869	7433.44
405.093	7792.44
405.317	8203.44
405.541	8106.44
405.765	7476.44
405.988	7198.44
406.212	7299.44
406.436	7352.44
406.66	7545.44
406.883	7520.44
407.107	8080.44
407.331	8558.44
407.555	9046.44
407.778	8675.44
408.002	8029.44
408.226	7692.44
408.449	7571.44
408.673	7358.44
408.896	7518.44
409.12	7745.44
409.344	7298.44
409.567	7002.44
409.791	6946.44
410.014	6824.44
410.238	6784.44
410.461	6838.44
410.685	6903.44
410.908	6898.44
411.132	7217.44
411.355	7174.44
411.578	6914.44
411.802	6612.44
412.025	6739.44
412.249	7061.44
412.472	7428.44
412.695	7784.44
412.919	7161.44
413.142	6847.44
413.365	6637.44
413.589	6505.44
413.812	6312.44
414.035	6310.44
414.258	6212.44
414.482	6210.44
414.705	6309.44
414.928	6252.44
415.151	6258.44
415.374	6241.44
415.597	6191.44
415.821	6109.44
416.044	6140.44
416.267	6041.44
416.49	6060.44
416.713	6037.44
416.936	6105.44
417.159	6104.44
417.382	6206.44
417.605	6227.44
417.828	6353.44
418.051	6459.44
418.274	6361.44
418.497	6226.44
418.72	6406.44
418.943	6304.44
419.166	6700.44
419.389	7136.44
419.611	7058.44
419.834	6868.44
420.057	6881.44
420.28	6901.44
420.503	6695.44
420.726	6595.44
420.948	6628.44
421.171	6976.44
421.394	6895.44
421.617	6375.44
421.839	6361.44
422.062	6390.44
422.285	6555.44
422.507	7244.44
422.73	7670.44
422.953	7158.44
423.175	6762.44
423.398	6776.44
423.621	6743.44
423.843	6946.44
424.066	6948.44
424.288	6896.44
424.511	7031.44
424.733	7545.44
424.956	7890.44
425.178	7424.44
425.401	7544.44
425.623	7449.44
425.846	6575.44
426.068	6454.44
426.291	6297.44
426.513	6347.44
426.735	6434.44
426.958	6813.44
427.18	7499.44
427.402	8740.44
427.625	8727.44
427.847	7774.44
428.069	7286.44
428.292	6486.44
428.514	5992.44
428.736	5866.44
428.958	5822.44
429.181	5608.44
429.403	5628.44
429.625	5798.44
429.847	6046.44
430.069	6584.44
430.292	6156.44
430.514	5684.44
430.736	5621.44
430.958	5524.44
431.18	5472.44
431.402	5548.44
431.624	5368.44
431.846	5593.44
432.068	5566.44
432.29	5658.44
432.512	5602.44
432.734	5609.44
432.956	5545.44
433.178	5722.44
433.4	5641.44
433.622	5563.44
433.844	5580.44
434.066	5578.44
434.287	5693.44
434.509	5866.44
434.731	6213.44
434.953	6226.44
435.175	6354.44
435.397	6441.44
435.618	6368.44
435.84	6747.44
436.062	7545.44
436.284	7335.44
436.505	6300.44
436.727	6006.44
436.949	5821.44
437.17	5591.44
437.392	5623.44
437.614	5719.44
437.835	6161.44
438.057	7086.44
438.278	7583.44
438.5	7491.44
438.721	8295.44
438.943	7278.44
439.165	6200.44
439.386	5926.44
439.608	6088.44
439.829	6115.44
440.05	6387.44
440.272	6779.44
440.493	6234.44
440.715	5894.44
440.936	5891.44
441.158	5967.44
441.379	6072.44
441.6	6399.44
441.822	6650.44
442.043	7014.44
442.264	7686.44
442.486	7366.44
442.707	6606.44
442.928	6441.44
443.149	6721.44
443.371	6735.44
443.592	7349.44
443.813	8294.44
444.034	8211.44
444.255	7207.44
444.476	7123.44
444.698	7236.44
444.919	7390.44
445.14	7133.44
445.361	7008.44
445.582	7121.44
445.803	7573.44
446.024	8194.44
446.245	7830.44
446.466	7112.44
446.687	6222.44
446.908	5944.44
447.129	5516.44
447.35	5471.44
447.571	5388.44
447.792	5358.44
448.013	5476.44
448.234	5603.44
448.455	6227.44
448.675	7409.44
448.896	7696.44
449.117	6459.44
449.338	6631.44
449.559	7935.44
449.779	8112.44
450	6196.44
450.221	5594.44
450.442	5330.44
450.662	5299.44
450.883	5335.44
451.104	5398.44
451.324	5291.44
451.545	5227.44
451.766	5001.44
451.986	4908.44
452.207	4881.44
452.428	4949.44
452.648	4851.44
452.869	4876.44
453.089	4972.44
453.31	5054.44
453.53	4886.44
453.751	4822.44
453.971	4872.44
454.192	4930.44
454.412	4849.44
454.633	4762.44
454.853	4779.44
455.073	4758.44
455.294	5214.44
455.514	5659.44
455.734	5140.44
455.955	4640.44
456.175	4579.44
456.395	4453.44
456.616	4448.44
456.836	4500.44
457.056	4468.44
457.276	4455.44
457.497	4660.44
457.717	4534.44
457.937	4654.44
458.157	4716.44
458.377	4778.44
458.598	5130.44
458.818	5665.44
459.038	6352.44
459.258	6362.44
459.478	5676.44
459.698	5640.44
459.918	5684.44
460.138	5854.44
460.358	6019.44
460.578	6129.44
460.798	6148.44
461.018	6140.44
461.238	6000.44
461.458	5996.44
461.678	6024.44
461.898	6161.44
462.118	6110.44
462.338	6497.44
462.558	6610.44
462.777	6843.44
462.997	7437.44
463.217	7846.44
463.437	7594.44
463.657	7164.44
463.876	6982.44
464.096	6922.44
464.316	6925.44
464.536	7024.44
464.755	6706.44
464.975	6684.44
465.195	6712.44
465.414	6724.44
465.634	5946.44
465.854	5592.44
466.073	5426.44
466.293	5269.44
466.512	5184.44
466.732	5034.44
466.951	5085.44
467.171	5152.44
467.391	5146.44
467.61	5182.44
467.829	5170.44
468.049	5248.44
468.268	5257.44
468.488	5050.44
468.707	4928.44
468.927	4864.44
469.146	4906.44
469.365	4965.44
469.585	4992.44
469.804	5196.44
470.023	5248.44
470.243	5275.44
470.462	5331.44
470.681	5420.44
470.901	5329.44
471.12	5216.44
471.339	5207.44
471.558	5185.44
471.777	5123.44
471.997	5143.44
472.216	5537.44
472.435	6326.44
472.654	5725.44
472.873	5263.44
473.092	5146.44
473.311	5006.44
473.53	5030.44
473.749	5095.44
473.968	5555.44
474.187	6486.44
474.406	5974.44
474.625	5189.44
474.844	4991.44
475.063	4964.44
475.282	4944.44
475.501	4955.44
475.72	5015.44
475.939	5010.44
476.158	5046.44
476.377	5062.44
476.596	5090.44
476.814	5238.44
477.033	5305.44
477.252	5305.44
477.471	5372.44
477.69	5483.44
477.908	5648.44
478.127	5682.44
478.346	5814.44
478.564	5957.44
478.783	5958.44
479.002	6178.44
479.22	6124.44
479.439	6247.44
479.658	6386.44
479.876	6433.44
480.095	6620.44
480.313	6981.44
480.532	7002.44
480.751	6905.44
480.969	7338.44
481.188	8846.44
481.406	8695.44
481.624	7258.44
481.843	6606.44
482.061	6318.44
482.28	6119.44
482.498	6025.44
482.717	5863.44
482.935	5921.44
483.153	5854.44
483.372	5864.44
483.59	5758.44
483.808	5867.44
484.027	5786.44
484.245	5880.44
484.463	5888.44
484.681	6074.44
484.9	6010.44
485.118	6031.44
485.336	6124.44
485.554	6140.44
485.772	6209.44
485.99	6209.44
486.209	6226.44
486.427	6239.44
486.645	6210.44
486.863	6287.44
487.081	6383.44
487.299	6269.44
487.517	6255.44
487.735	6207.44
487.953	6207.44
