Data from Circ_1985_H10_HRD10591_00023.txt Node
Date: Wed Jan 03 12:19:27 EST 2024
User: Yrep
Spectrometer: HR+D1059
Trigger mode: 1
Integration Time (sec): 1.000000E-1
Scans to average: 1
Electric dark correction enabled: true
Nonlinearity correction enabled: false
Boxcar width: 0
XAxis mode: Wavelengths
Number of Pixels in Spectrum: 2048
>>>>>Begin Spectral Data<<<<<
223.165	-12.81
223.4	-12.81
223.635	-12.81
223.869	-21.81
224.104	-15.81
224.338	-21.81
224.573	-27.81
224.808	-13.81
225.042	-11.81
225.277	3.19
225.511	-6.81
225.746	0.19
225.98	3.19
226.215	7.19
226.449	22.19
226.683	37.19
226.918	22.19
227.152	37.19
227.387	45.19
227.621	33.19
227.856	56.19
228.09	46.19
228.324	64.19
228.559	43.19
228.793	62.19
229.027	71.19
229.262	59.19
229.496	71.19
229.73	87.19
229.964	64.19
230.199	54.19
230.433	74.19
230.667	87.19
230.901	92.19
231.136	68.19
231.37	92.19
231.604	64.19
231.838	82.19
232.072	82.19
232.306	88.19
232.541	85.19
232.775	82.19
233.009	86.19
233.243	86.19
233.477	97.19
233.711	84.19
233.945	77.19
234.179	75.19
234.413	97.19
234.647	80.19
234.881	76.19
235.115	98.19
235.349	58.19
235.583	75.19
235.817	73.19
236.051	92.19
236.285	86.19
236.519	70.19
236.753	69.19
236.987	77.19
237.221	98.19
237.455	81.19
237.689	92.19
237.922	77.19
238.156	68.19
238.39	87.19
238.624	85.19
238.858	71.19
239.091	84.19
239.325	86.19
239.559	86.19
239.793	81.19
240.027	90.19
240.26	77.19
240.494	76.19
240.728	84.19
240.961	92.19
241.195	76.19
241.429	96.19
241.662	74.19
241.896	81.19
242.13	86.19
242.363	93.19
242.597	72.19
242.83	75.19
243.064	77.19
243.298	93.19
243.531	83.19
243.765	80.19
243.998	67.19
244.232	96.19
244.465	83.19
244.699	73.19
244.932	76.19
245.166	91.19
245.399	81.19
245.633	85.19
245.866	90.19
246.099	69.19
246.333	101.19
246.566	84.19
246.8	73.19
247.033	85.19
247.266	84.19
247.5	93.19
247.733	82.19
247.966	85.19
248.2	81.19
248.433	76.19
248.666	74.19
248.899	81.19
249.133	94.19
249.366	90.19
249.599	106.19
249.832	82.19
250.066	91.19
250.299	72.19
250.532	87.19
250.765	76.19
250.998	75.19
251.231	82.19
251.465	80.19
251.698	89.19
251.931	88.19
252.164	92.19
252.397	82.19
252.63	81.19
252.863	96.19
253.096	84.19
253.329	80.19
253.562	87.19
253.795	86.19
254.028	86.19
254.261	81.19
254.494	70.19
254.727	86.19
254.96	83.19
255.193	80.19
255.426	86.19
255.659	88.19
255.892	92.19
256.124	85.19
256.357	86.19
256.59	72.19
256.823	80.19
257.056	89.19
257.289	85.19
257.521	75.19
257.754	82.19
257.987	66.19
258.22	83.19
258.452	77.19
258.685	88.19
258.918	84.19
259.151	93.19
259.383	88.19
259.616	90.19
259.849	79.19
260.081	74.19
260.314	84.19
260.547	98.19
260.779	89.19
261.012	78.19
261.244	88.19
261.477	85.19
261.71	96.19
261.942	114.19
262.175	93.19
262.407	93.19
262.64	87.19
262.872	86.19
263.105	84.19
263.337	88.19
263.57	94.19
263.802	78.19
264.035	96.19
264.267	82.19
264.499	85.19
264.732	78.19
264.964	93.19
265.197	89.19
265.429	90.19
265.661	92.19
265.894	80.19
266.126	88.19
266.358	90.19
266.591	65.19
266.823	99.19
267.055	73.19
267.287	94.19
267.52	83.19
267.752	89.19
267.984	90.19
268.216	74.19
268.448	73.19
268.681	94.19
268.913	90.19
269.145	90.19
269.377	83.19
269.609	85.19
269.841	90.19
270.073	96.19
270.306	84.19
270.538	77.19
270.77	75.19
271.002	89.19
271.234	90.19
271.466	85.19
271.698	76.19
271.93	90.19
272.162	88.19
272.394	84.19
272.626	88.19
272.858	82.19
273.09	91.19
273.322	86.19
273.553	83.19
273.785	86.19
274.017	103.19
274.249	97.19
274.481	78.19
274.713	83.19
274.945	83.19
275.176	77.19
275.408	86.19
275.64	101.19
275.872	106.19
276.104	97.19
276.335	93.19
276.567	86.19
276.799	115.19
277.031	96.19
277.262	92.19
277.494	93.19
277.726	96.19
277.957	100.19
278.189	74.19
278.421	83.19
278.652	81.19
278.884	95.19
279.115	81.19
279.347	99.19
279.579	89.19
279.81	69.19
280.042	88.19
280.273	93.19
280.505	83.19
280.736	99.19
280.968	89.19
281.199	90.19
281.431	90.19
281.662	81.19
281.894	77.19
282.125	92.19
282.356	116.19
282.588	125.19
282.819	105.19
283.051	88.19
283.282	96.19
283.513	93.19
283.745	98.19
283.976	89.19
284.207	89.19
284.439	98.19
284.67	84.19
284.901	88.19
285.132	82.19
285.364	102.19
285.595	84.19
285.826	86.19
286.057	91.19
286.288	85.19
286.52	98.19
286.751	90.19
286.982	89.19
287.213	90.19
287.444	92.19
287.675	83.19
287.906	80.19
288.138	78.19
288.369	85.19
288.6	98.19
288.831	78.19
289.062	92.19
289.293	99.19
289.524	87.19
289.755	78.19
289.986	86.19
290.217	98.19
290.448	89.19
290.679	82.19
290.91	99.19
291.141	94.19
291.371	99.19
291.602	88.19
291.833	77.19
292.064	98.19
292.295	94.19
292.526	84.19
292.757	69.19
292.987	90.19
293.218	83.19
293.449	94.19
293.68	78.19
293.91	90.19
294.141	98.19
294.372	96.19
294.603	85.19
294.833	102.19
295.064	102.19
295.295	83.19
295.525	74.19
295.756	100.19
295.987	100.19
296.217	118.19
296.448	114.19
296.679	84.19
296.909	87.19
297.14	85.19
297.37	83.19
297.601	86.19
297.831	92.19
298.062	98.19
298.292	103.19
298.523	82.19
298.753	97.19
298.984	89.19
299.214	75.19
299.445	96.19
299.675	98.19
299.905	103.19
300.136	90.19
300.366	92.19
300.597	101.19
300.827	103.19
301.057	82.19
301.288	107.19
301.518	84.19
301.748	94.19
301.979	95.19
302.209	85.19
302.439	90.19
302.669	83.19
302.9	98.19
303.13	78.19
303.36	98.19
303.59	95.19
303.82	98.19
304.051	78.19
304.281	81.19
304.511	88.19
304.741	82.19
304.971	75.19
305.201	91.19
305.431	84.19
305.661	93.19
305.891	88.19
306.121	102.19
306.352	105.19
306.582	101.19
306.812	84.19
307.042	105.19
307.272	98.19
307.502	100.19
307.731	98.19
307.961	86.19
308.191	85.19
308.421	89.19
308.651	89.19
308.881	100.19
309.111	95.19
309.341	91.19
309.571	92.19
309.8	86.19
310.03	97.19
310.26	83.19
310.49	98.19
310.72	103.19
310.949	91.19
311.179	110.19
311.409	72.19
311.639	103.19
311.868	97.19
312.098	89.19
312.328	87.19
312.557	88.19
312.787	99.19
313.017	98.19
313.246	95.19
313.476	94.19
313.706	84.19
313.935	98.19
314.165	88.19
314.394	98.19
314.624	92.19
314.853	88.19
315.083	97.19
315.312	101.19
315.542	83.19
315.771	97.19
316.001	72.19
316.23	94.19
316.46	97.19
316.689	90.19
316.919	68.19
317.148	84.19
317.377	93.19
317.607	104.19
317.836	80.19
318.065	91.19
318.295	97.19
318.524	94.19
318.753	98.19
318.983	93.19
319.212	105.19
319.441	107.19
319.67	100.19
319.9	87.19
320.129	98.19
320.358	98.19
320.587	90.19
320.816	90.19
321.046	91.19
321.275	85.19
321.504	104.19
321.733	89.19
321.962	87.19
322.191	101.19
322.42	99.19
322.649	93.19
322.878	110.19
323.108	119.19
323.337	108.19
323.566	100.19
323.795	135.19
324.024	163.19
324.253	323.19
324.482	661.19
324.71	1349.19
324.939	1786.19
325.168	668.19
325.397	221.19
325.626	137.19
325.855	109.19
326.084	115.19
326.313	117.19
326.542	126.19
326.77	190.19
326.999	383.19
327.228	765.19
327.457	1404.19
327.686	1109.19
327.914	324.19
328.143	160.19
328.372	144.19
328.6	121.19
328.829	112.19
329.058	122.19
329.287	121.19
329.515	98.19
329.744	100.19
329.972	104.19
330.201	96.19
330.43	99.19
330.658	105.19
330.887	125.19
331.115	104.19
331.344	85.19
331.572	98.19
331.801	99.19
332.03	106.19
332.258	86.19
332.486	103.19
332.715	100.19
332.943	91.19
333.172	97.19
333.4	96.19
333.629	96.19
333.857	108.19
334.085	101.19
334.314	102.19
334.542	118.19
334.771	102.19
334.999	95.19
335.227	105.19
335.455	104.19
335.684	102.19
335.912	105.19
336.14	94.19
336.369	100.19
336.597	97.19
336.825	96.19
337.053	96.19
337.281	85.19
337.51	97.19
337.738	98.19
337.966	89.19
338.194	96.19
338.422	105.19
338.65	89.19
338.878	94.19
339.106	100.19
339.334	89.19
339.562	89.19
339.79	82.19
340.018	94.19
340.246	110.19
340.474	101.19
340.702	96.19
340.93	105.19
341.158	96.19
341.386	95.19
341.614	85.19
341.842	97.19
342.07	92.19
342.298	87.19
342.526	89.19
342.754	96.19
342.981	98.19
343.209	82.19
343.437	102.19
343.665	92.19
343.893	87.19
344.12	108.19
344.348	98.19
344.576	92.19
344.804	102.19
345.031	86.19
345.259	103.19
345.487	91.19
345.714	86.19
345.942	93.19
346.17	85.19
346.397	88.19
346.625	96.19
346.853	84.19
347.08	77.19
347.308	92.19
347.535	85.19
347.763	92.19
347.99	106.19
348.218	101.19
348.445	104.19
348.673	108.19
348.9	97.19
349.128	102.19
349.355	78.19
349.583	88.19
349.81	92.19
350.037	104.19
350.265	87.19
350.492	96.19
350.72	85.19
350.947	85.19
351.174	116.19
351.402	100.19
351.629	92.19
351.856	102.19
352.083	104.19
352.311	92.19
352.538	92.19
352.765	109.19
352.992	102.19
353.22	115.19
353.447	103.19
353.674	100.19
353.901	98.19
354.128	98.19
354.355	105.19
354.583	100.19
354.81	107.19
355.037	96.19
355.264	90.19
355.491	106.19
355.718	74.19
355.945	96.19
356.172	94.19
356.399	98.19
356.626	98.19
356.853	97.19
357.08	93.19
357.307	99.19
357.534	94.19
357.761	92.19
357.988	100.19
358.215	106.19
358.441	94.19
358.668	98.19
358.895	99.19
359.122	88.19
359.349	91.19
359.576	100.19
359.802	96.19
360.029	97.19
360.256	87.19
360.483	74.19
360.709	96.19
360.936	115.19
361.163	99.19
361.39	99.19
361.616	84.19
361.843	94.19
362.07	94.19
362.296	92.19
362.523	96.19
362.749	93.19
362.976	95.19
363.203	109.19
363.429	82.19
363.656	104.19
363.882	83.19
364.109	84.19
364.335	101.19
364.562	101.19
364.788	97.19
365.015	95.19
365.241	92.19
365.468	100.19
365.694	98.19
365.92	84.19
366.147	91.19
366.373	91.19
366.599	86.19
366.826	86.19
367.052	93.19
367.278	98.19
367.505	84.19
367.731	89.19
367.957	81.19
368.184	85.19
368.41	97.19
368.636	102.19
368.862	124.19
369.089	98.19
369.315	88.19
369.541	82.19
369.767	87.19
369.993	93.19
370.219	80.19
370.445	88.19
370.672	84.19
370.898	93.19
371.124	90.19
371.35	81.19
371.576	82.19
371.802	94.19
372.028	96.19
372.254	85.19
372.48	93.19
372.706	83.19
372.932	77.19
373.158	100.19
373.384	83.19
373.61	80.19
373.835	78.19
374.061	92.19
374.287	89.19
374.513	99.19
374.739	88.19
374.965	92.19
375.191	90.19
375.416	99.19
375.642	86.19
375.868	83.19
376.094	83.19
376.319	88.19
376.545	93.19
376.771	92.19
376.997	92.19
377.222	90.19
377.448	91.19
377.674	86.19
377.899	94.19
378.125	82.19
378.35	91.19
378.576	89.19
378.802	82.19
379.027	87.19
379.253	105.19
379.478	104.19
379.704	98.19
379.929	83.19
380.155	104.19
380.38	90.19
380.606	80.19
380.831	92.19
381.057	112.19
381.282	93.19
381.507	93.19
381.733	99.19
381.958	106.19
382.184	106.19
382.409	89.19
382.634	113.19
382.86	116.19
383.085	106.19
383.31	112.19
383.535	86.19
383.761	109.19
383.986	112.19
384.211	113.19
384.436	115.19
384.662	103.19
384.887	117.19
385.112	116.19
385.337	105.19
385.562	117.19
385.787	120.19
386.013	109.19
386.238	125.19
386.463	117.19
386.688	108.19
386.913	119.19
387.138	104.19
387.363	112.19
387.588	102.19
387.813	114.19
388.038	107.19
388.263	125.19
388.488	123.19
388.713	95.19
388.938	93.19
389.163	91.19
389.387	96.19
389.612	96.19
389.837	93.19
390.062	92.19
390.287	99.19
390.512	88.19
390.736	96.19
390.961	100.19
391.186	106.19
391.411	93.19
391.636	104.19
391.86	98.19
392.085	83.19
392.31	81.19
392.534	85.19
392.759	84.19
392.984	92.19
393.208	108.19
393.433	96.19
393.658	117.19
393.882	99.19
394.107	87.19
394.331	96.19
394.556	82.19
394.78	95.19
395.005	86.19
395.229	78.19
395.454	88.19
395.678	88.19
395.903	92.19
396.127	90.19
396.352	108.19
396.576	94.19
396.801	96.19
397.025	99.19
397.249	93.19
397.474	110.19
397.698	87.19
397.922	86.19
398.147	88.19
398.371	85.19
398.595	77.19
398.82	102.19
399.044	108.19
399.268	91.19
399.492	96.19
399.717	91.19
399.941	92.19
400.165	105.19
400.389	98.19
400.613	97.19
400.837	79.19
401.062	82.19
401.286	99.19
401.51	88.19
401.734	93.19
401.958	115.19
402.182	124.19
402.406	136.19
402.63	106.19
402.854	92.19
403.078	77.19
403.302	69.19
403.526	86.19
403.75	79.19
403.974	81.19
404.198	92.19
404.422	90.19
404.645	93.19
404.869	87.19
405.093	82.19
405.317	99.19
405.541	91.19
405.765	90.19
405.988	99.19
406.212	150.19
406.436	175.19
406.66	138.19
406.883	97.19
407.107	93.19
407.331	83.19
407.555	104.19
407.778	98.19
408.002	96.19
408.226	93.19
408.449	81.19
408.673	94.19
408.896	94.19
409.12	89.19
409.344	87.19
409.567	84.19
409.791	86.19
410.014	86.19
410.238	76.19
410.461	93.19
410.685	98.19
410.908	97.19
411.132	92.19
411.355	105.19
411.578	105.19
411.802	87.19
412.025	91.19
412.249	98.19
412.472	97.19
412.695	104.19
412.919	93.19
413.142	90.19
413.365	89.19
413.589	94.19
413.812	85.19
414.035	94.19
414.258	89.19
414.482	98.19
414.705	94.19
414.928	102.19
415.151	98.19
415.374	96.19
415.597	98.19
415.821	101.19
416.044	100.19
416.267	98.19
416.49	82.19
416.713	81.19
416.936	78.19
417.159	88.19
417.382	80.19
417.605	91.19
417.828	84.19
418.051	97.19
418.274	93.19
418.497	85.19
418.72	85.19
418.943	69.19
419.166	89.19
419.389	86.19
419.611	84.19
419.834	92.19
420.057	97.19
420.28	84.19
420.503	100.19
420.726	78.19
420.948	90.19
421.171	102.19
421.394	99.19
421.617	97.19
421.839	99.19
422.062	96.19
422.285	84.19
422.507	103.19
422.73	107.19
422.953	89.19
423.175	87.19
423.398	86.19
423.621	82.19
423.843	103.19
424.066	84.19
424.288	109.19
424.511	104.19
424.733	89.19
424.956	101.19
425.178	86.19
425.401	104.19
425.623	89.19
425.846	88.19
426.068	90.19
426.291	93.19
426.513	82.19
426.735	94.19
426.958	100.19
427.18	91.19
427.402	119.19
427.625	145.19
427.847	117.19
428.069	104.19
428.292	93.19
428.514	78.19
428.736	88.19
428.958	85.19
429.181	80.19
429.403	84.19
429.625	86.19
429.847	105.19
430.069	106.19
430.292	92.19
430.514	106.19
430.736	85.19
430.958	92.19
431.18	80.19
431.402	98.19
431.624	103.19
431.846	74.19
432.068	81.19
432.29	100.19
432.512	90.19
432.734	101.19
432.956	81.19
433.178	92.19
433.4	92.19
433.622	83.19
433.844	102.19
434.066	93.19
434.287	100.19
434.509	99.19
434.731	92.19
434.953	100.19
435.175	88.19
435.397	89.19
435.618	96.19
435.84	105.19
436.062	109.19
436.284	119.19
436.505	101.19
436.727	97.19
436.949	92.19
437.17	98.19
437.392	87.19
437.614	94.19
437.835	100.19
438.057	91.19
438.278	98.19
438.5	97.19
438.721	106.19
438.943	103.19
439.165	92.19
439.386	82.19
439.608	105.19
439.829	96.19
440.05	106.19
440.272	134.19
440.493	94.19
440.715	89.19
440.936	96.19
441.158	90.19
441.379	82.19
441.6	98.19
441.822	93.19
442.043	96.19
442.264	105.19
442.486	100.19
442.707	70.19
442.928	108.19
443.149	116.19
443.371	115.19
443.592	105.19
443.813	110.19
444.034	115.19
444.255	86.19
444.476	86.19
444.698	98.19
444.919	90.19
445.14	136.19
445.361	114.19
445.582	104.19
445.803	127.19
446.024	120.19
446.245	128.19
446.466	97.19
446.687	88.19
446.908	84.19
447.129	95.19
447.35	104.19
447.571	102.19
447.792	96.19
448.013	104.19
448.234	109.19
448.455	104.19
448.675	98.19
448.896	112.19
449.117	105.19
449.338	89.19
449.559	113.19
449.779	117.19
450	94.19
450.221	92.19
450.442	82.19
450.662	82.19
450.883	114.19
451.104	109.19
451.324	94.19
451.545	98.19
451.766	96.19
451.986	84.19
452.207	94.19
452.428	98.19
452.648	96.19
452.869	110.19
453.089	106.19
453.31	110.19
453.53	94.19
453.751	83.19
453.971	102.19
454.192	91.19
454.412	76.19
454.633	84.19
454.853	89.19
455.073	85.19
455.294	101.19
455.514	107.19
455.734	84.19
455.955	100.19
456.175	84.19
456.395	90.19
456.616	90.19
456.836	86.19
457.056	95.19
457.276	88.19
457.497	97.19
457.717	87.19
457.937	88.19
458.157	91.19
458.377	85.19
458.598	107.19
458.818	123.19
459.038	154.19
459.258	104.19
459.478	76.19
459.698	93.19
459.918	71.19
460.138	104.19
460.358	80.19
460.578	100.19
460.798	88.19
461.018	77.19
461.238	89.19
461.458	100.19
461.678	90.19
461.898	93.19
462.118	74.19
462.338	87.19
462.558	84.19
462.777	76.19
462.997	86.19
463.217	100.19
463.437	100.19
463.657	96.19
463.876	87.19
464.096	97.19
464.316	103.19
464.536	83.19
464.755	97.19
464.975	109.19
465.195	134.19
465.414	136.19
465.634	86.19
465.854	88.19
466.073	87.19
466.293	89.19
466.512	80.19
466.732	109.19
466.951	90.19
467.171	85.19
467.391	89.19
467.61	113.19
467.829	91.19
468.049	96.19
468.268	77.19
468.488	88.19
468.707	98.19
468.927	91.19
469.146	98.19
469.365	82.19
469.585	92.19
469.804	91.19
470.023	88.19
470.243	101.19
470.462	97.19
470.681	95.19
470.901	76.19
471.12	94.19
471.339	91.19
471.558	99.19
471.777	98.19
471.997	85.19
472.216	118.19
472.435	110.19
472.654	103.19
472.873	93.19
473.092	93.19
473.311	95.19
473.53	99.19
473.749	78.19
473.968	89.19
474.187	101.19
474.406	90.19
474.625	93.19
474.844	86.19
475.063	98.19
475.282	95.19
475.501	84.19
475.72	87.19
475.939	95.19
476.158	98.19
476.377	80.19
476.596	92.19
476.814	100.19
477.033	96.19
477.252	87.19
477.471	80.19
477.69	86.19
477.908	73.19
478.127	100.19
478.346	94.19
478.564	96.19
478.783	91.19
479.002	97.19
479.22	88.19
479.439	99.19
479.658	100.19
479.876	90.19
480.095	96.19
480.313	93.19
480.532	101.19
480.751	106.19
480.969	106.19
481.188	134.19
481.406	118.19
481.624	101.19
481.843	97.19
482.061	91.19
482.28	92.19
482.498	90.19
482.717	83.19
482.935	81.19
483.153	106.19
483.372	92.19
483.59	95.19
483.808	105.19
484.027	92.19
484.245	92.19
484.463	91.19
484.681	96.19
484.9	83.19
485.118	91.19
485.336	98.19
485.554	97.19
485.772	106.19
485.99	95.19
486.209	104.19
486.427	115.19
486.645	114.19
486.863	115.19
487.081	102.19
487.299	97.19
487.517	96.19
487.735	93.19
487.953	101.19
488.171	108.19
488.389	104.19
488.607	97.19
488.825	105.19
489.043	87.19
489.261	80.19
489.479	86.19
489.696	100.19
489.914	112.19
490.132	98.19
490.35	87.19
490.568	86.19
490.786	98.19
491.003	84.19
491.221	90.19
491.439	95.19
491.657	104.19
491.874	94.19
492.092	76.19
492.31	101.19
492.527	91.19
492.745	100.19
492.963	98.19
493.18	69.19
493.398	88.19
493.615	114.19
493.833	90.19
494.05	94.19
494.268	106.19
494.485	86.19
494.703	94.19
494.92	99.19
495.138	81.19
495.355	80.19
495.573	86.19
495.79	83.19
496.008	83.19
496.225	94.19
496.442	86.19
496.66	95.19
496.877	94.19
497.094	89.19
497.312	90.19
497.529	99.19
497.746	97.19
497.963	94.19
498.181	93.19
498.398	89.19
498.615	103.19
498.832	110.19
499.049	87.19
499.267	99.19
499.484	90.19
499.701	92.19
499.918	76.19
500.135	99.19
500.352	94.19
500.569	86.19
500.786	100.19
501.003	90.19
501.22	92.19
501.437	88.19
501.654	87.19
501.871	113.19
502.088	96.19
502.305	99.19
502.522	83.19
502.739	94.19
502.956	82.19
503.172	82.19
503.389	90.19
503.606	92.19
503.823	92.19
504.04	92.19
504.256	94.19
504.473	91.19
504.69	111.19
504.907	93.19
505.123	104.19
505.34	94.19
505.557	93.19
505.773	91.19
505.99	94.19
506.207	96.19
506.423	76.19
506.64	88.19
506.856	101.19
507.073	88.19
507.289	96.19
507.506	96.19
507.722	89.19
507.939	100.19
508.155	82.19
508.372	94.19
508.588	94.19
508.805	110.19
509.021	97.19
509.238	88.19
509.454	84.19
509.67	92.19
509.887	110.19
510.103	146.19
510.319	170.19
510.536	599.19
510.752	1732.19
510.968	504.19
511.184	140.19
511.401	114.19
511.617	98.19
511.833	92.19
512.049	93.19
512.265	87.19
512.481	91.19
512.698	100.19
512.914	87.19
513.13	77.19
513.346	106.19
513.562	100.19
513.778	85.19
513.994	99.19
514.21	94.19
514.426	102.19
514.642	121.19
514.858	118.19
515.074	148.19
515.29	323.19
515.506	1024.19
