Data from Circ_1985_H10_HRD10591_00068.txt Node
Date: Wed Jan 03 12:19:36 EST 2024
User: Yrep
Spectrometer: HR+D1059
Trigger mode: 1
Integration Time (sec): 1.000000E-1
Scans to average: 1
Electric dark correction enabled: true
Nonlinearity correction enabled: false
Boxcar width: 0
XAxis mode: Wavelengths
Number of Pixels in Spectrum: 2048
>>>>>Begin Spectral Data<<<<<
223.165	-28.25
223.4	-28.25
223.635	-28.25
223.869	-29.25
224.104	-20.25
224.338	-16.25
224.573	-19.25
224.808	-6.25
225.042	2.75
225.277	-8.25
225.511	-5.25
225.746	6.75
225.98	14.75
226.215	10.75
226.449	15.75
226.683	12.75
226.918	35.75
227.152	33.75
227.387	49.75
227.621	22.75
227.856	55.75
228.09	51.75
228.324	43.75
228.559	50.75
228.793	63.75
229.027	63.75
229.262	84.75
229.496	74.75
229.73	82.75
229.964	81.75
230.199	63.75
230.433	85.75
230.667	76.75
230.901	90.75
231.136	91.75
231.37	83.75
231.604	77.75
231.838	81.75
232.072	68.75
232.306	96.75
232.541	74.75
232.775	91.75
233.009	108.75
233.243	94.75
233.477	59.75
233.711	69.75
233.945	67.75
234.179	84.75
234.413	106.75
234.647	96.75
234.881	79.75
235.115	83.75
235.349	63.75
235.583	63.75
235.817	82.75
236.051	76.75
236.285	72.75
236.519	81.75
236.753	78.75
236.987	83.75
237.221	71.75
237.455	79.75
237.689	70.75
237.922	87.75
238.156	72.75
238.39	73.75
238.624	78.75
238.858	76.75
239.091	76.75
239.325	75.75
239.559	74.75
239.793	84.75
240.027	81.75
240.26	69.75
240.494	82.75
240.728	73.75
240.961	71.75
241.195	76.75
241.429	73.75
241.662	83.75
241.896	60.75
242.13	71.75
242.363	75.75
242.597	85.75
242.83	88.75
243.064	68.75
243.298	76.75
243.531	70.75
243.765	89.75
243.998	81.75
244.232	73.75
244.465	93.75
244.699	70.75
244.932	76.75
245.166	81.75
245.399	84.75
245.633	94.75
245.866	81.75
246.099	84.75
246.333	79.75
246.566	72.75
246.8	82.75
247.033	64.75
247.266	70.75
247.5	73.75
247.733	82.75
247.966	84.75
248.2	89.75
248.433	73.75
248.666	82.75
248.899	69.75
249.133	83.75
249.366	99.75
249.599	87.75
249.832	80.75
250.066	84.75
250.299	77.75
250.532	84.75
250.765	69.75
250.998	71.75
251.231	97.75
251.465	78.75
251.698	100.75
251.931	91.75
252.164	77.75
252.397	76.75
252.63	100.75
252.863	82.75
253.096	80.75
253.329	83.75
253.562	80.75
253.795	69.75
254.028	79.75
254.261	73.75
254.494	83.75
254.727	97.75
254.96	82.75
255.193	83.75
255.426	84.75
255.659	72.75
255.892	72.75
256.124	67.75
256.357	74.75
256.59	80.75
256.823	79.75
257.056	86.75
257.289	82.75
257.521	77.75
257.754	87.75
257.987	88.75
258.22	86.75
258.452	77.75
258.685	98.75
258.918	87.75
259.151	90.75
259.383	91.75
259.616	92.75
259.849	70.75
260.081	104.75
260.314	84.75
260.547	91.75
260.779	60.75
261.012	82.75
261.244	74.75
261.477	92.75
261.71	91.75
261.942	109.75
262.175	108.75
262.407	98.75
262.64	93.75
262.872	80.75
263.105	69.75
263.337	82.75
263.57	79.75
263.802	92.75
264.035	81.75
264.267	93.75
264.499	76.75
264.732	91.75
264.964	72.75
265.197	84.75
265.429	84.75
265.661	86.75
265.894	84.75
266.126	105.75
266.358	82.75
266.591	95.75
266.823	85.75
267.055	83.75
267.287	87.75
267.52	86.75
267.752	92.75
267.984	75.75
268.216	93.75
268.448	97.75
268.681	79.75
268.913	101.75
269.145	91.75
269.377	84.75
269.609	89.75
269.841	99.75
270.073	79.75
270.306	85.75
270.538	92.75
270.77	67.75
271.002	95.75
271.234	98.75
271.466	81.75
271.698	91.75
271.93	80.75
272.162	88.75
272.394	75.75
272.626	97.75
272.858	91.75
273.09	88.75
273.322	93.75
273.553	89.75
273.785	88.75
274.017	91.75
274.249	82.75
274.481	91.75
274.713	82.75
274.945	83.75
275.176	97.75
275.408	92.75
275.64	82.75
275.872	85.75
276.104	89.75
276.335	89.75
276.567	84.75
276.799	105.75
277.031	98.75
277.262	88.75
277.494	97.75
277.726	94.75
277.957	89.75
278.189	92.75
278.421	95.75
278.652	73.75
278.884	86.75
279.115	81.75
279.347	79.75
279.579	81.75
279.81	85.75
280.042	87.75
280.273	81.75
280.505	91.75
280.736	78.75
280.968	79.75
281.199	88.75
281.431	99.75
281.662	87.75
281.894	96.75
282.125	96.75
282.356	122.75
282.588	121.75
282.819	100.75
283.051	88.75
283.282	76.75
283.513	90.75
283.745	92.75
283.976	76.75
284.207	88.75
284.439	85.75
284.67	97.75
284.901	93.75
285.132	94.75
285.364	88.75
285.595	82.75
285.826	81.75
286.057	86.75
286.288	95.75
286.52	90.75
286.751	109.75
286.982	76.75
287.213	90.75
287.444	89.75
287.675	88.75
287.906	77.75
288.138	79.75
288.369	83.75
288.6	85.75
288.831	71.75
289.062	90.75
289.293	95.75
289.524	75.75
289.755	77.75
289.986	84.75
290.217	85.75
290.448	84.75
290.679	85.75
290.91	85.75
291.141	92.75
291.371	87.75
291.602	90.75
291.833	75.75
292.064	101.75
292.295	94.75
292.526	89.75
292.757	109.75
292.987	100.75
293.218	96.75
293.449	87.75
293.68	94.75
293.91	87.75
294.141	85.75
294.372	99.75
294.603	83.75
294.833	79.75
295.064	107.75
295.295	81.75
295.525	89.75
295.756	109.75
295.987	116.75
296.217	135.75
296.448	101.75
296.679	91.75
296.909	83.75
297.14	95.75
297.37	96.75
297.601	93.75
297.831	99.75
298.062	83.75
298.292	96.75
298.523	99.75
298.753	95.75
298.984	82.75
299.214	88.75
299.445	90.75
299.675	84.75
299.905	107.75
300.136	77.75
300.366	99.75
300.597	98.75
300.827	83.75
301.057	96.75
301.288	97.75
301.518	97.75
301.748	91.75
301.979	95.75
302.209	75.75
302.439	95.75
302.669	85.75
302.9	79.75
303.13	88.75
303.36	108.75
303.59	96.75
303.82	94.75
304.051	104.75
304.281	89.75
304.511	96.75
304.741	87.75
304.971	93.75
305.201	86.75
305.431	74.75
305.661	93.75
305.891	84.75
306.121	95.75
306.352	95.75
306.582	103.75
306.812	113.75
307.042	94.75
307.272	88.75
307.502	97.75
307.731	87.75
307.961	77.75
308.191	83.75
308.421	82.75
308.651	81.75
308.881	103.75
309.111	94.75
309.341	93.75
309.571	103.75
309.8	91.75
310.03	100.75
310.26	108.75
310.49	100.75
310.72	99.75
310.949	90.75
311.179	95.75
311.409	100.75
311.639	91.75
311.868	106.75
312.098	96.75
312.328	94.75
312.557	91.75
312.787	112.75
313.017	94.75
313.246	99.75
313.476	90.75
313.706	95.75
313.935	101.75
314.165	98.75
314.394	113.75
314.624	106.75
314.853	92.75
315.083	96.75
315.312	89.75
315.542	98.75
315.771	109.75
316.001	79.75
316.23	97.75
316.46	93.75
316.689	97.75
316.919	96.75
317.148	104.75
317.377	95.75
317.607	91.75
317.836	89.75
318.065	81.75
318.295	89.75
318.524	97.75
318.753	93.75
318.983	103.75
319.212	109.75
319.441	108.75
319.67	100.75
319.9	107.75
320.129	99.75
320.358	100.75
320.587	112.75
320.816	108.75
321.046	91.75
321.275	97.75
321.504	90.75
321.733	98.75
321.962	94.75
322.191	110.75
322.42	103.75
322.649	101.75
322.878	114.75
323.108	130.75
323.337	126.75
323.566	124.75
323.795	144.75
324.024	178.75
324.253	380.75
324.482	795.75
324.71	1613.75
324.939	2191.75
325.168	799.75
325.397	234.75
325.626	132.75
325.855	143.75
326.084	132.75
326.313	138.75
326.542	155.75
326.77	210.75
326.999	452.75
327.228	939.75
327.457	1696.75
327.686	1345.75
327.914	361.75
328.143	202.75
328.372	153.75
328.6	124.75
328.829	111.75
329.058	120.75
329.287	133.75
329.515	117.75
329.744	114.75
329.972	104.75
330.201	129.75
330.43	135.75
330.658	129.75
330.887	138.75
331.115	112.75
331.344	111.75
331.572	76.75
331.801	99.75
332.03	98.75
332.258	98.75
332.486	100.75
332.715	83.75
332.943	86.75
333.172	96.75
333.4	99.75
333.629	112.75
333.857	114.75
334.085	98.75
334.314	120.75
334.542	153.75
334.771	157.75
334.999	89.75
335.227	95.75
335.455	99.75
335.684	95.75
335.912	87.75
336.14	94.75
336.369	98.75
336.597	88.75
336.825	92.75
337.053	92.75
337.281	113.75
337.51	83.75
337.738	96.75
337.966	99.75
338.194	97.75
338.422	100.75
338.65	92.75
338.878	101.75
339.106	95.75
339.334	101.75
339.562	86.75
339.79	93.75
340.018	91.75
340.246	84.75
340.474	76.75
340.702	85.75
340.93	78.75
341.158	87.75
341.386	95.75
341.614	88.75
341.842	89.75
342.07	87.75
342.298	91.75
342.526	77.75
342.754	92.75
342.981	87.75
343.209	94.75
343.437	106.75
343.665	92.75
343.893	88.75
344.12	89.75
344.348	90.75
344.576	90.75
344.804	100.75
345.031	93.75
345.259	97.75
345.487	97.75
345.714	80.75
345.942	91.75
346.17	93.75
346.397	100.75
346.625	95.75
346.853	81.75
347.08	87.75
347.308	105.75
347.535	109.75
347.763	97.75
347.99	92.75
348.218	94.75
348.445	105.75
348.673	104.75
348.9	98.75
349.128	109.75
349.355	89.75
349.583	94.75
349.81	74.75
350.037	104.75
350.265	101.75
350.492	99.75
350.72	103.75
350.947	101.75
351.174	105.75
351.402	110.75
351.629	106.75
351.856	93.75
352.083	96.75
352.311	107.75
352.538	103.75
352.765	107.75
352.992	110.75
353.22	113.75
353.447	112.75
353.674	95.75
353.901	97.75
354.128	96.75
354.355	105.75
354.583	109.75
354.81	101.75
355.037	101.75
355.264	100.75
355.491	95.75
355.718	81.75
355.945	77.75
356.172	94.75
356.399	95.75
356.626	100.75
356.853	94.75
357.08	97.75
357.307	85.75
357.534	100.75
357.761	102.75
357.988	97.75
358.215	97.75
358.441	80.75
358.668	89.75
358.895	87.75
359.122	103.75
359.349	91.75
359.576	93.75
359.802	92.75
360.029	102.75
360.256	112.75
360.483	96.75
360.709	91.75
360.936	109.75
361.163	76.75
361.39	93.75
361.616	90.75
361.843	90.75
362.07	101.75
362.296	93.75
362.523	90.75
362.749	80.75
362.976	99.75
363.203	82.75
363.429	89.75
363.656	105.75
363.882	92.75
364.109	96.75
364.335	87.75
364.562	89.75
364.788	85.75
365.015	99.75
365.241	109.75
365.468	107.75
365.694	112.75
365.92	108.75
366.147	96.75
366.373	91.75
366.599	93.75
366.826	91.75
367.052	90.75
367.278	97.75
367.505	94.75
367.731	84.75
367.957	83.75
368.184	83.75
368.41	96.75
368.636	122.75
368.862	111.75
369.089	114.75
369.315	96.75
369.541	95.75
369.767	100.75
369.993	97.75
370.219	91.75
370.445	89.75
370.672	96.75
370.898	91.75
371.124	104.75
371.35	84.75
371.576	82.75
371.802	70.75
372.028	67.75
372.254	76.75
372.48	96.75
372.706	88.75
372.932	102.75
373.158	94.75
373.384	88.75
373.61	94.75
373.835	102.75
374.061	83.75
374.287	103.75
374.513	70.75
374.739	87.75
374.965	83.75
375.191	88.75
375.416	72.75
375.642	82.75
375.868	90.75
376.094	77.75
376.319	79.75
376.545	98.75
376.771	109.75
376.997	83.75
377.222	69.75
377.448	103.75
377.674	88.75
377.899	93.75
378.125	75.75
378.35	79.75
378.576	82.75
378.802	87.75
379.027	93.75
379.253	91.75
379.478	97.75
379.704	98.75
379.929	84.75
380.155	87.75
380.38	83.75
380.606	98.75
380.831	100.75
381.057	91.75
381.282	101.75
381.507	104.75
381.733	106.75
381.958	102.75
382.184	90.75
382.409	104.75
382.634	96.75
382.86	99.75
383.085	107.75
383.31	114.75
383.535	87.75
383.761	81.75
383.986	103.75
384.211	98.75
384.436	104.75
384.662	99.75
384.887	97.75
385.112	115.75
385.337	95.75
385.562	102.75
385.787	105.75
386.013	103.75
386.238	115.75
386.463	101.75
386.688	116.75
386.913	96.75
387.138	117.75
387.363	104.75
387.588	98.75
387.813	106.75
388.038	99.75
388.263	117.75
388.488	104.75
388.713	97.75
388.938	104.75
389.163	96.75
389.387	91.75
389.612	93.75
389.837	92.75
390.062	103.75
390.287	85.75
390.512	84.75
390.736	103.75
390.961	87.75
391.186	97.75
391.411	97.75
391.636	96.75
391.86	97.75
392.085	90.75
392.31	95.75
392.534	95.75
392.759	81.75
392.984	89.75
393.208	94.75
393.433	78.75
393.658	89.75
393.882	90.75
394.107	82.75
394.331	79.75
394.556	97.75
394.78	86.75
395.005	95.75
395.229	86.75
395.454	95.75
395.678	83.75
395.903	93.75
396.127	94.75
396.352	76.75
396.576	90.75
396.801	89.75
397.025	97.75
397.249	95.75
397.474	77.75
397.698	89.75
397.922	93.75
398.147	81.75
398.371	79.75
398.595	88.75
398.82	85.75
399.044	95.75
399.268	87.75
399.492	84.75
399.717	75.75
399.941	89.75
400.165	83.75
400.389	83.75
400.613	77.75
400.837	97.75
401.062	79.75
401.286	84.75
401.51	81.75
401.734	79.75
401.958	100.75
402.182	109.75
402.406	164.75
402.63	111.75
402.854	97.75
403.078	98.75
403.302	103.75
403.526	81.75
403.75	94.75
403.974	85.75
404.198	90.75
404.422	90.75
404.645	89.75
404.869	84.75
405.093	92.75
405.317	116.75
405.541	104.75
405.765	91.75
405.988	119.75
406.212	168.75
406.436	208.75
406.66	132.75
406.883	97.75
407.107	96.75
407.331	104.75
407.555	92.75
407.778	97.75
408.002	77.75
408.226	99.75
408.449	92.75
408.673	85.75
408.896	98.75
409.12	81.75
409.344	85.75
409.567	79.75
409.791	97.75
410.014	98.75
410.238	87.75
410.461	107.75
410.685	105.75
410.908	88.75
411.132	101.75
411.355	94.75
411.578	90.75
411.802	83.75
412.025	97.75
412.249	91.75
412.472	96.75
412.695	113.75
412.919	93.75
413.142	105.75
413.365	89.75
413.589	84.75
413.812	85.75
414.035	111.75
414.258	94.75
414.482	84.75
414.705	83.75
414.928	77.75
415.151	83.75
415.374	96.75
415.597	79.75
415.821	96.75
416.044	98.75
416.267	90.75
416.49	92.75
416.713	94.75
416.936	95.75
417.159	97.75
417.382	90.75
417.605	77.75
417.828	85.75
418.051	101.75
418.274	83.75
418.497	92.75
418.72	86.75
418.943	92.75
419.166	79.75
419.389	91.75
419.611	91.75
419.834	87.75
420.057	87.75
420.28	95.75
420.503	97.75
420.726	95.75
420.948	94.75
421.171	96.75
421.394	96.75
421.617	98.75
421.839	95.75
422.062	87.75
422.285	91.75
422.507	99.75
422.73	100.75
422.953	106.75
423.175	90.75
423.398	95.75
423.621	87.75
423.843	88.75
424.066	106.75
424.288	84.75
424.511	80.75
424.733	98.75
424.956	106.75
425.178	92.75
425.401	95.75
425.623	101.75
425.846	100.75
426.068	91.75
426.291	96.75
426.513	85.75
426.735	89.75
426.958	93.75
427.18	103.75
427.402	128.75
427.625	155.75
427.847	123.75
428.069	118.75
428.292	84.75
428.514	71.75
428.736	87.75
428.958	87.75
429.181	77.75
429.403	89.75
429.625	79.75
429.847	70.75
430.069	81.75
430.292	92.75
430.514	91.75
430.736	83.75
430.958	90.75
431.18	90.75
431.402	80.75
431.624	82.75
431.846	88.75
432.068	89.75
432.29	75.75
432.512	92.75
432.734	81.75
432.956	91.75
433.178	106.75
433.4	99.75
433.622	91.75
433.844	75.75
434.066	101.75
434.287	103.75
434.509	87.75
434.731	95.75
434.953	99.75
435.175	92.75
435.397	98.75
435.618	99.75
435.84	101.75
436.062	116.75
436.284	110.75
436.505	99.75
436.727	97.75
436.949	92.75
437.17	80.75
437.392	82.75
437.614	104.75
437.835	107.75
438.057	102.75
438.278	91.75
438.5	100.75
438.721	107.75
438.943	109.75
439.165	84.75
439.386	87.75
439.608	93.75
439.829	96.75
440.05	112.75
440.272	126.75
440.493	100.75
440.715	83.75
440.936	99.75
441.158	97.75
441.379	95.75
441.6	98.75
441.822	90.75
442.043	95.75
442.264	99.75
442.486	95.75
442.707	86.75
442.928	103.75
443.149	117.75
443.371	131.75
443.592	106.75
443.813	96.75
444.034	120.75
444.255	89.75
444.476	97.75
444.698	92.75
444.919	85.75
445.14	140.75
445.361	126.75
445.582	116.75
445.803	132.75
446.024	120.75
446.245	131.75
446.466	110.75
446.687	97.75
446.908	81.75
447.129	92.75
447.35	89.75
447.571	82.75
447.792	92.75
448.013	100.75
448.234	114.75
448.455	93.75
448.675	125.75
448.896	104.75
449.117	99.75
449.338	97.75
449.559	127.75
449.779	125.75
450	99.75
450.221	97.75
450.442	84.75
450.662	89.75
450.883	98.75
451.104	98.75
451.324	93.75
451.545	91.75
451.766	82.75
451.986	91.75
452.207	92.75
452.428	82.75
452.648	87.75
452.869	108.75
453.089	111.75
453.31	108.75
453.53	83.75
453.751	108.75
453.971	103.75
454.192	100.75
454.412	90.75
454.633	76.75
454.853	88.75
455.073	89.75
455.294	95.75
455.514	89.75
455.734	95.75
455.955	79.75
456.175	91.75
456.395	85.75
456.616	75.75
456.836	75.75
457.056	87.75
457.276	93.75
457.497	81.75
457.717	84.75
457.937	71.75
458.157	84.75
458.377	90.75
458.598	101.75
458.818	135.75
459.038	143.75
459.258	109.75
459.478	81.75
459.698	91.75
459.918	85.75
460.138	83.75
460.358	96.75
460.578	91.75
460.798	95.75
461.018	77.75
461.238	98.75
461.458	82.75
461.678	93.75
461.898	95.75
462.118	79.75
462.338	84.75
462.558	91.75
462.777	89.75
462.997	84.75
463.217	93.75
463.437	93.75
463.657	77.75
463.876	87.75
464.096	97.75
464.316	86.75
464.536	93.75
464.755	102.75
464.975	99.75
465.195	146.75
465.414	147.75
465.634	92.75
465.854	93.75
466.073	88.75
466.293	97.75
466.512	85.75
466.732	101.75
466.951	84.75
467.171	100.75
467.391	96.75
467.61	104.75
467.829	104.75
468.049	103.75
468.268	101.75
468.488	85.75
468.707	99.75
468.927	88.75
469.146	73.75
469.365	90.75
469.585	83.75
469.804	104.75
470.023	104.75
470.243	105.75
470.462	95.75
470.681	91.75
470.901	88.75
471.12	83.75
471.339	84.75
471.558	84.75
471.777	88.75
471.997	83.75
472.216	124.75
472.435	174.75
472.654	109.75
472.873	93.75
473.092	93.75
473.311	91.75
473.53	82.75
473.749	86.75
473.968	89.75
474.187	100.75
474.406	95.75
474.625	87.75
474.844	92.75
475.063	98.75
475.282	88.75
475.501	87.75
475.72	103.75
475.939	84.75
476.158	87.75
476.377	82.75
476.596	83.75
476.814	64.75
477.033	75.75
477.252	101.75
477.471	97.75
477.69	94.75
477.908	97.75
478.127	94.75
478.346	112.75
478.564	99.75
478.783	96.75
479.002	93.75
479.22	97.75
479.439	104.75
479.658	102.75
479.876	90.75
480.095	78.75
480.313	92.75
480.532	92.75
480.751	102.75
480.969	134.75
481.188	273.75
481.406	171.75
481.624	104.75
481.843	95.75
482.061	95.75
482.28	81.75
482.498	98.75
482.717	93.75
482.935	91.75
483.153	90.75
483.372	75.75
483.59	73.75
483.808	68.75
484.027	102.75
484.245	97.75
484.463	102.75
484.681	100.75
484.9	91.75
485.118	95.75
485.336	98.75
485.554	100.75
485.772	116.75
485.99	115.75
486.209	103.75
486.427	97.75
486.645	103.75
486.863	109.75
487.081	98.75
487.299	99.75
487.517	98.75
487.735	88.75
487.953	92.75
488.171	99.75
488.389	102.75
488.607	106.75
488.825	94.75
489.043	101.75
489.261	88.75
489.479	97.75
489.696	99.75
489.914	103.75
490.132	86.75
490.35	101.75
490.568	89.75
490.786	83.75
491.003	79.75
491.221	98.75
491.439	89.75
491.657	81.75
491.874	97.75
492.092	81.75
492.31	89.75
492.527	90.75
492.745	100.75
492.963	93.75
493.18	97.75
493.398	108.75
493.615	96.75
493.833	101.75
494.05	89.75
494.268	82.75
494.485	110.75
494.703	90.75
494.92	88.75
495.138	89.75
495.355	79.75
495.573	103.75
495.79	102.75
496.008	107.75
496.225	87.75
496.442	89.75
496.66	91.75
496.877	97.75
497.094	101.75
497.312	88.75
497.529	109.75
497.746	82.75
497.963	77.75
498.181	90.75
498.398	97.75
498.615	94.75
498.832	99.75
499.049	95.75
499.267	94.75
499.484	79.75
499.701	89.75
499.918	82.75
500.135	92.75
500.352	89.75
500.569	79.75
500.786	91.75
501.003	88.75
501.22	91.75
501.437	85.75
501.654	99.75
501.871	93.75
502.088	96.75
502.305	81.75
502.522	102.75
502.739	91.75
502.956	89.75
503.172	92.75
503.389	89.75
503.606	98.75
503.823	107.75
504.04	94.75
504.256	89.75
504.473	95.75
504.69	80.75
504.907	99.75
505.123	105.75
505.34	83.75
505.557	100.75
505.773	80.75
505.99	100.75
506.207	82.75
506.423	85.75
506.64	87.75
506.856	93.75
507.073	103.75
507.289	111.75
507.506	100.75
507.722	97.75
507.939	96.75
508.155	99.75
508.372	86.75
508.588	99.75
508.805	100.75
509.021	97.75
509.238	106.75
509.454	99.75
509.67	109.75
509.887	105.75
510.103	123.75
510.319	185.75
510.536	709.75
510.752	2144.75
510.968	602.75
511.184	149.75
511.401	121.75
511.617	98.75
511.833	84.75
512.049	92.75
512.265	86.75
512.481	93.75
512.698	96.75
512.914	82.75
513.13	107.75
513.346	97.75
513.562	98.75
513.778	98.75
513.994	95.75
514.21	98.75
514.426	107.75
514.642	122.75
514.858	124.75
515.074	166.75
515.29	405.75
515.506	1311.75
