Data from Circ_1985_H10_HRD10591_00055.txt Node
Date: Wed Jan 03 12:19:33 EST 2024
User: Yrep
Spectrometer: HR+D1059
Trigger mode: 1
Integration Time (sec): 1.000000E-1
Scans to average: 1
Electric dark correction enabled: true
Nonlinearity correction enabled: false
Boxcar width: 0
XAxis mode: Wavelengths
Number of Pixels in Spectrum: 2048
>>>>>Begin Spectral Data<<<<<
223.165	-12.94
223.4	-12.94
223.635	-12.94
223.869	-30.94
224.104	-27.94
224.338	-5.94
224.573	-10.94
224.808	-8.94
225.042	-14.94
225.277	-2.94
225.511	0.06
225.746	0.06
225.98	21.06
226.215	7.06
226.449	19.06
226.683	19.06
226.918	20.06
227.152	29.06
227.387	42.06
227.621	40.06
227.856	39.06
228.09	57.06
228.324	58.06
228.559	67.06
228.793	71.06
229.027	69.06
229.262	70.06
229.496	55.06
229.73	75.06
229.964	86.06
230.199	77.06
230.433	77.06
230.667	77.06
230.901	70.06
231.136	93.06
231.37	77.06
231.604	83.06
231.838	84.06
232.072	75.06
232.306	81.06
232.541	85.06
232.775	91.06
233.009	82.06
233.243	87.06
233.477	74.06
233.711	67.06
233.945	82.06
234.179	102.06
234.413	90.06
234.647	85.06
234.881	83.06
235.115	74.06
235.349	82.06
235.583	82.06
235.817	95.06
236.051	80.06
236.285	81.06
236.519	85.06
236.753	73.06
236.987	81.06
237.221	95.06
237.455	85.06
237.689	76.06
237.922	87.06
238.156	71.06
238.39	74.06
238.624	82.06
238.858	69.06
239.091	72.06
239.325	73.06
239.559	88.06
239.793	82.06
240.027	71.06
240.26	78.06
240.494	97.06
240.728	80.06
240.961	85.06
241.195	62.06
241.429	73.06
241.662	78.06
241.896	69.06
242.13	86.06
242.363	69.06
242.597	83.06
242.83	77.06
243.064	79.06
243.298	66.06
243.531	77.06
243.765	85.06
243.998	81.06
244.232	84.06
244.465	82.06
244.699	78.06
244.932	81.06
245.166	83.06
245.399	79.06
245.633	93.06
245.866	79.06
246.099	94.06
246.333	89.06
246.566	85.06
246.8	66.06
247.033	87.06
247.266	66.06
247.5	94.06
247.733	67.06
247.966	76.06
248.2	81.06
248.433	88.06
248.666	91.06
248.899	91.06
249.133	87.06
249.366	80.06
249.599	97.06
249.832	75.06
250.066	74.06
250.299	82.06
250.532	85.06
250.765	73.06
250.998	85.06
251.231	87.06
251.465	67.06
251.698	90.06
251.931	85.06
252.164	76.06
252.397	74.06
252.63	86.06
252.863	79.06
253.096	91.06
253.329	86.06
253.562	76.06
253.795	107.06
254.028	93.06
254.261	76.06
254.494	89.06
254.727	93.06
254.96	75.06
255.193	74.06
255.426	87.06
255.659	81.06
255.892	70.06
256.124	93.06
256.357	85.06
256.59	82.06
256.823	86.06
257.056	94.06
257.289	76.06
257.521	76.06
257.754	88.06
257.987	87.06
258.22	92.06
258.452	72.06
258.685	83.06
258.918	83.06
259.151	83.06
259.383	99.06
259.616	102.06
259.849	90.06
260.081	87.06
260.314	85.06
260.547	95.06
260.779	71.06
261.012	82.06
261.244	70.06
261.477	89.06
261.71	94.06
261.942	104.06
262.175	107.06
262.407	98.06
262.64	73.06
262.872	97.06
263.105	81.06
263.337	89.06
263.57	86.06
263.802	69.06
264.035	91.06
264.267	83.06
264.499	86.06
264.732	101.06
264.964	76.06
265.197	91.06
265.429	105.06
265.661	87.06
265.894	83.06
266.126	86.06
266.358	85.06
266.591	85.06
266.823	95.06
267.055	91.06
267.287	78.06
267.52	81.06
267.752	91.06
267.984	86.06
268.216	84.06
268.448	88.06
268.681	94.06
268.913	102.06
269.145	85.06
269.377	82.06
269.609	102.06
269.841	89.06
270.073	95.06
270.306	89.06
270.538	88.06
270.77	78.06
271.002	95.06
271.234	92.06
271.466	90.06
271.698	89.06
271.93	77.06
272.162	100.06
272.394	89.06
272.626	97.06
272.858	105.06
273.09	96.06
273.322	98.06
273.553	85.06
273.785	89.06
274.017	88.06
274.249	73.06
274.481	81.06
274.713	76.06
274.945	89.06
275.176	91.06
275.408	72.06
275.64	79.06
275.872	89.06
276.104	70.06
276.335	97.06
276.567	88.06
276.799	85.06
277.031	90.06
277.262	87.06
277.494	85.06
277.726	75.06
277.957	87.06
278.189	102.06
278.421	79.06
278.652	79.06
278.884	86.06
279.115	77.06
279.347	78.06
279.579	86.06
279.81	103.06
280.042	78.06
280.273	89.06
280.505	84.06
280.736	92.06
280.968	86.06
281.199	91.06
281.431	77.06
281.662	92.06
281.894	105.06
282.125	91.06
282.356	103.06
282.588	125.06
282.819	103.06
283.051	88.06
283.282	77.06
283.513	91.06
283.745	89.06
283.976	101.06
284.207	97.06
284.439	93.06
284.67	101.06
284.901	83.06
285.132	87.06
285.364	81.06
285.595	94.06
285.826	85.06
286.057	90.06
286.288	88.06
286.52	94.06
286.751	91.06
286.982	77.06
287.213	92.06
287.444	75.06
287.675	87.06
287.906	91.06
288.138	85.06
288.369	92.06
288.6	91.06
288.831	84.06
289.062	99.06
289.293	98.06
289.524	93.06
289.755	96.06
289.986	83.06
290.217	95.06
290.448	97.06
290.679	84.06
290.91	95.06
291.141	74.06
291.371	97.06
291.602	94.06
291.833	97.06
292.064	97.06
292.295	94.06
292.526	76.06
292.757	89.06
292.987	83.06
293.218	96.06
293.449	103.06
293.68	89.06
293.91	95.06
294.141	100.06
294.372	78.06
294.603	88.06
294.833	81.06
295.064	93.06
295.295	103.06
295.525	89.06
295.756	96.06
295.987	104.06
296.217	124.06
296.448	119.06
296.679	90.06
296.909	89.06
297.14	88.06
297.37	87.06
297.601	104.06
297.831	85.06
298.062	84.06
298.292	99.06
298.523	103.06
298.753	90.06
298.984	91.06
299.214	91.06
299.445	95.06
299.675	91.06
299.905	77.06
300.136	77.06
300.366	68.06
300.597	74.06
300.827	89.06
301.057	101.06
301.288	100.06
301.518	91.06
301.748	90.06
301.979	113.06
302.209	98.06
302.439	101.06
302.669	93.06
302.9	100.06
303.13	87.06
303.36	94.06
303.59	94.06
303.82	99.06
304.051	86.06
304.281	99.06
304.511	103.06
304.741	100.06
304.971	98.06
305.201	95.06
305.431	75.06
305.661	81.06
305.891	98.06
306.121	102.06
306.352	94.06
306.582	100.06
306.812	83.06
307.042	91.06
307.272	104.06
307.502	102.06
307.731	102.06
307.961	85.06
308.191	85.06
308.421	94.06
308.651	92.06
308.881	87.06
309.111	91.06
309.341	101.06
309.571	90.06
309.8	75.06
310.03	96.06
310.26	93.06
310.49	105.06
310.72	94.06
310.949	97.06
311.179	97.06
311.409	92.06
311.639	92.06
311.868	90.06
312.098	105.06
312.328	84.06
312.557	98.06
312.787	94.06
313.017	103.06
313.246	93.06
313.476	94.06
313.706	93.06
313.935	92.06
314.165	95.06
314.394	93.06
314.624	98.06
314.853	110.06
315.083	106.06
315.312	108.06
315.542	82.06
315.771	83.06
316.001	100.06
316.23	99.06
316.46	81.06
316.689	73.06
316.919	100.06
317.148	88.06
317.377	97.06
317.607	93.06
317.836	82.06
318.065	107.06
318.295	97.06
318.524	110.06
318.753	101.06
318.983	97.06
319.212	94.06
319.441	88.06
319.67	97.06
319.9	99.06
320.129	87.06
320.358	93.06
320.587	105.06
320.816	82.06
321.046	91.06
321.275	90.06
321.504	109.06
321.733	105.06
321.962	100.06
322.191	113.06
322.42	101.06
322.649	106.06
322.878	101.06
323.108	96.06
323.337	112.06
323.566	115.06
323.795	145.06
324.024	182.06
324.253	348.06
324.482	733.06
324.71	1512.06
324.939	1964.06
325.168	707.06
325.397	225.06
325.626	138.06
325.855	133.06
326.084	117.06
326.313	123.06
326.542	126.06
326.77	200.06
326.999	421.06
327.228	858.06
327.457	1596.06
327.686	1267.06
327.914	347.06
328.143	191.06
328.372	151.06
328.6	118.06
328.829	116.06
329.058	120.06
329.287	106.06
329.515	129.06
329.744	101.06
329.972	125.06
330.201	122.06
330.43	137.06
330.658	111.06
330.887	125.06
331.115	97.06
331.344	99.06
331.572	100.06
331.801	101.06
332.03	110.06
332.258	108.06
332.486	106.06
332.715	106.06
332.943	90.06
333.172	98.06
333.4	105.06
333.629	115.06
333.857	110.06
334.085	123.06
334.314	118.06
334.542	132.06
334.771	118.06
334.999	101.06
335.227	92.06
335.455	92.06
335.684	84.06
335.912	100.06
336.14	98.06
336.369	86.06
336.597	97.06
336.825	94.06
337.053	107.06
337.281	93.06
337.51	84.06
337.738	98.06
337.966	99.06
338.194	110.06
338.422	106.06
338.65	105.06
338.878	83.06
339.106	91.06
339.334	96.06
339.562	91.06
339.79	105.06
340.018	89.06
340.246	99.06
340.474	96.06
340.702	86.06
340.93	99.06
341.158	99.06
341.386	106.06
341.614	103.06
341.842	90.06
342.07	87.06
342.298	101.06
342.526	96.06
342.754	99.06
342.981	103.06
343.209	97.06
343.437	98.06
343.665	93.06
343.893	100.06
344.12	111.06
344.348	103.06
344.576	97.06
344.804	80.06
345.031	89.06
345.259	84.06
345.487	97.06
345.714	96.06
345.942	98.06
346.17	79.06
346.397	97.06
346.625	111.06
346.853	103.06
347.08	91.06
347.308	85.06
347.535	93.06
347.763	103.06
347.99	94.06
348.218	95.06
348.445	92.06
348.673	85.06
348.9	107.06
349.128	99.06
349.355	98.06
349.583	84.06
349.81	88.06
350.037	86.06
350.265	94.06
350.492	105.06
350.72	91.06
350.947	102.06
351.174	93.06
351.402	100.06
351.629	103.06
351.856	89.06
352.083	97.06
352.311	100.06
352.538	120.06
352.765	100.06
352.992	97.06
353.22	108.06
353.447	113.06
353.674	100.06
353.901	93.06
354.128	91.06
354.355	97.06
354.583	95.06
354.81	92.06
355.037	103.06
355.264	93.06
355.491	100.06
355.718	105.06
355.945	92.06
356.172	98.06
356.399	102.06
356.626	87.06
356.853	86.06
357.08	91.06
357.307	97.06
357.534	92.06
357.761	94.06
357.988	88.06
358.215	90.06
358.441	97.06
358.668	98.06
358.895	92.06
359.122	107.06
359.349	104.06
359.576	94.06
359.802	116.06
360.029	108.06
360.256	104.06
360.483	114.06
360.709	108.06
360.936	82.06
361.163	103.06
361.39	88.06
361.616	91.06
361.843	102.06
362.07	114.06
362.296	91.06
362.523	91.06
362.749	89.06
362.976	95.06
363.203	103.06
363.429	88.06
363.656	99.06
363.882	77.06
364.109	88.06
364.335	89.06
364.562	85.06
364.788	87.06
365.015	108.06
365.241	88.06
365.468	114.06
365.694	85.06
365.92	81.06
366.147	93.06
366.373	83.06
366.599	89.06
366.826	107.06
367.052	93.06
367.278	86.06
367.505	106.06
367.731	83.06
367.957	101.06
368.184	100.06
368.41	89.06
368.636	108.06
368.862	109.06
369.089	102.06
369.315	105.06
369.541	82.06
369.767	98.06
369.993	87.06
370.219	104.06
370.445	86.06
370.672	94.06
370.898	97.06
371.124	87.06
371.35	91.06
371.576	89.06
371.802	94.06
372.028	88.06
372.254	92.06
372.48	74.06
372.706	96.06
372.932	89.06
373.158	94.06
373.384	91.06
373.61	103.06
373.835	89.06
374.061	104.06
374.287	95.06
374.513	77.06
374.739	100.06
374.965	72.06
375.191	85.06
375.416	92.06
375.642	85.06
375.868	90.06
376.094	93.06
376.319	102.06
376.545	85.06
376.771	90.06
376.997	87.06
377.222	89.06
377.448	101.06
377.674	102.06
377.899	89.06
378.125	95.06
378.35	110.06
378.576	112.06
378.802	101.06
379.027	96.06
379.253	96.06
379.478	100.06
379.704	106.06
379.929	105.06
380.155	96.06
380.38	91.06
380.606	98.06
380.831	107.06
381.057	105.06
381.282	106.06
381.507	98.06
381.733	97.06
381.958	108.06
382.184	113.06
382.409	107.06
382.634	115.06
382.86	108.06
383.085	85.06
383.31	99.06
383.535	105.06
383.761	98.06
383.986	109.06
384.211	112.06
384.436	88.06
384.662	95.06
384.887	99.06
385.112	101.06
385.337	101.06
385.562	94.06
385.787	105.06
386.013	100.06
386.238	111.06
386.463	104.06
386.688	116.06
386.913	109.06
387.138	108.06
387.363	105.06
387.588	112.06
387.813	94.06
388.038	108.06
388.263	119.06
388.488	108.06
388.713	100.06
388.938	89.06
389.163	106.06
389.387	97.06
389.612	99.06
389.837	87.06
390.062	91.06
390.287	91.06
390.512	94.06
390.736	91.06
390.961	99.06
391.186	106.06
391.411	99.06
391.636	81.06
391.86	86.06
392.085	87.06
392.31	83.06
392.534	78.06
392.759	91.06
392.984	93.06
393.208	91.06
393.433	107.06
393.658	93.06
393.882	85.06
394.107	95.06
394.331	92.06
394.556	88.06
394.78	85.06
395.005	86.06
395.229	91.06
395.454	96.06
395.678	101.06
395.903	97.06
396.127	84.06
396.352	90.06
396.576	72.06
396.801	94.06
397.025	77.06
397.249	91.06
397.474	82.06
397.698	95.06
397.922	92.06
398.147	91.06
398.371	92.06
398.595	99.06
398.82	97.06
399.044	86.06
399.268	93.06
399.492	85.06
399.717	92.06
399.941	106.06
400.165	89.06
400.389	88.06
400.613	88.06
400.837	81.06
401.062	84.06
401.286	100.06
401.51	93.06
401.734	85.06
401.958	97.06
402.182	128.06
402.406	140.06
402.63	88.06
402.854	83.06
403.078	87.06
403.302	98.06
403.526	97.06
403.75	103.06
403.974	97.06
404.198	85.06
404.422	83.06
404.645	93.06
404.869	94.06
405.093	95.06
405.317	97.06
405.541	98.06
405.765	95.06
405.988	110.06
406.212	146.06
406.436	203.06
406.66	124.06
406.883	105.06
407.107	101.06
407.331	85.06
407.555	98.06
407.778	116.06
408.002	91.06
408.226	89.06
408.449	102.06
408.673	78.06
408.896	93.06
409.12	97.06
409.344	82.06
409.567	92.06
409.791	98.06
410.014	105.06
410.238	101.06
410.461	92.06
410.685	91.06
410.908	98.06
411.132	111.06
411.355	90.06
411.578	89.06
411.802	108.06
412.025	93.06
412.249	79.06
412.472	113.06
412.695	105.06
412.919	90.06
413.142	89.06
413.365	93.06
413.589	115.06
413.812	98.06
414.035	85.06
414.258	83.06
414.482	86.06
414.705	92.06
414.928	110.06
415.151	95.06
415.374	104.06
415.597	95.06
415.821	102.06
416.044	91.06
416.267	75.06
416.49	98.06
416.713	76.06
416.936	88.06
417.159	91.06
417.382	90.06
417.605	98.06
417.828	95.06
418.051	100.06
418.274	86.06
418.497	87.06
418.72	84.06
418.943	92.06
419.166	110.06
419.389	97.06
419.611	92.06
419.834	113.06
420.057	95.06
420.28	93.06
420.503	90.06
420.726	90.06
420.948	77.06
421.171	99.06
421.394	102.06
421.617	94.06
421.839	91.06
422.062	96.06
422.285	71.06
422.507	104.06
422.73	97.06
422.953	86.06
423.175	93.06
423.398	101.06
423.621	93.06
423.843	83.06
424.066	89.06
424.288	85.06
424.511	91.06
424.733	98.06
424.956	97.06
425.178	93.06
425.401	99.06
425.623	103.06
425.846	96.06
426.068	105.06
426.291	81.06
426.513	84.06
426.735	97.06
426.958	89.06
427.18	112.06
427.402	131.06
427.625	138.06
427.847	124.06
428.069	102.06
428.292	101.06
428.514	79.06
428.736	89.06
428.958	79.06
429.181	88.06
429.403	88.06
429.625	99.06
429.847	101.06
430.069	109.06
430.292	106.06
430.514	93.06
430.736	92.06
430.958	85.06
431.18	90.06
431.402	86.06
431.624	95.06
431.846	93.06
432.068	93.06
432.29	83.06
432.512	92.06
432.734	92.06
432.956	104.06
433.178	90.06
433.4	108.06
433.622	102.06
433.844	81.06
434.066	91.06
434.287	104.06
434.509	105.06
434.731	83.06
434.953	90.06
435.175	95.06
435.397	97.06
435.618	85.06
435.84	85.06
436.062	125.06
436.284	115.06
436.505	91.06
436.727	116.06
436.949	85.06
437.17	85.06
437.392	101.06
437.614	96.06
437.835	100.06
438.057	101.06
438.278	105.06
438.5	97.06
438.721	119.06
438.943	102.06
439.165	95.06
439.386	91.06
439.608	96.06
439.829	97.06
440.05	108.06
440.272	127.06
440.493	99.06
440.715	97.06
440.936	83.06
441.158	90.06
441.379	91.06
441.6	97.06
441.822	97.06
442.043	102.06
442.264	100.06
442.486	97.06
442.707	96.06
442.928	96.06
443.149	130.06
443.371	125.06
443.592	102.06
443.813	105.06
444.034	99.06
444.255	90.06
444.476	88.06
444.698	83.06
444.919	93.06
445.14	131.06
445.361	118.06
445.582	109.06
445.803	126.06
446.024	135.06
446.245	120.06
446.466	107.06
446.687	101.06
446.908	105.06
447.129	104.06
447.35	93.06
447.571	103.06
447.792	89.06
448.013	102.06
448.234	116.06
448.455	113.06
448.675	110.06
448.896	118.06
449.117	104.06
449.338	100.06
449.559	132.06
449.779	117.06
450	102.06
450.221	93.06
450.442	89.06
450.662	92.06
450.883	99.06
451.104	99.06
451.324	99.06
451.545	90.06
451.766	92.06
451.986	87.06
452.207	95.06
452.428	92.06
452.648	90.06
452.869	100.06
453.089	99.06
453.31	100.06
453.53	95.06
453.751	88.06
453.971	94.06
454.192	106.06
454.412	92.06
454.633	85.06
454.853	88.06
455.073	86.06
455.294	93.06
455.514	117.06
455.734	102.06
455.955	93.06
456.175	81.06
456.395	87.06
456.616	105.06
456.836	106.06
457.056	95.06
457.276	85.06
457.497	93.06
457.717	88.06
457.937	91.06
458.157	95.06
458.377	93.06
458.598	106.06
458.818	111.06
459.038	137.06
459.258	102.06
459.478	93.06
459.698	89.06
459.918	78.06
460.138	91.06
460.358	85.06
460.578	98.06
460.798	73.06
461.018	95.06
461.238	89.06
461.458	86.06
461.678	91.06
461.898	88.06
462.118	99.06
462.338	88.06
462.558	85.06
462.777	97.06
462.997	93.06
463.217	83.06
463.437	93.06
463.657	100.06
463.876	95.06
464.096	90.06
464.316	96.06
464.536	91.06
464.755	107.06
464.975	100.06
465.195	120.06
465.414	130.06
465.634	94.06
465.854	93.06
466.073	90.06
466.293	85.06
466.512	88.06
466.732	115.06
466.951	98.06
467.171	76.06
467.391	85.06
467.61	93.06
467.829	88.06
468.049	96.06
468.268	97.06
468.488	87.06
468.707	91.06
468.927	92.06
469.146	84.06
469.365	93.06
469.585	79.06
469.804	96.06
470.023	79.06
470.243	97.06
470.462	100.06
470.681	110.06
470.901	92.06
471.12	87.06
471.339	82.06
471.558	106.06
471.777	85.06
471.997	90.06
472.216	96.06
472.435	136.06
472.654	100.06
472.873	83.06
473.092	93.06
473.311	75.06
473.53	88.06
473.749	75.06
473.968	92.06
474.187	101.06
474.406	88.06
474.625	92.06
474.844	95.06
475.063	81.06
475.282	84.06
475.501	89.06
475.72	89.06
475.939	94.06
476.158	97.06
476.377	81.06
476.596	77.06
476.814	92.06
477.033	95.06
477.252	92.06
477.471	87.06
477.69	84.06
477.908	87.06
478.127	101.06
478.346	86.06
478.564	87.06
478.783	84.06
479.002	102.06
479.22	88.06
479.439	101.06
479.658	107.06
479.876	82.06
480.095	90.06
480.313	94.06
480.532	85.06
480.751	111.06
480.969	104.06
481.188	193.06
481.406	166.06
481.624	101.06
481.843	83.06
482.061	97.06
482.28	101.06
482.498	90.06
482.717	86.06
482.935	84.06
483.153	99.06
483.372	97.06
483.59	87.06
483.808	89.06
484.027	102.06
484.245	99.06
484.463	90.06
484.681	112.06
484.9	98.06
485.118	114.06
485.336	104.06
485.554	94.06
485.772	103.06
485.99	98.06
486.209	106.06
486.427	114.06
486.645	110.06
486.863	99.06
487.081	99.06
487.299	106.06
487.517	97.06
487.735	89.06
487.953	85.06
488.171	94.06
488.389	86.06
488.607	106.06
488.825	91.06
489.043	89.06
489.261	89.06
489.479	110.06
489.696	103.06
489.914	90.06
490.132	85.06
490.35	97.06
490.568	86.06
490.786	89.06
491.003	97.06
491.221	83.06
491.439	87.06
491.657	97.06
491.874	83.06
492.092	91.06
492.31	91.06
492.527	104.06
492.745	97.06
492.963	84.06
493.18	78.06
493.398	88.06
493.615	95.06
493.833	90.06
494.05	86.06
494.268	100.06
494.485	91.06
494.703	93.06
494.92	89.06
495.138	102.06
495.355	81.06
495.573	74.06
495.79	91.06
496.008	79.06
496.225	98.06
496.442	92.06
496.66	93.06
496.877	88.06
497.094	92.06
497.312	85.06
497.529	96.06
497.746	106.06
497.963	106.06
498.181	100.06
498.398	94.06
498.615	95.06
498.832	106.06
499.049	99.06
499.267	98.06
499.484	101.06
499.701	90.06
499.918	95.06
500.135	83.06
500.352	85.06
500.569	89.06
500.786	110.06
501.003	89.06
501.22	102.06
501.437	104.06
501.654	99.06
501.871	102.06
502.088	95.06
502.305	97.06
502.522	87.06
502.739	100.06
502.956	88.06
503.172	109.06
503.389	80.06
503.606	91.06
503.823	102.06
504.04	86.06
504.256	91.06
504.473	97.06
504.69	78.06
504.907	99.06
505.123	101.06
505.34	89.06
505.557	93.06
505.773	83.06
505.99	69.06
506.207	81.06
506.423	98.06
506.64	86.06
506.856	86.06
507.073	85.06
507.289	101.06
507.506	95.06
507.722	106.06
507.939	93.06
508.155	98.06
508.372	95.06
508.588	88.06
508.805	99.06
509.021	100.06
509.238	94.06
509.454	105.06
509.67	103.06
509.887	116.06
510.103	130.06
510.319	201.06
510.536	633.06
510.752	1917.06
510.968	525.06
511.184	157.06
511.401	104.06
511.617	116.06
511.833	92.06
512.049	88.06
512.265	97.06
512.481	103.06
512.698	95.06
512.914	106.06
513.13	86.06
513.346	91.06
513.562	87.06
513.778	86.06
513.994	93.06
514.21	95.06
514.426	117.06
514.642	127.06
514.858	116.06
