Data from Circ_1985_H10_HRD10591_00059.txt Node
Date: Wed Jan 03 12:19:34 EST 2024
User: Yrep
Spectrometer: HR+D1059
Trigger mode: 1
Integration Time (sec): 1.000000E-1
Scans to average: 1
Electric dark correction enabled: true
Nonlinearity correction enabled: false
Boxcar width: 0
XAxis mode: Wavelengths
Number of Pixels in Spectrum: 2048
>>>>>Begin Spectral Data<<<<<
223.165	-14.62
223.4	-14.62
223.635	-14.62
223.869	-20.62
224.104	-13.62
224.338	-23.62
224.573	-19.62
224.808	-18.62
225.042	-11.62
225.277	-18.62
225.511	-6.62
225.746	-2.62
225.98	20.38
226.215	8.38
226.449	22.38
226.683	29.38
226.918	27.38
227.152	42.38
227.387	31.38
227.621	29.38
227.856	52.38
228.09	33.38
228.324	56.38
228.559	67.38
228.793	42.38
229.027	70.38
229.262	66.38
229.496	59.38
229.73	69.38
229.964	78.38
230.199	66.38
230.433	69.38
230.667	65.38
230.901	61.38
231.136	79.38
231.37	67.38
231.604	58.38
231.838	89.38
232.072	65.38
232.306	77.38
232.541	78.38
232.775	83.38
233.009	78.38
233.243	79.38
233.477	85.38
233.711	87.38
233.945	71.38
234.179	56.38
234.413	86.38
234.647	72.38
234.881	68.38
235.115	78.38
235.349	73.38
235.583	81.38
235.817	74.38
236.051	78.38
236.285	79.38
236.519	71.38
236.753	57.38
236.987	71.38
237.221	58.38
237.455	79.38
237.689	83.38
237.922	61.38
238.156	72.38
238.39	76.38
238.624	77.38
238.858	87.38
239.091	86.38
239.325	80.38
239.559	73.38
239.793	69.38
240.027	84.38
240.26	61.38
240.494	63.38
240.728	76.38
240.961	81.38
241.195	63.38
241.429	69.38
241.662	75.38
241.896	84.38
242.13	79.38
242.363	68.38
242.597	79.38
242.83	73.38
243.064	78.38
243.298	76.38
243.531	91.38
243.765	68.38
243.998	79.38
244.232	95.38
244.465	68.38
244.699	73.38
244.932	72.38
245.166	72.38
245.399	52.38
245.633	80.38
245.866	55.38
246.099	77.38
246.333	79.38
246.566	56.38
246.8	77.38
247.033	69.38
247.266	81.38
247.5	78.38
247.733	77.38
247.966	89.38
248.2	82.38
248.433	76.38
248.666	63.38
248.899	75.38
249.133	78.38
249.366	83.38
249.599	84.38
249.832	67.38
250.066	72.38
250.299	71.38
250.532	75.38
250.765	78.38
250.998	81.38
251.231	77.38
251.465	80.38
251.698	70.38
251.931	72.38
252.164	62.38
252.397	69.38
252.63	85.38
252.863	83.38
253.096	71.38
253.329	75.38
253.562	67.38
253.795	71.38
254.028	71.38
254.261	69.38
254.494	71.38
254.727	71.38
254.96	71.38
255.193	78.38
255.426	69.38
255.659	83.38
255.892	73.38
256.124	77.38
256.357	67.38
256.59	94.38
256.823	85.38
257.056	75.38
257.289	64.38
257.521	82.38
257.754	70.38
257.987	75.38
258.22	82.38
258.452	75.38
258.685	77.38
258.918	88.38
259.151	70.38
259.383	73.38
259.616	53.38
259.849	81.38
260.081	72.38
260.314	79.38
260.547	66.38
260.779	83.38
261.012	91.38
261.244	72.38
261.477	83.38
261.71	101.38
261.942	107.38
262.175	95.38
262.407	80.38
262.64	83.38
262.872	79.38
263.105	70.38
263.337	67.38
263.57	67.38
263.802	86.38
264.035	85.38
264.267	66.38
264.499	71.38
264.732	85.38
264.964	67.38
265.197	81.38
265.429	85.38
265.661	81.38
265.894	79.38
266.126	75.38
266.358	75.38
266.591	69.38
266.823	82.38
267.055	75.38
267.287	76.38
267.52	93.38
267.752	73.38
267.984	87.38
268.216	70.38
268.448	84.38
268.681	88.38
268.913	97.38
269.145	82.38
269.377	72.38
269.609	87.38
269.841	80.38
270.073	85.38
270.306	92.38
270.538	76.38
270.77	75.38
271.002	88.38
271.234	93.38
271.466	81.38
271.698	88.38
271.93	76.38
272.162	70.38
272.394	81.38
272.626	81.38
272.858	64.38
273.09	73.38
273.322	77.38
273.553	85.38
273.785	81.38
274.017	84.38
274.249	86.38
274.481	81.38
274.713	67.38
274.945	83.38
275.176	80.38
275.408	92.38
275.64	84.38
275.872	78.38
276.104	89.38
276.335	89.38
276.567	72.38
276.799	95.38
277.031	82.38
277.262	77.38
277.494	82.38
277.726	97.38
277.957	91.38
278.189	71.38
278.421	78.38
278.652	77.38
278.884	89.38
279.115	76.38
279.347	82.38
279.579	78.38
279.81	95.38
280.042	81.38
280.273	84.38
280.505	77.38
280.736	86.38
280.968	82.38
281.199	86.38
281.431	84.38
281.662	83.38
281.894	75.38
282.125	76.38
282.356	99.38
282.588	120.38
282.819	91.38
283.051	80.38
283.282	83.38
283.513	84.38
283.745	87.38
283.976	85.38
284.207	85.38
284.439	75.38
284.67	65.38
284.901	77.38
285.132	85.38
285.364	81.38
285.595	69.38
285.826	83.38
286.057	77.38
286.288	91.38
286.52	71.38
286.751	76.38
286.982	81.38
287.213	88.38
287.444	89.38
287.675	93.38
287.906	75.38
288.138	96.38
288.369	89.38
288.6	92.38
288.831	84.38
289.062	82.38
289.293	77.38
289.524	80.38
289.755	84.38
289.986	88.38
290.217	91.38
290.448	78.38
290.679	91.38
290.91	77.38
291.141	81.38
291.371	101.38
291.602	91.38
291.833	76.38
292.064	88.38
292.295	94.38
292.526	74.38
292.757	81.38
292.987	78.38
293.218	87.38
293.449	82.38
293.68	79.38
293.91	83.38
294.141	86.38
294.372	77.38
294.603	101.38
294.833	95.38
295.064	102.38
295.295	105.38
295.525	63.38
295.756	93.38
295.987	111.38
296.217	104.38
296.448	114.38
296.679	91.38
296.909	105.38
297.14	77.38
297.37	100.38
297.601	83.38
297.831	77.38
298.062	80.38
298.292	80.38
298.523	76.38
298.753	86.38
298.984	90.38
299.214	71.38
299.445	90.38
299.675	91.38
299.905	78.38
300.136	103.38
300.366	80.38
300.597	90.38
300.827	89.38
301.057	91.38
301.288	88.38
301.518	89.38
301.748	87.38
301.979	106.38
302.209	86.38
302.439	89.38
302.669	92.38
302.9	101.38
303.13	97.38
303.36	79.38
303.59	79.38
303.82	80.38
304.051	69.38
304.281	84.38
304.511	90.38
304.741	80.38
304.971	84.38
305.201	79.38
305.431	73.38
305.661	91.38
305.891	88.38
306.121	89.38
306.352	87.38
306.582	95.38
306.812	79.38
307.042	78.38
307.272	77.38
307.502	73.38
307.731	78.38
307.961	89.38
308.191	89.38
308.421	84.38
308.651	91.38
308.881	99.38
309.111	81.38
309.341	101.38
309.571	96.38
309.8	87.38
310.03	90.38
310.26	83.38
310.49	84.38
310.72	100.38
310.949	99.38
311.179	92.38
311.409	90.38
311.639	82.38
311.868	90.38
312.098	85.38
312.328	99.38
312.557	90.38
312.787	99.38
313.017	79.38
313.246	86.38
313.476	92.38
313.706	93.38
313.935	77.38
314.165	103.38
314.394	92.38
314.624	85.38
314.853	91.38
315.083	70.38
315.312	88.38
315.542	89.38
315.771	92.38
316.001	91.38
316.23	86.38
316.46	85.38
316.689	81.38
316.919	86.38
317.148	99.38
317.377	80.38
317.607	85.38
317.836	88.38
318.065	83.38
318.295	93.38
318.524	83.38
318.753	94.38
318.983	89.38
319.212	95.38
319.441	96.38
319.67	99.38
319.9	93.38
320.129	89.38
320.358	92.38
320.587	93.38
320.816	91.38
321.046	103.38
321.275	88.38
321.504	97.38
321.733	87.38
321.962	87.38
322.191	95.38
322.42	95.38
322.649	101.38
322.878	120.38
323.108	108.38
323.337	133.38
323.566	113.38
323.795	144.38
324.024	176.38
324.253	338.38
324.482	749.38
324.71	1446.38
324.939	1943.38
325.168	712.38
325.397	216.38
325.626	120.38
325.855	121.38
326.084	105.38
326.313	121.38
326.542	128.38
326.77	186.38
326.999	408.38
327.228	849.38
327.457	1526.38
327.686	1224.38
327.914	335.38
328.143	184.38
328.372	147.38
328.6	111.38
328.829	109.38
329.058	105.38
329.287	105.38
329.515	100.38
329.744	101.38
329.972	104.38
330.201	103.38
330.43	126.38
330.658	115.38
330.887	123.38
331.115	101.38
331.344	96.38
331.572	83.38
331.801	94.38
332.03	93.38
332.258	85.38
332.486	81.38
332.715	86.38
332.943	84.38
333.172	81.38
333.4	88.38
333.629	102.38
333.857	118.38
334.085	108.38
334.314	103.38
334.542	136.38
334.771	118.38
334.999	109.38
335.227	83.38
335.455	102.38
335.684	106.38
335.912	107.38
336.14	99.38
336.369	96.38
336.597	84.38
336.825	88.38
337.053	72.38
337.281	87.38
337.51	89.38
337.738	78.38
337.966	88.38
338.194	84.38
338.422	94.38
338.65	92.38
338.878	77.38
339.106	92.38
339.334	77.38
339.562	89.38
339.79	77.38
340.018	83.38
340.246	85.38
340.474	92.38
340.702	96.38
340.93	86.38
341.158	96.38
341.386	87.38
341.614	84.38
341.842	101.38
342.07	92.38
342.298	83.38
342.526	77.38
342.754	87.38
342.981	70.38
343.209	83.38
343.437	84.38
343.665	96.38
343.893	87.38
344.12	98.38
344.348	75.38
344.576	82.38
344.804	87.38
345.031	93.38
345.259	89.38
345.487	91.38
345.714	83.38
345.942	94.38
346.17	83.38
346.397	83.38
346.625	89.38
346.853	89.38
347.08	84.38
347.308	97.38
347.535	79.38
347.763	92.38
347.99	77.38
348.218	91.38
348.445	111.38
348.673	91.38
348.9	84.38
349.128	100.38
349.355	84.38
349.583	80.38
349.81	89.38
350.037	97.38
350.265	103.38
350.492	96.38
350.72	85.38
350.947	99.38
351.174	98.38
351.402	111.38
351.629	104.38
351.856	95.38
352.083	101.38
352.311	105.38
352.538	104.38
352.765	115.38
352.992	97.38
353.22	85.38
353.447	98.38
353.674	105.38
353.901	100.38
354.128	87.38
354.355	86.38
354.583	100.38
354.81	97.38
355.037	95.38
355.264	94.38
355.491	102.38
355.718	88.38
355.945	78.38
356.172	84.38
356.399	85.38
356.626	88.38
356.853	85.38
357.08	99.38
357.307	97.38
357.534	91.38
357.761	108.38
357.988	96.38
358.215	92.38
358.441	85.38
358.668	85.38
358.895	83.38
359.122	83.38
359.349	88.38
359.576	88.38
359.802	97.38
360.029	88.38
360.256	107.38
360.483	87.38
360.709	97.38
360.936	77.38
361.163	95.38
361.39	89.38
361.616	83.38
361.843	77.38
362.07	81.38
362.296	87.38
362.523	88.38
362.749	80.38
362.976	73.38
363.203	69.38
363.429	91.38
363.656	81.38
363.882	94.38
364.109	94.38
364.335	83.38
364.562	91.38
364.788	81.38
365.015	94.38
365.241	97.38
365.468	94.38
365.694	110.38
365.92	92.38
366.147	89.38
366.373	77.38
366.599	90.38
366.826	88.38
367.052	80.38
367.278	95.38
367.505	81.38
367.731	70.38
367.957	83.38
368.184	89.38
368.41	100.38
368.636	106.38
368.862	107.38
369.089	102.38
369.315	97.38
369.541	96.38
369.767	87.38
369.993	82.38
370.219	75.38
370.445	72.38
370.672	88.38
370.898	84.38
371.124	92.38
371.35	83.38
371.576	84.38
371.802	92.38
372.028	69.38
372.254	94.38
372.48	80.38
372.706	84.38
372.932	91.38
373.158	99.38
373.384	91.38
373.61	87.38
373.835	77.38
374.061	87.38
374.287	102.38
374.513	78.38
374.739	91.38
374.965	95.38
375.191	94.38
375.416	82.38
375.642	91.38
375.868	87.38
376.094	104.38
376.319	80.38
376.545	92.38
376.771	91.38
376.997	99.38
377.222	88.38
377.448	89.38
377.674	89.38
377.899	75.38
378.125	95.38
378.35	70.38
378.576	82.38
378.802	89.38
379.027	81.38
379.253	88.38
379.478	91.38
379.704	91.38
379.929	94.38
380.155	80.38
380.38	96.38
380.606	98.38
380.831	88.38
381.057	90.38
381.282	101.38
381.507	86.38
381.733	83.38
381.958	90.38
382.184	102.38
382.409	96.38
382.634	102.38
382.86	105.38
383.085	112.38
383.31	82.38
383.535	88.38
383.761	98.38
383.986	86.38
384.211	83.38
384.436	91.38
384.662	106.38
384.887	92.38
385.112	87.38
385.337	95.38
385.562	97.38
385.787	92.38
386.013	100.38
386.238	107.38
386.463	95.38
386.688	111.38
386.913	104.38
387.138	103.38
387.363	99.38
387.588	92.38
387.813	95.38
388.038	105.38
388.263	100.38
388.488	95.38
388.713	86.38
388.938	89.38
389.163	87.38
389.387	78.38
389.612	87.38
389.837	82.38
390.062	84.38
390.287	84.38
390.512	89.38
390.736	86.38
390.961	75.38
391.186	79.38
391.411	86.38
391.636	85.38
391.86	82.38
392.085	97.38
392.31	81.38
392.534	68.38
392.759	89.38
392.984	91.38
393.208	77.38
393.433	84.38
393.658	98.38
393.882	78.38
394.107	79.38
394.331	66.38
394.556	71.38
394.78	81.38
395.005	80.38
395.229	79.38
395.454	91.38
395.678	66.38
395.903	91.38
396.127	77.38
396.352	75.38
396.576	78.38
396.801	87.38
397.025	89.38
397.249	92.38
397.474	91.38
397.698	79.38
397.922	73.38
398.147	94.38
398.371	99.38
398.595	82.38
398.82	75.38
399.044	84.38
399.268	85.38
399.492	71.38
399.717	86.38
399.941	80.38
400.165	78.38
400.389	77.38
400.613	81.38
400.837	88.38
401.062	73.38
401.286	87.38
401.51	96.38
401.734	77.38
401.958	89.38
402.182	104.38
402.406	124.38
402.63	102.38
402.854	90.38
403.078	85.38
403.302	76.38
403.526	87.38
403.75	85.38
403.974	94.38
404.198	96.38
404.422	89.38
404.645	85.38
404.869	81.38
405.093	91.38
405.317	87.38
405.541	88.38
405.765	78.38
405.988	114.38
406.212	148.38
406.436	178.38
406.66	111.38
406.883	85.38
407.107	96.38
407.331	81.38
407.555	94.38
407.778	82.38
408.002	82.38
408.226	79.38
408.449	80.38
408.673	88.38
408.896	93.38
409.12	86.38
409.344	82.38
409.567	87.38
409.791	92.38
410.014	101.38
410.238	86.38
410.461	82.38
410.685	97.38
410.908	91.38
411.132	96.38
411.355	85.38
411.578	87.38
411.802	93.38
412.025	79.38
412.249	93.38
412.472	83.38
412.695	93.38
412.919	102.38
413.142	88.38
413.365	78.38
413.589	84.38
413.812	75.38
414.035	86.38
414.258	66.38
414.482	85.38
414.705	80.38
414.928	81.38
415.151	99.38
415.374	93.38
415.597	83.38
415.821	75.38
416.044	72.38
416.267	91.38
416.49	69.38
416.713	89.38
416.936	68.38
417.159	82.38
417.382	84.38
417.605	81.38
417.828	99.38
418.051	87.38
418.274	88.38
418.497	85.38
418.72	71.38
418.943	80.38
419.166	81.38
419.389	88.38
419.611	87.38
419.834	92.38
420.057	95.38
420.28	77.38
420.503	86.38
420.726	87.38
420.948	79.38
421.171	84.38
421.394	89.38
421.617	85.38
421.839	96.38
422.062	83.38
422.285	79.38
422.507	93.38
422.73	83.38
422.953	92.38
423.175	96.38
423.398	85.38
423.621	91.38
423.843	76.38
424.066	93.38
424.288	79.38
424.511	92.38
424.733	93.38
424.956	77.38
425.178	90.38
425.401	109.38
425.623	95.38
425.846	79.38
426.068	96.38
426.291	89.38
426.513	84.38
426.735	79.38
426.958	80.38
427.18	92.38
427.402	134.38
427.625	132.38
427.847	115.38
428.069	109.38
428.292	100.38
428.514	99.38
428.736	87.38
428.958	90.38
429.181	79.38
429.403	91.38
429.625	98.38
429.847	83.38
430.069	96.38
430.292	87.38
430.514	97.38
430.736	95.38
430.958	85.38
431.18	85.38
431.402	80.38
431.624	92.38
431.846	86.38
432.068	78.38
432.29	94.38
432.512	103.38
432.734	83.38
432.956	70.38
433.178	104.38
433.4	86.38
433.622	93.38
433.844	97.38
434.066	91.38
434.287	91.38
434.509	80.38
434.731	87.38
434.953	81.38
435.175	96.38
435.397	88.38
435.618	85.38
435.84	91.38
436.062	109.38
436.284	112.38
436.505	103.38
436.727	91.38
436.949	70.38
437.17	83.38
437.392	91.38
437.614	77.38
437.835	100.38
438.057	114.38
438.278	95.38
438.5	92.38
438.721	113.38
438.943	112.38
439.165	100.38
439.386	93.38
439.608	82.38
439.829	86.38
440.05	111.38
440.272	131.38
440.493	97.38
440.715	99.38
440.936	87.38
441.158	72.38
441.379	89.38
441.6	73.38
441.822	95.38
442.043	98.38
442.264	100.38
442.486	98.38
442.707	68.38
442.928	85.38
443.149	123.38
443.371	96.38
443.592	97.38
443.813	100.38
444.034	94.38
444.255	87.38
444.476	79.38
444.698	89.38
444.919	78.38
445.14	139.38
445.361	115.38
445.582	105.38
445.803	125.38
446.024	105.38
446.245	108.38
446.466	103.38
446.687	79.38
446.908	90.38
447.129	79.38
447.35	83.38
447.571	94.38
447.792	96.38
448.013	99.38
448.234	99.38
448.455	87.38
448.675	106.38
448.896	107.38
449.117	79.38
449.338	81.38
449.559	116.38
449.779	108.38
450	80.38
450.221	91.38
450.442	75.38
450.662	87.38
450.883	112.38
451.104	100.38
451.324	95.38
451.545	83.38
451.766	77.38
451.986	68.38
452.207	85.38
452.428	88.38
452.648	106.38
452.869	98.38
453.089	109.38
453.31	105.38
453.53	104.38
453.751	85.38
453.971	90.38
454.192	91.38
454.412	89.38
454.633	78.38
454.853	71.38
455.073	71.38
455.294	96.38
455.514	77.38
455.734	71.38
455.955	64.38
456.175	75.38
456.395	79.38
456.616	73.38
456.836	81.38
457.056	73.38
457.276	68.38
457.497	79.38
457.717	66.38
457.937	80.38
458.157	87.38
458.377	89.38
458.598	101.38
458.818	121.38
459.038	129.38
459.258	115.38
459.478	88.38
459.698	95.38
459.918	87.38
460.138	75.38
460.358	68.38
460.578	83.38
460.798	89.38
461.018	80.38
461.238	102.38
461.458	92.38
461.678	96.38
461.898	93.38
462.118	75.38
462.338	85.38
462.558	88.38
462.777	93.38
462.997	90.38
463.217	95.38
463.437	94.38
463.657	79.38
463.876	77.38
464.096	95.38
464.316	94.38
464.536	103.38
464.755	86.38
464.975	84.38
465.195	124.38
465.414	122.38
465.634	85.38
465.854	86.38
466.073	83.38
466.293	76.38
466.512	75.38
466.732	80.38
466.951	85.38
467.171	90.38
467.391	79.38
467.61	96.38
467.829	77.38
468.049	101.38
468.268	98.38
468.488	84.38
468.707	78.38
468.927	96.38
469.146	80.38
469.365	79.38
469.585	84.38
469.804	82.38
470.023	69.38
470.243	90.38
470.462	104.38
470.681	98.38
470.901	79.38
471.12	78.38
471.339	80.38
471.558	77.38
471.777	84.38
471.997	88.38
472.216	103.38
472.435	140.38
472.654	76.38
472.873	79.38
473.092	89.38
473.311	77.38
473.53	102.38
473.749	91.38
473.968	93.38
474.187	102.38
474.406	84.38
474.625	84.38
474.844	96.38
475.063	83.38
475.282	73.38
475.501	89.38
475.72	91.38
475.939	83.38
476.158	93.38
476.377	83.38
476.596	87.38
476.814	90.38
477.033	81.38
477.252	81.38
477.471	80.38
477.69	87.38
477.908	92.38
478.127	82.38
478.346	93.38
478.564	77.38
478.783	92.38
479.002	99.38
479.22	95.38
479.439	91.38
479.658	75.38
479.876	93.38
480.095	89.38
480.313	100.38
480.532	89.38
480.751	92.38
480.969	113.38
481.188	205.38
481.406	145.38
481.624	91.38
481.843	81.38
482.061	84.38
482.28	87.38
482.498	81.38
482.717	93.38
482.935	89.38
483.153	85.38
483.372	91.38
483.59	86.38
483.808	86.38
484.027	81.38
484.245	94.38
484.463	76.38
484.681	95.38
484.9	92.38
485.118	81.38
485.336	86.38
485.554	91.38
485.772	101.38
485.99	103.38
486.209	93.38
486.427	105.38
486.645	103.38
486.863	107.38
487.081	100.38
487.299	95.38
487.517	103.38
487.735	94.38
487.953	86.38
488.171	103.38
488.389	97.38
488.607	101.38
488.825	85.38
489.043	88.38
489.261	83.38
489.479	74.38
489.696	83.38
489.914	92.38
490.132	97.38
490.35	81.38
490.568	76.38
490.786	79.38
491.003	74.38
491.221	71.38
491.439	77.38
491.657	82.38
491.874	80.38
492.092	93.38
492.31	83.38
492.527	85.38
492.745	68.38
492.963	73.38
493.18	87.38
493.398	79.38
493.615	77.38
493.833	86.38
494.05	78.38
494.268	67.38
494.485	87.38
494.703	80.38
494.92	95.38
495.138	79.38
495.355	84.38
495.573	89.38
495.79	97.38
496.008	86.38
496.225	88.38
496.442	91.38
496.66	87.38
496.877	87.38
497.094	85.38
497.312	79.38
497.529	79.38
497.746	90.38
497.963	80.38
498.181	87.38
498.398	95.38
498.615	97.38
498.832	99.38
499.049	79.38
499.267	70.38
499.484	82.38
499.701	99.38
499.918	104.38
500.135	88.38
500.352	77.38
500.569	80.38
500.786	87.38
501.003	91.38
501.22	83.38
501.437	97.38
501.654	93.38
501.871	89.38
502.088	87.38
502.305	80.38
502.522	94.38
502.739	84.38
502.956	101.38
503.172	92.38
503.389	89.38
503.606	99.38
503.823	104.38
504.04	101.38
504.256	93.38
504.473	92.38
504.69	98.38
504.907	94.38
505.123	84.38
505.34	94.38
505.557	87.38
505.773	88.38
505.99	80.38
506.207	76.38
506.423	80.38
506.64	80.38
506.856	81.38
507.073	79.38
507.289	101.38
507.506	96.38
507.722	103.38
507.939	103.38
508.155	92.38
508.372	88.38
508.588	86.38
508.805	82.38
509.021	91.38
509.238	91.38
509.454	99.38
509.67	82.38
509.887	95.38
510.103	109.38
510.319	188.38
510.536	593.38
510.752	1769.38
510.968	500.38
511.184	126.38
511.401	105.38
511.617	103.38
511.833	95.38
512.049	91.38
512.265	96.38
512.481	103.38
512.698	83.38
512.914	83.38
513.13	91.38
513.346	88.38
513.562	95.38
513.778	101.38
513.994	88.38
514.21	84.38
514.426	103.38
514.642	106.38
514.858	104.38
515.074	128.38
515.29	337.38
515.506	1047.38
515.721	391.38
515.937	122.38
516.153	91.38
516.369	78.38
516.585	87.38
516.801	81.38
517.016	84.38
517.232	75.38
