Data from Circ_1985_H10_HRD10591_00077.txt Node
Date: Wed Jan 03 12:19:38 EST 2024
User: Yrep
Spectrometer: HR+D1059
Trigger mode: 1
Integration Time (sec): 1.000000E-1
Scans to average: 1
Electric dark correction enabled: true
Nonlinearity correction enabled: false
Boxcar width: 0
XAxis mode: Wavelengths
Number of Pixels in Spectrum: 2048
>>>>>Begin Spectral Data<<<<<
223.165	-17
223.4	-17
223.635	-17
223.869	-25
224.104	-19
224.338	-18
224.573	-12
224.808	-9
225.042	2
225.277	-16
225.511	-12
225.746	2
225.98	8
226.215	5
226.449	25
226.683	21
226.918	33
227.152	32
227.387	36
227.621	25
227.856	51
228.09	42
228.324	49
228.559	54
228.793	64
229.027	66
229.262	58
229.496	67
229.73	81
229.964	80
230.199	70
230.433	74
230.667	90
230.901	72
231.136	85
231.37	76
231.604	73
231.838	70
232.072	81
232.306	72
232.541	84
232.775	80
233.009	83
233.243	78
233.477	80
233.711	86
233.945	72
234.179	70
234.413	82
234.647	85
234.881	76
235.115	83
235.349	83
235.583	96
235.817	84
236.051	70
236.285	67
236.519	85
236.753	80
236.987	80
237.221	81
237.455	84
237.689	82
237.922	83
238.156	67
238.39	78
238.624	67
238.858	88
239.091	74
239.325	76
239.559	78
239.793	57
240.027	65
240.26	70
240.494	74
240.728	76
240.961	64
241.195	78
241.429	75
241.662	69
241.896	67
242.13	79
242.363	71
242.597	65
242.83	88
243.064	78
243.298	79
243.531	74
243.765	77
243.998	86
244.232	89
244.465	86
244.699	91
244.932	71
245.166	81
245.399	85
245.633	87
245.866	83
246.099	76
246.333	77
246.566	50
246.8	81
247.033	86
247.266	80
247.5	65
247.733	73
247.966	76
248.2	72
248.433	68
248.666	73
248.899	90
249.133	83
249.366	92
249.599	96
249.832	72
250.066	71
250.299	87
250.532	64
250.765	70
250.998	84
251.231	64
251.465	83
251.698	63
251.931	66
252.164	65
252.397	73
252.63	80
252.863	70
253.096	86
253.329	84
253.562	72
253.795	82
254.028	86
254.261	86
254.494	71
254.727	79
254.96	80
255.193	77
255.426	85
255.659	83
255.892	94
256.124	91
256.357	77
256.59	102
256.823	74
257.056	78
257.289	77
257.521	84
257.754	82
257.987	81
258.22	94
258.452	72
258.685	77
258.918	68
259.151	91
259.383	92
259.616	96
259.849	79
260.081	81
260.314	94
260.547	83
260.779	70
261.012	79
261.244	97
261.477	73
261.71	92
261.942	94
262.175	106
262.407	79
262.64	84
262.872	81
263.105	78
263.337	96
263.57	80
263.802	96
264.035	95
264.267	80
264.499	65
264.732	85
264.964	75
265.197	74
265.429	80
265.661	73
265.894	93
266.126	89
266.358	71
266.591	88
266.823	92
267.055	80
267.287	88
267.52	85
267.752	80
267.984	88
268.216	89
268.448	89
268.681	76
268.913	103
269.145	66
269.377	86
269.609	80
269.841	88
270.073	71
270.306	92
270.538	83
270.77	64
271.002	72
271.234	78
271.466	81
271.698	88
271.93	80
272.162	86
272.394	89
272.626	80
272.858	84
273.09	84
273.322	93
273.553	82
273.785	83
274.017	81
274.249	89
274.481	88
274.713	82
274.945	86
275.176	97
275.408	93
275.64	74
275.872	95
276.104	93
276.335	97
276.567	90
276.799	94
277.031	82
277.262	79
277.494	80
277.726	87
277.957	78
278.189	79
278.421	82
278.652	96
278.884	80
279.115	81
279.347	86
279.579	83
279.81	86
280.042	96
280.273	100
280.505	82
280.736	93
280.968	92
281.199	78
281.431	85
281.662	93
281.894	90
282.125	97
282.356	131
282.588	127
282.819	103
283.051	65
283.282	101
283.513	88
283.745	87
283.976	86
284.207	85
284.439	85
284.67	82
284.901	73
285.132	69
285.364	78
285.595	64
285.826	96
286.057	83
286.288	83
286.52	83
286.751	88
286.982	73
287.213	78
287.444	85
287.675	93
287.906	99
288.138	95
288.369	96
288.6	94
288.831	92
289.062	84
289.293	89
289.524	70
289.755	82
289.986	67
290.217	76
290.448	73
290.679	83
290.91	88
291.141	83
291.371	89
291.602	88
291.833	93
292.064	85
292.295	89
292.526	83
292.757	85
292.987	85
293.218	79
293.449	75
293.68	90
293.91	87
294.141	86
294.372	76
294.603	88
294.833	92
295.064	89
295.295	84
295.525	86
295.756	101
295.987	112
296.217	134
296.448	137
296.679	97
296.909	92
297.14	84
297.37	76
297.601	80
297.831	79
298.062	73
298.292	82
298.523	77
298.753	82
298.984	94
299.214	79
299.445	84
299.675	97
299.905	96
300.136	90
300.366	91
300.597	78
300.827	90
301.057	105
301.288	94
301.518	76
301.748	88
301.979	100
302.209	86
302.439	88
302.669	94
302.9	93
303.13	86
303.36	101
303.59	91
303.82	96
304.051	94
304.281	96
304.511	93
304.741	77
304.971	84
305.201	89
305.431	83
305.661	83
305.891	97
306.121	87
306.352	101
306.582	102
306.812	95
307.042	94
307.272	84
307.502	92
307.731	86
307.961	72
308.191	79
308.421	86
308.651	85
308.881	84
309.111	94
309.341	76
309.571	105
309.8	83
310.03	89
310.26	96
310.49	83
310.72	95
310.949	93
311.179	96
311.409	89
311.639	99
311.868	104
312.098	78
312.328	95
312.557	102
312.787	94
313.017	95
313.246	85
313.476	70
313.706	95
313.935	99
314.165	97
314.394	85
314.624	104
314.853	82
315.083	89
315.312	94
315.542	76
315.771	97
316.001	93
316.23	88
316.46	82
316.689	90
316.919	95
317.148	95
317.377	87
317.607	78
317.836	98
318.065	89
318.295	90
318.524	95
318.753	80
318.983	95
319.212	109
319.441	94
319.67	104
319.9	89
320.129	100
320.358	91
320.587	85
320.816	89
321.046	101
321.275	100
321.504	89
321.733	90
321.962	98
322.191	112
322.42	113
322.649	106
322.878	111
323.108	107
323.337	125
323.566	132
323.795	141
324.024	211
324.253	370
324.482	823
324.71	1640
324.939	2181
325.168	807
325.397	239
325.626	144
325.855	120
326.084	120
326.313	127
326.542	162
326.77	236
326.999	435
327.228	920
327.457	1719
327.686	1364
327.914	354
328.143	184
328.372	175
328.6	114
328.829	115
329.058	117
329.287	114
329.515	103
329.744	94
329.972	114
330.201	125
330.43	162
330.658	142
330.887	129
331.115	117
331.344	105
331.572	91
331.801	90
332.03	113
332.258	98
332.486	105
332.715	86
332.943	92
333.172	86
333.4	98
333.629	121
333.857	101
334.085	107
334.314	144
334.542	172
334.771	163
334.999	107
335.227	92
335.455	78
335.684	83
335.912	94
336.14	89
336.369	102
336.597	98
336.825	97
337.053	86
337.281	102
337.51	90
337.738	97
337.966	96
338.194	88
338.422	83
338.65	101
338.878	80
339.106	76
339.334	84
339.562	89
339.79	85
340.018	78
340.246	94
340.474	89
340.702	97
340.93	87
341.158	91
341.386	90
341.614	96
341.842	93
342.07	92
342.298	99
342.526	95
342.754	100
342.981	90
343.209	92
343.437	89
343.665	93
343.893	79
344.12	105
344.348	73
344.576	97
344.804	85
345.031	93
345.259	77
345.487	81
345.714	89
345.942	73
346.17	83
346.397	87
346.625	96
346.853	103
347.08	92
347.308	91
347.535	96
347.763	96
347.99	78
348.218	101
348.445	95
348.673	97
348.9	94
349.128	100
349.355	110
349.583	101
349.81	100
350.037	93
350.265	106
350.492	106
350.72	95
350.947	94
351.174	104
351.402	88
351.629	97
351.856	101
352.083	102
352.311	106
352.538	102
352.765	113
352.992	103
353.22	114
353.447	101
353.674	90
353.901	109
354.128	95
354.355	93
354.583	79
354.81	97
355.037	89
355.264	82
355.491	105
355.718	95
355.945	82
356.172	95
356.399	107
356.626	81
356.853	84
357.08	109
357.307	100
357.534	91
357.761	88
357.988	97
358.215	82
358.441	114
358.668	94
358.895	89
359.122	81
359.349	73
359.576	91
359.802	102
360.029	98
360.256	109
360.483	97
360.709	97
360.936	83
361.163	97
361.39	89
361.616	90
361.843	79
362.07	83
362.296	68
362.523	80
362.749	82
362.976	82
363.203	99
363.429	90
363.656	97
363.882	81
364.109	95
364.335	101
364.562	82
364.788	88
365.015	98
365.241	98
365.468	96
365.694	85
365.92	80
366.147	100
366.373	95
366.599	93
366.826	97
367.052	94
367.278	86
367.505	89
367.731	89
367.957	90
368.184	71
368.41	100
368.636	109
368.862	103
369.089	103
369.315	81
369.541	78
369.767	88
369.993	84
370.219	87
370.445	73
370.672	77
370.898	96
371.124	80
371.35	76
371.576	85
371.802	94
372.028	80
372.254	71
372.48	84
372.706	89
372.932	70
373.158	73
373.384	75
373.61	87
373.835	112
374.061	80
374.287	86
374.513	92
374.739	87
374.965	88
375.191	80
375.416	76
375.642	81
375.868	93
376.094	85
376.319	81
376.545	85
376.771	80
376.997	71
377.222	96
377.448	93
377.674	87
377.899	84
378.125	97
378.35	85
378.576	84
378.802	91
379.027	103
379.253	104
379.478	89
379.704	90
379.929	95
380.155	94
380.38	97
380.606	81
380.831	97
381.057	98
381.282	95
381.507	90
381.733	97
381.958	104
382.184	94
382.409	90
382.634	110
382.86	100
383.085	99
383.31	113
383.535	104
383.761	92
383.986	112
384.211	99
384.436	89
384.662	108
384.887	102
385.112	91
385.337	93
385.562	96
385.787	101
386.013	110
386.238	117
386.463	100
386.688	96
386.913	96
387.138	100
387.363	87
387.588	102
387.813	84
388.038	99
388.263	112
388.488	94
388.713	104
388.938	102
389.163	85
389.387	94
389.612	86
389.837	83
390.062	88
390.287	97
390.512	83
390.736	94
390.961	95
391.186	98
391.411	92
391.636	88
391.86	81
392.085	71
392.31	74
392.534	87
392.759	86
392.984	97
393.208	87
393.433	81
393.658	98
393.882	81
394.107	95
394.331	79
394.556	79
394.78	85
395.005	88
395.229	91
395.454	82
395.678	89
395.903	82
396.127	82
396.352	68
396.576	79
396.801	84
397.025	66
397.249	78
397.474	77
397.698	88
397.922	84
398.147	89
398.371	70
398.595	80
398.82	85
399.044	89
399.268	100
399.492	90
399.717	71
399.941	92
400.165	93
400.389	82
400.613	86
400.837	89
401.062	83
401.286	92
401.51	86
401.734	73
401.958	101
402.182	104
402.406	141
402.63	100
402.854	86
403.078	97
403.302	76
403.526	82
403.75	87
403.974	80
404.198	74
404.422	85
404.645	84
404.869	89
405.093	98
405.317	92
405.541	93
405.765	100
405.988	93
406.212	149
406.436	181
406.66	131
406.883	104
407.107	90
407.331	99
407.555	89
407.778	92
408.002	90
408.226	96
408.449	96
408.673	90
408.896	101
409.12	84
409.344	93
409.567	66
409.791	76
410.014	80
410.238	90
410.461	97
410.685	101
410.908	100
411.132	101
411.355	93
411.578	76
411.802	81
412.025	89
412.249	78
412.472	97
412.695	95
412.919	84
413.142	85
413.365	79
413.589	70
413.812	86
414.035	103
414.258	97
414.482	93
414.705	84
414.928	96
415.151	98
415.374	81
415.597	83
415.821	87
416.044	84
416.267	93
416.49	80
416.713	94
416.936	88
417.159	81
417.382	87
417.605	91
417.828	88
418.051	90
418.274	90
418.497	95
418.72	88
418.943	78
419.166	87
419.389	93
419.611	88
419.834	78
420.057	80
420.28	80
420.503	96
420.726	82
420.948	84
421.171	96
421.394	89
421.617	99
421.839	86
422.062	96
422.285	87
422.507	95
422.73	111
422.953	95
423.175	95
423.398	87
423.621	100
423.843	102
424.066	91
424.288	92
424.511	92
424.733	94
424.956	89
425.178	94
425.401	98
425.623	86
425.846	95
426.068	104
426.291	89
426.513	87
426.735	94
426.958	89
427.18	104
427.402	122
427.625	140
427.847	127
428.069	102
428.292	85
428.514	84
428.736	88
428.958	77
429.181	81
429.403	87
429.625	89
429.847	94
430.069	90
430.292	95
430.514	71
430.736	80
430.958	87
431.18	60
431.402	85
431.624	76
431.846	79
432.068	98
432.29	102
432.512	89
432.734	85
432.956	93
433.178	89
433.4	90
433.622	87
433.844	88
434.066	95
434.287	87
434.509	80
434.731	85
434.953	88
435.175	90
435.397	92
435.618	91
435.84	101
436.062	119
436.284	116
436.505	102
436.727	102
436.949	84
437.17	72
437.392	87
437.614	96
437.835	98
438.057	103
438.278	108
438.5	90
438.721	110
438.943	88
439.165	72
439.386	64
439.608	89
439.829	90
440.05	110
440.272	129
440.493	79
440.715	77
440.936	83
441.158	98
441.379	89
441.6	88
441.822	96
442.043	88
442.264	83
442.486	90
442.707	84
442.928	98
443.149	126
443.371	101
443.592	97
443.813	123
444.034	102
444.255	100
444.476	77
444.698	80
444.919	73
445.14	131
445.361	118
445.582	112
445.803	128
446.024	128
446.245	120
446.466	106
446.687	84
446.908	81
447.129	96
447.35	81
447.571	88
447.792	98
448.013	90
448.234	99
448.455	83
448.675	101
448.896	119
449.117	93
449.338	98
449.559	131
449.779	116
450	87
450.221	83
450.442	77
450.662	97
450.883	97
451.104	99
451.324	93
451.545	90
451.766	76
451.986	79
452.207	85
452.428	87
452.648	108
452.869	102
453.089	110
453.31	111
453.53	85
453.751	97
453.971	96
454.192	92
454.412	89
454.633	81
454.853	80
455.073	93
455.294	105
455.514	110
455.734	84
455.955	76
456.175	72
456.395	88
456.616	82
456.836	82
457.056	90
457.276	77
457.497	85
457.717	77
457.937	81
458.157	95
458.377	70
458.598	93
458.818	123
459.038	138
459.258	94
459.478	86
459.698	101
459.918	81
460.138	84
460.358	81
460.578	71
460.798	86
461.018	82
461.238	75
461.458	88
461.678	89
461.898	69
462.118	81
462.338	80
462.558	78
462.777	79
462.997	81
463.217	88
463.437	89
463.657	77
463.876	83
464.096	96
464.316	94
464.536	92
464.755	92
464.975	95
465.195	144
465.414	128
465.634	92
465.854	78
466.073	76
466.293	73
466.512	89
466.732	77
466.951	89
467.171	77
467.391	104
467.61	96
467.829	87
468.049	107
468.268	114
468.488	89
468.707	81
468.927	83
469.146	82
469.365	92
469.585	87
469.804	108
470.023	97
470.243	84
470.462	99
470.681	104
470.901	87
471.12	97
471.339	73
471.558	82
471.777	105
471.997	98
472.216	146
472.435	204
472.654	107
472.873	105
473.092	94
473.311	84
473.53	83
473.749	95
473.968	99
474.187	115
474.406	97
474.625	96
474.844	77
475.063	90
475.282	88
475.501	89
475.72	76
475.939	86
476.158	94
476.377	86
476.596	80
476.814	82
477.033	81
477.252	83
477.471	85
477.69	82
477.908	70
478.127	84
478.346	73
478.564	88
478.783	80
479.002	98
479.22	89
479.439	100
479.658	110
479.876	101
480.095	90
480.313	80
480.532	100
480.751	102
480.969	151
481.188	311
481.406	213
481.624	93
481.843	81
482.061	80
482.28	83
482.498	74
482.717	98
482.935	93
483.153	87
483.372	86
483.59	79
483.808	99
484.027	81
484.245	100
484.463	96
484.681	90
484.9	89
485.118	78
485.336	106
485.554	86
485.772	78
485.99	97
486.209	103
486.427	94
486.645	106
486.863	95
487.081	104
487.299	97
487.517	95
487.735	90
487.953	88
488.171	86
488.389	92
488.607	92
488.825	92
489.043	95
489.261	89
489.479	93
489.696	88
489.914	89
490.132	99
490.35	82
490.568	85
490.786	86
491.003	86
491.221	87
491.439	73
491.657	94
491.874	97
492.092	80
492.31	73
492.527	90
492.745	82
492.963	91
493.18	88
493.398	84
493.615	105
493.833	99
494.05	82
494.268	103
494.485	89
494.703	81
494.92	98
495.138	69
495.355	100
495.573	86
495.79	93
496.008	83
496.225	79
496.442	73
496.66	88
496.877	87
497.094	95
497.312	76
497.529	87
497.746	88
497.963	79
498.181	90
498.398	73
498.615	104
498.832	100
499.049	69
499.267	86
499.484	83
499.701	87
499.918	86
500.135	74
500.352	82
500.569	93
500.786	98
501.003	90
501.22	99
501.437	89
501.654	91
501.871	98
502.088	78
502.305	102
502.522	100
502.739	100
502.956	114
503.172	67
503.389	95
503.606	103
503.823	96
504.04	82
504.256	80
504.473	78
504.69	99
504.907	87
505.123	113
505.34	92
505.557	86
505.773	90
505.99	88
506.207	85
506.423	82
506.64	85
506.856	87
507.073	89
507.289	94
507.506	106
507.722	104
507.939	105
508.155	86
508.372	88
508.588	94
508.805	97
509.021	93
509.238	96
509.454	98
509.67	92
509.887	101
510.103	130
510.319	191
510.536	669
510.752	2004
510.968	552
511.184	160
511.401	113
511.617	99
511.833	104
512.049	93
512.265	86
512.481	84
512.698	85
512.914	86
513.13	78
513.346	89
513.562	82
513.778	97
513.994	97
514.21	96
514.426	99
514.642	125
514.858	114
515.074	156
515.29	400
515.506	1221
515.721	432
515.937	141
516.153	104
516.369	110
516.585	87
516.801	88
517.016	92
517.232	109
517.448	82
517.664	89
517.879	98
518.095	88
518.311	96
518.527	76
518.742	91
518.958	90
519.173	85
519.389	98
519.605	93
519.82	101
520.036	97
520.251	108
520.467	112
520.682	97
520.898	110
521.113	121
521.329	120
521.544	185
521.76	482
521.975	2004
522.19	1212
522.406	264
522.621	121
522.836	94
523.052	101
523.267	97
523.482	106
523.698	117
523.913	112
524.128	92
524.343	95
524.559	94
524.774	87
524.989	82
525.204	87
525.419	98
525.634	84
525.849	94
526.064	90
526.28	99
526.495	72
526.71	92
526.925	84
527.14	88
527.355	89
527.57	94
527.785	85
527.999	86
528.214	87
528.429	94
528.644	88
528.859	96
529.074	103
529.289	118
529.503	146
529.718	108
529.933	81
530.148	83
530.363	86
530.577	87
530.792	78
531.007	81
531.221	80
531.436	80
531.651	89
531.865	88
532.08	86
532.295	94
532.509	86
532.724	90
532.938	88
533.153	89
533.367	87
533.582	79
533.796	102
534.011	69
534.225	93
534.44	93
534.654	98
534.868	88
535.083	90
535.297	80
535.511	106
535.726	111
535.94	104
536.154	93
536.369	93
536.583	90
536.797	80
537.011	94
537.225	93
537.44	76
537.654	83
537.868	85
538.082	82
538.296	85
538.51	90
538.724	84
538.938	103
539.153	92
539.367	101
539.581	103
539.795	95
540.009	87
540.222	84
540.436	94
540.65	102
540.864	78
541.078	90
541.292	102
541.506	101
541.72	90
541.934	80
542.147	80
542.361	64
542.575	78
542.789	89
543.002	83
543.216	94
543.43	85
543.644	87
543.857	98
544.071	92
544.285	95
544.498	80
544.712	84
544.925	108
545.139	90
545.352	89
545.566	78
545.779	83
545.993	69
546.206	92
546.42	78
546.633	80
546.847	92
547.06	87
547.274	86
547.487	86
547.7	90
547.914	102
548.127	93
548.34	82
548.554	92
548.767	86
548.98	73
549.193	89
549.407	93
549.62	87
549.833	86
550.046	91
550.259	89
550.473	88
550.686	79
550.899	86
551.112	85
551.325	73
551.538	84
551.751	93
551.964	88
552.177	77
552.39	105
552.603	83
552.816	93
553.029	108
553.242	99
553.455	102
553.667	106
553.88	96
554.093	90
554.306	94
554.519	78
554.732	96
554.944	86
555.157	90
555.37	86
555.583	81
555.795	79
556.008	99
556.221	92
556.433	90
556.646	75
556.859	74
557.071	87
557.284	78
557.496	83
557.709	72
557.921	89
558.134	82
558.346	89
558.559	82
558.771	77
558.984	84
559.196	81
559.409	86
559.621	96
559.833	107
560.046	98
560.258	88
560.47	90
560.683	99
560.895	87
561.107	91
561.32	96
561.532	79
561.744	92
561.956	98
562.168	96
562.381	89
562.593	90
562.805	89
563.017	84
563.229	86
563.441	74
563.653	86
563.865	84
564.077	95
564.289	85
564.501	86
564.713	93
564.925	97
565.137	87
565.349	86
565.561	93
565.773	80
565.985	85
566.197	76
566.408	105
566.62	86
566.832	79
567.044	80
567.255	92
567.467	87
567.679	92
567.891	94
568.102	87
568.314	90
568.526	83
568.737	107
568.949	88
569.161	90
569.372	80
569.584	81
569.795	84
570.007	102
570.218	209
570.43	116
570.641	70
570.853	100
571.064	78
571.276	78
571.487	83
571.698	89
571.91	84
572.121	61
572.333	92
572.544	79
572.755	77
572.966	78
573.178	88
573.389	100
573.6	88
573.811	79
574.023	87
574.234	99
574.445	78
574.656	88
574.867	89
575.078	90
575.289	81
575.501	89
575.712	79
575.923	92
576.134	78
576.345	89
576.556	81
576.767	73
576.978	91
577.188	88
577.399	94
577.61	98
577.821	83
578.032	105
578.243	250
578.454	627
578.665	176
578.875	80
579.086	86
579.297	95
579.508	78
579.718	80
579.929	101
580.14	90
580.35	95
580.561	90
580.772	105
580.982	83
581.193	79
581.403	80
581.614	96
581.825	72
582.035	83
582.246	89
582.456	71
582.667	86
582.877	84
583.087	86
583.298	97
583.508	86
583.719	85
583.929	82
584.139	106
584.35	92
584.56	92
584.77	83
584.981	93
585.191	74
585.401	90
585.611	78
