Data from Circ_1985_H10_HRD10591_00074.txt Node
Date: Wed Jan 03 12:19:37 EST 2024
User: Yrep
Spectrometer: HR+D1059
Trigger mode: 1
Integration Time (sec): 1.000000E-1
Scans to average: 1
Electric dark correction enabled: true
Nonlinearity correction enabled: false
Boxcar width: 0
XAxis mode: Wavelengths
Number of Pixels in Spectrum: 2048
>>>>>Begin Spectral Data<<<<<
223.165	-13.88
223.4	-13.88
223.635	-13.88
223.869	-22.88
224.104	-21.88
224.338	-15.88
224.573	-23.88
224.808	-5.88
225.042	1.12
225.277	-5.88
225.511	-2.88
225.746	19.12
225.98	8.12
226.215	26.12
226.449	9.12
226.683	2.12
226.918	9.12
227.152	38.12
227.387	27.12
227.621	37.12
227.856	43.12
228.09	55.12
228.324	37.12
228.559	51.12
228.793	48.12
229.027	69.12
229.262	71.12
229.496	66.12
229.73	89.12
229.964	66.12
230.199	81.12
230.433	70.12
230.667	69.12
230.901	74.12
231.136	85.12
231.37	75.12
231.604	91.12
231.838	85.12
232.072	73.12
232.306	85.12
232.541	67.12
232.775	80.12
233.009	82.12
233.243	78.12
233.477	81.12
233.711	83.12
233.945	88.12
234.179	82.12
234.413	87.12
234.647	80.12
234.881	69.12
235.115	64.12
235.349	89.12
235.583	74.12
235.817	75.12
236.051	74.12
236.285	72.12
236.519	69.12
236.753	89.12
236.987	82.12
237.221	72.12
237.455	72.12
237.689	75.12
237.922	81.12
238.156	82.12
238.39	72.12
238.624	86.12
238.858	67.12
239.091	90.12
239.325	78.12
239.559	88.12
239.793	68.12
240.027	67.12
240.26	85.12
240.494	84.12
240.728	80.12
240.961	67.12
241.195	80.12
241.429	86.12
241.662	90.12
241.896	80.12
242.13	80.12
242.363	71.12
242.597	73.12
242.83	91.12
243.064	73.12
243.298	78.12
243.531	75.12
243.765	84.12
243.998	77.12
244.232	97.12
244.465	81.12
244.699	76.12
244.932	85.12
245.166	88.12
245.399	72.12
245.633	78.12
245.866	80.12
246.099	80.12
246.333	57.12
246.566	76.12
246.8	55.12
247.033	74.12
247.266	72.12
247.5	95.12
247.733	80.12
247.966	91.12
248.2	73.12
248.433	84.12
248.666	78.12
248.899	84.12
249.133	84.12
249.366	83.12
249.599	79.12
249.832	80.12
250.066	88.12
250.299	71.12
250.532	84.12
250.765	81.12
250.998	76.12
251.231	70.12
251.465	76.12
251.698	84.12
251.931	80.12
252.164	88.12
252.397	76.12
252.63	71.12
252.863	85.12
253.096	70.12
253.329	80.12
253.562	84.12
253.795	87.12
254.028	79.12
254.261	86.12
254.494	95.12
254.727	81.12
254.96	90.12
255.193	79.12
255.426	83.12
255.659	79.12
255.892	79.12
256.124	83.12
256.357	106.12
256.59	83.12
256.823	78.12
257.056	71.12
257.289	84.12
257.521	89.12
257.754	78.12
257.987	68.12
258.22	89.12
258.452	80.12
258.685	74.12
258.918	91.12
259.151	102.12
259.383	76.12
259.616	82.12
259.849	82.12
260.081	88.12
260.314	81.12
260.547	75.12
260.779	68.12
261.012	82.12
261.244	75.12
261.477	83.12
261.71	87.12
261.942	108.12
262.175	119.12
262.407	79.12
262.64	92.12
262.872	79.12
263.105	82.12
263.337	102.12
263.57	73.12
263.802	94.12
264.035	91.12
264.267	74.12
264.499	80.12
264.732	73.12
264.964	76.12
265.197	86.12
265.429	77.12
265.661	74.12
265.894	90.12
266.126	86.12
266.358	78.12
266.591	84.12
266.823	89.12
267.055	81.12
267.287	97.12
267.52	75.12
267.752	71.12
267.984	70.12
268.216	72.12
268.448	79.12
268.681	85.12
268.913	100.12
269.145	82.12
269.377	80.12
269.609	79.12
269.841	70.12
270.073	85.12
270.306	82.12
270.538	90.12
270.77	89.12
271.002	71.12
271.234	82.12
271.466	73.12
271.698	89.12
271.93	84.12
272.162	75.12
272.394	86.12
272.626	84.12
272.858	91.12
273.09	83.12
273.322	90.12
273.553	78.12
273.785	77.12
274.017	85.12
274.249	84.12
274.481	87.12
274.713	80.12
274.945	88.12
275.176	90.12
275.408	79.12
275.64	74.12
275.872	86.12
276.104	75.12
276.335	88.12
276.567	102.12
276.799	96.12
277.031	90.12
277.262	79.12
277.494	91.12
277.726	81.12
277.957	90.12
278.189	82.12
278.421	88.12
278.652	82.12
278.884	78.12
279.115	81.12
279.347	82.12
279.579	80.12
279.81	85.12
280.042	83.12
280.273	90.12
280.505	102.12
280.736	83.12
280.968	92.12
281.199	72.12
281.431	88.12
281.662	83.12
281.894	89.12
282.125	90.12
282.356	113.12
282.588	128.12
282.819	103.12
283.051	87.12
283.282	84.12
283.513	83.12
283.745	101.12
283.976	87.12
284.207	95.12
284.439	91.12
284.67	93.12
284.901	88.12
285.132	72.12
285.364	92.12
285.595	79.12
285.826	92.12
286.057	87.12
286.288	81.12
286.52	87.12
286.751	91.12
286.982	83.12
287.213	90.12
287.444	87.12
287.675	101.12
287.906	92.12
288.138	76.12
288.369	74.12
288.6	68.12
288.831	88.12
289.062	99.12
289.293	86.12
289.524	95.12
289.755	89.12
289.986	96.12
290.217	87.12
290.448	90.12
290.679	90.12
290.91	92.12
291.141	85.12
291.371	83.12
291.602	99.12
291.833	79.12
292.064	80.12
292.295	76.12
292.526	80.12
292.757	103.12
292.987	83.12
293.218	85.12
293.449	83.12
293.68	92.12
293.91	85.12
294.141	99.12
294.372	105.12
294.603	89.12
294.833	62.12
295.064	79.12
295.295	80.12
295.525	94.12
295.756	93.12
295.987	99.12
296.217	127.12
296.448	113.12
296.679	100.12
296.909	92.12
297.14	80.12
297.37	82.12
297.601	84.12
297.831	81.12
298.062	86.12
298.292	86.12
298.523	84.12
298.753	78.12
298.984	86.12
299.214	82.12
299.445	71.12
299.675	88.12
299.905	88.12
300.136	86.12
300.366	90.12
300.597	91.12
300.827	91.12
301.057	96.12
301.288	95.12
301.518	88.12
301.748	86.12
301.979	102.12
302.209	86.12
302.439	91.12
302.669	92.12
302.9	95.12
303.13	91.12
303.36	91.12
303.59	99.12
303.82	103.12
304.051	90.12
304.281	88.12
304.511	93.12
304.741	87.12
304.971	99.12
305.201	92.12
305.431	102.12
305.661	73.12
305.891	82.12
306.121	97.12
306.352	97.12
306.582	118.12
306.812	96.12
307.042	100.12
307.272	84.12
307.502	80.12
307.731	95.12
307.961	95.12
308.191	91.12
308.421	90.12
308.651	91.12
308.881	107.12
309.111	82.12
309.341	97.12
309.571	97.12
309.8	102.12
310.03	95.12
310.26	94.12
310.49	88.12
310.72	87.12
310.949	107.12
311.179	108.12
311.409	98.12
311.639	88.12
311.868	82.12
312.098	76.12
312.328	84.12
312.557	86.12
312.787	102.12
313.017	95.12
313.246	93.12
313.476	83.12
313.706	85.12
313.935	91.12
314.165	103.12
314.394	107.12
314.624	102.12
314.853	100.12
315.083	84.12
315.312	95.12
315.542	94.12
315.771	96.12
316.001	93.12
316.23	83.12
316.46	94.12
316.689	80.12
316.919	81.12
317.148	84.12
317.377	101.12
317.607	94.12
317.836	103.12
318.065	94.12
318.295	92.12
318.524	85.12
318.753	87.12
318.983	99.12
319.212	103.12
319.441	105.12
319.67	114.12
319.9	104.12
320.129	101.12
320.358	94.12
320.587	99.12
320.816	90.12
321.046	98.12
321.275	81.12
321.504	97.12
321.733	105.12
321.962	110.12
322.191	101.12
322.42	85.12
322.649	90.12
322.878	112.12
323.108	122.12
323.337	131.12
323.566	126.12
323.795	129.12
324.024	162.12
324.253	351.12
324.482	742.12
324.71	1516.12
324.939	2012.12
325.168	738.12
325.397	242.12
325.626	146.12
325.855	138.12
326.084	117.12
326.313	114.12
326.542	149.12
326.77	214.12
326.999	428.12
327.228	891.12
327.457	1599.12
327.686	1282.12
327.914	347.12
328.143	163.12
328.372	145.12
328.6	112.12
328.829	108.12
329.058	115.12
329.287	111.12
329.515	97.12
329.744	87.12
329.972	95.12
330.201	107.12
330.43	121.12
330.658	112.12
330.887	125.12
331.115	111.12
331.344	94.12
331.572	106.12
331.801	105.12
332.03	86.12
332.258	98.12
332.486	100.12
332.715	104.12
332.943	82.12
333.172	84.12
333.4	84.12
333.629	91.12
333.857	102.12
334.085	122.12
334.314	118.12
334.542	153.12
334.771	156.12
334.999	109.12
335.227	112.12
335.455	99.12
335.684	100.12
335.912	87.12
336.14	92.12
336.369	91.12
336.597	94.12
336.825	97.12
337.053	94.12
337.281	103.12
337.51	100.12
337.738	96.12
337.966	94.12
338.194	94.12
338.422	88.12
338.65	97.12
338.878	96.12
339.106	87.12
339.334	82.12
339.562	73.12
339.79	97.12
340.018	95.12
340.246	88.12
340.474	81.12
340.702	97.12
340.93	99.12
341.158	90.12
341.386	92.12
341.614	96.12
341.842	94.12
342.07	82.12
342.298	97.12
342.526	96.12
342.754	87.12
342.981	78.12
343.209	81.12
343.437	100.12
343.665	87.12
343.893	86.12
344.12	100.12
344.348	88.12
344.576	90.12
344.804	93.12
345.031	103.12
345.259	94.12
345.487	83.12
345.714	95.12
345.942	84.12
346.17	99.12
346.397	98.12
346.625	79.12
346.853	80.12
347.08	113.12
347.308	94.12
347.535	91.12
347.763	95.12
347.99	104.12
348.218	114.12
348.445	95.12
348.673	99.12
348.9	90.12
349.128	91.12
349.355	91.12
349.583	91.12
349.81	99.12
350.037	84.12
350.265	104.12
350.492	100.12
350.72	82.12
350.947	97.12
351.174	101.12
351.402	112.12
351.629	96.12
351.856	121.12
352.083	104.12
352.311	104.12
352.538	102.12
352.765	95.12
352.992	104.12
353.22	111.12
353.447	102.12
353.674	87.12
353.901	107.12
354.128	105.12
354.355	107.12
354.583	97.12
354.81	96.12
355.037	92.12
355.264	100.12
355.491	84.12
355.718	94.12
355.945	101.12
356.172	96.12
356.399	98.12
356.626	93.12
356.853	103.12
357.08	81.12
357.307	99.12
357.534	90.12
357.761	90.12
357.988	103.12
358.215	107.12
358.441	84.12
358.668	92.12
358.895	85.12
359.122	92.12
359.349	93.12
359.576	90.12
359.802	86.12
360.029	90.12
360.256	90.12
360.483	82.12
360.709	84.12
360.936	85.12
361.163	82.12
361.39	84.12
361.616	94.12
361.843	98.12
362.07	96.12
362.296	91.12
362.523	72.12
362.749	88.12
362.976	60.12
363.203	84.12
363.429	88.12
363.656	90.12
363.882	86.12
364.109	92.12
364.335	82.12
364.562	95.12
364.788	89.12
365.015	71.12
365.241	91.12
365.468	105.12
365.694	87.12
365.92	84.12
366.147	96.12
366.373	93.12
366.599	76.12
366.826	102.12
367.052	87.12
367.278	88.12
367.505	102.12
367.731	99.12
367.957	85.12
368.184	84.12
368.41	93.12
368.636	90.12
368.862	96.12
369.089	104.12
369.315	84.12
369.541	105.12
369.767	100.12
369.993	102.12
370.219	86.12
370.445	96.12
370.672	82.12
370.898	78.12
371.124	72.12
371.35	91.12
371.576	97.12
371.802	83.12
372.028	95.12
372.254	78.12
372.48	91.12
372.706	103.12
372.932	90.12
373.158	99.12
373.384	104.12
373.61	86.12
373.835	74.12
374.061	102.12
374.287	85.12
374.513	98.12
374.739	80.12
374.965	91.12
375.191	97.12
375.416	96.12
375.642	91.12
375.868	87.12
376.094	82.12
376.319	87.12
376.545	74.12
376.771	106.12
376.997	84.12
377.222	93.12
377.448	91.12
377.674	84.12
377.899	79.12
378.125	83.12
378.35	90.12
378.576	104.12
378.802	106.12
379.027	88.12
379.253	84.12
379.478	90.12
379.704	93.12
379.929	111.12
380.155	95.12
380.38	83.12
380.606	94.12
380.831	99.12
381.057	92.12
381.282	98.12
381.507	92.12
381.733	89.12
381.958	91.12
382.184	92.12
382.409	87.12
382.634	107.12
382.86	100.12
383.085	100.12
383.31	103.12
383.535	98.12
383.761	101.12
383.986	104.12
384.211	92.12
384.436	94.12
384.662	88.12
384.887	100.12
385.112	100.12
385.337	98.12
385.562	98.12
385.787	93.12
386.013	105.12
386.238	104.12
386.463	109.12
386.688	105.12
386.913	99.12
387.138	111.12
387.363	100.12
387.588	108.12
387.813	97.12
388.038	106.12
388.263	117.12
388.488	98.12
388.713	100.12
388.938	86.12
389.163	110.12
389.387	84.12
389.612	100.12
389.837	85.12
390.062	94.12
390.287	88.12
390.512	92.12
390.736	92.12
390.961	84.12
391.186	96.12
391.411	92.12
391.636	89.12
391.86	70.12
392.085	72.12
392.31	82.12
392.534	91.12
392.759	81.12
392.984	88.12
393.208	99.12
393.433	86.12
393.658	97.12
393.882	86.12
394.107	91.12
394.331	89.12
394.556	87.12
394.78	101.12
395.005	63.12
395.229	80.12
395.454	86.12
395.678	86.12
395.903	85.12
396.127	89.12
396.352	90.12
396.576	94.12
396.801	84.12
397.025	97.12
397.249	86.12
397.474	100.12
397.698	75.12
397.922	80.12
398.147	87.12
398.371	86.12
398.595	101.12
398.82	94.12
399.044	87.12
399.268	80.12
399.492	75.12
399.717	82.12
399.941	82.12
400.165	91.12
400.389	85.12
400.613	84.12
400.837	77.12
401.062	90.12
401.286	81.12
401.51	78.12
401.734	96.12
401.958	87.12
402.182	115.12
402.406	124.12
402.63	94.12
402.854	97.12
403.078	83.12
403.302	90.12
403.526	78.12
403.75	89.12
403.974	82.12
404.198	97.12
404.422	78.12
404.645	82.12
404.869	95.12
405.093	102.12
405.317	107.12
405.541	96.12
405.765	102.12
405.988	114.12
406.212	133.12
406.436	176.12
406.66	127.12
406.883	104.12
407.107	86.12
407.331	99.12
407.555	92.12
407.778	98.12
408.002	106.12
408.226	99.12
408.449	77.12
408.673	90.12
408.896	91.12
409.12	90.12
409.344	87.12
409.567	102.12
409.791	93.12
410.014	99.12
410.238	88.12
410.461	103.12
410.685	97.12
410.908	93.12
411.132	100.12
411.355	105.12
411.578	79.12
411.802	93.12
412.025	94.12
412.249	87.12
412.472	82.12
412.695	96.12
412.919	88.12
413.142	78.12
413.365	99.12
413.589	87.12
413.812	89.12
414.035	82.12
414.258	86.12
414.482	81.12
414.705	94.12
414.928	92.12
415.151	99.12
415.374	98.12
415.597	101.12
415.821	88.12
416.044	88.12
416.267	88.12
416.49	80.12
416.713	108.12
416.936	95.12
417.159	82.12
417.382	78.12
417.605	108.12
417.828	74.12
418.051	97.12
418.274	97.12
418.497	76.12
418.72	84.12
418.943	84.12
419.166	86.12
419.389	103.12
419.611	87.12
419.834	92.12
420.057	95.12
420.28	97.12
420.503	76.12
420.726	100.12
420.948	100.12
421.171	79.12
421.394	82.12
421.617	81.12
421.839	88.12
422.062	79.12
422.285	100.12
422.507	90.12
422.73	110.12
422.953	80.12
423.175	86.12
423.398	91.12
423.621	82.12
423.843	64.12
424.066	91.12
424.288	85.12
424.511	88.12
424.733	104.12
424.956	103.12
425.178	104.12
425.401	99.12
425.623	104.12
425.846	101.12
426.068	94.12
426.291	98.12
426.513	99.12
426.735	86.12
426.958	84.12
427.18	90.12
427.402	108.12
427.625	134.12
427.847	117.12
428.069	118.12
428.292	94.12
428.514	92.12
428.736	80.12
428.958	75.12
429.181	85.12
429.403	83.12
429.625	96.12
429.847	102.12
430.069	103.12
430.292	84.12
430.514	84.12
430.736	70.12
430.958	96.12
431.18	73.12
431.402	86.12
431.624	91.12
431.846	98.12
432.068	83.12
432.29	82.12
432.512	82.12
432.734	88.12
432.956	81.12
433.178	91.12
433.4	98.12
433.622	91.12
433.844	81.12
434.066	101.12
434.287	97.12
434.509	83.12
434.731	92.12
434.953	90.12
435.175	83.12
435.397	91.12
435.618	92.12
435.84	92.12
436.062	108.12
436.284	108.12
436.505	102.12
436.727	97.12
436.949	101.12
437.17	93.12
437.392	99.12
437.614	85.12
437.835	103.12
438.057	105.12
438.278	106.12
438.5	90.12
438.721	112.12
438.943	89.12
439.165	94.12
439.386	69.12
439.608	95.12
439.829	89.12
440.05	99.12
440.272	123.12
440.493	85.12
440.715	95.12
440.936	85.12
441.158	81.12
441.379	78.12
441.6	96.12
441.822	87.12
442.043	89.12
442.264	90.12
442.486	91.12
442.707	80.12
442.928	96.12
443.149	112.12
443.371	116.12
443.592	115.12
443.813	108.12
444.034	100.12
444.255	97.12
444.476	87.12
444.698	80.12
444.919	92.12
445.14	126.12
445.361	120.12
445.582	108.12
445.803	119.12
446.024	126.12
446.245	123.12
446.466	114.12
446.687	90.12
446.908	85.12
447.129	96.12
447.35	104.12
447.571	91.12
447.792	90.12
448.013	94.12
448.234	89.12
448.455	97.12
448.675	111.12
448.896	92.12
449.117	95.12
449.338	97.12
449.559	115.12
449.779	118.12
450	90.12
450.221	91.12
450.442	100.12
450.662	87.12
450.883	111.12
451.104	89.12
451.324	91.12
451.545	74.12
451.766	94.12
451.986	81.12
452.207	75.12
452.428	94.12
452.648	86.12
452.869	103.12
453.089	90.12
453.31	101.12
453.53	86.12
453.751	70.12
453.971	98.12
454.192	96.12
454.412	86.12
454.633	74.12
454.853	80.12
455.073	96.12
455.294	87.12
455.514	108.12
455.734	83.12
455.955	88.12
456.175	81.12
456.395	92.12
456.616	99.12
456.836	91.12
457.056	85.12
457.276	90.12
457.497	86.12
457.717	93.12
457.937	98.12
458.157	86.12
458.377	76.12
458.598	94.12
458.818	130.12
459.038	116.12
459.258	105.12
459.478	97.12
459.698	81.12
459.918	86.12
460.138	88.12
460.358	79.12
460.578	87.12
460.798	98.12
461.018	86.12
461.238	87.12
461.458	76.12
461.678	84.12
461.898	85.12
462.118	81.12
462.338	100.12
462.558	86.12
462.777	75.12
462.997	80.12
463.217	101.12
463.437	80.12
463.657	91.12
463.876	85.12
464.096	103.12
464.316	94.12
464.536	102.12
464.755	82.12
464.975	105.12
465.195	132.12
465.414	121.12
465.634	94.12
465.854	96.12
466.073	89.12
466.293	81.12
466.512	90.12
466.732	78.12
466.951	88.12
467.171	87.12
467.391	95.12
467.61	95.12
467.829	103.12
468.049	109.12
468.268	118.12
468.488	90.12
468.707	78.12
468.927	89.12
469.146	84.12
469.365	90.12
469.585	95.12
469.804	95.12
470.023	88.12
470.243	105.12
470.462	86.12
470.681	84.12
470.901	91.12
471.12	82.12
471.339	80.12
471.558	88.12
471.777	100.12
471.997	94.12
472.216	117.12
472.435	185.12
472.654	106.12
472.873	79.12
473.092	85.12
473.311	93.12
473.53	84.12
473.749	78.12
473.968	91.12
474.187	98.12
474.406	80.12
474.625	74.12
474.844	86.12
475.063	79.12
475.282	88.12
475.501	91.12
475.72	89.12
475.939	80.12
476.158	82.12
476.377	99.12
476.596	91.12
476.814	83.12
477.033	101.12
477.252	93.12
477.471	76.12
477.69	94.12
477.908	98.12
478.127	93.12
478.346	100.12
478.564	101.12
478.783	86.12
479.002	83.12
479.22	74.12
479.439	102.12
479.658	93.12
479.876	82.12
480.095	81.12
480.313	94.12
480.532	84.12
480.751	91.12
480.969	132.12
481.188	250.12
481.406	180.12
481.624	93.12
481.843	103.12
482.061	90.12
482.28	108.12
482.498	87.12
482.717	90.12
482.935	84.12
483.153	84.12
483.372	80.12
483.59	103.12
483.808	86.12
484.027	79.12
484.245	90.12
484.463	96.12
484.681	85.12
484.9	85.12
485.118	115.12
485.336	102.12
485.554	92.12
485.772	106.12
485.99	91.12
486.209	91.12
486.427	110.12
486.645	108.12
486.863	105.12
487.081	112.12
487.299	95.12
487.517	86.12
487.735	102.12
487.953	92.12
488.171	94.12
488.389	84.12
488.607	86.12
488.825	85.12
489.043	80.12
489.261	89.12
489.479	90.12
489.696	87.12
489.914	84.12
490.132	91.12
490.35	92.12
490.568	84.12
490.786	96.12
491.003	91.12
491.221	86.12
491.439	90.12
491.657	103.12
491.874	85.12
492.092	91.12
492.31	82.12
492.527	76.12
492.745	82.12
492.963	91.12
493.18	96.12
493.398	108.12
493.615	103.12
493.833	93.12
494.05	96.12
494.268	102.12
494.485	87.12
494.703	82.12
494.92	87.12
495.138	89.12
495.355	92.12
495.573	79.12
495.79	71.12
496.008	84.12
496.225	92.12
496.442	94.12
496.66	80.12
496.877	90.12
497.094	102.12
497.312	79.12
497.529	82.12
497.746	91.12
497.963	91.12
498.181	90.12
498.398	80.12
498.615	98.12
498.832	112.12
499.049	95.12
499.267	97.12
499.484	97.12
499.701	88.12
499.918	86.12
500.135	92.12
500.352	93.12
500.569	68.12
500.786	90.12
501.003	84.12
501.22	108.12
501.437	90.12
501.654	77.12
501.871	95.12
502.088	92.12
502.305	90.12
502.522	102.12
502.739	96.12
502.956	86.12
503.172	87.12
503.389	94.12
503.606	113.12
503.823	94.12
504.04	88.12
504.256	91.12
504.473	96.12
504.69	85.12
504.907	99.12
505.123	90.12
505.34	89.12
505.557	80.12
505.773	87.12
505.99	95.12
506.207	84.12
506.423	81.12
506.64	88.12
506.856	88.12
507.073	88.12
507.289	88.12
507.506	92.12
507.722	112.12
507.939	113.12
508.155	79.12
508.372	95.12
508.588	82.12
508.805	84.12
509.021	83.12
509.238	91.12
509.454	97.12
509.67	88.12
509.887	110.12
510.103	129.12
510.319	190.12
510.536	616.12
510.752	1865.12
510.968	534.12
511.184	143.12
511.401	96.12
511.617	107.12
511.833	88.12
512.049	99.12
512.265	81.12
512.481	86.12
512.698	85.12
512.914	85.12
513.13	98.12
513.346	91.12
513.562	86.12
513.778	84.12
513.994	98.12
514.21	100.12
514.426	100.12
514.642	120.12
514.858	110.12
515.074	131.12
515.29	350.12
515.506	1077.12
515.721	407.12
515.937	118.12
516.153	104.12
