Data from Circ_1985_H10_HRD10591_00033.txt Node
Date: Wed Jan 03 12:19:29 EST 2024
User: Yrep
Spectrometer: HR+D1059
Trigger mode: 1
Integration Time (sec): 1.000000E-1
Scans to average: 1
Electric dark correction enabled: true
Nonlinearity correction enabled: false
Boxcar width: 0
XAxis mode: Wavelengths
Number of Pixels in Spectrum: 2048
>>>>>Begin Spectral Data<<<<<
223.165	-17.31
223.4	-17.31
223.635	-17.31
223.869	-24.31
224.104	-29.31
224.338	-7.31
224.573	-21.31
224.808	-15.31
225.042	-9.31
225.277	1.69
225.511	10.69
225.746	-3.31
225.98	13.69
226.215	15.69
226.449	19.69
226.683	12.69
226.918	21.69
227.152	31.69
227.387	32.69
227.621	29.69
227.856	46.69
228.09	54.69
228.324	32.69
228.559	42.69
228.793	65.69
229.027	57.69
229.262	67.69
229.496	76.69
229.73	82.69
229.964	78.69
230.199	79.69
230.433	67.69
230.667	81.69
230.901	68.69
231.136	72.69
231.37	81.69
231.604	88.69
231.838	80.69
232.072	79.69
232.306	93.69
232.541	78.69
232.775	70.69
233.009	86.69
233.243	67.69
233.477	80.69
233.711	70.69
233.945	72.69
234.179	77.69
234.413	82.69
234.647	75.69
234.881	73.69
235.115	79.69
235.349	87.69
235.583	85.69
235.817	89.69
236.051	83.69
236.285	73.69
236.519	77.69
236.753	84.69
236.987	77.69
237.221	79.69
237.455	78.69
237.689	76.69
237.922	90.69
238.156	83.69
238.39	73.69
238.624	73.69
238.858	70.69
239.091	65.69
239.325	71.69
239.559	66.69
239.793	79.69
240.027	77.69
240.26	85.69
240.494	81.69
240.728	66.69
240.961	77.69
241.195	78.69
241.429	81.69
241.662	68.69
241.896	74.69
242.13	73.69
242.363	72.69
242.597	66.69
242.83	75.69
243.064	65.69
243.298	75.69
243.531	80.69
243.765	74.69
243.998	56.69
244.232	72.69
244.465	80.69
244.699	65.69
244.932	82.69
245.166	72.69
245.399	72.69
245.633	77.69
245.866	72.69
246.099	88.69
246.333	87.69
246.566	81.69
246.8	77.69
247.033	74.69
247.266	81.69
247.5	86.69
247.733	61.69
247.966	74.69
248.2	68.69
248.433	85.69
248.666	76.69
248.899	69.69
249.133	84.69
249.366	71.69
249.599	98.69
249.832	66.69
250.066	66.69
250.299	72.69
250.532	99.69
250.765	94.69
250.998	68.69
251.231	85.69
251.465	76.69
251.698	80.69
251.931	79.69
252.164	91.69
252.397	80.69
252.63	78.69
252.863	76.69
253.096	84.69
253.329	73.69
253.562	77.69
253.795	84.69
254.028	78.69
254.261	81.69
254.494	81.69
254.727	83.69
254.96	89.69
255.193	78.69
255.426	73.69
255.659	68.69
255.892	78.69
256.124	72.69
256.357	82.69
256.59	71.69
256.823	88.69
257.056	78.69
257.289	77.69
257.521	58.69
257.754	82.69
257.987	74.69
258.22	84.69
258.452	68.69
258.685	86.69
258.918	88.69
259.151	85.69
259.383	91.69
259.616	71.69
259.849	88.69
260.081	71.69
260.314	93.69
260.547	85.69
260.779	69.69
261.012	82.69
261.244	81.69
261.477	80.69
261.71	83.69
261.942	98.69
262.175	101.69
262.407	72.69
262.64	76.69
262.872	97.69
263.105	88.69
263.337	90.69
263.57	97.69
263.802	75.69
264.035	84.69
264.267	74.69
264.499	70.69
264.732	78.69
264.964	74.69
265.197	72.69
265.429	82.69
265.661	88.69
265.894	90.69
266.126	88.69
266.358	90.69
266.591	76.69
266.823	76.69
267.055	77.69
267.287	74.69
267.52	87.69
267.752	82.69
267.984	85.69
268.216	79.69
268.448	87.69
268.681	95.69
268.913	86.69
269.145	80.69
269.377	88.69
269.609	78.69
269.841	81.69
270.073	98.69
270.306	72.69
270.538	89.69
270.77	84.69
271.002	78.69
271.234	84.69
271.466	78.69
271.698	80.69
271.93	71.69
272.162	95.69
272.394	69.69
272.626	80.69
272.858	69.69
273.09	87.69
273.322	85.69
273.553	83.69
273.785	93.69
274.017	80.69
274.249	84.69
274.481	78.69
274.713	84.69
274.945	70.69
275.176	84.69
275.408	72.69
275.64	103.69
275.872	66.69
276.104	84.69
276.335	81.69
276.567	96.69
276.799	95.69
277.031	90.69
277.262	81.69
277.494	86.69
277.726	82.69
277.957	78.69
278.189	94.69
278.421	89.69
278.652	84.69
278.884	93.69
279.115	89.69
279.347	76.69
279.579	90.69
279.81	69.69
280.042	81.69
280.273	93.69
280.505	81.69
280.736	98.69
280.968	86.69
281.199	89.69
281.431	76.69
281.662	95.69
281.894	90.69
282.125	89.69
282.356	113.69
282.588	114.69
282.819	88.69
283.051	77.69
283.282	82.69
283.513	87.69
283.745	77.69
283.976	79.69
284.207	88.69
284.439	90.69
284.67	95.69
284.901	92.69
285.132	84.69
285.364	76.69
285.595	99.69
285.826	94.69
286.057	81.69
286.288	84.69
286.52	92.69
286.751	80.69
286.982	77.69
287.213	98.69
287.444	92.69
287.675	100.69
287.906	95.69
288.138	98.69
288.369	94.69
288.6	79.69
288.831	82.69
289.062	85.69
289.293	80.69
289.524	94.69
289.755	90.69
289.986	85.69
290.217	73.69
290.448	76.69
290.679	97.69
290.91	86.69
291.141	79.69
291.371	87.69
291.602	94.69
291.833	93.69
292.064	88.69
292.295	94.69
292.526	69.69
292.757	86.69
292.987	95.69
293.218	92.69
293.449	91.69
293.68	94.69
293.91	93.69
294.141	88.69
294.372	101.69
294.603	89.69
294.833	80.69
295.064	95.69
295.295	89.69
295.525	100.69
295.756	90.69
295.987	96.69
296.217	118.69
296.448	125.69
296.679	87.69
296.909	79.69
297.14	82.69
297.37	91.69
297.601	92.69
297.831	88.69
298.062	80.69
298.292	76.69
298.523	89.69
298.753	75.69
298.984	72.69
299.214	87.69
299.445	89.69
299.675	83.69
299.905	99.69
300.136	85.69
300.366	69.69
300.597	78.69
300.827	92.69
301.057	101.69
301.288	90.69
301.518	95.69
301.748	87.69
301.979	84.69
302.209	78.69
302.439	82.69
302.669	81.69
302.9	88.69
303.13	94.69
303.36	84.69
303.59	94.69
303.82	91.69
304.051	89.69
304.281	100.69
304.511	78.69
304.741	76.69
304.971	84.69
305.201	88.69
305.431	95.69
305.661	87.69
305.891	82.69
306.121	87.69
306.352	96.69
306.582	105.69
306.812	95.69
307.042	85.69
307.272	100.69
307.502	97.69
307.731	97.69
307.961	97.69
308.191	79.69
308.421	83.69
308.651	98.69
308.881	113.69
309.111	93.69
309.341	96.69
309.571	90.69
309.8	96.69
310.03	81.69
310.26	86.69
310.49	94.69
310.72	87.69
310.949	96.69
311.179	82.69
311.409	98.69
311.639	105.69
311.868	100.69
312.098	99.69
312.328	101.69
312.557	80.69
312.787	106.69
313.017	104.69
313.246	104.69
313.476	85.69
313.706	85.69
313.935	77.69
314.165	82.69
314.394	93.69
314.624	77.69
314.853	84.69
315.083	91.69
315.312	94.69
315.542	90.69
315.771	98.69
316.001	93.69
316.23	93.69
316.46	92.69
316.689	98.69
316.919	78.69
317.148	88.69
317.377	97.69
317.607	76.69
317.836	90.69
318.065	91.69
318.295	92.69
318.524	95.69
318.753	87.69
318.983	92.69
319.212	89.69
319.441	103.69
319.67	102.69
319.9	90.69
320.129	102.69
320.358	95.69
320.587	99.69
320.816	93.69
321.046	96.69
321.275	111.69
321.504	93.69
321.733	75.69
321.962	90.69
322.191	102.69
322.42	107.69
322.649	110.69
322.878	106.69
323.108	113.69
323.337	124.69
323.566	130.69
323.795	139.69
324.024	182.69
324.253	357.69
324.482	741.69
324.71	1509.69
324.939	1998.69
325.168	709.69
325.397	221.69
325.626	137.69
325.855	125.69
326.084	111.69
326.313	116.69
326.542	144.69
326.77	217.69
326.999	417.69
327.228	849.69
327.457	1558.69
327.686	1190.69
327.914	334.69
328.143	169.69
328.372	140.69
328.6	118.69
328.829	98.69
329.058	112.69
329.287	111.69
329.515	118.69
329.744	91.69
329.972	103.69
330.201	100.69
330.43	120.69
330.658	108.69
330.887	122.69
331.115	100.69
331.344	103.69
331.572	101.69
331.801	94.69
332.03	82.69
332.258	102.69
332.486	90.69
332.715	100.69
332.943	86.69
333.172	103.69
333.4	81.69
333.629	99.69
333.857	105.69
334.085	84.69
334.314	108.69
334.542	106.69
334.771	110.69
334.999	106.69
335.227	94.69
335.455	93.69
335.684	76.69
335.912	105.69
336.14	100.69
336.369	89.69
336.597	97.69
336.825	88.69
337.053	85.69
337.281	90.69
337.51	92.69
337.738	90.69
337.966	88.69
338.194	89.69
338.422	82.69
338.65	87.69
338.878	87.69
339.106	104.69
339.334	94.69
339.562	78.69
339.79	77.69
340.018	89.69
340.246	83.69
340.474	85.69
340.702	90.69
340.93	80.69
341.158	97.69
341.386	101.69
341.614	97.69
341.842	84.69
342.07	96.69
342.298	92.69
342.526	83.69
342.754	83.69
342.981	99.69
343.209	84.69
343.437	88.69
343.665	87.69
343.893	79.69
344.12	106.69
344.348	89.69
344.576	96.69
344.804	92.69
345.031	96.69
345.259	95.69
345.487	91.69
345.714	111.69
345.942	84.69
346.17	102.69
346.397	103.69
346.625	80.69
346.853	92.69
347.08	97.69
347.308	88.69
347.535	88.69
347.763	83.69
347.99	95.69
348.218	81.69
348.445	94.69
348.673	96.69
348.9	80.69
349.128	93.69
349.355	91.69
349.583	98.69
349.81	94.69
350.037	96.69
350.265	89.69
350.492	96.69
350.72	82.69
350.947	105.69
351.174	108.69
351.402	107.69
351.629	105.69
351.856	110.69
352.083	95.69
352.311	90.69
352.538	116.69
352.765	102.69
352.992	97.69
353.22	106.69
353.447	101.69
353.674	93.69
353.901	96.69
354.128	100.69
354.355	97.69
354.583	99.69
354.81	94.69
355.037	97.69
355.264	103.69
355.491	102.69
355.718	79.69
355.945	100.69
356.172	80.69
356.399	97.69
356.626	81.69
356.853	93.69
357.08	83.69
357.307	99.69
357.534	94.69
357.761	89.69
357.988	101.69
358.215	91.69
358.441	102.69
358.668	92.69
358.895	87.69
359.122	80.69
359.349	98.69
359.576	82.69
359.802	100.69
360.029	95.69
360.256	98.69
360.483	79.69
360.709	87.69
360.936	89.69
361.163	93.69
361.39	90.69
361.616	108.69
361.843	92.69
362.07	86.69
362.296	108.69
362.523	77.69
362.749	82.69
362.976	101.69
363.203	82.69
363.429	109.69
363.656	89.69
363.882	76.69
364.109	87.69
364.335	78.69
364.562	94.69
364.788	94.69
365.015	83.69
365.241	91.69
365.468	98.69
365.694	79.69
365.92	87.69
366.147	78.69
366.373	93.69
366.599	88.69
366.826	82.69
367.052	87.69
367.278	79.69
367.505	86.69
367.731	96.69
367.957	85.69
368.184	78.69
368.41	90.69
368.636	100.69
368.862	109.69
369.089	100.69
369.315	87.69
369.541	100.69
369.767	105.69
369.993	98.69
370.219	80.69
370.445	98.69
370.672	80.69
370.898	82.69
371.124	93.69
371.35	96.69
371.576	78.69
371.802	85.69
372.028	84.69
372.254	82.69
372.48	96.69
372.706	69.69
372.932	73.69
373.158	83.69
373.384	85.69
373.61	87.69
373.835	87.69
374.061	80.69
374.287	76.69
374.513	86.69
374.739	95.69
374.965	87.69
375.191	88.69
375.416	89.69
375.642	84.69
375.868	94.69
376.094	90.69
376.319	103.69
376.545	83.69
376.771	70.69
376.997	89.69
377.222	96.69
377.448	104.69
377.674	84.69
377.899	92.69
378.125	84.69
378.35	88.69
378.576	85.69
378.802	89.69
379.027	96.69
379.253	97.69
379.478	91.69
379.704	95.69
379.929	91.69
380.155	91.69
380.38	97.69
380.606	94.69
380.831	90.69
381.057	100.69
381.282	82.69
381.507	94.69
381.733	87.69
381.958	98.69
382.184	91.69
382.409	106.69
382.634	99.69
382.86	101.69
383.085	110.69
383.31	96.69
383.535	88.69
383.761	96.69
383.986	114.69
384.211	95.69
384.436	94.69
384.662	112.69
384.887	114.69
385.112	96.69
385.337	109.69
385.562	102.69
385.787	106.69
386.013	99.69
386.238	130.69
386.463	109.69
386.688	115.69
386.913	109.69
387.138	105.69
387.363	100.69
387.588	104.69
387.813	103.69
388.038	116.69
388.263	124.69
388.488	108.69
388.713	104.69
388.938	101.69
389.163	84.69
389.387	98.69
389.612	94.69
389.837	93.69
390.062	101.69
390.287	93.69
390.512	85.69
390.736	80.69
390.961	70.69
391.186	95.69
391.411	100.69
391.636	82.69
391.86	73.69
392.085	88.69
392.31	97.69
392.534	87.69
392.759	79.69
392.984	94.69
393.208	89.69
393.433	103.69
393.658	82.69
393.882	77.69
394.107	92.69
394.331	84.69
394.556	76.69
394.78	83.69
395.005	78.69
395.229	81.69
395.454	87.69
395.678	93.69
395.903	93.69
396.127	83.69
396.352	99.69
396.576	85.69
396.801	102.69
397.025	72.69
397.249	95.69
397.474	94.69
397.698	84.69
397.922	85.69
398.147	95.69
398.371	89.69
398.595	84.69
398.82	85.69
399.044	88.69
399.268	94.69
399.492	88.69
399.717	78.69
399.941	80.69
400.165	73.69
400.389	101.69
400.613	85.69
400.837	74.69
401.062	77.69
401.286	100.69
401.51	97.69
401.734	80.69
401.958	105.69
402.182	118.69
402.406	127.69
402.63	111.69
402.854	78.69
403.078	92.69
403.302	85.69
403.526	103.69
403.75	93.69
403.974	80.69
404.198	68.69
404.422	89.69
404.645	83.69
404.869	73.69
405.093	89.69
405.317	106.69
405.541	93.69
405.765	97.69
405.988	110.69
406.212	148.69
406.436	200.69
406.66	116.69
406.883	88.69
407.107	92.69
407.331	82.69
407.555	106.69
407.778	96.69
408.002	93.69
408.226	95.69
408.449	75.69
408.673	87.69
408.896	79.69
409.12	94.69
409.344	78.69
409.567	85.69
409.791	90.69
410.014	70.69
410.238	88.69
410.461	82.69
410.685	109.69
410.908	104.69
411.132	105.69
411.355	80.69
411.578	103.69
411.802	88.69
412.025	94.69
412.249	86.69
412.472	94.69
412.695	82.69
412.919	89.69
413.142	84.69
413.365	92.69
413.589	90.69
413.812	94.69
414.035	112.69
414.258	78.69
414.482	91.69
414.705	95.69
414.928	83.69
415.151	101.69
415.374	90.69
415.597	86.69
415.821	86.69
416.044	93.69
416.267	80.69
416.49	101.69
416.713	88.69
416.936	74.69
417.159	86.69
417.382	90.69
417.605	85.69
417.828	93.69
418.051	88.69
418.274	73.69
418.497	77.69
418.72	93.69
418.943	69.69
419.166	80.69
419.389	82.69
419.611	83.69
419.834	84.69
420.057	77.69
420.28	86.69
420.503	93.69
420.726	88.69
420.948	88.69
421.171	89.69
421.394	82.69
421.617	90.69
421.839	81.69
422.062	96.69
422.285	108.69
422.507	82.69
422.73	97.69
422.953	98.69
423.175	81.69
423.398	90.69
423.621	76.69
423.843	91.69
424.066	87.69
424.288	87.69
424.511	83.69
424.733	95.69
424.956	105.69
425.178	89.69
425.401	96.69
425.623	101.69
425.846	82.69
426.068	96.69
426.291	84.69
426.513	88.69
426.735	98.69
426.958	88.69
427.18	91.69
427.402	134.69
427.625	129.69
427.847	101.69
428.069	107.69
428.292	86.69
428.514	79.69
428.736	80.69
428.958	89.69
429.181	85.69
429.403	85.69
429.625	81.69
429.847	83.69
430.069	86.69
430.292	86.69
430.514	78.69
430.736	82.69
430.958	83.69
431.18	87.69
431.402	88.69
431.624	88.69
431.846	88.69
432.068	77.69
432.29	94.69
432.512	94.69
432.734	96.69
432.956	96.69
433.178	85.69
433.4	102.69
433.622	98.69
433.844	86.69
434.066	98.69
434.287	81.69
434.509	83.69
434.731	82.69
434.953	81.69
435.175	87.69
435.397	94.69
435.618	103.69
435.84	112.69
436.062	125.69
436.284	105.69
436.505	97.69
436.727	99.69
436.949	82.69
437.17	95.69
437.392	89.69
437.614	97.69
437.835	89.69
438.057	108.69
438.278	101.69
438.5	94.69
438.721	108.69
438.943	85.69
439.165	95.69
439.386	96.69
439.608	95.69
439.829	91.69
440.05	107.69
440.272	131.69
440.493	101.69
440.715	91.69
440.936	81.69
441.158	92.69
441.379	72.69
441.6	89.69
441.822	86.69
442.043	95.69
442.264	92.69
442.486	100.69
442.707	83.69
442.928	85.69
443.149	115.69
443.371	111.69
443.592	102.69
443.813	77.69
444.034	92.69
444.255	88.69
444.476	74.69
444.698	84.69
444.919	94.69
445.14	122.69
445.361	111.69
445.582	98.69
445.803	124.69
446.024	112.69
446.245	110.69
446.466	103.69
446.687	96.69
446.908	89.69
447.129	90.69
447.35	84.69
447.571	95.69
447.792	88.69
448.013	96.69
448.234	88.69
448.455	102.69
448.675	119.69
448.896	102.69
449.117	100.69
449.338	111.69
449.559	126.69
449.779	101.69
450	88.69
450.221	93.69
450.442	101.69
450.662	88.69
450.883	104.69
451.104	98.69
451.324	83.69
451.545	82.69
451.766	82.69
451.986	88.69
452.207	81.69
452.428	94.69
452.648	89.69
452.869	95.69
453.089	111.69
453.31	107.69
453.53	97.69
453.751	83.69
453.971	102.69
454.192	102.69
454.412	94.69
454.633	85.69
454.853	84.69
455.073	88.69
455.294	80.69
455.514	94.69
455.734	90.69
455.955	80.69
456.175	85.69
456.395	80.69
456.616	76.69
456.836	77.69
457.056	74.69
457.276	90.69
457.497	84.69
457.717	75.69
457.937	93.69
458.157	89.69
458.377	96.69
458.598	95.69
458.818	125.69
459.038	133.69
459.258	100.69
459.478	86.69
459.698	83.69
459.918	86.69
460.138	94.69
460.358	80.69
460.578	91.69
460.798	91.69
461.018	66.69
461.238	96.69
461.458	87.69
461.678	80.69
461.898	78.69
462.118	61.69
462.338	89.69
462.558	78.69
462.777	86.69
462.997	88.69
463.217	83.69
463.437	88.69
463.657	84.69
463.876	94.69
464.096	84.69
464.316	84.69
464.536	103.69
464.755	93.69
464.975	82.69
465.195	125.69
465.414	135.69
465.634	94.69
465.854	88.69
466.073	81.69
466.293	87.69
466.512	68.69
466.732	85.69
466.951	77.69
467.171	97.69
467.391	97.69
467.61	101.69
467.829	80.69
468.049	102.69
468.268	102.69
468.488	80.69
468.707	83.69
468.927	81.69
469.146	78.69
469.365	96.69
469.585	78.69
469.804	101.69
470.023	79.69
470.243	68.69
470.462	86.69
470.681	102.69
470.901	96.69
471.12	88.69
471.339	88.69
471.558	85.69
471.777	85.69
471.997	95.69
472.216	110.69
472.435	120.69
472.654	101.69
472.873	89.69
473.092	88.69
473.311	88.69
473.53	100.69
473.749	93.69
473.968	101.69
474.187	102.69
474.406	96.69
474.625	79.69
474.844	105.69
475.063	95.69
475.282	74.69
475.501	83.69
475.72	94.69
475.939	83.69
476.158	96.69
476.377	89.69
476.596	69.69
476.814	86.69
477.033	85.69
477.252	89.69
477.471	90.69
477.69	89.69
477.908	84.69
478.127	84.69
478.346	87.69
478.564	87.69
478.783	102.69
479.002	102.69
479.22	96.69
479.439	100.69
479.658	96.69
479.876	99.69
480.095	81.69
480.313	88.69
480.532	84.69
480.751	74.69
480.969	94.69
481.188	164.69
481.406	133.69
481.624	107.69
481.843	88.69
482.061	64.69
482.28	80.69
482.498	90.69
482.717	85.69
482.935	78.69
483.153	78.69
483.372	91.69
483.59	87.69
483.808	94.69
484.027	89.69
484.245	80.69
484.463	94.69
484.681	89.69
484.9	98.69
485.118	93.69
485.336	88.69
485.554	103.69
485.772	96.69
485.99	102.69
486.209	87.69
486.427	105.69
486.645	107.69
486.863	120.69
487.081	117.69
487.299	94.69
487.517	104.69
487.735	104.69
487.953	100.69
488.171	97.69
488.389	98.69
488.607	93.69
488.825	98.69
489.043	93.69
489.261	90.69
489.479	81.69
489.696	83.69
489.914	95.69
490.132	83.69
490.35	92.69
490.568	79.69
490.786	87.69
491.003	85.69
491.221	89.69
491.439	101.69
491.657	84.69
491.874	82.69
492.092	99.69
492.31	97.69
492.527	95.69
492.745	88.69
492.963	88.69
493.18	101.69
493.398	80.69
493.615	98.69
493.833	89.69
494.05	83.69
494.268	76.69
494.485	93.69
494.703	89.69
494.92	82.69
495.138	89.69
495.355	82.69
495.573	100.69
495.79	103.69
496.008	94.69
496.225	86.69
496.442	96.69
496.66	94.69
496.877	90.69
497.094	86.69
497.312	86.69
497.529	79.69
497.746	70.69
497.963	83.69
498.181	84.69
498.398	78.69
498.615	96.69
498.832	92.69
499.049	93.69
499.267	94.69
499.484	95.69
499.701	84.69
499.918	73.69
500.135	80.69
500.352	92.69
500.569	81.69
500.786	101.69
501.003	83.69
501.22	96.69
501.437	88.69
501.654	90.69
501.871	98.69
502.088	82.69
502.305	94.69
502.522	90.69
502.739	86.69
502.956	93.69
503.172	79.69
503.389	86.69
503.606	91.69
503.823	95.69
504.04	82.69
504.256	79.69
504.473	80.69
504.69	87.69
504.907	94.69
505.123	74.69
505.34	88.69
505.557	83.69
505.773	92.69
505.99	86.69
506.207	87.69
506.423	91.69
506.64	100.69
506.856	83.69
507.073	85.69
507.289	89.69
507.506	81.69
507.722	99.69
507.939	107.69
508.155	92.69
508.372	87.69
508.588	88.69
508.805	97.69
509.021	90.69
509.238	102.69
509.454	94.69
509.67	97.69
509.887	110.69
510.103	111.69
510.319	206.69
510.536	607.69
510.752	1861.69
510.968	510.69
511.184	132.69
511.401	101.69
511.617	96.69
511.833	94.69
512.049	98.69
512.265	84.69
512.481	95.69
512.698	82.69
512.914	94.69
513.13	77.69
513.346	85.69
513.562	77.69
513.778	98.69
513.994	98.69
514.21	100.69
514.426	105.69
514.642	110.69
514.858	112.69
515.074	149.69
515.29	349.69
515.506	1090.69
515.721	406.69
515.937	130.69
516.153	105.69
516.369	86.69
