Data from Circ_1985_H10_HRD10591_00021.txt Node
Date: Wed Jan 03 12:19:26 EST 2024
User: Yrep
Spectrometer: HR+D1059
Trigger mode: 1
Integration Time (sec): 1.000000E-1
Scans to average: 1
Electric dark correction enabled: true
Nonlinearity correction enabled: false
Boxcar width: 0
XAxis mode: Wavelengths
Number of Pixels in Spectrum: 2048
>>>>>Begin Spectral Data<<<<<
223.165	-16.25
223.4	-16.25
223.635	-16.25
223.869	-19.25
224.104	-20.25
224.338	-26.25
224.573	-17.25
224.808	0.75
225.042	-5.25
225.277	-6.25
225.511	-4.25
225.746	4.75
225.98	10.75
226.215	7.75
226.449	13.75
226.683	13.75
226.918	25.75
227.152	37.75
227.387	30.75
227.621	42.75
227.856	48.75
228.09	44.75
228.324	58.75
228.559	54.75
228.793	52.75
229.027	50.75
229.262	76.75
229.496	62.75
229.73	69.75
229.964	87.75
230.199	67.75
230.433	78.75
230.667	84.75
230.901	79.75
231.136	78.75
231.37	78.75
231.604	83.75
231.838	80.75
232.072	78.75
232.306	78.75
232.541	68.75
232.775	70.75
233.009	81.75
233.243	73.75
233.477	74.75
233.711	90.75
233.945	57.75
234.179	67.75
234.413	79.75
234.647	67.75
234.881	68.75
235.115	77.75
235.349	80.75
235.583	87.75
235.817	75.75
236.051	66.75
236.285	70.75
236.519	70.75
236.753	65.75
236.987	77.75
237.221	67.75
237.455	86.75
237.689	86.75
237.922	74.75
238.156	82.75
238.39	73.75
238.624	83.75
238.858	69.75
239.091	78.75
239.325	72.75
239.559	85.75
239.793	86.75
240.027	70.75
240.26	63.75
240.494	86.75
240.728	77.75
240.961	80.75
241.195	85.75
241.429	68.75
241.662	62.75
241.896	69.75
242.13	71.75
242.363	78.75
242.597	80.75
242.83	67.75
243.064	90.75
243.298	71.75
243.531	73.75
243.765	60.75
243.998	84.75
244.232	73.75
244.465	79.75
244.699	79.75
244.932	81.75
245.166	78.75
245.399	69.75
245.633	67.75
245.866	86.75
246.099	78.75
246.333	88.75
246.566	82.75
246.8	64.75
247.033	82.75
247.266	74.75
247.5	72.75
247.733	74.75
247.966	79.75
248.2	67.75
248.433	78.75
248.666	83.75
248.899	77.75
249.133	83.75
249.366	106.75
249.599	94.75
249.832	83.75
250.066	90.75
250.299	78.75
250.532	84.75
250.765	74.75
250.998	78.75
251.231	70.75
251.465	88.75
251.698	92.75
251.931	88.75
252.164	83.75
252.397	76.75
252.63	71.75
252.863	75.75
253.096	83.75
253.329	78.75
253.562	87.75
253.795	69.75
254.028	82.75
254.261	88.75
254.494	80.75
254.727	94.75
254.96	84.75
255.193	81.75
255.426	88.75
255.659	82.75
255.892	72.75
256.124	94.75
256.357	82.75
256.59	74.75
256.823	77.75
257.056	82.75
257.289	84.75
257.521	81.75
257.754	83.75
257.987	88.75
258.22	101.75
258.452	82.75
258.685	80.75
258.918	94.75
259.151	90.75
259.383	80.75
259.616	79.75
259.849	73.75
260.081	91.75
260.314	84.75
260.547	86.75
260.779	69.75
261.012	88.75
261.244	91.75
261.477	90.75
261.71	104.75
261.942	103.75
262.175	115.75
262.407	92.75
262.64	90.75
262.872	72.75
263.105	97.75
263.337	73.75
263.57	88.75
263.802	89.75
264.035	86.75
264.267	94.75
264.499	69.75
264.732	82.75
264.964	82.75
265.197	91.75
265.429	84.75
265.661	74.75
265.894	88.75
266.126	95.75
266.358	84.75
266.591	84.75
266.823	89.75
267.055	90.75
267.287	86.75
267.52	82.75
267.752	86.75
267.984	98.75
268.216	82.75
268.448	100.75
268.681	87.75
268.913	81.75
269.145	66.75
269.377	78.75
269.609	86.75
269.841	73.75
270.073	82.75
270.306	87.75
270.538	77.75
270.77	78.75
271.002	82.75
271.234	72.75
271.466	86.75
271.698	79.75
271.93	94.75
272.162	103.75
272.394	93.75
272.626	91.75
272.858	83.75
273.09	76.75
273.322	80.75
273.553	94.75
273.785	87.75
274.017	87.75
274.249	80.75
274.481	75.75
274.713	86.75
274.945	80.75
275.176	83.75
275.408	73.75
275.64	90.75
275.872	86.75
276.104	94.75
276.335	97.75
276.567	86.75
276.799	97.75
277.031	103.75
277.262	94.75
277.494	82.75
277.726	82.75
277.957	88.75
278.189	95.75
278.421	78.75
278.652	85.75
278.884	94.75
279.115	90.75
279.347	92.75
279.579	92.75
279.81	97.75
280.042	98.75
280.273	72.75
280.505	103.75
280.736	89.75
280.968	72.75
281.199	100.75
281.431	85.75
281.662	89.75
281.894	99.75
282.125	106.75
282.356	108.75
282.588	142.75
282.819	120.75
283.051	84.75
283.282	84.75
283.513	89.75
283.745	87.75
283.976	91.75
284.207	82.75
284.439	100.75
284.67	88.75
284.901	89.75
285.132	81.75
285.364	60.75
285.595	89.75
285.826	94.75
286.057	105.75
286.288	100.75
286.52	94.75
286.751	80.75
286.982	85.75
287.213	86.75
287.444	96.75
287.675	86.75
287.906	83.75
288.138	80.75
288.369	92.75
288.6	98.75
288.831	80.75
289.062	78.75
289.293	95.75
289.524	84.75
289.755	74.75
289.986	86.75
290.217	80.75
290.448	90.75
290.679	89.75
290.91	92.75
291.141	72.75
291.371	95.75
291.602	81.75
291.833	94.75
292.064	95.75
292.295	88.75
292.526	89.75
292.757	78.75
292.987	88.75
293.218	96.75
293.449	81.75
293.68	79.75
293.91	88.75
294.141	82.75
294.372	96.75
294.603	81.75
294.833	102.75
295.064	90.75
295.295	93.75
295.525	78.75
295.756	93.75
295.987	107.75
296.217	137.75
296.448	114.75
296.679	90.75
296.909	99.75
297.14	87.75
297.37	81.75
297.601	82.75
297.831	74.75
298.062	84.75
298.292	88.75
298.523	90.75
298.753	87.75
298.984	91.75
299.214	79.75
299.445	79.75
299.675	83.75
299.905	109.75
300.136	92.75
300.366	91.75
300.597	86.75
300.827	100.75
301.057	91.75
301.288	101.75
301.518	98.75
301.748	89.75
301.979	90.75
302.209	80.75
302.439	104.75
302.669	86.75
302.9	93.75
303.13	94.75
303.36	99.75
303.59	108.75
303.82	98.75
304.051	90.75
304.281	71.75
304.511	93.75
304.741	91.75
304.971	86.75
305.201	82.75
305.431	80.75
305.661	81.75
305.891	83.75
306.121	112.75
306.352	89.75
306.582	94.75
306.812	86.75
307.042	90.75
307.272	89.75
307.502	86.75
307.731	76.75
307.961	98.75
308.191	96.75
308.421	93.75
308.651	100.75
308.881	79.75
309.111	80.75
309.341	89.75
309.571	99.75
309.8	86.75
310.03	103.75
310.26	91.75
310.49	85.75
310.72	92.75
310.949	100.75
311.179	94.75
311.409	94.75
311.639	95.75
311.868	94.75
312.098	101.75
312.328	95.75
312.557	103.75
312.787	114.75
313.017	106.75
313.246	78.75
313.476	92.75
313.706	85.75
313.935	100.75
314.165	99.75
314.394	98.75
314.624	94.75
314.853	90.75
315.083	103.75
315.312	98.75
315.542	93.75
315.771	88.75
316.001	87.75
316.23	90.75
316.46	81.75
316.689	88.75
316.919	108.75
317.148	105.75
317.377	89.75
317.607	100.75
317.836	87.75
318.065	82.75
318.295	88.75
318.524	96.75
318.753	107.75
318.983	97.75
319.212	83.75
319.441	114.75
319.67	108.75
319.9	93.75
320.129	86.75
320.358	98.75
320.587	98.75
320.816	86.75
321.046	111.75
321.275	91.75
321.504	106.75
321.733	94.75
321.962	103.75
322.191	89.75
322.42	102.75
322.649	103.75
322.878	120.75
323.108	117.75
323.337	117.75
323.566	143.75
323.795	158.75
324.024	219.75
324.253	389.75
324.482	838.75
324.71	1759.75
324.939	2433.75
325.168	863.75
325.397	255.75
325.626	150.75
325.855	123.75
326.084	120.75
326.313	123.75
326.542	171.75
326.77	238.75
326.999	468.75
327.228	982.75
327.457	1824.75
327.686	1493.75
327.914	376.75
328.143	190.75
328.372	130.75
328.6	124.75
328.829	123.75
329.058	122.75
329.287	116.75
329.515	103.75
329.744	100.75
329.972	84.75
330.201	104.75
330.43	105.75
330.658	109.75
330.887	139.75
331.115	118.75
331.344	91.75
331.572	94.75
331.801	106.75
332.03	90.75
332.258	86.75
332.486	82.75
332.715	95.75
332.943	88.75
333.172	84.75
333.4	96.75
333.629	101.75
333.857	115.75
334.085	93.75
334.314	94.75
334.542	117.75
334.771	120.75
334.999	95.75
335.227	96.75
335.455	97.75
335.684	95.75
335.912	92.75
336.14	94.75
336.369	86.75
336.597	101.75
336.825	95.75
337.053	102.75
337.281	94.75
337.51	93.75
337.738	94.75
337.966	86.75
338.194	86.75
338.422	87.75
338.65	86.75
338.878	82.75
339.106	82.75
339.334	90.75
339.562	97.75
339.79	78.75
340.018	98.75
340.246	90.75
340.474	87.75
340.702	95.75
340.93	86.75
341.158	99.75
341.386	108.75
341.614	103.75
341.842	98.75
342.07	99.75
342.298	94.75
342.526	91.75
342.754	84.75
342.981	84.75
343.209	100.75
343.437	109.75
343.665	93.75
343.893	75.75
344.12	90.75
344.348	90.75
344.576	91.75
344.804	88.75
345.031	95.75
345.259	85.75
345.487	96.75
345.714	93.75
345.942	100.75
346.17	88.75
346.397	91.75
346.625	87.75
346.853	99.75
347.08	79.75
347.308	97.75
347.535	95.75
347.763	99.75
347.99	96.75
348.218	123.75
348.445	111.75
348.673	94.75
348.9	100.75
349.128	107.75
349.355	98.75
349.583	87.75
349.81	97.75
350.037	90.75
350.265	83.75
350.492	104.75
350.72	96.75
350.947	94.75
351.174	107.75
351.402	105.75
351.629	102.75
351.856	104.75
352.083	85.75
352.311	102.75
352.538	108.75
352.765	99.75
352.992	119.75
353.22	104.75
353.447	101.75
353.674	104.75
353.901	103.75
354.128	83.75
354.355	97.75
354.583	96.75
354.81	95.75
355.037	98.75
355.264	112.75
355.491	86.75
355.718	106.75
355.945	95.75
356.172	93.75
356.399	94.75
356.626	101.75
356.853	90.75
357.08	102.75
357.307	96.75
357.534	99.75
357.761	91.75
357.988	106.75
358.215	96.75
358.441	94.75
358.668	91.75
358.895	102.75
359.122	92.75
359.349	94.75
359.576	102.75
359.802	92.75
360.029	106.75
360.256	119.75
360.483	98.75
360.709	86.75
360.936	98.75
361.163	99.75
361.39	87.75
361.616	92.75
361.843	90.75
362.07	98.75
362.296	83.75
362.523	85.75
362.749	82.75
362.976	96.75
363.203	80.75
363.429	87.75
363.656	81.75
363.882	85.75
364.109	102.75
364.335	93.75
364.562	86.75
364.788	85.75
365.015	91.75
365.241	110.75
365.468	100.75
365.694	110.75
365.92	88.75
366.147	101.75
366.373	103.75
366.599	98.75
366.826	78.75
367.052	94.75
367.278	81.75
367.505	99.75
367.731	89.75
367.957	98.75
368.184	88.75
368.41	98.75
368.636	103.75
368.862	102.75
369.089	109.75
369.315	100.75
369.541	98.75
369.767	85.75
369.993	99.75
370.219	83.75
370.445	78.75
370.672	84.75
370.898	91.75
371.124	89.75
371.35	90.75
371.576	84.75
371.802	95.75
372.028	82.75
372.254	83.75
372.48	80.75
372.706	96.75
372.932	84.75
373.158	95.75
373.384	89.75
373.61	85.75
373.835	94.75
374.061	76.75
374.287	92.75
374.513	95.75
374.739	87.75
374.965	88.75
375.191	96.75
375.416	82.75
375.642	80.75
375.868	88.75
376.094	98.75
376.319	90.75
376.545	89.75
376.771	97.75
376.997	84.75
377.222	96.75
377.448	110.75
377.674	79.75
377.899	79.75
378.125	86.75
378.35	92.75
378.576	94.75
378.802	94.75
379.027	87.75
379.253	110.75
379.478	96.75
379.704	95.75
379.929	89.75
380.155	94.75
380.38	95.75
380.606	83.75
380.831	97.75
381.057	102.75
381.282	97.75
381.507	118.75
381.733	110.75
381.958	96.75
382.184	102.75
382.409	99.75
382.634	97.75
382.86	113.75
383.085	112.75
383.31	94.75
383.535	107.75
383.761	103.75
383.986	102.75
384.211	100.75
384.436	98.75
384.662	95.75
384.887	118.75
385.112	106.75
385.337	118.75
385.562	109.75
385.787	110.75
386.013	114.75
386.238	118.75
386.463	111.75
386.688	122.75
386.913	109.75
387.138	111.75
387.363	111.75
387.588	113.75
387.813	105.75
388.038	129.75
388.263	137.75
388.488	118.75
388.713	85.75
388.938	87.75
389.163	104.75
389.387	99.75
389.612	90.75
389.837	90.75
390.062	80.75
390.287	96.75
390.512	91.75
390.736	99.75
390.961	100.75
391.186	89.75
391.411	96.75
391.636	95.75
391.86	85.75
392.085	81.75
392.31	84.75
392.534	104.75
392.759	109.75
392.984	98.75
393.208	98.75
393.433	107.75
393.658	92.75
393.882	87.75
394.107	70.75
394.331	97.75
394.556	78.75
394.78	82.75
395.005	98.75
395.229	87.75
395.454	91.75
395.678	102.75
395.903	82.75
396.127	87.75
396.352	90.75
396.576	75.75
396.801	102.75
397.025	96.75
397.249	76.75
397.474	94.75
397.698	84.75
397.922	94.75
398.147	76.75
398.371	79.75
398.595	88.75
398.82	95.75
399.044	86.75
399.268	86.75
399.492	78.75
399.717	103.75
399.941	80.75
400.165	96.75
400.389	88.75
400.613	80.75
400.837	87.75
401.062	91.75
401.286	89.75
401.51	87.75
401.734	87.75
401.958	99.75
402.182	123.75
402.406	146.75
402.63	116.75
402.854	96.75
403.078	101.75
403.302	75.75
403.526	84.75
403.75	95.75
403.974	78.75
404.198	89.75
404.422	70.75
404.645	88.75
404.869	98.75
405.093	94.75
405.317	85.75
405.541	86.75
405.765	98.75
405.988	123.75
406.212	160.75
406.436	226.75
406.66	145.75
406.883	101.75
407.107	85.75
407.331	106.75
407.555	105.75
407.778	97.75
408.002	87.75
408.226	93.75
408.449	77.75
408.673	78.75
408.896	88.75
409.12	110.75
409.344	97.75
409.567	82.75
409.791	103.75
410.014	89.75
410.238	90.75
410.461	83.75
410.685	89.75
410.908	85.75
411.132	104.75
411.355	84.75
411.578	92.75
411.802	72.75
412.025	85.75
412.249	95.75
412.472	96.75
412.695	79.75
412.919	89.75
413.142	84.75
413.365	98.75
413.589	75.75
413.812	91.75
414.035	87.75
414.258	94.75
414.482	88.75
414.705	99.75
414.928	98.75
415.151	94.75
415.374	93.75
415.597	81.75
415.821	86.75
416.044	82.75
416.267	80.75
416.49	96.75
416.713	83.75
416.936	99.75
417.159	82.75
417.382	86.75
417.605	79.75
417.828	86.75
418.051	86.75
418.274	91.75
418.497	76.75
418.72	75.75
418.943	104.75
419.166	92.75
419.389	94.75
419.611	78.75
419.834	92.75
420.057	94.75
420.28	94.75
420.503	78.75
420.726	87.75
420.948	86.75
421.171	80.75
421.394	97.75
421.617	73.75
421.839	93.75
422.062	94.75
422.285	94.75
422.507	90.75
422.73	108.75
422.953	100.75
423.175	92.75
423.398	96.75
423.621	83.75
423.843	92.75
424.066	73.75
424.288	90.75
424.511	102.75
424.733	92.75
424.956	107.75
425.178	103.75
425.401	88.75
425.623	100.75
425.846	93.75
426.068	79.75
426.291	93.75
426.513	107.75
426.735	86.75
426.958	97.75
427.18	103.75
427.402	150.75
427.625	154.75
427.847	121.75
428.069	105.75
428.292	76.75
428.514	89.75
428.736	98.75
428.958	90.75
429.181	97.75
429.403	90.75
429.625	84.75
429.847	87.75
430.069	105.75
430.292	79.75
430.514	82.75
430.736	84.75
430.958	88.75
431.18	80.75
431.402	90.75
431.624	81.75
431.846	87.75
432.068	88.75
432.29	89.75
432.512	79.75
432.734	87.75
432.956	82.75
433.178	88.75
433.4	99.75
433.622	94.75
433.844	83.75
434.066	88.75
434.287	80.75
434.509	80.75
434.731	86.75
434.953	86.75
435.175	98.75
435.397	94.75
435.618	93.75
435.84	101.75
436.062	122.75
436.284	117.75
436.505	118.75
436.727	107.75
436.949	98.75
437.17	84.75
437.392	84.75
437.614	95.75
437.835	120.75
438.057	111.75
438.278	114.75
438.5	114.75
438.721	112.75
438.943	114.75
439.165	83.75
439.386	70.75
439.608	80.75
439.829	97.75
440.05	125.75
440.272	152.75
440.493	89.75
440.715	82.75
440.936	81.75
441.158	89.75
441.379	90.75
441.6	97.75
441.822	98.75
442.043	86.75
442.264	109.75
442.486	105.75
442.707	99.75
442.928	83.75
443.149	132.75
443.371	135.75
443.592	132.75
443.813	122.75
444.034	106.75
444.255	91.75
444.476	93.75
444.698	73.75
444.919	89.75
445.14	138.75
445.361	129.75
445.582	125.75
445.803	136.75
446.024	154.75
446.245	139.75
446.466	125.75
446.687	90.75
446.908	89.75
447.129	84.75
447.35	99.75
447.571	93.75
447.792	88.75
448.013	82.75
448.234	99.75
448.455	98.75
448.675	104.75
448.896	121.75
449.117	95.75
449.338	98.75
449.559	129.75
449.779	140.75
450	83.75
450.221	90.75
450.442	92.75
450.662	99.75
450.883	106.75
451.104	112.75
451.324	103.75
451.545	91.75
451.766	99.75
451.986	94.75
452.207	115.75
452.428	83.75
452.648	98.75
452.869	108.75
453.089	102.75
453.31	104.75
453.53	84.75
453.751	84.75
453.971	77.75
454.192	120.75
454.412	108.75
454.633	87.75
454.853	87.75
455.073	83.75
455.294	91.75
455.514	102.75
455.734	90.75
455.955	87.75
456.175	88.75
456.395	90.75
456.616	105.75
456.836	102.75
457.056	73.75
457.276	82.75
457.497	85.75
457.717	92.75
457.937	88.75
458.157	82.75
458.377	101.75
458.598	102.75
458.818	142.75
459.038	146.75
459.258	92.75
459.478	99.75
459.698	88.75
459.918	87.75
460.138	96.75
460.358	79.75
460.578	82.75
460.798	86.75
461.018	78.75
461.238	85.75
461.458	84.75
461.678	80.75
461.898	80.75
462.118	100.75
462.338	94.75
462.558	89.75
462.777	87.75
462.997	91.75
463.217	84.75
463.437	84.75
463.657	85.75
463.876	100.75
464.096	78.75
464.316	85.75
464.536	79.75
464.755	82.75
464.975	99.75
465.195	166.75
465.414	150.75
465.634	90.75
465.854	80.75
466.073	86.75
466.293	89.75
466.512	78.75
466.732	84.75
466.951	85.75
467.171	98.75
467.391	89.75
467.61	85.75
467.829	86.75
468.049	81.75
468.268	94.75
468.488	91.75
468.707	75.75
468.927	86.75
469.146	84.75
469.365	79.75
469.585	106.75
469.804	95.75
470.023	100.75
470.243	95.75
470.462	104.75
470.681	115.75
470.901	102.75
471.12	80.75
471.339	98.75
471.558	97.75
471.777	90.75
471.997	70.75
472.216	95.75
472.435	110.75
472.654	88.75
472.873	90.75
473.092	88.75
473.311	87.75
473.53	76.75
473.749	79.75
473.968	93.75
474.187	98.75
474.406	79.75
474.625	101.75
474.844	92.75
475.063	91.75
475.282	92.75
475.501	94.75
475.72	87.75
475.939	82.75
476.158	67.75
476.377	84.75
476.596	85.75
476.814	95.75
477.033	87.75
477.252	85.75
477.471	95.75
477.69	93.75
477.908	94.75
478.127	83.75
478.346	85.75
478.564	99.75
478.783	95.75
479.002	91.75
479.22	97.75
479.439	96.75
479.658	112.75
479.876	86.75
480.095	91.75
480.313	97.75
480.532	90.75
480.751	82.75
480.969	89.75
481.188	137.75
481.406	106.75
481.624	85.75
481.843	105.75
482.061	94.75
482.28	90.75
482.498	89.75
482.717	101.75
482.935	91.75
483.153	89.75
483.372	80.75
483.59	93.75
483.808	84.75
484.027	93.75
484.245	91.75
484.463	93.75
484.681	86.75
484.9	90.75
485.118	88.75
485.336	88.75
485.554	98.75
485.772	102.75
485.99	99.75
486.209	105.75
486.427	100.75
486.645	110.75
486.863	126.75
487.081	99.75
487.299	91.75
487.517	82.75
487.735	93.75
487.953	98.75
488.171	93.75
488.389	97.75
488.607	114.75
488.825	110.75
489.043	87.75
489.261	97.75
489.479	94.75
489.696	86.75
489.914	92.75
490.132	81.75
490.35	85.75
490.568	104.75
490.786	95.75
491.003	94.75
491.221	95.75
491.439	102.75
491.657	96.75
491.874	80.75
492.092	84.75
492.31	100.75
492.527	85.75
492.745	86.75
492.963	88.75
493.18	84.75
493.398	102.75
493.615	104.75
493.833	87.75
494.05	91.75
494.268	77.75
494.485	100.75
494.703	97.75
494.92	68.75
495.138	84.75
495.355	90.75
495.573	85.75
495.79	90.75
496.008	102.75
496.225	89.75
496.442	83.75
496.66	96.75
496.877	95.75
497.094	84.75
497.312	109.75
497.529	87.75
497.746	90.75
497.963	91.75
498.181	80.75
498.398	100.75
498.615	114.75
498.832	107.75
499.049	90.75
499.267	82.75
499.484	84.75
499.701	97.75
499.918	94.75
500.135	84.75
500.352	89.75
500.569	87.75
500.786	95.75
501.003	83.75
501.22	101.75
501.437	107.75
501.654	94.75
501.871	102.75
502.088	104.75
502.305	98.75
502.522	94.75
502.739	97.75
502.956	76.75
503.172	99.75
503.389	90.75
503.606	104.75
503.823	89.75
504.04	89.75
504.256	101.75
504.473	85.75
504.69	83.75
504.907	83.75
505.123	89.75
505.34	82.75
505.557	87.75
505.773	95.75
505.99	96.75
506.207	86.75
506.423	73.75
506.64	86.75
506.856	97.75
507.073	91.75
507.289	113.75
507.506	95.75
507.722	112.75
507.939	117.75
508.155	91.75
508.372	87.75
508.588	92.75
508.805	90.75
509.021	89.75
509.238	96.75
509.454	109.75
509.67	100.75
509.887	108.75
510.103	142.75
510.319	187.75
510.536	671.75
510.752	2053.75
510.968	569.75
511.184	149.75
511.401	114.75
511.617	112.75
511.833	87.75
512.049	72.75
512.265	85.75
512.481	78.75
512.698	97.75
512.914	89.75
513.13	103.75
513.346	84.75
513.562	84.75
513.778	92.75
513.994	98.75
514.21	84.75
514.426	100.75
514.642	134.75
514.858	105.75
515.074	157.75
515.29	398.75
515.506	1271.75
515.721	488.75
