Data from Circ_1985_H10_HRD10591_00099.txt Node
Date: Wed Jan 03 12:19:42 EST 2024
User: Yrep
Spectrometer: HR+D1059
Trigger mode: 1
Integration Time (sec): 1.000000E-1
Scans to average: 1
Electric dark correction enabled: true
Nonlinearity correction enabled: false
Boxcar width: 0
XAxis mode: Wavelengths
Number of Pixels in Spectrum: 2048
>>>>>Begin Spectral Data<<<<<
223.165	-10.88
223.4	-10.88
223.635	-10.88
223.869	-33.88
224.104	-32.88
224.338	-7.88
224.573	-8.88
224.808	-16.88
225.042	-13.88
225.277	-15.88
225.511	-0.88
225.746	4.12
225.98	7.12
226.215	18.12
226.449	36.12
226.683	20.12
226.918	28.12
227.152	28.12
227.387	37.12
227.621	34.12
227.856	51.12
228.09	54.12
228.324	55.12
228.559	57.12
228.793	53.12
229.027	52.12
229.262	70.12
229.496	68.12
229.73	73.12
229.964	76.12
230.199	67.12
230.433	70.12
230.667	72.12
230.901	72.12
231.136	75.12
231.37	71.12
231.604	81.12
231.838	78.12
232.072	87.12
232.306	79.12
232.541	86.12
232.775	76.12
233.009	88.12
233.243	73.12
233.477	75.12
233.711	73.12
233.945	75.12
234.179	74.12
234.413	95.12
234.647	88.12
234.881	90.12
235.115	92.12
235.349	78.12
235.583	87.12
235.817	78.12
236.051	74.12
236.285	94.12
236.519	72.12
236.753	77.12
236.987	89.12
237.221	83.12
237.455	78.12
237.689	71.12
237.922	63.12
238.156	84.12
238.39	82.12
238.624	69.12
238.858	72.12
239.091	73.12
239.325	58.12
239.559	73.12
239.793	72.12
240.027	81.12
240.26	82.12
240.494	83.12
240.728	71.12
240.961	74.12
241.195	75.12
241.429	69.12
241.662	79.12
241.896	75.12
242.13	71.12
242.363	74.12
242.597	81.12
242.83	79.12
243.064	73.12
243.298	71.12
243.531	60.12
243.765	69.12
243.998	74.12
244.232	83.12
244.465	87.12
244.699	91.12
244.932	82.12
245.166	82.12
245.399	74.12
245.633	85.12
245.866	79.12
246.099	62.12
246.333	74.12
246.566	82.12
246.8	88.12
247.033	81.12
247.266	78.12
247.5	90.12
247.733	88.12
247.966	79.12
248.2	78.12
248.433	64.12
248.666	84.12
248.899	96.12
249.133	91.12
249.366	98.12
249.599	92.12
249.832	100.12
250.066	71.12
250.299	97.12
250.532	91.12
250.765	84.12
250.998	71.12
251.231	86.12
251.465	74.12
251.698	95.12
251.931	86.12
252.164	75.12
252.397	72.12
252.63	83.12
252.863	70.12
253.096	86.12
253.329	81.12
253.562	75.12
253.795	71.12
254.028	82.12
254.261	94.12
254.494	86.12
254.727	84.12
254.96	82.12
255.193	89.12
255.426	93.12
255.659	89.12
255.892	80.12
256.124	69.12
256.357	79.12
256.59	85.12
256.823	83.12
257.056	91.12
257.289	67.12
257.521	71.12
257.754	90.12
257.987	72.12
258.22	78.12
258.452	69.12
258.685	86.12
258.918	75.12
259.151	90.12
259.383	100.12
259.616	90.12
259.849	82.12
260.081	83.12
260.314	94.12
260.547	76.12
260.779	80.12
261.012	87.12
261.244	82.12
261.477	83.12
261.71	89.12
261.942	104.12
262.175	105.12
262.407	79.12
262.64	85.12
262.872	75.12
263.105	88.12
263.337	84.12
263.57	80.12
263.802	76.12
264.035	82.12
264.267	59.12
264.499	84.12
264.732	92.12
264.964	105.12
265.197	72.12
265.429	84.12
265.661	80.12
265.894	82.12
266.126	89.12
266.358	84.12
266.591	90.12
266.823	80.12
267.055	88.12
267.287	84.12
267.52	80.12
267.752	66.12
267.984	66.12
268.216	76.12
268.448	82.12
268.681	72.12
268.913	89.12
269.145	83.12
269.377	95.12
269.609	89.12
269.841	71.12
270.073	82.12
270.306	79.12
270.538	87.12
270.77	71.12
271.002	82.12
271.234	86.12
271.466	88.12
271.698	90.12
271.93	67.12
272.162	86.12
272.394	84.12
272.626	91.12
272.858	74.12
273.09	79.12
273.322	90.12
273.553	82.12
273.785	83.12
274.017	89.12
274.249	78.12
274.481	84.12
274.713	97.12
274.945	99.12
275.176	98.12
275.408	67.12
275.64	97.12
275.872	82.12
276.104	100.12
276.335	113.12
276.567	96.12
276.799	80.12
277.031	83.12
277.262	83.12
277.494	92.12
277.726	82.12
277.957	99.12
278.189	84.12
278.421	73.12
278.652	92.12
278.884	86.12
279.115	89.12
279.347	80.12
279.579	81.12
279.81	85.12
280.042	99.12
280.273	96.12
280.505	103.12
280.736	92.12
280.968	81.12
281.199	91.12
281.431	80.12
281.662	83.12
281.894	94.12
282.125	99.12
282.356	115.12
282.588	127.12
282.819	92.12
283.051	97.12
283.282	86.12
283.513	74.12
283.745	94.12
283.976	92.12
284.207	87.12
284.439	93.12
284.67	85.12
284.901	90.12
285.132	88.12
285.364	85.12
285.595	81.12
285.826	68.12
286.057	79.12
286.288	82.12
286.52	91.12
286.751	78.12
286.982	78.12
287.213	78.12
287.444	75.12
287.675	90.12
287.906	89.12
288.138	95.12
288.369	93.12
288.6	94.12
288.831	91.12
289.062	76.12
289.293	82.12
289.524	70.12
289.755	72.12
289.986	91.12
290.217	102.12
290.448	90.12
290.679	91.12
290.91	95.12
291.141	81.12
291.371	79.12
291.602	98.12
291.833	87.12
292.064	86.12
292.295	84.12
292.526	84.12
292.757	95.12
292.987	81.12
293.218	76.12
293.449	81.12
293.68	80.12
293.91	82.12
294.141	100.12
294.372	90.12
294.603	91.12
294.833	96.12
295.064	89.12
295.295	97.12
295.525	99.12
295.756	97.12
295.987	102.12
296.217	127.12
296.448	116.12
296.679	72.12
296.909	74.12
297.14	81.12
297.37	90.12
297.601	82.12
297.831	84.12
298.062	88.12
298.292	93.12
298.523	103.12
298.753	72.12
298.984	94.12
299.214	84.12
299.445	95.12
299.675	98.12
299.905	91.12
300.136	90.12
300.366	97.12
300.597	87.12
300.827	93.12
301.057	91.12
301.288	88.12
301.518	92.12
301.748	91.12
301.979	87.12
302.209	87.12
302.439	97.12
302.669	94.12
302.9	88.12
303.13	94.12
303.36	80.12
303.59	102.12
303.82	102.12
304.051	96.12
304.281	104.12
304.511	94.12
304.741	99.12
304.971	93.12
305.201	97.12
305.431	84.12
305.661	84.12
305.891	93.12
306.121	97.12
306.352	95.12
306.582	108.12
306.812	95.12
307.042	73.12
307.272	92.12
307.502	105.12
307.731	97.12
307.961	95.12
308.191	97.12
308.421	101.12
308.651	91.12
308.881	107.12
309.111	86.12
309.341	97.12
309.571	94.12
309.8	97.12
310.03	101.12
310.26	97.12
310.49	96.12
310.72	92.12
310.949	98.12
311.179	94.12
311.409	90.12
311.639	98.12
311.868	101.12
312.098	84.12
312.328	108.12
312.557	98.12
312.787	95.12
313.017	89.12
313.246	104.12
313.476	84.12
313.706	84.12
313.935	111.12
314.165	90.12
314.394	102.12
314.624	85.12
314.853	95.12
315.083	87.12
315.312	95.12
315.542	87.12
315.771	84.12
316.001	81.12
316.23	92.12
316.46	90.12
316.689	89.12
316.919	100.12
317.148	95.12
317.377	85.12
317.607	80.12
317.836	87.12
318.065	83.12
318.295	91.12
318.524	96.12
318.753	85.12
318.983	94.12
319.212	99.12
319.441	114.12
319.67	108.12
319.9	90.12
320.129	90.12
320.358	95.12
320.587	101.12
320.816	85.12
321.046	93.12
321.275	102.12
321.504	91.12
321.733	89.12
321.962	84.12
322.191	97.12
322.42	110.12
322.649	106.12
322.878	108.12
323.108	104.12
323.337	109.12
323.566	128.12
323.795	132.12
324.024	190.12
324.253	351.12
324.482	775.12
324.71	1579.12
324.939	2136.12
325.168	763.12
325.397	233.12
325.626	139.12
325.855	137.12
326.084	129.12
326.313	139.12
326.542	161.12
326.77	214.12
326.999	444.12
327.228	898.12
327.457	1692.12
327.686	1318.12
327.914	350.12
328.143	190.12
328.372	148.12
328.6	118.12
328.829	123.12
329.058	115.12
329.287	121.12
329.515	111.12
329.744	111.12
329.972	107.12
330.201	126.12
330.43	151.12
330.658	137.12
330.887	119.12
331.115	124.12
331.344	102.12
331.572	105.12
331.801	92.12
332.03	102.12
332.258	96.12
332.486	94.12
332.715	88.12
332.943	95.12
333.172	98.12
333.4	101.12
333.629	90.12
333.857	112.12
334.085	119.12
334.314	128.12
334.542	164.12
334.771	158.12
334.999	105.12
335.227	90.12
335.455	92.12
335.684	98.12
335.912	86.12
336.14	91.12
336.369	88.12
336.597	103.12
336.825	99.12
337.053	82.12
337.281	86.12
337.51	93.12
337.738	98.12
337.966	95.12
338.194	99.12
338.422	106.12
338.65	98.12
338.878	109.12
339.106	80.12
339.334	76.12
339.562	96.12
339.79	82.12
340.018	81.12
340.246	89.12
340.474	80.12
340.702	76.12
340.93	78.12
341.158	90.12
341.386	99.12
341.614	101.12
341.842	94.12
342.07	96.12
342.298	97.12
342.526	90.12
342.754	90.12
342.981	88.12
343.209	78.12
343.437	100.12
343.665	88.12
343.893	80.12
344.12	95.12
344.348	96.12
344.576	93.12
344.804	81.12
345.031	80.12
345.259	102.12
345.487	87.12
345.714	94.12
345.942	98.12
346.17	89.12
346.397	89.12
346.625	84.12
346.853	86.12
347.08	81.12
347.308	92.12
347.535	101.12
347.763	83.12
347.99	106.12
348.218	97.12
348.445	97.12
348.673	85.12
348.9	104.12
349.128	96.12
349.355	86.12
349.583	90.12
349.81	104.12
350.037	95.12
350.265	96.12
350.492	91.12
350.72	79.12
350.947	103.12
351.174	82.12
351.402	106.12
351.629	105.12
351.856	120.12
352.083	95.12
352.311	110.12
352.538	104.12
352.765	115.12
352.992	100.12
353.22	111.12
353.447	105.12
353.674	93.12
353.901	86.12
354.128	92.12
354.355	90.12
354.583	87.12
354.81	107.12
355.037	98.12
355.264	96.12
355.491	98.12
355.718	100.12
355.945	98.12
356.172	95.12
356.399	106.12
356.626	91.12
356.853	103.12
357.08	87.12
357.307	96.12
357.534	100.12
357.761	81.12
357.988	115.12
358.215	100.12
358.441	94.12
358.668	98.12
358.895	92.12
359.122	84.12
359.349	83.12
359.576	88.12
359.802	90.12
360.029	93.12
360.256	96.12
360.483	109.12
360.709	107.12
360.936	102.12
361.163	88.12
361.39	87.12
361.616	102.12
361.843	72.12
362.07	88.12
362.296	89.12
362.523	96.12
362.749	105.12
362.976	87.12
363.203	97.12
363.429	88.12
363.656	82.12
363.882	103.12
364.109	107.12
364.335	91.12
364.562	68.12
364.788	85.12
365.015	84.12
365.241	92.12
365.468	94.12
365.694	100.12
365.92	92.12
366.147	85.12
366.373	78.12
366.599	91.12
366.826	96.12
367.052	88.12
367.278	107.12
367.505	86.12
367.731	87.12
367.957	100.12
368.184	90.12
368.41	83.12
368.636	106.12
368.862	106.12
369.089	93.12
369.315	70.12
369.541	82.12
369.767	86.12
369.993	84.12
370.219	99.12
370.445	102.12
370.672	84.12
370.898	94.12
371.124	76.12
371.35	67.12
371.576	79.12
371.802	82.12
372.028	83.12
372.254	87.12
372.48	82.12
372.706	79.12
372.932	87.12
373.158	82.12
373.384	93.12
373.61	92.12
373.835	107.12
374.061	84.12
374.287	84.12
374.513	84.12
374.739	91.12
374.965	80.12
375.191	98.12
375.416	91.12
375.642	88.12
375.868	94.12
376.094	86.12
376.319	86.12
376.545	97.12
376.771	86.12
376.997	86.12
377.222	97.12
377.448	92.12
377.674	90.12
377.899	92.12
378.125	89.12
378.35	104.12
378.576	82.12
378.802	83.12
379.027	97.12
379.253	89.12
379.478	84.12
379.704	102.12
379.929	85.12
380.155	105.12
380.38	102.12
380.606	122.12
380.831	94.12
381.057	86.12
381.282	99.12
381.507	78.12
381.733	94.12
381.958	101.12
382.184	91.12
382.409	88.12
382.634	100.12
382.86	103.12
383.085	100.12
383.31	91.12
383.535	105.12
383.761	99.12
383.986	100.12
384.211	87.12
384.436	99.12
384.662	96.12
384.887	110.12
385.112	109.12
385.337	90.12
385.562	101.12
385.787	104.12
386.013	106.12
386.238	116.12
386.463	103.12
386.688	102.12
386.913	104.12
387.138	96.12
387.363	103.12
387.588	107.12
387.813	94.12
388.038	101.12
388.263	101.12
388.488	111.12
388.713	93.12
388.938	91.12
389.163	95.12
389.387	100.12
389.612	101.12
389.837	98.12
390.062	94.12
390.287	103.12
390.512	90.12
390.736	98.12
390.961	100.12
391.186	99.12
391.411	97.12
391.636	85.12
391.86	83.12
392.085	93.12
392.31	87.12
392.534	86.12
392.759	88.12
392.984	90.12
393.208	75.12
393.433	94.12
393.658	97.12
393.882	88.12
394.107	71.12
394.331	92.12
394.556	85.12
394.78	94.12
395.005	72.12
395.229	75.12
395.454	74.12
395.678	92.12
395.903	87.12
396.127	85.12
396.352	92.12
396.576	90.12
396.801	69.12
397.025	86.12
397.249	89.12
397.474	96.12
397.698	85.12
397.922	99.12
398.147	89.12
398.371	87.12
398.595	89.12
398.82	87.12
399.044	93.12
399.268	78.12
399.492	77.12
399.717	82.12
399.941	82.12
400.165	79.12
400.389	85.12
400.613	75.12
400.837	80.12
401.062	84.12
401.286	74.12
401.51	78.12
401.734	66.12
401.958	83.12
402.182	107.12
402.406	113.12
402.63	100.12
402.854	93.12
403.078	79.12
403.302	76.12
403.526	91.12
403.75	87.12
403.974	88.12
404.198	90.12
404.422	101.12
404.645	89.12
404.869	84.12
405.093	90.12
405.317	82.12
405.541	89.12
405.765	90.12
405.988	117.12
406.212	133.12
406.436	182.12
406.66	127.12
406.883	91.12
407.107	87.12
407.331	80.12
407.555	98.12
407.778	94.12
408.002	81.12
408.226	91.12
408.449	86.12
408.673	100.12
408.896	73.12
409.12	89.12
409.344	98.12
409.567	88.12
409.791	86.12
410.014	79.12
410.238	85.12
410.461	89.12
410.685	88.12
410.908	84.12
411.132	95.12
411.355	89.12
411.578	80.12
411.802	94.12
412.025	92.12
412.249	78.12
412.472	111.12
412.695	95.12
412.919	92.12
413.142	96.12
413.365	92.12
413.589	83.12
413.812	85.12
414.035	96.12
414.258	92.12
414.482	88.12
414.705	77.12
414.928	68.12
415.151	92.12
415.374	83.12
415.597	87.12
415.821	92.12
416.044	87.12
416.267	82.12
416.49	106.12
416.713	100.12
416.936	81.12
417.159	90.12
417.382	79.12
417.605	75.12
417.828	87.12
418.051	94.12
418.274	89.12
418.497	79.12
418.72	102.12
418.943	73.12
419.166	96.12
419.389	87.12
419.611	89.12
419.834	90.12
420.057	78.12
420.28	96.12
420.503	83.12
420.726	89.12
420.948	92.12
421.171	86.12
421.394	101.12
421.617	90.12
421.839	80.12
422.062	73.12
422.285	87.12
422.507	91.12
422.73	87.12
422.953	89.12
423.175	85.12
423.398	98.12
423.621	93.12
423.843	85.12
424.066	80.12
424.288	90.12
424.511	91.12
424.733	86.12
424.956	95.12
425.178	91.12
425.401	96.12
425.623	99.12
425.846	80.12
426.068	90.12
426.291	88.12
426.513	89.12
426.735	75.12
426.958	97.12
427.18	100.12
427.402	124.12
427.625	139.12
427.847	119.12
428.069	117.12
428.292	95.12
428.514	86.12
428.736	93.12
428.958	87.12
429.181	86.12
429.403	82.12
429.625	82.12
429.847	89.12
430.069	104.12
430.292	88.12
430.514	78.12
430.736	85.12
430.958	83.12
431.18	95.12
431.402	84.12
431.624	87.12
431.846	81.12
432.068	81.12
432.29	74.12
432.512	71.12
432.734	82.12
432.956	84.12
433.178	89.12
433.4	98.12
433.622	88.12
433.844	90.12
434.066	102.12
434.287	73.12
434.509	80.12
434.731	90.12
434.953	88.12
435.175	76.12
435.397	90.12
435.618	98.12
435.84	107.12
436.062	121.12
436.284	93.12
436.505	107.12
436.727	91.12
436.949	87.12
437.17	81.12
437.392	78.12
437.614	95.12
437.835	98.12
438.057	105.12
438.278	97.12
438.5	92.12
438.721	112.12
438.943	95.12
439.165	94.12
439.386	86.12
439.608	94.12
439.829	102.12
440.05	96.12
440.272	132.12
440.493	96.12
440.715	91.12
440.936	82.12
441.158	77.12
441.379	89.12
441.6	91.12
441.822	96.12
442.043	87.12
442.264	100.12
442.486	85.12
442.707	78.12
442.928	101.12
443.149	93.12
443.371	109.12
443.592	100.12
443.813	112.12
444.034	115.12
444.255	92.12
444.476	79.12
444.698	75.12
444.919	102.12
445.14	130.12
445.361	135.12
445.582	119.12
445.803	121.12
446.024	123.12
446.245	128.12
446.466	100.12
446.687	82.12
446.908	88.12
447.129	78.12
447.35	71.12
447.571	95.12
447.792	88.12
448.013	90.12
448.234	105.12
448.455	96.12
448.675	106.12
448.896	104.12
449.117	99.12
449.338	113.12
449.559	121.12
449.779	120.12
450	80.12
450.221	90.12
450.442	95.12
450.662	96.12
450.883	87.12
451.104	97.12
451.324	92.12
451.545	80.12
451.766	87.12
451.986	98.12
452.207	83.12
452.428	80.12
452.648	83.12
452.869	106.12
453.089	80.12
453.31	106.12
453.53	89.12
453.751	83.12
453.971	88.12
454.192	107.12
454.412	90.12
454.633	91.12
454.853	94.12
455.073	86.12
455.294	78.12
455.514	85.12
455.734	82.12
455.955	81.12
456.175	78.12
456.395	84.12
456.616	81.12
456.836	79.12
457.056	93.12
457.276	81.12
457.497	76.12
457.717	90.12
457.937	95.12
458.157	85.12
458.377	86.12
458.598	107.12
458.818	119.12
459.038	133.12
459.258	111.12
459.478	92.12
459.698	88.12
459.918	85.12
460.138	95.12
460.358	82.12
460.578	97.12
460.798	85.12
461.018	87.12
461.238	68.12
461.458	82.12
461.678	103.12
461.898	89.12
462.118	75.12
462.338	87.12
462.558	88.12
462.777	76.12
462.997	99.12
463.217	98.12
463.437	79.12
463.657	87.12
463.876	85.12
464.096	99.12
464.316	73.12
464.536	88.12
464.755	75.12
464.975	98.12
465.195	142.12
465.414	135.12
465.634	100.12
465.854	80.12
466.073	101.12
466.293	94.12
466.512	76.12
466.732	82.12
466.951	92.12
467.171	92.12
467.391	88.12
467.61	95.12
467.829	98.12
468.049	109.12
468.268	120.12
468.488	101.12
468.707	84.12
468.927	102.12
469.146	84.12
469.365	78.12
469.585	85.12
469.804	90.12
470.023	90.12
470.243	101.12
470.462	93.12
470.681	106.12
470.901	79.12
471.12	75.12
471.339	83.12
471.558	77.12
471.777	84.12
471.997	104.12
472.216	143.12
472.435	194.12
472.654	104.12
472.873	103.12
473.092	90.12
473.311	86.12
473.53	88.12
473.749	98.12
473.968	86.12
474.187	88.12
474.406	103.12
474.625	84.12
474.844	83.12
475.063	80.12
475.282	81.12
475.501	68.12
475.72	92.12
475.939	88.12
476.158	80.12
476.377	87.12
476.596	90.12
476.814	81.12
477.033	88.12
477.252	79.12
477.471	86.12
477.69	81.12
477.908	99.12
478.127	91.12
478.346	103.12
478.564	87.12
478.783	95.12
479.002	80.12
479.22	72.12
479.439	97.12
479.658	108.12
479.876	91.12
480.095	87.12
480.313	95.12
480.532	91.12
480.751	125.12
480.969	132.12
481.188	306.12
481.406	222.12
481.624	116.12
481.843	92.12
482.061	83.12
482.28	89.12
482.498	84.12
482.717	93.12
482.935	96.12
483.153	101.12
483.372	93.12
483.59	92.12
483.808	85.12
484.027	92.12
484.245	91.12
484.463	98.12
484.681	88.12
484.9	94.12
485.118	96.12
485.336	91.12
485.554	79.12
485.772	108.12
485.99	94.12
486.209	114.12
486.427	96.12
486.645	106.12
486.863	119.12
487.081	83.12
487.299	90.12
487.517	99.12
487.735	80.12
487.953	96.12
488.171	97.12
488.389	88.12
488.607	96.12
488.825	87.12
489.043	94.12
489.261	83.12
489.479	106.12
489.696	81.12
489.914	75.12
490.132	94.12
490.35	95.12
490.568	88.12
490.786	91.12
491.003	92.12
491.221	94.12
491.439	84.12
491.657	81.12
491.874	86.12
492.092	102.12
492.31	99.12
492.527	72.12
492.745	91.12
492.963	97.12
493.18	92.12
493.398	95.12
493.615	102.12
493.833	91.12
494.05	96.12
494.268	75.12
494.485	90.12
494.703	94.12
494.92	75.12
495.138	97.12
495.355	82.12
495.573	100.12
495.79	91.12
496.008	87.12
496.225	76.12
496.442	85.12
496.66	94.12
496.877	110.12
497.094	94.12
497.312	96.12
497.529	91.12
497.746	86.12
497.963	81.12
498.181	95.12
498.398	85.12
498.615	104.12
498.832	102.12
499.049	96.12
499.267	76.12
499.484	96.12
499.701	89.12
499.918	76.12
500.135	82.12
500.352	95.12
500.569	71.12
500.786	85.12
501.003	92.12
501.22	99.12
501.437	80.12
501.654	95.12
501.871	100.12
502.088	89.12
502.305	89.12
502.522	88.12
502.739	82.12
502.956	75.12
503.172	81.12
503.389	88.12
503.606	110.12
503.823	95.12
504.04	93.12
504.256	91.12
504.473	89.12
504.69	78.12
504.907	98.12
505.123	82.12
505.34	92.12
505.557	88.12
505.773	88.12
505.99	83.12
506.207	90.12
506.423	71.12
506.64	88.12
506.856	108.12
507.073	78.12
507.289	90.12
507.506	93.12
507.722	99.12
507.939	106.12
508.155	92.12
508.372	97.12
508.588	110.12
508.805	95.12
509.021	91.12
509.238	105.12
509.454	92.12
509.67	81.12
509.887	104.12
510.103	126.12
510.319	209.12
510.536	628.12
510.752	1870.12
510.968	502.12
511.184	137.12
511.401	110.12
511.617	98.12
511.833	97.12
512.049	87.12
512.265	87.12
512.481	105.12
512.698	91.12
512.914	100.12
513.13	92.12
513.346	93.12
513.562	84.12
513.778	95.12
513.994	85.12
514.21	96.12
514.426	116.12
514.642	122.12
514.858	97.12
515.074	146.12
515.29	351.12
515.506	1078.12
515.721	393.12
515.937	125.12
516.153	108.12
516.369	94.12
