Data from Circ_1985_H10_HRD10591_00026.txt Node
Date: Wed Jan 03 12:19:27 EST 2024
User: Yrep
Spectrometer: HR+D1059
Trigger mode: 1
Integration Time (sec): 1.000000E-1
Scans to average: 1
Electric dark correction enabled: true
Nonlinearity correction enabled: false
Boxcar width: 0
XAxis mode: Wavelengths
Number of Pixels in Spectrum: 2048
>>>>>Begin Spectral Data<<<<<
223.165	-7.62
223.4	-7.62
223.635	-7.62
223.869	-20.62
224.104	-26.62
224.338	-23.62
224.573	-11.62
224.808	-13.62
225.042	-10.62
225.277	-10.62
225.511	2.38
225.746	6.38
225.98	10.38
226.215	22.38
226.449	17.38
226.683	30.38
226.918	24.38
227.152	11.38
227.387	39.38
227.621	31.38
227.856	40.38
228.09	52.38
228.324	49.38
228.559	65.38
228.793	59.38
229.027	53.38
229.262	57.38
229.496	70.38
229.73	71.38
229.964	82.38
230.199	55.38
230.433	79.38
230.667	74.38
230.901	82.38
231.136	79.38
231.37	77.38
231.604	89.38
231.838	91.38
232.072	76.38
232.306	69.38
232.541	66.38
232.775	71.38
233.009	76.38
233.243	75.38
233.477	81.38
233.711	81.38
233.945	86.38
234.179	78.38
234.413	74.38
234.647	72.38
234.881	74.38
235.115	83.38
235.349	81.38
235.583	86.38
235.817	77.38
236.051	63.38
236.285	64.38
236.519	95.38
236.753	80.38
236.987	61.38
237.221	74.38
237.455	79.38
237.689	81.38
237.922	77.38
238.156	86.38
238.39	65.38
238.624	77.38
238.858	74.38
239.091	74.38
239.325	77.38
239.559	77.38
239.793	81.38
240.027	62.38
240.26	81.38
240.494	79.38
240.728	55.38
240.961	93.38
241.195	71.38
241.429	80.38
241.662	81.38
241.896	71.38
242.13	75.38
242.363	67.38
242.597	82.38
242.83	53.38
243.064	75.38
243.298	80.38
243.531	70.38
243.765	77.38
243.998	78.38
244.232	70.38
244.465	84.38
244.699	79.38
244.932	90.38
245.166	79.38
245.399	79.38
245.633	67.38
245.866	85.38
246.099	72.38
246.333	84.38
246.566	77.38
246.8	84.38
247.033	72.38
247.266	74.38
247.5	76.38
247.733	73.38
247.966	68.38
248.2	81.38
248.433	67.38
248.666	95.38
248.899	77.38
249.133	76.38
249.366	77.38
249.599	74.38
249.832	76.38
250.066	85.38
250.299	74.38
250.532	85.38
250.765	88.38
250.998	88.38
251.231	72.38
251.465	74.38
251.698	71.38
251.931	75.38
252.164	83.38
252.397	66.38
252.63	67.38
252.863	80.38
253.096	85.38
253.329	64.38
253.562	91.38
253.795	82.38
254.028	80.38
254.261	81.38
254.494	74.38
254.727	89.38
254.96	79.38
255.193	71.38
255.426	63.38
255.659	86.38
255.892	66.38
256.124	78.38
256.357	69.38
256.59	83.38
256.823	90.38
257.056	95.38
257.289	67.38
257.521	69.38
257.754	90.38
257.987	72.38
258.22	93.38
258.452	72.38
258.685	89.38
258.918	79.38
259.151	71.38
259.383	87.38
259.616	66.38
259.849	81.38
260.081	77.38
260.314	83.38
260.547	67.38
260.779	83.38
261.012	80.38
261.244	64.38
261.477	104.38
261.71	83.38
261.942	102.38
262.175	107.38
262.407	89.38
262.64	83.38
262.872	81.38
263.105	74.38
263.337	74.38
263.57	85.38
263.802	86.38
264.035	86.38
264.267	96.38
264.499	86.38
264.732	83.38
264.964	79.38
265.197	80.38
265.429	69.38
265.661	81.38
265.894	78.38
266.126	74.38
266.358	75.38
266.591	72.38
266.823	72.38
267.055	89.38
267.287	83.38
267.52	89.38
267.752	82.38
267.984	85.38
268.216	75.38
268.448	67.38
268.681	86.38
268.913	82.38
269.145	91.38
269.377	82.38
269.609	82.38
269.841	75.38
270.073	73.38
270.306	88.38
270.538	85.38
270.77	63.38
271.002	81.38
271.234	91.38
271.466	79.38
271.698	73.38
271.93	85.38
272.162	84.38
272.394	77.38
272.626	85.38
272.858	88.38
273.09	83.38
273.322	92.38
273.553	81.38
273.785	80.38
274.017	86.38
274.249	87.38
274.481	82.38
274.713	77.38
274.945	89.38
275.176	94.38
275.408	77.38
275.64	81.38
275.872	81.38
276.104	82.38
276.335	93.38
276.567	87.38
276.799	106.38
277.031	102.38
277.262	81.38
277.494	77.38
277.726	98.38
277.957	74.38
278.189	85.38
278.421	87.38
278.652	87.38
278.884	78.38
279.115	89.38
279.347	77.38
279.579	80.38
279.81	89.38
280.042	91.38
280.273	85.38
280.505	98.38
280.736	95.38
280.968	85.38
281.199	79.38
281.431	93.38
281.662	87.38
281.894	89.38
282.125	83.38
282.356	112.38
282.588	118.38
282.819	113.38
283.051	87.38
283.282	83.38
283.513	75.38
283.745	88.38
283.976	84.38
284.207	83.38
284.439	96.38
284.67	81.38
284.901	101.38
285.132	82.38
285.364	77.38
285.595	83.38
285.826	84.38
286.057	78.38
286.288	85.38
286.52	100.38
286.751	82.38
286.982	86.38
287.213	84.38
287.444	86.38
287.675	91.38
287.906	104.38
288.138	94.38
288.369	85.38
288.6	87.38
288.831	71.38
289.062	86.38
289.293	88.38
289.524	81.38
289.755	93.38
289.986	90.38
290.217	93.38
290.448	77.38
290.679	85.38
290.91	81.38
291.141	89.38
291.371	92.38
291.602	87.38
291.833	91.38
292.064	70.38
292.295	91.38
292.526	93.38
292.757	87.38
292.987	88.38
293.218	71.38
293.449	70.38
293.68	87.38
293.91	84.38
294.141	84.38
294.372	82.38
294.603	76.38
294.833	84.38
295.064	101.38
295.295	91.38
295.525	85.38
295.756	98.38
295.987	106.38
296.217	119.38
296.448	107.38
296.679	101.38
296.909	97.38
297.14	94.38
297.37	82.38
297.601	79.38
297.831	82.38
298.062	84.38
298.292	76.38
298.523	82.38
298.753	91.38
298.984	92.38
299.214	86.38
299.445	99.38
299.675	92.38
299.905	89.38
300.136	106.38
300.366	80.38
300.597	88.38
300.827	87.38
301.057	93.38
301.288	90.38
301.518	103.38
301.748	93.38
301.979	106.38
302.209	99.38
302.439	95.38
302.669	89.38
302.9	88.38
303.13	94.38
303.36	99.38
303.59	104.38
303.82	100.38
304.051	83.38
304.281	90.38
304.511	81.38
304.741	88.38
304.971	85.38
305.201	104.38
305.431	83.38
305.661	90.38
305.891	100.38
306.121	95.38
306.352	100.38
306.582	78.38
306.812	92.38
307.042	88.38
307.272	97.38
307.502	98.38
307.731	103.38
307.961	95.38
308.191	105.38
308.421	116.38
308.651	86.38
308.881	85.38
309.111	90.38
309.341	93.38
309.571	96.38
309.8	100.38
310.03	85.38
310.26	90.38
310.49	89.38
310.72	109.38
310.949	104.38
311.179	95.38
311.409	93.38
311.639	93.38
311.868	92.38
312.098	95.38
312.328	111.38
312.557	96.38
312.787	92.38
313.017	96.38
313.246	93.38
313.476	93.38
313.706	96.38
313.935	104.38
314.165	95.38
314.394	86.38
314.624	101.38
314.853	82.38
315.083	95.38
315.312	96.38
315.542	97.38
315.771	80.38
316.001	91.38
316.23	73.38
316.46	82.38
316.689	85.38
316.919	88.38
317.148	89.38
317.377	96.38
317.607	101.38
317.836	90.38
318.065	88.38
318.295	93.38
318.524	90.38
318.753	87.38
318.983	98.38
319.212	95.38
319.441	97.38
319.67	110.38
319.9	87.38
320.129	87.38
320.358	106.38
320.587	89.38
320.816	85.38
321.046	102.38
321.275	77.38
321.504	84.38
321.733	88.38
321.962	98.38
322.191	94.38
322.42	106.38
322.649	88.38
322.878	93.38
323.108	93.38
323.337	123.38
323.566	126.38
323.795	129.38
324.024	176.38
324.253	351.38
324.482	711.38
324.71	1481.38
324.939	1922.38
325.168	711.38
325.397	232.38
325.626	153.38
325.855	114.38
326.084	128.38
326.313	132.38
326.542	147.38
326.77	210.38
326.999	400.38
327.228	833.38
327.457	1525.38
327.686	1174.38
327.914	329.38
328.143	176.38
328.372	143.38
328.6	114.38
328.829	103.38
329.058	103.38
329.287	124.38
329.515	110.38
329.744	96.38
329.972	96.38
330.201	108.38
330.43	109.38
330.658	105.38
330.887	118.38
331.115	104.38
331.344	96.38
331.572	93.38
331.801	100.38
332.03	106.38
332.258	114.38
332.486	81.38
332.715	77.38
332.943	91.38
333.172	93.38
333.4	94.38
333.629	109.38
333.857	98.38
334.085	104.38
334.314	103.38
334.542	117.38
334.771	113.38
334.999	87.38
335.227	97.38
335.455	107.38
335.684	102.38
335.912	87.38
336.14	101.38
336.369	102.38
336.597	103.38
336.825	82.38
337.053	87.38
337.281	99.38
337.51	104.38
337.738	90.38
337.966	83.38
338.194	95.38
338.422	83.38
338.65	93.38
338.878	93.38
339.106	100.38
339.334	92.38
339.562	99.38
339.79	88.38
340.018	95.38
340.246	103.38
340.474	100.38
340.702	91.38
340.93	88.38
341.158	89.38
341.386	99.38
341.614	88.38
341.842	98.38
342.07	97.38
342.298	101.38
342.526	87.38
342.754	89.38
342.981	88.38
343.209	86.38
343.437	93.38
343.665	97.38
343.893	87.38
344.12	93.38
344.348	77.38
344.576	94.38
344.804	78.38
345.031	86.38
345.259	106.38
345.487	91.38
345.714	91.38
345.942	93.38
346.17	91.38
346.397	103.38
346.625	101.38
346.853	100.38
347.08	92.38
347.308	89.38
347.535	89.38
347.763	92.38
347.99	100.38
348.218	85.38
348.445	112.38
348.673	93.38
348.9	84.38
349.128	103.38
349.355	91.38
349.583	95.38
349.81	95.38
350.037	85.38
350.265	100.38
350.492	95.38
350.72	90.38
350.947	103.38
351.174	97.38
351.402	97.38
351.629	99.38
351.856	88.38
352.083	93.38
352.311	102.38
352.538	99.38
352.765	105.38
352.992	105.38
353.22	94.38
353.447	101.38
353.674	107.38
353.901	100.38
354.128	111.38
354.355	97.38
354.583	85.38
354.81	90.38
355.037	97.38
355.264	104.38
355.491	93.38
355.718	98.38
355.945	102.38
356.172	94.38
356.399	101.38
356.626	98.38
356.853	82.38
357.08	85.38
357.307	90.38
357.534	91.38
357.761	85.38
357.988	91.38
358.215	116.38
358.441	83.38
358.668	92.38
358.895	91.38
359.122	87.38
359.349	91.38
359.576	104.38
359.802	84.38
360.029	111.38
360.256	95.38
360.483	87.38
360.709	74.38
360.936	84.38
361.163	85.38
361.39	85.38
361.616	86.38
361.843	81.38
362.07	90.38
362.296	89.38
362.523	86.38
362.749	82.38
362.976	86.38
363.203	94.38
363.429	94.38
363.656	78.38
363.882	89.38
364.109	98.38
364.335	89.38
364.562	105.38
364.788	78.38
365.015	84.38
365.241	110.38
365.468	102.38
365.694	89.38
365.92	92.38
366.147	87.38
366.373	75.38
366.599	81.38
366.826	84.38
367.052	93.38
367.278	81.38
367.505	75.38
367.731	82.38
367.957	85.38
368.184	88.38
368.41	89.38
368.636	93.38
368.862	110.38
369.089	96.38
369.315	89.38
369.541	84.38
369.767	87.38
369.993	86.38
370.219	91.38
370.445	96.38
370.672	89.38
370.898	87.38
371.124	87.38
371.35	85.38
371.576	87.38
371.802	100.38
372.028	111.38
372.254	89.38
372.48	89.38
372.706	97.38
372.932	72.38
373.158	74.38
373.384	80.38
373.61	99.38
373.835	103.38
374.061	96.38
374.287	92.38
374.513	84.38
374.739	90.38
374.965	70.38
375.191	90.38
375.416	87.38
375.642	89.38
375.868	95.38
376.094	101.38
376.319	93.38
376.545	85.38
376.771	91.38
376.997	85.38
377.222	86.38
377.448	86.38
377.674	89.38
377.899	77.38
378.125	102.38
378.35	95.38
378.576	80.38
378.802	109.38
379.027	98.38
379.253	93.38
379.478	85.38
379.704	92.38
379.929	93.38
380.155	100.38
380.38	104.38
380.606	83.38
380.831	104.38
381.057	106.38
381.282	104.38
381.507	110.38
381.733	89.38
381.958	94.38
382.184	110.38
382.409	103.38
382.634	96.38
382.86	116.38
383.085	100.38
383.31	101.38
383.535	102.38
383.761	97.38
383.986	108.38
384.211	101.38
384.436	95.38
384.662	99.38
384.887	104.38
385.112	98.38
385.337	100.38
385.562	118.38
385.787	123.38
386.013	123.38
386.238	126.38
386.463	108.38
386.688	102.38
386.913	111.38
387.138	114.38
387.363	113.38
387.588	101.38
387.813	103.38
388.038	104.38
388.263	129.38
388.488	128.38
388.713	95.38
388.938	100.38
389.163	102.38
389.387	98.38
389.612	97.38
389.837	90.38
390.062	106.38
390.287	96.38
390.512	97.38
390.736	101.38
390.961	89.38
391.186	100.38
391.411	92.38
391.636	87.38
391.86	83.38
392.085	86.38
392.31	89.38
392.534	98.38
392.759	93.38
392.984	97.38
393.208	83.38
393.433	105.38
393.658	110.38
393.882	83.38
394.107	84.38
394.331	85.38
394.556	85.38
394.78	103.38
395.005	80.38
395.229	81.38
395.454	88.38
395.678	94.38
395.903	87.38
396.127	98.38
396.352	97.38
396.576	90.38
396.801	101.38
397.025	90.38
397.249	98.38
397.474	91.38
397.698	79.38
397.922	105.38
398.147	96.38
398.371	80.38
398.595	98.38
398.82	82.38
399.044	93.38
399.268	96.38
399.492	96.38
399.717	83.38
399.941	90.38
400.165	98.38
400.389	88.38
400.613	87.38
400.837	81.38
401.062	84.38
401.286	101.38
401.51	86.38
401.734	94.38
401.958	107.38
402.182	105.38
402.406	151.38
402.63	111.38
402.854	93.38
403.078	98.38
403.302	80.38
403.526	72.38
403.75	80.38
403.974	95.38
404.198	77.38
404.422	87.38
404.645	90.38
404.869	83.38
405.093	93.38
405.317	94.38
405.541	101.38
405.765	100.38
405.988	111.38
406.212	155.38
406.436	194.38
406.66	134.38
406.883	84.38
407.107	95.38
407.331	99.38
407.555	95.38
407.778	85.38
408.002	91.38
408.226	83.38
408.449	78.38
408.673	89.38
408.896	88.38
409.12	93.38
409.344	93.38
409.567	93.38
409.791	103.38
410.014	84.38
410.238	87.38
410.461	91.38
410.685	98.38
410.908	90.38
411.132	104.38
411.355	91.38
411.578	101.38
411.802	97.38
412.025	102.38
412.249	91.38
412.472	89.38
412.695	83.38
412.919	89.38
413.142	96.38
413.365	95.38
413.589	80.38
413.812	94.38
414.035	89.38
414.258	90.38
414.482	89.38
414.705	70.38
414.928	89.38
415.151	85.38
415.374	97.38
415.597	92.38
415.821	89.38
416.044	93.38
416.267	79.38
416.49	93.38
416.713	92.38
416.936	87.38
417.159	96.38
417.382	74.38
417.605	87.38
417.828	102.38
418.051	98.38
418.274	89.38
418.497	80.38
418.72	86.38
418.943	86.38
419.166	90.38
419.389	98.38
419.611	85.38
419.834	95.38
420.057	91.38
420.28	91.38
420.503	78.38
420.726	91.38
420.948	94.38
421.171	95.38
421.394	85.38
421.617	95.38
421.839	87.38
422.062	84.38
422.285	82.38
422.507	100.38
422.73	99.38
422.953	100.38
423.175	85.38
423.398	89.38
423.621	82.38
423.843	75.38
424.066	84.38
424.288	85.38
424.511	95.38
424.733	103.38
424.956	95.38
425.178	88.38
425.401	93.38
425.623	89.38
425.846	83.38
426.068	102.38
426.291	77.38
426.513	82.38
426.735	110.38
426.958	88.38
427.18	101.38
427.402	119.38
427.625	136.38
427.847	110.38
428.069	89.38
428.292	72.38
428.514	74.38
428.736	85.38
428.958	83.38
429.181	100.38
429.403	87.38
429.625	81.38
429.847	77.38
430.069	88.38
430.292	88.38
430.514	97.38
430.736	86.38
430.958	84.38
431.18	84.38
431.402	81.38
431.624	73.38
431.846	71.38
432.068	74.38
432.29	79.38
432.512	89.38
432.734	96.38
432.956	105.38
433.178	96.38
433.4	86.38
433.622	97.38
433.844	85.38
434.066	83.38
434.287	90.38
434.509	87.38
434.731	73.38
434.953	81.38
435.175	89.38
435.397	90.38
435.618	88.38
435.84	94.38
436.062	114.38
436.284	107.38
436.505	99.38
436.727	100.38
436.949	101.38
437.17	89.38
437.392	79.38
437.614	85.38
437.835	89.38
438.057	94.38
438.278	97.38
438.5	102.38
438.721	110.38
438.943	90.38
439.165	90.38
439.386	94.38
439.608	94.38
439.829	115.38
440.05	103.38
440.272	110.38
440.493	106.38
440.715	95.38
440.936	90.38
441.158	94.38
441.379	79.38
441.6	87.38
441.822	79.38
442.043	90.38
442.264	95.38
442.486	72.38
442.707	99.38
442.928	95.38
443.149	109.38
443.371	106.38
443.592	115.38
443.813	100.38
444.034	99.38
444.255	97.38
444.476	91.38
444.698	85.38
444.919	87.38
445.14	127.38
445.361	88.38
445.582	99.38
445.803	132.38
446.024	114.38
446.245	137.38
446.466	110.38
446.687	92.38
446.908	82.38
447.129	85.38
447.35	73.38
447.571	77.38
447.792	87.38
448.013	88.38
448.234	87.38
448.455	103.38
448.675	101.38
448.896	97.38
449.117	88.38
449.338	94.38
449.559	96.38
449.779	118.38
450	93.38
450.221	81.38
450.442	91.38
450.662	88.38
450.883	93.38
451.104	100.38
451.324	91.38
451.545	84.38
451.766	90.38
451.986	89.38
452.207	95.38
452.428	85.38
452.648	94.38
452.869	93.38
453.089	100.38
453.31	114.38
453.53	93.38
453.751	79.38
453.971	96.38
454.192	104.38
454.412	90.38
454.633	91.38
454.853	81.38
455.073	89.38
455.294	90.38
455.514	90.38
455.734	83.38
455.955	65.38
456.175	80.38
456.395	84.38
456.616	67.38
456.836	103.38
457.056	83.38
457.276	83.38
457.497	81.38
457.717	87.38
457.937	90.38
458.157	95.38
458.377	89.38
458.598	110.38
458.818	129.38
459.038	138.38
459.258	107.38
459.478	85.38
459.698	83.38
459.918	91.38
460.138	94.38
460.358	81.38
460.578	76.38
460.798	98.38
461.018	79.38
461.238	85.38
461.458	96.38
461.678	99.38
461.898	85.38
462.118	106.38
462.338	90.38
462.558	86.38
462.777	81.38
462.997	73.38
463.217	87.38
463.437	88.38
463.657	89.38
463.876	93.38
464.096	87.38
464.316	95.38
464.536	95.38
464.755	104.38
464.975	93.38
465.195	121.38
465.414	141.38
465.634	92.38
465.854	93.38
466.073	84.38
466.293	97.38
466.512	72.38
466.732	83.38
466.951	78.38
467.171	90.38
467.391	93.38
467.61	97.38
467.829	91.38
468.049	82.38
468.268	98.38
468.488	88.38
468.707	90.38
468.927	86.38
469.146	87.38
469.365	78.38
469.585	86.38
469.804	90.38
470.023	98.38
470.243	82.38
470.462	95.38
470.681	110.38
470.901	79.38
471.12	79.38
471.339	87.38
471.558	85.38
471.777	81.38
471.997	90.38
472.216	88.38
472.435	104.38
472.654	96.38
472.873	89.38
473.092	86.38
473.311	79.38
473.53	77.38
473.749	86.38
473.968	94.38
474.187	98.38
474.406	88.38
474.625	78.38
474.844	78.38
475.063	87.38
475.282	100.38
475.501	81.38
475.72	67.38
475.939	74.38
476.158	81.38
476.377	92.38
476.596	103.38
476.814	102.38
477.033	77.38
477.252	70.38
477.471	86.38
477.69	85.38
477.908	101.38
478.127	83.38
478.346	77.38
478.564	83.38
478.783	87.38
479.002	85.38
479.22	73.38
479.439	76.38
479.658	97.38
479.876	73.38
480.095	93.38
480.313	90.38
480.532	96.38
480.751	118.38
480.969	113.38
481.188	136.38
481.406	116.38
481.624	96.38
481.843	93.38
482.061	82.38
482.28	74.38
482.498	85.38
482.717	86.38
482.935	81.38
483.153	96.38
483.372	88.38
483.59	103.38
483.808	89.38
484.027	68.38
484.245	93.38
484.463	78.38
484.681	99.38
484.9	98.38
485.118	86.38
485.336	85.38
485.554	102.38
485.772	107.38
485.99	105.38
486.209	106.38
486.427	102.38
486.645	101.38
486.863	108.38
487.081	106.38
487.299	101.38
487.517	85.38
487.735	96.38
487.953	85.38
488.171	80.38
488.389	103.38
488.607	94.38
488.825	96.38
489.043	105.38
489.261	90.38
489.479	83.38
489.696	89.38
489.914	81.38
490.132	96.38
490.35	91.38
490.568	73.38
490.786	73.38
491.003	98.38
491.221	85.38
491.439	101.38
491.657	100.38
491.874	79.38
492.092	75.38
492.31	101.38
492.527	89.38
492.745	89.38
492.963	93.38
493.18	85.38
493.398	101.38
493.615	106.38
493.833	87.38
494.05	80.38
494.268	90.38
494.485	100.38
494.703	87.38
494.92	87.38
495.138	90.38
495.355	90.38
495.573	90.38
495.79	74.38
496.008	101.38
496.225	95.38
496.442	95.38
496.66	97.38
496.877	79.38
497.094	86.38
497.312	83.38
497.529	86.38
497.746	71.38
497.963	77.38
498.181	73.38
498.398	92.38
498.615	115.38
498.832	94.38
499.049	81.38
499.267	87.38
499.484	97.38
499.701	83.38
499.918	85.38
500.135	95.38
500.352	85.38
500.569	89.38
500.786	86.38
501.003	74.38
501.22	77.38
501.437	83.38
501.654	95.38
501.871	92.38
502.088	82.38
502.305	102.38
502.522	90.38
502.739	81.38
502.956	96.38
503.172	78.38
503.389	73.38
503.606	85.38
503.823	102.38
504.04	87.38
504.256	93.38
504.473	100.38
504.69	74.38
504.907	97.38
505.123	86.38
505.34	92.38
505.557	82.38
505.773	94.38
505.99	90.38
506.207	78.38
506.423	87.38
506.64	82.38
506.856	81.38
507.073	86.38
507.289	93.38
507.506	86.38
507.722	89.38
507.939	93.38
508.155	94.38
508.372	88.38
508.588	87.38
508.805	78.38
509.021	96.38
509.238	95.38
509.454	100.38
509.67	87.38
509.887	106.38
510.103	121.38
510.319	198.38
510.536	599.38
510.752	1895.38
510.968	535.38
511.184	125.38
511.401	92.38
511.617	104.38
511.833	86.38
512.049	95.38
512.265	83.38
512.481	91.38
512.698	86.38
512.914	89.38
513.13	93.38
513.346	76.38
513.562	79.38
513.778	94.38
513.994	90.38
514.21	100.38
514.426	111.38
514.642	113.38
514.858	108.38
515.074	146.38
515.29	354.38
515.506	1112.38
515.721	437.38
515.937	141.38
516.153	95.38
