Data from Circ_1985_H10_HRD10591_00031.txt Node
Date: Wed Jan 03 12:19:28 EST 2024
User: Yrep
Spectrometer: HR+D1059
Trigger mode: 1
Integration Time (sec): 1.000000E-1
Scans to average: 1
Electric dark correction enabled: true
Nonlinearity correction enabled: false
Boxcar width: 0
XAxis mode: Wavelengths
Number of Pixels in Spectrum: 2048
>>>>>Begin Spectral Data<<<<<
223.165	-8.25
223.4	-8.25
223.635	-8.25
223.869	-20.25
224.104	-28.25
224.338	-4.25
224.573	-6.25
224.808	-19.25
225.042	-20.25
225.277	-4.25
225.511	-2.25
225.746	5.75
225.98	18.75
226.215	13.75
226.449	11.75
226.683	6.75
226.918	22.75
227.152	33.75
227.387	33.75
227.621	40.75
227.856	41.75
228.09	46.75
228.324	36.75
228.559	51.75
228.793	47.75
229.027	55.75
229.262	71.75
229.496	70.75
229.73	85.75
229.964	90.75
230.199	66.75
230.433	65.75
230.667	71.75
230.901	85.75
231.136	91.75
231.37	77.75
231.604	68.75
231.838	79.75
232.072	91.75
232.306	81.75
232.541	92.75
232.775	73.75
233.009	79.75
233.243	74.75
233.477	70.75
233.711	81.75
233.945	85.75
234.179	91.75
234.413	91.75
234.647	74.75
234.881	76.75
235.115	91.75
235.349	79.75
235.583	70.75
235.817	58.75
236.051	87.75
236.285	64.75
236.519	71.75
236.753	71.75
236.987	72.75
237.221	75.75
237.455	77.75
237.689	80.75
237.922	70.75
238.156	81.75
238.39	68.75
238.624	74.75
238.858	77.75
239.091	69.75
239.325	78.75
239.559	85.75
239.793	90.75
240.027	83.75
240.26	86.75
240.494	70.75
240.728	82.75
240.961	68.75
241.195	76.75
241.429	71.75
241.662	92.75
241.896	82.75
242.13	81.75
242.363	92.75
242.597	83.75
242.83	81.75
243.064	72.75
243.298	67.75
243.531	70.75
243.765	79.75
243.998	66.75
244.232	76.75
244.465	88.75
244.699	83.75
244.932	88.75
245.166	83.75
245.399	83.75
245.633	79.75
245.866	65.75
246.099	72.75
246.333	79.75
246.566	78.75
246.8	77.75
247.033	82.75
247.266	88.75
247.5	86.75
247.733	95.75
247.966	73.75
248.2	62.75
248.433	72.75
248.666	90.75
248.899	77.75
249.133	81.75
249.366	97.75
249.599	89.75
249.832	77.75
250.066	79.75
250.299	97.75
250.532	72.75
250.765	93.75
250.998	97.75
251.231	96.75
251.465	67.75
251.698	79.75
251.931	74.75
252.164	77.75
252.397	76.75
252.63	66.75
252.863	76.75
253.096	77.75
253.329	80.75
253.562	75.75
253.795	83.75
254.028	75.75
254.261	88.75
254.494	78.75
254.727	102.75
254.96	70.75
255.193	87.75
255.426	83.75
255.659	80.75
255.892	80.75
256.124	69.75
256.357	79.75
256.59	82.75
256.823	80.75
257.056	91.75
257.289	75.75
257.521	95.75
257.754	82.75
257.987	87.75
258.22	76.75
258.452	89.75
258.685	84.75
258.918	82.75
259.151	74.75
259.383	72.75
259.616	70.75
259.849	81.75
260.081	79.75
260.314	82.75
260.547	68.75
260.779	88.75
261.012	89.75
261.244	78.75
261.477	100.75
261.71	83.75
261.942	91.75
262.175	95.75
262.407	68.75
262.64	86.75
262.872	83.75
263.105	81.75
263.337	89.75
263.57	100.75
263.802	89.75
264.035	91.75
264.267	86.75
264.499	100.75
264.732	85.75
264.964	81.75
265.197	86.75
265.429	82.75
265.661	88.75
265.894	73.75
266.126	80.75
266.358	93.75
266.591	80.75
266.823	85.75
267.055	88.75
267.287	84.75
267.52	70.75
267.752	89.75
267.984	81.75
268.216	83.75
268.448	94.75
268.681	74.75
268.913	82.75
269.145	84.75
269.377	73.75
269.609	84.75
269.841	97.75
270.073	88.75
270.306	87.75
270.538	84.75
270.77	87.75
271.002	91.75
271.234	88.75
271.466	92.75
271.698	84.75
271.93	89.75
272.162	91.75
272.394	93.75
272.626	72.75
272.858	81.75
273.09	86.75
273.322	87.75
273.553	85.75
273.785	92.75
274.017	101.75
274.249	87.75
274.481	69.75
274.713	90.75
274.945	92.75
275.176	88.75
275.408	91.75
275.64	83.75
275.872	82.75
276.104	95.75
276.335	83.75
276.567	85.75
276.799	92.75
277.031	95.75
277.262	90.75
277.494	91.75
277.726	83.75
277.957	88.75
278.189	86.75
278.421	85.75
278.652	73.75
278.884	76.75
279.115	95.75
279.347	92.75
279.579	79.75
279.81	79.75
280.042	86.75
280.273	89.75
280.505	92.75
280.736	97.75
280.968	82.75
281.199	95.75
281.431	91.75
281.662	89.75
281.894	85.75
282.125	102.75
282.356	104.75
282.588	119.75
282.819	112.75
283.051	93.75
283.282	99.75
283.513	87.75
283.745	90.75
283.976	92.75
284.207	94.75
284.439	84.75
284.67	96.75
284.901	99.75
285.132	102.75
285.364	83.75
285.595	85.75
285.826	77.75
286.057	95.75
286.288	88.75
286.52	104.75
286.751	79.75
286.982	85.75
287.213	92.75
287.444	90.75
287.675	76.75
287.906	79.75
288.138	84.75
288.369	94.75
288.6	87.75
288.831	84.75
289.062	83.75
289.293	83.75
289.524	72.75
289.755	88.75
289.986	77.75
290.217	79.75
290.448	103.75
290.679	86.75
290.91	86.75
291.141	85.75
291.371	84.75
291.602	97.75
291.833	82.75
292.064	89.75
292.295	95.75
292.526	94.75
292.757	82.75
292.987	85.75
293.218	84.75
293.449	84.75
293.68	84.75
293.91	84.75
294.141	95.75
294.372	80.75
294.603	99.75
294.833	91.75
295.064	90.75
295.295	88.75
295.525	89.75
295.756	91.75
295.987	93.75
296.217	119.75
296.448	94.75
296.679	76.75
296.909	87.75
297.14	77.75
297.37	91.75
297.601	80.75
297.831	101.75
298.062	112.75
298.292	94.75
298.523	93.75
298.753	98.75
298.984	86.75
299.214	72.75
299.445	97.75
299.675	86.75
299.905	83.75
300.136	101.75
300.366	93.75
300.597	93.75
300.827	87.75
301.057	82.75
301.288	88.75
301.518	95.75
301.748	100.75
301.979	97.75
302.209	86.75
302.439	97.75
302.669	93.75
302.9	99.75
303.13	89.75
303.36	83.75
303.59	98.75
303.82	93.75
304.051	92.75
304.281	83.75
304.511	87.75
304.741	73.75
304.971	97.75
305.201	85.75
305.431	92.75
305.661	101.75
305.891	76.75
306.121	102.75
306.352	88.75
306.582	104.75
306.812	89.75
307.042	82.75
307.272	77.75
307.502	90.75
307.731	88.75
307.961	85.75
308.191	73.75
308.421	86.75
308.651	104.75
308.881	97.75
309.111	95.75
309.341	98.75
309.571	96.75
309.8	107.75
310.03	90.75
310.26	99.75
310.49	120.75
310.72	85.75
310.949	99.75
311.179	92.75
311.409	87.75
311.639	106.75
311.868	103.75
312.098	96.75
312.328	85.75
312.557	104.75
312.787	98.75
313.017	91.75
313.246	100.75
313.476	93.75
313.706	92.75
313.935	97.75
314.165	113.75
314.394	100.75
314.624	99.75
314.853	89.75
315.083	104.75
315.312	98.75
315.542	94.75
315.771	96.75
316.001	87.75
316.23	85.75
316.46	76.75
316.689	84.75
316.919	90.75
317.148	103.75
317.377	79.75
317.607	95.75
317.836	85.75
318.065	100.75
318.295	84.75
318.524	88.75
318.753	103.75
318.983	100.75
319.212	95.75
319.441	96.75
319.67	95.75
319.9	90.75
320.129	102.75
320.358	84.75
320.587	95.75
320.816	93.75
321.046	110.75
321.275	95.75
321.504	92.75
321.733	107.75
321.962	100.75
322.191	95.75
322.42	95.75
322.649	101.75
322.878	114.75
323.108	100.75
323.337	98.75
323.566	120.75
323.795	135.75
324.024	180.75
324.253	347.75
324.482	677.75
324.71	1409.75
324.939	1861.75
325.168	679.75
325.397	208.75
325.626	147.75
325.855	121.75
326.084	116.75
326.313	138.75
326.542	146.75
326.77	211.75
326.999	409.75
327.228	812.75
327.457	1462.75
327.686	1145.75
327.914	307.75
328.143	164.75
328.372	139.75
328.6	126.75
328.829	113.75
329.058	120.75
329.287	127.75
329.515	105.75
329.744	94.75
329.972	124.75
330.201	121.75
330.43	115.75
330.658	106.75
330.887	117.75
331.115	115.75
331.344	100.75
331.572	84.75
331.801	97.75
332.03	99.75
332.258	96.75
332.486	84.75
332.715	90.75
332.943	104.75
333.172	89.75
333.4	95.75
333.629	97.75
333.857	106.75
334.085	97.75
334.314	113.75
334.542	117.75
334.771	125.75
334.999	103.75
335.227	90.75
335.455	98.75
335.684	89.75
335.912	91.75
336.14	105.75
336.369	112.75
336.597	96.75
336.825	91.75
337.053	89.75
337.281	83.75
337.51	91.75
337.738	98.75
337.966	88.75
338.194	101.75
338.422	82.75
338.65	97.75
338.878	93.75
339.106	88.75
339.334	98.75
339.562	85.75
339.79	87.75
340.018	90.75
340.246	98.75
340.474	104.75
340.702	83.75
340.93	99.75
341.158	106.75
341.386	87.75
341.614	93.75
341.842	112.75
342.07	105.75
342.298	104.75
342.526	92.75
342.754	96.75
342.981	80.75
343.209	107.75
343.437	102.75
343.665	87.75
343.893	79.75
344.12	87.75
344.348	100.75
344.576	83.75
344.804	83.75
345.031	88.75
345.259	97.75
345.487	101.75
345.714	98.75
345.942	83.75
346.17	87.75
346.397	95.75
346.625	90.75
346.853	82.75
347.08	84.75
347.308	91.75
347.535	90.75
347.763	101.75
347.99	106.75
348.218	106.75
348.445	106.75
348.673	109.75
348.9	102.75
349.128	75.75
349.355	105.75
349.583	92.75
349.81	92.75
350.037	105.75
350.265	97.75
350.492	81.75
350.72	95.75
350.947	95.75
351.174	104.75
351.402	108.75
351.629	108.75
351.856	100.75
352.083	95.75
352.311	122.75
352.538	100.75
352.765	110.75
352.992	119.75
353.22	112.75
353.447	111.75
353.674	101.75
353.901	92.75
354.128	94.75
354.355	96.75
354.583	100.75
354.81	98.75
355.037	97.75
355.264	67.75
355.491	76.75
355.718	95.75
355.945	103.75
356.172	103.75
356.399	100.75
356.626	89.75
356.853	99.75
357.08	87.75
357.307	98.75
357.534	95.75
357.761	101.75
357.988	92.75
358.215	94.75
358.441	101.75
358.668	91.75
358.895	83.75
359.122	101.75
359.349	81.75
359.576	84.75
359.802	86.75
360.029	86.75
360.256	117.75
360.483	100.75
360.709	80.75
360.936	104.75
361.163	83.75
361.39	98.75
361.616	109.75
361.843	84.75
362.07	91.75
362.296	95.75
362.523	103.75
362.749	96.75
362.976	97.75
363.203	96.75
363.429	71.75
363.656	82.75
363.882	75.75
364.109	84.75
364.335	107.75
364.562	92.75
364.788	89.75
365.015	93.75
365.241	90.75
365.468	96.75
365.694	98.75
365.92	99.75
366.147	95.75
366.373	94.75
366.599	88.75
366.826	94.75
367.052	90.75
367.278	84.75
367.505	93.75
367.731	90.75
367.957	99.75
368.184	96.75
368.41	102.75
368.636	97.75
368.862	115.75
369.089	105.75
369.315	92.75
369.541	99.75
369.767	94.75
369.993	103.75
370.219	95.75
370.445	93.75
370.672	97.75
370.898	82.75
371.124	85.75
371.35	95.75
371.576	98.75
371.802	79.75
372.028	74.75
372.254	93.75
372.48	91.75
372.706	87.75
372.932	80.75
373.158	95.75
373.384	92.75
373.61	96.75
373.835	81.75
374.061	85.75
374.287	84.75
374.513	85.75
374.739	79.75
374.965	85.75
375.191	79.75
375.416	96.75
375.642	102.75
375.868	109.75
376.094	83.75
376.319	87.75
376.545	99.75
376.771	84.75
376.997	88.75
377.222	83.75
377.448	81.75
377.674	87.75
377.899	84.75
378.125	83.75
378.35	90.75
378.576	82.75
378.802	97.75
379.027	92.75
379.253	87.75
379.478	109.75
379.704	91.75
379.929	107.75
380.155	106.75
380.38	96.75
380.606	99.75
380.831	101.75
381.057	102.75
381.282	95.75
381.507	83.75
381.733	109.75
381.958	91.75
382.184	104.75
382.409	100.75
382.634	101.75
382.86	104.75
383.085	98.75
383.31	108.75
383.535	107.75
383.761	98.75
383.986	97.75
384.211	103.75
384.436	98.75
384.662	114.75
384.887	109.75
385.112	107.75
385.337	95.75
385.562	119.75
385.787	98.75
386.013	110.75
386.238	116.75
386.463	105.75
386.688	112.75
386.913	109.75
387.138	114.75
387.363	88.75
387.588	106.75
387.813	98.75
388.038	108.75
388.263	130.75
388.488	117.75
388.713	99.75
388.938	97.75
389.163	87.75
389.387	90.75
389.612	101.75
389.837	99.75
390.062	67.75
390.287	96.75
390.512	101.75
390.736	104.75
390.961	85.75
391.186	92.75
391.411	97.75
391.636	103.75
391.86	98.75
392.085	84.75
392.31	75.75
392.534	84.75
392.759	96.75
392.984	91.75
393.208	99.75
393.433	113.75
393.658	104.75
393.882	88.75
394.107	86.75
394.331	88.75
394.556	85.75
394.78	92.75
395.005	96.75
395.229	87.75
395.454	88.75
395.678	85.75
395.903	89.75
396.127	84.75
396.352	84.75
396.576	83.75
396.801	99.75
397.025	98.75
397.249	87.75
397.474	87.75
397.698	80.75
397.922	81.75
398.147	87.75
398.371	85.75
398.595	89.75
398.82	88.75
399.044	73.75
399.268	91.75
399.492	83.75
399.717	95.75
399.941	93.75
400.165	86.75
400.389	94.75
400.613	85.75
400.837	87.75
401.062	92.75
401.286	90.75
401.51	85.75
401.734	105.75
401.958	95.75
402.182	108.75
402.406	148.75
402.63	106.75
402.854	99.75
403.078	74.75
403.302	88.75
403.526	85.75
403.75	84.75
403.974	88.75
404.198	84.75
404.422	73.75
404.645	85.75
404.869	88.75
405.093	95.75
405.317	92.75
405.541	104.75
405.765	89.75
405.988	118.75
406.212	139.75
406.436	171.75
406.66	121.75
406.883	97.75
407.107	90.75
407.331	110.75
407.555	101.75
407.778	81.75
408.002	99.75
408.226	84.75
408.449	88.75
408.673	92.75
408.896	100.75
409.12	95.75
409.344	87.75
409.567	93.75
409.791	88.75
410.014	99.75
410.238	85.75
410.461	97.75
410.685	78.75
410.908	93.75
411.132	99.75
411.355	92.75
411.578	84.75
411.802	100.75
412.025	94.75
412.249	98.75
412.472	97.75
412.695	98.75
412.919	85.75
413.142	90.75
413.365	68.75
413.589	92.75
413.812	93.75
414.035	86.75
414.258	100.75
414.482	93.75
414.705	80.75
414.928	88.75
415.151	87.75
415.374	103.75
415.597	88.75
415.821	81.75
416.044	87.75
416.267	88.75
416.49	87.75
416.713	77.75
416.936	83.75
417.159	84.75
417.382	78.75
417.605	82.75
417.828	69.75
418.051	95.75
418.274	103.75
418.497	96.75
418.72	76.75
418.943	87.75
419.166	73.75
419.389	91.75
419.611	95.75
419.834	85.75
420.057	81.75
420.28	93.75
420.503	90.75
420.726	76.75
420.948	84.75
421.171	97.75
421.394	89.75
421.617	90.75
421.839	95.75
422.062	81.75
422.285	83.75
422.507	101.75
422.73	87.75
422.953	97.75
423.175	92.75
423.398	99.75
423.621	104.75
423.843	98.75
424.066	101.75
424.288	92.75
424.511	80.75
424.733	104.75
424.956	106.75
425.178	111.75
425.401	100.75
425.623	102.75
425.846	95.75
426.068	93.75
426.291	104.75
426.513	93.75
426.735	87.75
426.958	103.75
427.18	91.75
427.402	116.75
427.625	138.75
427.847	110.75
428.069	114.75
428.292	96.75
428.514	94.75
428.736	79.75
428.958	71.75
429.181	89.75
429.403	74.75
429.625	85.75
429.847	88.75
430.069	98.75
430.292	92.75
430.514	80.75
430.736	95.75
430.958	81.75
431.18	96.75
431.402	99.75
431.624	83.75
431.846	75.75
432.068	99.75
432.29	92.75
432.512	89.75
432.734	80.75
432.956	83.75
433.178	103.75
433.4	92.75
433.622	101.75
433.844	85.75
434.066	103.75
434.287	71.75
434.509	102.75
434.731	85.75
434.953	86.75
435.175	87.75
435.397	86.75
435.618	94.75
435.84	90.75
436.062	111.75
436.284	107.75
436.505	81.75
436.727	85.75
436.949	83.75
437.17	70.75
437.392	78.75
437.614	91.75
437.835	97.75
438.057	91.75
438.278	99.75
438.5	109.75
438.721	109.75
438.943	85.75
439.165	78.75
439.386	91.75
439.608	107.75
439.829	93.75
440.05	118.75
440.272	116.75
440.493	100.75
440.715	89.75
440.936	87.75
441.158	91.75
441.379	91.75
441.6	89.75
441.822	90.75
442.043	93.75
442.264	89.75
442.486	99.75
442.707	67.75
442.928	87.75
443.149	113.75
443.371	120.75
443.592	106.75
443.813	93.75
444.034	103.75
444.255	82.75
444.476	87.75
444.698	79.75
444.919	73.75
445.14	125.75
445.361	120.75
445.582	115.75
445.803	129.75
446.024	112.75
446.245	105.75
446.466	110.75
446.687	83.75
446.908	85.75
447.129	86.75
447.35	78.75
447.571	89.75
447.792	90.75
448.013	92.75
448.234	106.75
448.455	93.75
448.675	108.75
448.896	113.75
449.117	104.75
449.338	99.75
449.559	131.75
449.779	114.75
450	93.75
450.221	89.75
450.442	79.75
450.662	81.75
450.883	100.75
451.104	106.75
451.324	96.75
451.545	83.75
451.766	79.75
451.986	92.75
452.207	87.75
452.428	83.75
452.648	82.75
452.869	90.75
453.089	112.75
453.31	113.75
453.53	93.75
453.751	84.75
453.971	92.75
454.192	103.75
454.412	96.75
454.633	83.75
454.853	96.75
455.073	102.75
455.294	93.75
455.514	104.75
455.734	104.75
455.955	91.75
456.175	87.75
456.395	75.75
456.616	80.75
456.836	93.75
457.056	101.75
457.276	81.75
457.497	76.75
457.717	99.75
457.937	87.75
458.157	85.75
458.377	107.75
458.598	103.75
458.818	128.75
459.038	143.75
459.258	103.75
459.478	83.75
459.698	76.75
459.918	87.75
460.138	87.75
460.358	98.75
460.578	72.75
460.798	87.75
461.018	75.75
461.238	94.75
461.458	87.75
461.678	99.75
461.898	73.75
462.118	89.75
462.338	90.75
462.558	98.75
462.777	82.75
462.997	88.75
463.217	92.75
463.437	77.75
463.657	74.75
463.876	94.75
464.096	85.75
464.316	89.75
464.536	95.75
464.755	89.75
464.975	96.75
465.195	140.75
465.414	124.75
465.634	87.75
465.854	71.75
466.073	92.75
466.293	76.75
466.512	100.75
466.732	79.75
466.951	98.75
467.171	104.75
467.391	81.75
467.61	85.75
467.829	96.75
468.049	109.75
468.268	86.75
468.488	105.75
468.707	92.75
468.927	73.75
469.146	87.75
469.365	95.75
469.585	99.75
469.804	92.75
470.023	79.75
470.243	72.75
470.462	95.75
470.681	90.75
470.901	87.75
471.12	79.75
471.339	88.75
471.558	77.75
471.777	99.75
471.997	85.75
472.216	109.75
472.435	123.75
472.654	96.75
472.873	92.75
473.092	74.75
473.311	93.75
473.53	87.75
473.749	81.75
473.968	97.75
474.187	101.75
474.406	102.75
474.625	91.75
474.844	85.75
475.063	84.75
475.282	99.75
475.501	83.75
475.72	89.75
475.939	85.75
476.158	89.75
476.377	85.75
476.596	89.75
476.814	93.75
477.033	97.75
477.252	86.75
477.471	83.75
477.69	86.75
477.908	85.75
478.127	92.75
478.346	95.75
478.564	87.75
478.783	90.75
479.002	92.75
479.22	97.75
479.439	83.75
479.658	108.75
479.876	86.75
480.095	81.75
480.313	101.75
480.532	92.75
480.751	83.75
480.969	110.75
481.188	147.75
481.406	144.75
481.624	89.75
481.843	79.75
482.061	81.75
482.28	77.75
482.498	88.75
482.717	92.75
482.935	92.75
483.153	95.75
483.372	89.75
483.59	94.75
483.808	74.75
484.027	86.75
484.245	95.75
484.463	96.75
484.681	95.75
484.9	90.75
485.118	95.75
485.336	95.75
485.554	108.75
485.772	110.75
485.99	108.75
486.209	109.75
486.427	103.75
486.645	98.75
486.863	98.75
487.081	103.75
487.299	99.75
487.517	95.75
487.735	105.75
487.953	91.75
488.171	102.75
488.389	104.75
488.607	93.75
488.825	88.75
489.043	81.75
489.261	67.75
489.479	93.75
489.696	95.75
489.914	85.75
490.132	88.75
490.35	98.75
490.568	96.75
490.786	88.75
491.003	92.75
491.221	84.75
491.439	94.75
491.657	98.75
491.874	101.75
492.092	87.75
492.31	85.75
492.527	95.75
492.745	80.75
492.963	82.75
493.18	93.75
493.398	90.75
493.615	92.75
493.833	98.75
494.05	93.75
494.268	86.75
494.485	104.75
494.703	90.75
494.92	98.75
495.138	92.75
495.355	95.75
495.573	102.75
495.79	98.75
496.008	96.75
496.225	93.75
496.442	80.75
496.66	91.75
496.877	91.75
497.094	96.75
497.312	71.75
497.529	95.75
497.746	86.75
497.963	89.75
498.181	89.75
498.398	91.75
498.615	96.75
498.832	91.75
499.049	76.75
499.267	87.75
499.484	90.75
499.701	97.75
499.918	94.75
500.135	81.75
500.352	84.75
500.569	95.75
500.786	83.75
501.003	71.75
501.22	89.75
501.437	89.75
501.654	88.75
501.871	107.75
502.088	98.75
502.305	72.75
502.522	91.75
502.739	85.75
502.956	98.75
503.172	107.75
503.389	105.75
503.606	104.75
503.823	77.75
504.04	105.75
504.256	102.75
504.473	84.75
504.69	85.75
504.907	77.75
505.123	88.75
505.34	85.75
505.557	79.75
505.773	82.75
505.99	99.75
506.207	98.75
506.423	88.75
506.64	88.75
506.856	85.75
507.073	85.75
507.289	87.75
507.506	104.75
507.722	109.75
507.939	102.75
508.155	90.75
508.372	91.75
508.588	82.75
508.805	92.75
509.021	80.75
509.238	97.75
509.454	107.75
509.67	117.75
509.887	99.75
510.103	112.75
510.319	188.75
510.536	565.75
510.752	1763.75
510.968	491.75
511.184	132.75
511.401	109.75
511.617	93.75
511.833	97.75
512.049	80.75
512.265	84.75
512.481	87.75
512.698	99.75
512.914	84.75
513.13	94.75
513.346	87.75
513.562	98.75
513.778	88.75
513.994	98.75
514.21	105.75
514.426	97.75
514.642	114.75
514.858	107.75
515.074	122.75
515.29	319.75
515.506	1007.75
515.721	373.75
515.937	130.75
