Data from Circ_1985_H10_HRD10591_00011.txt Node
Date: Wed Jan 03 12:19:24 EST 2024
User: Yrep
Spectrometer: HR+D1059
Trigger mode: 1
Integration Time (sec): 1.000000E-1
Scans to average: 1
Electric dark correction enabled: true
Nonlinearity correction enabled: false
Boxcar width: 0
XAxis mode: Wavelengths
Number of Pixels in Spectrum: 2048
>>>>>Begin Spectral Data<<<<<
223.165	-10.56
223.4	-10.56
223.635	-10.56
223.869	-16.56
224.104	-27.56
224.338	-28.56
224.573	-15.56
224.808	-9.56
225.042	-10.56
225.277	-11.56
225.511	8.44
225.746	13.44
225.98	3.44
226.215	27.44
226.449	13.44
226.683	18.44
226.918	34.44
227.152	11.44
227.387	38.44
227.621	34.44
227.856	47.44
228.09	48.44
228.324	56.44
228.559	55.44
228.793	60.44
229.027	54.44
229.262	62.44
229.496	65.44
229.73	89.44
229.964	72.44
230.199	76.44
230.433	85.44
230.667	84.44
230.901	71.44
231.136	95.44
231.37	86.44
231.604	77.44
231.838	79.44
232.072	95.44
232.306	91.44
232.541	85.44
232.775	82.44
233.009	74.44
233.243	87.44
233.477	81.44
233.711	91.44
233.945	83.44
234.179	65.44
234.413	76.44
234.647	88.44
234.881	86.44
235.115	87.44
235.349	84.44
235.583	78.44
235.817	77.44
236.051	82.44
236.285	79.44
236.519	79.44
236.753	87.44
236.987	79.44
237.221	94.44
237.455	86.44
237.689	95.44
237.922	77.44
238.156	72.44
238.39	75.44
238.624	74.44
238.858	94.44
239.091	72.44
239.325	76.44
239.559	74.44
239.793	80.44
240.027	79.44
240.26	78.44
240.494	77.44
240.728	78.44
240.961	77.44
241.195	74.44
241.429	78.44
241.662	77.44
241.896	78.44
242.13	84.44
242.363	84.44
242.597	75.44
242.83	76.44
243.064	83.44
243.298	85.44
243.531	93.44
243.765	82.44
243.998	67.44
244.232	90.44
244.465	79.44
244.699	80.44
244.932	73.44
245.166	77.44
245.399	93.44
245.633	75.44
245.866	74.44
246.099	80.44
246.333	84.44
246.566	83.44
246.8	89.44
247.033	77.44
247.266	85.44
247.5	86.44
247.733	90.44
247.966	75.44
248.2	79.44
248.433	84.44
248.666	68.44
248.899	75.44
249.133	89.44
249.366	82.44
249.599	89.44
249.832	85.44
250.066	79.44
250.299	71.44
250.532	83.44
250.765	94.44
250.998	76.44
251.231	79.44
251.465	86.44
251.698	90.44
251.931	74.44
252.164	88.44
252.397	82.44
252.63	102.44
252.863	96.44
253.096	83.44
253.329	79.44
253.562	82.44
253.795	74.44
254.028	87.44
254.261	70.44
254.494	82.44
254.727	88.44
254.96	79.44
255.193	93.44
255.426	77.44
255.659	82.44
255.892	89.44
256.124	73.44
256.357	80.44
256.59	86.44
256.823	62.44
257.056	78.44
257.289	83.44
257.521	91.44
257.754	83.44
257.987	86.44
258.22	87.44
258.452	76.44
258.685	84.44
258.918	84.44
259.151	86.44
259.383	86.44
259.616	86.44
259.849	89.44
260.081	73.44
260.314	75.44
260.547	74.44
260.779	86.44
261.012	94.44
261.244	80.44
261.477	85.44
261.71	91.44
261.942	90.44
262.175	94.44
262.407	70.44
262.64	87.44
262.872	95.44
263.105	92.44
263.337	85.44
263.57	91.44
263.802	94.44
264.035	77.44
264.267	82.44
264.499	101.44
264.732	97.44
264.964	78.44
265.197	87.44
265.429	78.44
265.661	92.44
265.894	86.44
266.126	84.44
266.358	91.44
266.591	86.44
266.823	93.44
267.055	95.44
267.287	85.44
267.52	94.44
267.752	95.44
267.984	91.44
268.216	89.44
268.448	91.44
268.681	87.44
268.913	85.44
269.145	96.44
269.377	83.44
269.609	75.44
269.841	74.44
270.073	94.44
270.306	84.44
270.538	85.44
270.77	94.44
271.002	81.44
271.234	74.44
271.466	71.44
271.698	90.44
271.93	86.44
272.162	79.44
272.394	82.44
272.626	85.44
272.858	90.44
273.09	94.44
273.322	87.44
273.553	84.44
273.785	91.44
274.017	93.44
274.249	89.44
274.481	92.44
274.713	83.44
274.945	102.44
275.176	90.44
275.408	94.44
275.64	87.44
275.872	78.44
276.104	99.44
276.335	91.44
276.567	90.44
276.799	96.44
277.031	93.44
277.262	97.44
277.494	88.44
277.726	84.44
277.957	79.44
278.189	92.44
278.421	84.44
278.652	94.44
278.884	88.44
279.115	94.44
279.347	87.44
279.579	83.44
279.81	97.44
280.042	95.44
280.273	87.44
280.505	83.44
280.736	83.44
280.968	84.44
281.199	73.44
281.431	90.44
281.662	91.44
281.894	91.44
282.125	99.44
282.356	100.44
282.588	115.44
282.819	93.44
283.051	88.44
283.282	94.44
283.513	77.44
283.745	92.44
283.976	90.44
284.207	103.44
284.439	87.44
284.67	92.44
284.901	88.44
285.132	99.44
285.364	83.44
285.595	83.44
285.826	94.44
286.057	95.44
286.288	88.44
286.52	89.44
286.751	80.44
286.982	94.44
287.213	80.44
287.444	87.44
287.675	100.44
287.906	74.44
288.138	90.44
288.369	85.44
288.6	84.44
288.831	98.44
289.062	85.44
289.293	84.44
289.524	91.44
289.755	92.44
289.986	94.44
290.217	82.44
290.448	88.44
290.679	67.44
290.91	93.44
291.141	71.44
291.371	104.44
291.602	91.44
291.833	94.44
292.064	90.44
292.295	89.44
292.526	99.44
292.757	94.44
292.987	88.44
293.218	86.44
293.449	97.44
293.68	93.44
293.91	94.44
294.141	100.44
294.372	95.44
294.603	91.44
294.833	63.44
295.064	82.44
295.295	95.44
295.525	91.44
295.756	100.44
295.987	103.44
296.217	122.44
296.448	120.44
296.679	93.44
296.909	82.44
297.14	84.44
297.37	90.44
297.601	102.44
297.831	92.44
298.062	94.44
298.292	85.44
298.523	91.44
298.753	95.44
298.984	79.44
299.214	108.44
299.445	88.44
299.675	82.44
299.905	83.44
300.136	93.44
300.366	97.44
300.597	86.44
300.827	94.44
301.057	101.44
301.288	102.44
301.518	89.44
301.748	93.44
301.979	102.44
302.209	104.44
302.439	94.44
302.669	87.44
302.9	79.44
303.13	108.44
303.36	101.44
303.59	85.44
303.82	100.44
304.051	89.44
304.281	102.44
304.511	81.44
304.741	97.44
304.971	80.44
305.201	103.44
305.431	90.44
305.661	99.44
305.891	95.44
306.121	100.44
306.352	97.44
306.582	108.44
306.812	94.44
307.042	82.44
307.272	95.44
307.502	88.44
307.731	94.44
307.961	102.44
308.191	95.44
308.421	92.44
308.651	94.44
308.881	89.44
309.111	80.44
309.341	107.44
309.571	96.44
309.8	109.44
310.03	94.44
310.26	87.44
310.49	113.44
310.72	86.44
310.949	101.44
311.179	85.44
311.409	110.44
311.639	94.44
311.868	96.44
312.098	91.44
312.328	92.44
312.557	102.44
312.787	95.44
313.017	89.44
313.246	97.44
313.476	103.44
313.706	91.44
313.935	91.44
314.165	90.44
314.394	97.44
314.624	85.44
314.853	101.44
315.083	74.44
315.312	93.44
315.542	88.44
315.771	97.44
316.001	99.44
316.23	108.44
316.46	93.44
316.689	89.44
316.919	101.44
317.148	88.44
317.377	90.44
317.607	84.44
317.836	92.44
318.065	90.44
318.295	88.44
318.524	92.44
318.753	90.44
318.983	98.44
319.212	113.44
319.441	95.44
319.67	111.44
319.9	98.44
320.129	91.44
320.358	94.44
320.587	90.44
320.816	91.44
321.046	108.44
321.275	91.44
321.504	99.44
321.733	102.44
321.962	84.44
322.191	103.44
322.42	106.44
322.649	112.44
322.878	114.44
323.108	125.44
323.337	130.44
323.566	123.44
323.795	137.44
324.024	178.44
324.253	333.44
324.482	680.44
324.71	1386.44
324.939	1808.44
325.168	680.44
325.397	214.44
325.626	135.44
325.855	121.44
326.084	117.44
326.313	119.44
326.542	148.44
326.77	213.44
326.999	397.44
327.228	828.44
327.457	1469.44
327.686	1127.44
327.914	320.44
328.143	161.44
328.372	125.44
328.6	107.44
328.829	96.44
329.058	118.44
329.287	124.44
329.515	101.44
329.744	102.44
329.972	110.44
330.201	99.44
330.43	114.44
330.658	115.44
330.887	126.44
331.115	99.44
331.344	91.44
331.572	92.44
331.801	92.44
332.03	98.44
332.258	94.44
332.486	78.44
332.715	109.44
332.943	83.44
333.172	107.44
333.4	98.44
333.629	106.44
333.857	115.44
334.085	104.44
334.314	96.44
334.542	103.44
334.771	108.44
334.999	103.44
335.227	78.44
335.455	91.44
335.684	88.44
335.912	100.44
336.14	102.44
336.369	99.44
336.597	107.44
336.825	91.44
337.053	95.44
337.281	99.44
337.51	98.44
337.738	81.44
337.966	108.44
338.194	90.44
338.422	112.44
338.65	90.44
338.878	78.44
339.106	85.44
339.334	85.44
339.562	102.44
339.79	91.44
340.018	109.44
340.246	88.44
340.474	106.44
340.702	92.44
340.93	93.44
341.158	94.44
341.386	107.44
341.614	91.44
341.842	99.44
342.07	102.44
342.298	92.44
342.526	96.44
342.754	89.44
342.981	88.44
343.209	107.44
343.437	98.44
343.665	86.44
343.893	95.44
344.12	102.44
344.348	95.44
344.576	84.44
344.804	83.44
345.031	99.44
345.259	93.44
345.487	99.44
345.714	87.44
345.942	92.44
346.17	90.44
346.397	85.44
346.625	94.44
346.853	85.44
347.08	98.44
347.308	94.44
347.535	103.44
347.763	85.44
347.99	98.44
348.218	98.44
348.445	104.44
348.673	103.44
348.9	96.44
349.128	96.44
349.355	107.44
349.583	89.44
349.81	105.44
350.037	105.44
350.265	92.44
350.492	86.44
350.72	99.44
350.947	98.44
351.174	98.44
351.402	108.44
351.629	103.44
351.856	92.44
352.083	115.44
352.311	112.44
352.538	110.44
352.765	117.44
352.992	108.44
353.22	90.44
353.447	106.44
353.674	98.44
353.901	106.44
354.128	98.44
354.355	90.44
354.583	107.44
354.81	110.44
355.037	109.44
355.264	95.44
355.491	90.44
355.718	107.44
355.945	108.44
356.172	105.44
356.399	101.44
356.626	109.44
356.853	100.44
357.08	90.44
357.307	102.44
357.534	107.44
357.761	119.44
357.988	105.44
358.215	101.44
358.441	108.44
358.668	106.44
358.895	96.44
359.122	101.44
359.349	93.44
359.576	98.44
359.802	102.44
360.029	117.44
360.256	104.44
360.483	94.44
360.709	95.44
360.936	95.44
361.163	100.44
361.39	90.44
361.616	95.44
361.843	90.44
362.07	98.44
362.296	92.44
362.523	105.44
362.749	94.44
362.976	90.44
363.203	103.44
363.429	88.44
363.656	88.44
363.882	100.44
364.109	105.44
364.335	96.44
364.562	101.44
364.788	94.44
365.015	98.44
365.241	99.44
365.468	94.44
365.694	108.44
365.92	103.44
366.147	84.44
366.373	90.44
366.599	78.44
366.826	102.44
367.052	87.44
367.278	93.44
367.505	88.44
367.731	99.44
367.957	104.44
368.184	91.44
368.41	102.44
368.636	106.44
368.862	111.44
369.089	98.44
369.315	98.44
369.541	95.44
369.767	95.44
369.993	103.44
370.219	105.44
370.445	84.44
370.672	108.44
370.898	98.44
371.124	94.44
371.35	98.44
371.576	93.44
371.802	94.44
372.028	80.44
372.254	95.44
372.48	90.44
372.706	100.44
372.932	98.44
373.158	88.44
373.384	99.44
373.61	94.44
373.835	94.44
374.061	101.44
374.287	106.44
374.513	90.44
374.739	108.44
374.965	96.44
375.191	88.44
375.416	93.44
375.642	82.44
375.868	104.44
376.094	102.44
376.319	92.44
376.545	95.44
376.771	94.44
376.997	98.44
377.222	93.44
377.448	100.44
377.674	101.44
377.899	90.44
378.125	91.44
378.35	99.44
378.576	119.44
378.802	96.44
379.027	86.44
379.253	93.44
379.478	100.44
379.704	110.44
379.929	91.44
380.155	102.44
380.38	107.44
380.606	86.44
380.831	106.44
381.057	106.44
381.282	111.44
381.507	103.44
381.733	110.44
381.958	91.44
382.184	118.44
382.409	101.44
382.634	120.44
382.86	118.44
383.085	100.44
383.31	115.44
383.535	116.44
383.761	114.44
383.986	116.44
384.211	108.44
384.436	115.44
384.662	110.44
384.887	119.44
385.112	114.44
385.337	142.44
385.562	137.44
385.787	132.44
386.013	135.44
386.238	136.44
386.463	119.44
386.688	122.44
386.913	123.44
387.138	123.44
387.363	117.44
387.588	106.44
387.813	116.44
388.038	141.44
388.263	137.44
388.488	114.44
388.713	93.44
388.938	96.44
389.163	96.44
389.387	108.44
389.612	93.44
389.837	93.44
390.062	107.44
390.287	116.44
390.512	90.44
390.736	86.44
390.961	101.44
391.186	84.44
391.411	89.44
391.636	89.44
391.86	94.44
392.085	97.44
392.31	91.44
392.534	96.44
392.759	108.44
392.984	94.44
393.208	101.44
393.433	119.44
393.658	108.44
393.882	102.44
394.107	86.44
394.331	96.44
394.556	91.44
394.78	102.44
395.005	99.44
395.229	87.44
395.454	105.44
395.678	86.44
395.903	84.44
396.127	102.44
396.352	95.44
396.576	84.44
396.801	87.44
397.025	115.44
397.249	84.44
397.474	90.44
397.698	105.44
397.922	95.44
398.147	91.44
398.371	75.44
398.595	93.44
398.82	99.44
399.044	90.44
399.268	83.44
399.492	90.44
399.717	90.44
399.941	91.44
400.165	94.44
400.389	83.44
400.613	86.44
400.837	93.44
401.062	74.44
401.286	98.44
401.51	79.44
401.734	82.44
401.958	91.44
402.182	120.44
402.406	123.44
402.63	109.44
402.854	86.44
403.078	103.44
403.302	94.44
403.526	92.44
403.75	92.44
403.974	92.44
404.198	100.44
404.422	84.44
404.645	98.44
404.869	83.44
405.093	95.44
405.317	101.44
405.541	92.44
405.765	100.44
405.988	92.44
406.212	144.44
406.436	160.44
406.66	128.44
406.883	102.44
407.107	96.44
407.331	92.44
407.555	104.44
407.778	104.44
408.002	93.44
408.226	90.44
408.449	99.44
408.673	82.44
408.896	87.44
409.12	99.44
409.344	92.44
409.567	80.44
409.791	97.44
410.014	115.44
410.238	99.44
410.461	92.44
410.685	96.44
410.908	97.44
411.132	108.44
411.355	99.44
411.578	103.44
411.802	92.44
412.025	101.44
412.249	102.44
412.472	86.44
412.695	101.44
412.919	104.44
413.142	82.44
413.365	89.44
413.589	87.44
413.812	100.44
414.035	102.44
414.258	86.44
414.482	90.44
414.705	83.44
414.928	87.44
415.151	102.44
415.374	103.44
415.597	93.44
415.821	87.44
416.044	94.44
416.267	100.44
416.49	78.44
416.713	82.44
416.936	86.44
417.159	85.44
417.382	86.44
417.605	90.44
417.828	95.44
418.051	105.44
418.274	95.44
418.497	90.44
418.72	87.44
418.943	91.44
419.166	88.44
419.389	104.44
419.611	88.44
419.834	108.44
420.057	94.44
420.28	85.44
420.503	78.44
420.726	84.44
420.948	96.44
421.171	110.44
421.394	91.44
421.617	98.44
421.839	102.44
422.062	104.44
422.285	96.44
422.507	103.44
422.73	101.44
422.953	97.44
423.175	100.44
423.398	91.44
423.621	103.44
423.843	87.44
424.066	85.44
424.288	84.44
424.511	86.44
424.733	85.44
424.956	98.44
425.178	103.44
425.401	98.44
425.623	105.44
425.846	95.44
426.068	84.44
426.291	90.44
426.513	92.44
426.735	94.44
426.958	87.44
427.18	114.44
427.402	120.44
427.625	135.44
427.847	111.44
428.069	91.44
428.292	94.44
428.514	95.44
428.736	91.44
428.958	78.44
429.181	90.44
429.403	82.44
429.625	93.44
429.847	84.44
430.069	103.44
430.292	91.44
430.514	94.44
430.736	88.44
430.958	99.44
431.18	71.44
431.402	84.44
431.624	82.44
431.846	110.44
432.068	86.44
432.29	102.44
432.512	93.44
432.734	86.44
432.956	85.44
433.178	101.44
433.4	94.44
433.622	95.44
433.844	94.44
434.066	108.44
434.287	95.44
434.509	114.44
434.731	94.44
434.953	91.44
435.175	97.44
435.397	99.44
435.618	97.44
435.84	99.44
436.062	103.44
436.284	83.44
436.505	93.44
436.727	96.44
436.949	96.44
437.17	76.44
437.392	87.44
437.614	96.44
437.835	106.44
438.057	114.44
438.278	114.44
438.5	101.44
438.721	103.44
438.943	101.44
439.165	94.44
439.386	92.44
439.608	114.44
439.829	106.44
440.05	123.44
440.272	120.44
440.493	100.44
440.715	90.44
440.936	71.44
441.158	91.44
441.379	86.44
441.6	94.44
441.822	86.44
442.043	95.44
442.264	101.44
442.486	114.44
442.707	107.44
442.928	91.44
443.149	103.44
443.371	124.44
443.592	112.44
443.813	109.44
444.034	115.44
444.255	91.44
444.476	92.44
444.698	88.44
444.919	84.44
445.14	135.44
445.361	124.44
445.582	95.44
445.803	114.44
446.024	125.44
446.245	110.44
446.466	102.44
446.687	92.44
446.908	84.44
447.129	86.44
447.35	88.44
447.571	87.44
447.792	99.44
448.013	110.44
448.234	104.44
448.455	96.44
448.675	104.44
448.896	113.44
449.117	98.44
449.338	108.44
449.559	129.44
449.779	131.44
450	98.44
450.221	96.44
450.442	94.44
450.662	108.44
450.883	98.44
451.104	86.44
451.324	98.44
451.545	109.44
451.766	91.44
451.986	89.44
452.207	101.44
452.428	93.44
452.648	84.44
452.869	104.44
453.089	112.44
453.31	110.44
453.53	95.44
453.751	88.44
453.971	102.44
454.192	102.44
454.412	99.44
454.633	81.44
454.853	78.44
455.073	84.44
455.294	96.44
455.514	88.44
455.734	80.44
455.955	82.44
456.175	74.44
456.395	94.44
456.616	94.44
456.836	92.44
457.056	92.44
457.276	102.44
457.497	96.44
457.717	95.44
457.937	80.44
458.157	92.44
458.377	88.44
458.598	87.44
458.818	108.44
459.038	134.44
459.258	111.44
459.478	97.44
459.698	98.44
459.918	89.44
460.138	90.44
460.358	87.44
460.578	84.44
460.798	99.44
461.018	94.44
461.238	94.44
461.458	83.44
461.678	81.44
461.898	88.44
462.118	83.44
462.338	107.44
462.558	76.44
462.777	97.44
462.997	78.44
463.217	94.44
463.437	87.44
463.657	100.44
463.876	105.44
464.096	86.44
464.316	80.44
464.536	90.44
464.755	105.44
464.975	83.44
465.195	142.44
465.414	127.44
465.634	87.44
465.854	94.44
466.073	84.44
466.293	88.44
466.512	82.44
466.732	94.44
466.951	90.44
467.171	75.44
467.391	94.44
467.61	93.44
467.829	86.44
468.049	96.44
468.268	87.44
468.488	89.44
468.707	102.44
468.927	99.44
469.146	82.44
469.365	101.44
469.585	101.44
469.804	95.44
470.023	110.44
470.243	94.44
470.462	84.44
470.681	109.44
470.901	75.44
471.12	104.44
471.339	96.44
471.558	93.44
471.777	108.44
471.997	86.44
472.216	104.44
472.435	94.44
472.654	99.44
472.873	89.44
473.092	92.44
473.311	71.44
473.53	72.44
473.749	85.44
473.968	87.44
474.187	89.44
474.406	91.44
474.625	94.44
474.844	73.44
475.063	89.44
475.282	83.44
475.501	81.44
475.72	83.44
475.939	81.44
476.158	87.44
476.377	99.44
476.596	107.44
476.814	102.44
477.033	92.44
477.252	66.44
477.471	75.44
477.69	100.44
477.908	111.44
478.127	94.44
478.346	94.44
478.564	89.44
478.783	113.44
479.002	93.44
479.22	95.44
479.439	96.44
479.658	105.44
479.876	91.44
480.095	88.44
480.313	95.44
480.532	88.44
480.751	91.44
480.969	89.44
481.188	111.44
481.406	116.44
481.624	94.44
481.843	105.44
482.061	92.44
482.28	92.44
482.498	90.44
482.717	82.44
482.935	88.44
483.153	100.44
483.372	96.44
483.59	89.44
483.808	98.44
484.027	95.44
484.245	90.44
484.463	98.44
484.681	94.44
484.9	110.44
485.118	94.44
485.336	107.44
485.554	102.44
485.772	119.44
485.99	127.44
486.209	104.44
486.427	110.44
486.645	111.44
486.863	110.44
487.081	105.44
487.299	116.44
487.517	100.44
487.735	98.44
487.953	107.44
488.171	108.44
488.389	102.44
488.607	104.44
488.825	79.44
489.043	78.44
489.261	98.44
489.479	102.44
489.696	85.44
489.914	99.44
490.132	95.44
490.35	100.44
490.568	86.44
490.786	88.44
491.003	106.44
491.221	88.44
491.439	104.44
491.657	95.44
491.874	97.44
492.092	92.44
492.31	76.44
492.527	102.44
492.745	95.44
492.963	80.44
493.18	92.44
493.398	98.44
493.615	116.44
493.833	102.44
494.05	84.44
494.268	87.44
494.485	95.44
494.703	94.44
494.92	102.44
495.138	97.44
495.355	86.44
495.573	103.44
495.79	89.44
496.008	99.44
496.225	77.44
496.442	92.44
496.66	105.44
496.877	104.44
497.094	94.44
497.312	93.44
497.529	92.44
497.746	86.44
497.963	82.44
498.181	81.44
498.398	109.44
498.615	120.44
498.832	98.44
499.049	90.44
499.267	94.44
499.484	98.44
499.701	88.44
499.918	91.44
500.135	92.44
500.352	98.44
500.569	95.44
500.786	90.44
501.003	100.44
501.22	97.44
501.437	98.44
501.654	97.44
501.871	95.44
502.088	82.44
502.305	94.44
502.522	98.44
502.739	92.44
502.956	92.44
503.172	93.44
503.389	96.44
503.606	104.44
503.823	101.44
504.04	88.44
504.256	86.44
504.473	79.44
504.69	90.44
504.907	105.44
505.123	103.44
505.34	78.44
505.557	90.44
505.773	86.44
505.99	86.44
506.207	92.44
506.423	88.44
506.64	86.44
506.856	83.44
507.073	94.44
507.289	92.44
507.506	96.44
507.722	104.44
507.939	90.44
508.155	97.44
508.372	84.44
508.588	84.44
508.805	96.44
509.021	98.44
509.238	86.44
509.454	100.44
509.67	105.44
509.887	93.44
510.103	134.44
510.319	193.44
510.536	544.44
510.752	1618.44
510.968	439.44
511.184	128.44
511.401	102.44
511.617	100.44
511.833	95.44
512.049	109.44
512.265	76.44
512.481	97.44
512.698	100.44
512.914	93.44
513.13	93.44
513.346	80.44
513.562	100.44
513.778	86.44
513.994	96.44
514.21	96.44
514.426	110.44
514.642	118.44
