Data from Circ_1985_H10_HRD10591_00022.txt Node
Date: Wed Jan 03 12:19:27 EST 2024
User: Yrep
Spectrometer: HR+D1059
Trigger mode: 1
Integration Time (sec): 1.000000E-1
Scans to average: 1
Electric dark correction enabled: true
Nonlinearity correction enabled: false
Boxcar width: 0
XAxis mode: Wavelengths
Number of Pixels in Spectrum: 2048
>>>>>Begin Spectral Data<<<<<
223.165	-11.44
223.4	-11.44
223.635	-11.44
223.869	-16.44
224.104	-11.44
224.338	0.56
224.573	-21.44
224.808	-28.44
225.042	-13.44
225.277	-5.44
225.511	-0.44
225.746	-11.44
225.98	-1.44
226.215	26.56
226.449	16.56
226.683	20.56
226.918	24.56
227.152	32.56
227.387	41.56
227.621	38.56
227.856	40.56
228.09	38.56
228.324	54.56
228.559	55.56
228.793	52.56
229.027	53.56
229.262	66.56
229.496	70.56
229.73	81.56
229.964	73.56
230.199	70.56
230.433	71.56
230.667	87.56
230.901	86.56
231.136	84.56
231.37	76.56
231.604	70.56
231.838	78.56
232.072	82.56
232.306	95.56
232.541	84.56
232.775	71.56
233.009	92.56
233.243	82.56
233.477	80.56
233.711	70.56
233.945	88.56
234.179	78.56
234.413	85.56
234.647	87.56
234.881	76.56
235.115	76.56
235.349	83.56
235.583	78.56
235.817	78.56
236.051	77.56
236.285	71.56
236.519	69.56
236.753	78.56
236.987	69.56
237.221	69.56
237.455	85.56
237.689	82.56
237.922	74.56
238.156	76.56
238.39	76.56
238.624	62.56
238.858	82.56
239.091	76.56
239.325	77.56
239.559	94.56
239.793	70.56
240.027	73.56
240.26	77.56
240.494	77.56
240.728	68.56
240.961	69.56
241.195	79.56
241.429	81.56
241.662	93.56
241.896	81.56
242.13	78.56
242.363	77.56
242.597	64.56
242.83	86.56
243.064	88.56
243.298	77.56
243.531	78.56
243.765	74.56
243.998	67.56
244.232	86.56
244.465	97.56
244.699	73.56
244.932	79.56
245.166	80.56
245.399	80.56
245.633	77.56
245.866	77.56
246.099	61.56
246.333	75.56
246.566	80.56
246.8	73.56
247.033	77.56
247.266	64.56
247.5	60.56
247.733	96.56
247.966	91.56
248.2	82.56
248.433	66.56
248.666	79.56
248.899	68.56
249.133	74.56
249.366	93.56
249.599	101.56
249.832	68.56
250.066	83.56
250.299	69.56
250.532	92.56
250.765	69.56
250.998	69.56
251.231	73.56
251.465	72.56
251.698	67.56
251.931	69.56
252.164	68.56
252.397	74.56
252.63	70.56
252.863	73.56
253.096	66.56
253.329	82.56
253.562	97.56
253.795	80.56
254.028	76.56
254.261	81.56
254.494	83.56
254.727	89.56
254.96	74.56
255.193	78.56
255.426	76.56
255.659	80.56
255.892	79.56
256.124	73.56
256.357	76.56
256.59	94.56
256.823	82.56
257.056	83.56
257.289	72.56
257.521	91.56
257.754	84.56
257.987	69.56
258.22	84.56
258.452	76.56
258.685	61.56
258.918	85.56
259.151	73.56
259.383	84.56
259.616	84.56
259.849	93.56
260.081	77.56
260.314	84.56
260.547	71.56
260.779	87.56
261.012	64.56
261.244	94.56
261.477	83.56
261.71	101.56
261.942	95.56
262.175	82.56
262.407	95.56
262.64	88.56
262.872	86.56
263.105	84.56
263.337	85.56
263.57	74.56
263.802	84.56
264.035	69.56
264.267	92.56
264.499	80.56
264.732	93.56
264.964	76.56
265.197	71.56
265.429	68.56
265.661	78.56
265.894	86.56
266.126	83.56
266.358	89.56
266.591	73.56
266.823	72.56
267.055	86.56
267.287	86.56
267.52	67.56
267.752	76.56
267.984	80.56
268.216	76.56
268.448	92.56
268.681	63.56
268.913	76.56
269.145	76.56
269.377	69.56
269.609	78.56
269.841	99.56
270.073	79.56
270.306	86.56
270.538	82.56
270.77	85.56
271.002	90.56
271.234	89.56
271.466	90.56
271.698	81.56
271.93	88.56
272.162	83.56
272.394	83.56
272.626	92.56
272.858	84.56
273.09	93.56
273.322	89.56
273.553	78.56
273.785	76.56
274.017	86.56
274.249	85.56
274.481	82.56
274.713	70.56
274.945	79.56
275.176	87.56
275.408	99.56
275.64	70.56
275.872	85.56
276.104	91.56
276.335	94.56
276.567	89.56
276.799	101.56
277.031	98.56
277.262	71.56
277.494	93.56
277.726	80.56
277.957	78.56
278.189	81.56
278.421	86.56
278.652	86.56
278.884	71.56
279.115	85.56
279.347	82.56
279.579	90.56
279.81	86.56
280.042	74.56
280.273	78.56
280.505	78.56
280.736	80.56
280.968	80.56
281.199	83.56
281.431	78.56
281.662	88.56
281.894	87.56
282.125	90.56
282.356	104.56
282.588	136.56
282.819	110.56
283.051	86.56
283.282	83.56
283.513	78.56
283.745	92.56
283.976	86.56
284.207	96.56
284.439	97.56
284.67	80.56
284.901	93.56
285.132	82.56
285.364	83.56
285.595	78.56
285.826	73.56
286.057	85.56
286.288	78.56
286.52	96.56
286.751	81.56
286.982	97.56
287.213	82.56
287.444	80.56
287.675	88.56
287.906	87.56
288.138	73.56
288.369	87.56
288.6	84.56
288.831	81.56
289.062	84.56
289.293	87.56
289.524	86.56
289.755	73.56
289.986	73.56
290.217	93.56
290.448	87.56
290.679	76.56
290.91	92.56
291.141	81.56
291.371	80.56
291.602	84.56
291.833	70.56
292.064	82.56
292.295	93.56
292.526	77.56
292.757	77.56
292.987	87.56
293.218	95.56
293.449	82.56
293.68	88.56
293.91	82.56
294.141	81.56
294.372	89.56
294.603	87.56
294.833	84.56
295.064	101.56
295.295	95.56
295.525	86.56
295.756	107.56
295.987	112.56
296.217	121.56
296.448	114.56
296.679	90.56
296.909	98.56
297.14	94.56
297.37	88.56
297.601	78.56
297.831	104.56
298.062	76.56
298.292	82.56
298.523	95.56
298.753	101.56
298.984	75.56
299.214	89.56
299.445	93.56
299.675	105.56
299.905	87.56
300.136	90.56
300.366	83.56
300.597	82.56
300.827	71.56
301.057	88.56
301.288	96.56
301.518	86.56
301.748	87.56
301.979	97.56
302.209	82.56
302.439	86.56
302.669	75.56
302.9	80.56
303.13	86.56
303.36	98.56
303.59	84.56
303.82	92.56
304.051	82.56
304.281	82.56
304.511	87.56
304.741	86.56
304.971	80.56
305.201	89.56
305.431	93.56
305.661	90.56
305.891	92.56
306.121	88.56
306.352	83.56
306.582	91.56
306.812	103.56
307.042	99.56
307.272	95.56
307.502	91.56
307.731	94.56
307.961	85.56
308.191	97.56
308.421	78.56
308.651	92.56
308.881	89.56
309.111	79.56
309.341	91.56
309.571	99.56
309.8	98.56
310.03	94.56
310.26	81.56
310.49	91.56
310.72	96.56
310.949	100.56
311.179	93.56
311.409	86.56
311.639	89.56
311.868	86.56
312.098	80.56
312.328	101.56
312.557	92.56
312.787	102.56
313.017	91.56
313.246	87.56
313.476	93.56
313.706	101.56
313.935	103.56
314.165	96.56
314.394	89.56
314.624	90.56
314.853	99.56
315.083	96.56
315.312	103.56
315.542	74.56
315.771	92.56
316.001	88.56
316.23	82.56
316.46	87.56
316.689	72.56
316.919	77.56
317.148	94.56
317.377	100.56
317.607	82.56
317.836	93.56
318.065	89.56
318.295	90.56
318.524	86.56
318.753	81.56
318.983	77.56
319.212	96.56
319.441	92.56
319.67	104.56
319.9	89.56
320.129	104.56
320.358	93.56
320.587	102.56
320.816	96.56
321.046	98.56
321.275	93.56
321.504	93.56
321.733	87.56
321.962	105.56
322.191	100.56
322.42	106.56
322.649	97.56
322.878	110.56
323.108	99.56
323.337	109.56
323.566	110.56
323.795	149.56
324.024	183.56
324.253	327.56
324.482	718.56
324.71	1426.56
324.939	1927.56
325.168	723.56
325.397	217.56
325.626	150.56
325.855	122.56
326.084	104.56
326.313	106.56
326.542	151.56
326.77	209.56
326.999	408.56
327.228	808.56
327.457	1481.56
327.686	1189.56
327.914	335.56
328.143	192.56
328.372	140.56
328.6	109.56
328.829	118.56
329.058	96.56
329.287	115.56
329.515	110.56
329.744	105.56
329.972	86.56
330.201	104.56
330.43	128.56
330.658	121.56
330.887	106.56
331.115	114.56
331.344	102.56
331.572	101.56
331.801	111.56
332.03	99.56
332.258	88.56
332.486	89.56
332.715	99.56
332.943	89.56
333.172	89.56
333.4	94.56
333.629	101.56
333.857	100.56
334.085	109.56
334.314	114.56
334.542	117.56
334.771	119.56
334.999	90.56
335.227	101.56
335.455	95.56
335.684	98.56
335.912	104.56
336.14	103.56
336.369	101.56
336.597	94.56
336.825	100.56
337.053	91.56
337.281	98.56
337.51	83.56
337.738	91.56
337.966	93.56
338.194	92.56
338.422	88.56
338.65	97.56
338.878	89.56
339.106	77.56
339.334	93.56
339.562	79.56
339.79	93.56
340.018	91.56
340.246	98.56
340.474	97.56
340.702	89.56
340.93	81.56
341.158	87.56
341.386	103.56
341.614	81.56
341.842	101.56
342.07	102.56
342.298	95.56
342.526	95.56
342.754	84.56
342.981	89.56
343.209	82.56
343.437	83.56
343.665	78.56
343.893	97.56
344.12	95.56
344.348	85.56
344.576	100.56
344.804	78.56
345.031	93.56
345.259	92.56
345.487	89.56
345.714	100.56
345.942	90.56
346.17	81.56
346.397	86.56
346.625	103.56
346.853	98.56
347.08	81.56
347.308	98.56
347.535	99.56
347.763	89.56
347.99	96.56
348.218	104.56
348.445	113.56
348.673	100.56
348.9	96.56
349.128	80.56
349.355	89.56
349.583	85.56
349.81	93.56
350.037	81.56
350.265	89.56
350.492	85.56
350.72	95.56
350.947	100.56
351.174	105.56
351.402	113.56
351.629	103.56
351.856	104.56
352.083	92.56
352.311	95.56
352.538	103.56
352.765	88.56
352.992	99.56
353.22	84.56
353.447	99.56
353.674	98.56
353.901	87.56
354.128	83.56
354.355	100.56
354.583	101.56
354.81	105.56
355.037	93.56
355.264	103.56
355.491	90.56
355.718	101.56
355.945	87.56
356.172	95.56
356.399	92.56
356.626	102.56
356.853	91.56
357.08	94.56
357.307	93.56
357.534	96.56
357.761	95.56
357.988	103.56
358.215	92.56
358.441	80.56
358.668	105.56
358.895	95.56
359.122	89.56
359.349	94.56
359.576	93.56
359.802	104.56
360.029	95.56
360.256	103.56
360.483	104.56
360.709	104.56
360.936	93.56
361.163	89.56
361.39	101.56
361.616	100.56
361.843	90.56
362.07	97.56
362.296	92.56
362.523	93.56
362.749	92.56
362.976	81.56
363.203	82.56
363.429	97.56
363.656	97.56
363.882	102.56
364.109	83.56
364.335	97.56
364.562	93.56
364.788	86.56
365.015	96.56
365.241	103.56
365.468	97.56
365.694	95.56
365.92	88.56
366.147	84.56
366.373	77.56
366.599	78.56
366.826	84.56
367.052	85.56
367.278	95.56
367.505	85.56
367.731	88.56
367.957	93.56
368.184	94.56
368.41	93.56
368.636	84.56
368.862	103.56
369.089	112.56
369.315	92.56
369.541	79.56
369.767	97.56
369.993	88.56
370.219	93.56
370.445	97.56
370.672	92.56
370.898	81.56
371.124	87.56
371.35	97.56
371.576	83.56
371.802	107.56
372.028	88.56
372.254	84.56
372.48	83.56
372.706	72.56
372.932	88.56
373.158	92.56
373.384	102.56
373.61	104.56
373.835	80.56
374.061	85.56
374.287	92.56
374.513	92.56
374.739	89.56
374.965	80.56
375.191	89.56
375.416	82.56
375.642	88.56
375.868	89.56
376.094	101.56
376.319	90.56
376.545	91.56
376.771	81.56
376.997	86.56
377.222	89.56
377.448	97.56
377.674	71.56
377.899	92.56
378.125	83.56
378.35	100.56
378.576	77.56
378.802	91.56
379.027	97.56
379.253	89.56
379.478	92.56
379.704	104.56
379.929	90.56
380.155	95.56
380.38	101.56
380.606	97.56
380.831	108.56
381.057	106.56
381.282	97.56
381.507	109.56
381.733	102.56
381.958	91.56
382.184	101.56
382.409	103.56
382.634	102.56
382.86	95.56
383.085	86.56
383.31	95.56
383.535	105.56
383.761	118.56
383.986	100.56
384.211	110.56
384.436	95.56
384.662	90.56
384.887	118.56
385.112	111.56
385.337	112.56
385.562	129.56
385.787	116.56
386.013	120.56
386.238	119.56
386.463	101.56
386.688	108.56
386.913	106.56
387.138	121.56
387.363	105.56
387.588	108.56
387.813	104.56
388.038	112.56
388.263	120.56
388.488	110.56
388.713	83.56
388.938	94.56
389.163	97.56
389.387	98.56
389.612	88.56
389.837	84.56
390.062	79.56
390.287	83.56
390.512	82.56
390.736	82.56
390.961	78.56
391.186	103.56
391.411	86.56
391.636	102.56
391.86	100.56
392.085	97.56
392.31	89.56
392.534	84.56
392.759	86.56
392.984	87.56
393.208	94.56
393.433	111.56
393.658	88.56
393.882	80.56
394.107	84.56
394.331	94.56
394.556	101.56
394.78	89.56
395.005	94.56
395.229	92.56
395.454	90.56
395.678	84.56
395.903	95.56
396.127	85.56
396.352	91.56
396.576	86.56
396.801	86.56
397.025	96.56
397.249	86.56
397.474	100.56
397.698	76.56
397.922	85.56
398.147	94.56
398.371	78.56
398.595	81.56
398.82	71.56
399.044	69.56
399.268	85.56
399.492	67.56
399.717	86.56
399.941	97.56
400.165	101.56
400.389	93.56
400.613	78.56
400.837	89.56
401.062	98.56
401.286	89.56
401.51	86.56
401.734	98.56
401.958	102.56
402.182	109.56
402.406	128.56
402.63	99.56
402.854	81.56
403.078	77.56
403.302	77.56
403.526	72.56
403.75	91.56
403.974	79.56
404.198	85.56
404.422	78.56
404.645	74.56
404.869	82.56
405.093	82.56
405.317	93.56
405.541	106.56
405.765	95.56
405.988	103.56
406.212	154.56
406.436	208.56
406.66	137.56
406.883	101.56
407.107	87.56
407.331	99.56
407.555	100.56
407.778	84.56
408.002	89.56
408.226	86.56
408.449	80.56
408.673	89.56
408.896	95.56
409.12	86.56
409.344	93.56
409.567	88.56
409.791	87.56
410.014	91.56
410.238	103.56
410.461	95.56
410.685	88.56
410.908	88.56
411.132	101.56
411.355	82.56
411.578	94.56
411.802	81.56
412.025	95.56
412.249	90.56
412.472	97.56
412.695	81.56
412.919	81.56
413.142	88.56
413.365	84.56
413.589	88.56
413.812	88.56
414.035	106.56
414.258	87.56
414.482	77.56
414.705	89.56
414.928	101.56
415.151	93.56
415.374	101.56
415.597	91.56
415.821	101.56
416.044	86.56
416.267	97.56
416.49	88.56
416.713	92.56
416.936	80.56
417.159	84.56
417.382	92.56
417.605	84.56
417.828	104.56
418.051	83.56
418.274	80.56
418.497	91.56
418.72	82.56
418.943	77.56
419.166	84.56
419.389	93.56
419.611	88.56
419.834	88.56
420.057	69.56
420.28	97.56
420.503	80.56
420.726	85.56
420.948	90.56
421.171	94.56
421.394	95.56
421.617	107.56
421.839	92.56
422.062	95.56
422.285	79.56
422.507	93.56
422.73	104.56
422.953	94.56
423.175	91.56
423.398	78.56
423.621	96.56
423.843	91.56
424.066	83.56
424.288	86.56
424.511	80.56
424.733	104.56
424.956	92.56
425.178	99.56
425.401	100.56
425.623	101.56
425.846	88.56
426.068	89.56
426.291	94.56
426.513	83.56
426.735	80.56
426.958	87.56
427.18	86.56
427.402	130.56
427.625	153.56
427.847	103.56
428.069	110.56
428.292	81.56
428.514	68.56
428.736	88.56
428.958	84.56
429.181	82.56
429.403	82.56
429.625	79.56
429.847	88.56
430.069	79.56
430.292	97.56
430.514	104.56
430.736	71.56
430.958	87.56
431.18	87.56
431.402	74.56
431.624	101.56
431.846	82.56
432.068	84.56
432.29	84.56
432.512	89.56
432.734	69.56
432.956	90.56
433.178	94.56
433.4	100.56
433.622	86.56
433.844	86.56
434.066	98.56
434.287	81.56
434.509	78.56
434.731	92.56
434.953	87.56
435.175	89.56
435.397	90.56
435.618	94.56
435.84	104.56
436.062	99.56
436.284	99.56
436.505	87.56
436.727	97.56
436.949	104.56
437.17	77.56
437.392	81.56
437.614	80.56
437.835	101.56
438.057	108.56
438.278	108.56
438.5	89.56
438.721	110.56
438.943	94.56
439.165	89.56
439.386	85.56
439.608	93.56
439.829	93.56
440.05	97.56
440.272	111.56
440.493	88.56
440.715	86.56
440.936	84.56
441.158	90.56
441.379	86.56
441.6	86.56
441.822	84.56
442.043	100.56
442.264	90.56
442.486	95.56
442.707	89.56
442.928	97.56
443.149	127.56
443.371	116.56
443.592	100.56
443.813	102.56
444.034	79.56
444.255	90.56
444.476	84.56
444.698	88.56
444.919	86.56
445.14	120.56
445.361	114.56
445.582	99.56
445.803	113.56
446.024	114.56
446.245	121.56
446.466	92.56
446.687	89.56
446.908	88.56
447.129	94.56
447.35	86.56
447.571	95.56
447.792	83.56
448.013	95.56
448.234	101.56
448.455	95.56
448.675	98.56
448.896	95.56
449.117	88.56
449.338	94.56
449.559	114.56
449.779	130.56
450	95.56
450.221	93.56
450.442	72.56
450.662	84.56
450.883	103.56
451.104	106.56
451.324	87.56
451.545	90.56
451.766	95.56
451.986	89.56
452.207	92.56
452.428	94.56
452.648	92.56
452.869	99.56
453.089	105.56
453.31	112.56
453.53	100.56
453.751	77.56
453.971	81.56
454.192	88.56
454.412	92.56
454.633	73.56
454.853	76.56
455.073	73.56
455.294	97.56
455.514	102.56
455.734	101.56
455.955	95.56
456.175	80.56
456.395	79.56
456.616	94.56
456.836	72.56
457.056	82.56
457.276	79.56
457.497	77.56
457.717	95.56
457.937	93.56
458.157	80.56
458.377	88.56
458.598	100.56
458.818	120.56
459.038	124.56
459.258	107.56
459.478	84.56
459.698	90.56
459.918	89.56
460.138	86.56
460.358	73.56
460.578	85.56
460.798	88.56
461.018	74.56
461.238	70.56
461.458	70.56
461.678	94.56
461.898	106.56
462.118	89.56
462.338	82.56
462.558	83.56
462.777	85.56
462.997	80.56
463.217	80.56
463.437	81.56
463.657	82.56
463.876	85.56
464.096	90.56
464.316	77.56
464.536	81.56
464.755	86.56
464.975	96.56
465.195	137.56
465.414	136.56
465.634	84.56
465.854	81.56
466.073	91.56
466.293	94.56
466.512	91.56
466.732	87.56
466.951	80.56
467.171	98.56
467.391	82.56
467.61	97.56
467.829	92.56
468.049	88.56
468.268	103.56
468.488	85.56
468.707	88.56
468.927	94.56
469.146	69.56
469.365	85.56
469.585	91.56
469.804	92.56
470.023	82.56
470.243	88.56
470.462	96.56
470.681	103.56
470.901	91.56
471.12	88.56
471.339	81.56
471.558	69.56
471.777	82.56
471.997	76.56
472.216	117.56
472.435	114.56
472.654	85.56
472.873	90.56
473.092	86.56
473.311	80.56
473.53	87.56
473.749	90.56
473.968	102.56
474.187	103.56
474.406	95.56
474.625	84.56
474.844	94.56
475.063	82.56
475.282	82.56
475.501	84.56
475.72	75.56
475.939	76.56
476.158	83.56
476.377	74.56
476.596	92.56
476.814	100.56
477.033	86.56
477.252	98.56
477.471	87.56
477.69	100.56
477.908	80.56
478.127	92.56
478.346	85.56
478.564	79.56
478.783	80.56
479.002	93.56
479.22	83.56
479.439	93.56
479.658	86.56
479.876	88.56
480.095	72.56
480.313	90.56
480.532	86.56
480.751	93.56
480.969	96.56
481.188	133.56
481.406	116.56
481.624	89.56
481.843	81.56
482.061	96.56
482.28	80.56
482.498	85.56
482.717	80.56
482.935	71.56
483.153	90.56
483.372	97.56
483.59	97.56
483.808	89.56
484.027	87.56
484.245	89.56
484.463	96.56
484.681	88.56
484.9	97.56
485.118	106.56
485.336	98.56
485.554	108.56
485.772	94.56
485.99	90.56
486.209	106.56
486.427	102.56
486.645	110.56
486.863	103.56
487.081	95.56
487.299	93.56
487.517	104.56
487.735	90.56
487.953	96.56
488.171	83.56
488.389	89.56
488.607	83.56
488.825	87.56
489.043	87.56
489.261	98.56
489.479	80.56
489.696	85.56
489.914	84.56
490.132	96.56
490.35	79.56
490.568	100.56
490.786	101.56
491.003	88.56
491.221	80.56
491.439	93.56
491.657	92.56
491.874	96.56
492.092	92.56
492.31	93.56
492.527	77.56
492.745	88.56
492.963	97.56
493.18	90.56
493.398	82.56
493.615	101.56
493.833	97.56
494.05	83.56
494.268	90.56
494.485	94.56
494.703	88.56
494.92	100.56
495.138	79.56
495.355	100.56
495.573	94.56
495.79	88.56
496.008	80.56
496.225	106.56
496.442	87.56
496.66	100.56
496.877	94.56
497.094	111.56
497.312	107.56
497.529	95.56
497.746	90.56
497.963	86.56
498.181	84.56
498.398	79.56
498.615	119.56
498.832	106.56
499.049	89.56
499.267	85.56
499.484	92.56
499.701	76.56
499.918	84.56
500.135	90.56
500.352	96.56
500.569	74.56
500.786	91.56
501.003	78.56
501.22	93.56
501.437	89.56
501.654	96.56
501.871	104.56
502.088	86.56
502.305	101.56
502.522	81.56
502.739	104.56
502.956	94.56
503.172	94.56
503.389	93.56
503.606	99.56
503.823	89.56
504.04	82.56
504.256	81.56
504.473	76.56
504.69	90.56
504.907	96.56
505.123	92.56
505.34	95.56
505.557	74.56
505.773	77.56
505.99	94.56
506.207	74.56
506.423	86.56
506.64	72.56
506.856	77.56
507.073	86.56
507.289	86.56
507.506	83.56
507.722	96.56
507.939	111.56
508.155	92.56
508.372	99.56
508.588	100.56
508.805	94.56
509.021	92.56
509.238	90.56
509.454	90.56
509.67	100.56
509.887	110.56
510.103	120.56
510.319	190.56
510.536	645.56
510.752	1950.56
510.968	526.56
511.184	118.56
511.401	105.56
511.617	92.56
511.833	100.56
512.049	84.56
512.265	88.56
512.481	79.56
512.698	96.56
512.914	81.56
513.13	72.56
513.346	105.56
513.562	85.56
513.778	104.56
513.994	96.56
514.21	104.56
514.426	121.56
514.642	111.56
514.858	105.56
515.074	142.56
515.29	368.56
515.506	1132.56
515.721	426.56
515.937	128.56
516.153	106.56
