Data from Circ_1985_H10_HRD10591_00024.txt Node
Date: Wed Jan 03 12:19:27 EST 2024
User: Yrep
Spectrometer: HR+D1059
Trigger mode: 1
Integration Time (sec): 1.000000E-1
Scans to average: 1
Electric dark correction enabled: true
Nonlinearity correction enabled: false
Boxcar width: 0
XAxis mode: Wavelengths
Number of Pixels in Spectrum: 2048
>>>>>Begin Spectral Data<<<<<
223.165	-30.62
223.4	-30.62
223.635	-30.62
223.869	-18.62
224.104	-14.62
224.338	-7.62
224.573	-21.62
224.808	-13.62
225.042	-7.62
225.277	-21.62
225.511	6.38
225.746	13.38
225.98	16.38
226.215	8.38
226.449	7.38
226.683	25.38
226.918	22.38
227.152	36.38
227.387	26.38
227.621	50.38
227.856	42.38
228.09	63.38
228.324	60.38
228.559	56.38
228.793	63.38
229.027	67.38
229.262	58.38
229.496	87.38
229.73	65.38
229.964	74.38
230.199	71.38
230.433	74.38
230.667	76.38
230.901	80.38
231.136	64.38
231.37	79.38
231.604	80.38
231.838	78.38
232.072	85.38
232.306	91.38
232.541	87.38
232.775	95.38
233.009	81.38
233.243	85.38
233.477	83.38
233.711	77.38
233.945	80.38
234.179	82.38
234.413	77.38
234.647	84.38
234.881	90.38
235.115	100.38
235.349	77.38
235.583	86.38
235.817	82.38
236.051	83.38
236.285	77.38
236.519	60.38
236.753	78.38
236.987	78.38
237.221	86.38
237.455	91.38
237.689	78.38
237.922	80.38
238.156	67.38
238.39	71.38
238.624	70.38
238.858	77.38
239.091	89.38
239.325	70.38
239.559	69.38
239.793	70.38
240.027	69.38
240.26	81.38
240.494	70.38
240.728	75.38
240.961	78.38
241.195	86.38
241.429	74.38
241.662	74.38
241.896	78.38
242.13	68.38
242.363	70.38
242.597	83.38
242.83	80.38
243.064	78.38
243.298	89.38
243.531	76.38
243.765	75.38
243.998	88.38
244.232	76.38
244.465	81.38
244.699	92.38
244.932	73.38
245.166	90.38
245.399	78.38
245.633	70.38
245.866	82.38
246.099	75.38
246.333	82.38
246.566	80.38
246.8	74.38
247.033	94.38
247.266	77.38
247.5	90.38
247.733	78.38
247.966	80.38
248.2	91.38
248.433	85.38
248.666	73.38
248.899	86.38
249.133	78.38
249.366	83.38
249.599	77.38
249.832	92.38
250.066	92.38
250.299	84.38
250.532	85.38
250.765	85.38
250.998	83.38
251.231	69.38
251.465	65.38
251.698	78.38
251.931	86.38
252.164	87.38
252.397	92.38
252.63	72.38
252.863	88.38
253.096	82.38
253.329	81.38
253.562	83.38
253.795	92.38
254.028	71.38
254.261	77.38
254.494	80.38
254.727	88.38
254.96	84.38
255.193	81.38
255.426	85.38
255.659	81.38
255.892	84.38
256.124	79.38
256.357	86.38
256.59	73.38
256.823	77.38
257.056	77.38
257.289	75.38
257.521	81.38
257.754	71.38
257.987	88.38
258.22	73.38
258.452	86.38
258.685	72.38
258.918	90.38
259.151	69.38
259.383	65.38
259.616	90.38
259.849	85.38
260.081	81.38
260.314	83.38
260.547	84.38
260.779	93.38
261.012	84.38
261.244	77.38
261.477	80.38
261.71	90.38
261.942	113.38
262.175	100.38
262.407	98.38
262.64	74.38
262.872	71.38
263.105	87.38
263.337	84.38
263.57	102.38
263.802	92.38
264.035	86.38
264.267	86.38
264.499	83.38
264.732	84.38
264.964	87.38
265.197	80.38
265.429	82.38
265.661	88.38
265.894	88.38
266.126	86.38
266.358	75.38
266.591	93.38
266.823	90.38
267.055	89.38
267.287	82.38
267.52	87.38
267.752	82.38
267.984	85.38
268.216	90.38
268.448	86.38
268.681	73.38
268.913	72.38
269.145	84.38
269.377	82.38
269.609	73.38
269.841	96.38
270.073	80.38
270.306	92.38
270.538	90.38
270.77	85.38
271.002	80.38
271.234	85.38
271.466	88.38
271.698	76.38
271.93	80.38
272.162	90.38
272.394	86.38
272.626	78.38
272.858	80.38
273.09	93.38
273.322	94.38
273.553	72.38
273.785	98.38
274.017	96.38
274.249	80.38
274.481	92.38
274.713	80.38
274.945	93.38
275.176	99.38
275.408	93.38
275.64	80.38
275.872	88.38
276.104	101.38
276.335	97.38
276.567	91.38
276.799	102.38
277.031	90.38
277.262	87.38
277.494	78.38
277.726	83.38
277.957	69.38
278.189	81.38
278.421	92.38
278.652	75.38
278.884	89.38
279.115	76.38
279.347	81.38
279.579	96.38
279.81	83.38
280.042	86.38
280.273	90.38
280.505	84.38
280.736	96.38
280.968	92.38
281.199	91.38
281.431	76.38
281.662	87.38
281.894	100.38
282.125	99.38
282.356	111.38
282.588	119.38
282.819	108.38
283.051	93.38
283.282	81.38
283.513	78.38
283.745	102.38
283.976	99.38
284.207	89.38
284.439	92.38
284.67	85.38
284.901	105.38
285.132	89.38
285.364	82.38
285.595	74.38
285.826	92.38
286.057	93.38
286.288	82.38
286.52	103.38
286.751	85.38
286.982	101.38
287.213	86.38
287.444	93.38
287.675	79.38
287.906	90.38
288.138	96.38
288.369	84.38
288.6	88.38
288.831	91.38
289.062	103.38
289.293	90.38
289.524	75.38
289.755	88.38
289.986	85.38
290.217	78.38
290.448	98.38
290.679	101.38
290.91	89.38
291.141	78.38
291.371	88.38
291.602	91.38
291.833	90.38
292.064	85.38
292.295	97.38
292.526	106.38
292.757	93.38
292.987	93.38
293.218	97.38
293.449	85.38
293.68	92.38
293.91	86.38
294.141	99.38
294.372	85.38
294.603	81.38
294.833	86.38
295.064	103.38
295.295	89.38
295.525	100.38
295.756	86.38
295.987	106.38
296.217	117.38
296.448	113.38
296.679	100.38
296.909	87.38
297.14	84.38
297.37	91.38
297.601	85.38
297.831	93.38
298.062	97.38
298.292	90.38
298.523	96.38
298.753	78.38
298.984	84.38
299.214	80.38
299.445	88.38
299.675	88.38
299.905	108.38
300.136	84.38
300.366	104.38
300.597	92.38
300.827	98.38
301.057	84.38
301.288	105.38
301.518	98.38
301.748	99.38
301.979	105.38
302.209	91.38
302.439	88.38
302.669	86.38
302.9	92.38
303.13	89.38
303.36	69.38
303.59	88.38
303.82	91.38
304.051	96.38
304.281	101.38
304.511	88.38
304.741	96.38
304.971	85.38
305.201	96.38
305.431	90.38
305.661	92.38
305.891	83.38
306.121	93.38
306.352	104.38
306.582	107.38
306.812	90.38
307.042	91.38
307.272	80.38
307.502	96.38
307.731	88.38
307.961	84.38
308.191	98.38
308.421	89.38
308.651	92.38
308.881	85.38
309.111	87.38
309.341	94.38
309.571	88.38
309.8	91.38
310.03	88.38
310.26	105.38
310.49	81.38
310.72	96.38
310.949	91.38
311.179	85.38
311.409	85.38
311.639	104.38
311.868	99.38
312.098	98.38
312.328	86.38
312.557	98.38
312.787	105.38
313.017	93.38
313.246	103.38
313.476	84.38
313.706	97.38
313.935	102.38
314.165	89.38
314.394	105.38
314.624	83.38
314.853	82.38
315.083	97.38
315.312	80.38
315.542	76.38
315.771	88.38
316.001	96.38
316.23	89.38
316.46	78.38
316.689	74.38
316.919	82.38
317.148	93.38
317.377	105.38
317.607	102.38
317.836	89.38
318.065	88.38
318.295	81.38
318.524	90.38
318.753	90.38
318.983	90.38
319.212	89.38
319.441	111.38
319.67	94.38
319.9	98.38
320.129	101.38
320.358	92.38
320.587	86.38
320.816	98.38
321.046	113.38
321.275	104.38
321.504	95.38
321.733	92.38
321.962	102.38
322.191	93.38
322.42	102.38
322.649	113.38
322.878	106.38
323.108	107.38
323.337	123.38
323.566	125.38
323.795	147.38
324.024	171.38
324.253	342.38
324.482	696.38
324.71	1391.38
324.939	1820.38
325.168	678.38
325.397	208.38
325.626	132.38
325.855	120.38
326.084	124.38
326.313	123.38
326.542	135.38
326.77	205.38
326.999	384.38
327.228	766.38
327.457	1352.38
327.686	1080.38
327.914	316.38
328.143	162.38
328.372	129.38
328.6	128.38
328.829	117.38
329.058	120.38
329.287	111.38
329.515	102.38
329.744	101.38
329.972	103.38
330.201	120.38
330.43	103.38
330.658	101.38
330.887	109.38
331.115	111.38
331.344	102.38
331.572	92.38
331.801	83.38
332.03	93.38
332.258	101.38
332.486	93.38
332.715	89.38
332.943	95.38
333.172	94.38
333.4	101.38
333.629	108.38
333.857	109.38
334.085	92.38
334.314	98.38
334.542	129.38
334.771	116.38
334.999	110.38
335.227	98.38
335.455	94.38
335.684	91.38
335.912	96.38
336.14	97.38
336.369	87.38
336.597	105.38
336.825	98.38
337.053	97.38
337.281	94.38
337.51	84.38
337.738	77.38
337.966	82.38
338.194	96.38
338.422	82.38
338.65	84.38
338.878	95.38
339.106	85.38
339.334	114.38
339.562	99.38
339.79	94.38
340.018	96.38
340.246	88.38
340.474	91.38
340.702	88.38
340.93	99.38
341.158	101.38
341.386	98.38
341.614	98.38
341.842	92.38
342.07	88.38
342.298	106.38
342.526	87.38
342.754	104.38
342.981	101.38
343.209	84.38
343.437	103.38
343.665	84.38
343.893	100.38
344.12	99.38
344.348	99.38
344.576	94.38
344.804	86.38
345.031	112.38
345.259	95.38
345.487	99.38
345.714	102.38
345.942	91.38
346.17	96.38
346.397	94.38
346.625	83.38
346.853	96.38
347.08	89.38
347.308	96.38
347.535	106.38
347.763	93.38
347.99	89.38
348.218	99.38
348.445	80.38
348.673	88.38
348.9	99.38
349.128	96.38
349.355	98.38
349.583	96.38
349.81	86.38
350.037	97.38
350.265	103.38
350.492	73.38
350.72	98.38
350.947	106.38
351.174	109.38
351.402	106.38
351.629	97.38
351.856	95.38
352.083	112.38
352.311	102.38
352.538	110.38
352.765	102.38
352.992	114.38
353.22	110.38
353.447	93.38
353.674	97.38
353.901	104.38
354.128	84.38
354.355	101.38
354.583	100.38
354.81	103.38
355.037	97.38
355.264	95.38
355.491	100.38
355.718	98.38
355.945	94.38
356.172	87.38
356.399	86.38
356.626	96.38
356.853	91.38
357.08	88.38
357.307	91.38
357.534	99.38
357.761	95.38
357.988	93.38
358.215	100.38
358.441	105.38
358.668	93.38
358.895	100.38
359.122	98.38
359.349	87.38
359.576	84.38
359.802	97.38
360.029	93.38
360.256	102.38
360.483	100.38
360.709	95.38
360.936	97.38
361.163	88.38
361.39	95.38
361.616	86.38
361.843	96.38
362.07	105.38
362.296	98.38
362.523	83.38
362.749	96.38
362.976	86.38
363.203	102.38
363.429	90.38
363.656	100.38
363.882	84.38
364.109	88.38
364.335	84.38
364.562	96.38
364.788	90.38
365.015	107.38
365.241	100.38
365.468	101.38
365.694	100.38
365.92	86.38
366.147	76.38
366.373	92.38
366.599	93.38
366.826	84.38
367.052	94.38
367.278	78.38
367.505	87.38
367.731	100.38
367.957	107.38
368.184	101.38
368.41	94.38
368.636	108.38
368.862	118.38
369.089	101.38
369.315	96.38
369.541	92.38
369.767	84.38
369.993	85.38
370.219	86.38
370.445	86.38
370.672	90.38
370.898	81.38
371.124	81.38
371.35	70.38
371.576	90.38
371.802	86.38
372.028	83.38
372.254	93.38
372.48	85.38
372.706	93.38
372.932	92.38
373.158	89.38
373.384	88.38
373.61	107.38
373.835	92.38
374.061	86.38
374.287	86.38
374.513	96.38
374.739	93.38
374.965	97.38
375.191	93.38
375.416	96.38
375.642	100.38
375.868	76.38
376.094	98.38
376.319	86.38
376.545	98.38
376.771	99.38
376.997	81.38
377.222	97.38
377.448	95.38
377.674	78.38
377.899	93.38
378.125	116.38
378.35	86.38
378.576	98.38
378.802	108.38
379.027	80.38
379.253	86.38
379.478	88.38
379.704	109.38
379.929	98.38
380.155	94.38
380.38	89.38
380.606	94.38
380.831	88.38
381.057	99.38
381.282	96.38
381.507	88.38
381.733	109.38
381.958	107.38
382.184	99.38
382.409	96.38
382.634	97.38
382.86	103.38
383.085	105.38
383.31	111.38
383.535	98.38
383.761	98.38
383.986	120.38
384.211	104.38
384.436	97.38
384.662	102.38
384.887	114.38
385.112	114.38
385.337	115.38
385.562	109.38
385.787	112.38
386.013	124.38
386.238	124.38
386.463	118.38
386.688	113.38
386.913	113.38
387.138	128.38
387.363	94.38
387.588	120.38
387.813	128.38
388.038	105.38
388.263	121.38
388.488	116.38
388.713	105.38
388.938	112.38
389.163	105.38
389.387	103.38
389.612	97.38
389.837	92.38
390.062	104.38
390.287	106.38
390.512	106.38
390.736	86.38
390.961	91.38
391.186	98.38
391.411	103.38
391.636	114.38
391.86	96.38
392.085	84.38
392.31	94.38
392.534	96.38
392.759	86.38
392.984	94.38
393.208	96.38
393.433	109.38
393.658	97.38
393.882	89.38
394.107	83.38
394.331	74.38
394.556	84.38
394.78	100.38
395.005	83.38
395.229	92.38
395.454	90.38
395.678	89.38
395.903	90.38
396.127	99.38
396.352	82.38
396.576	106.38
396.801	106.38
397.025	101.38
397.249	82.38
397.474	73.38
397.698	94.38
397.922	85.38
398.147	94.38
398.371	85.38
398.595	90.38
398.82	85.38
399.044	76.38
399.268	75.38
399.492	91.38
399.717	98.38
399.941	95.38
400.165	100.38
400.389	85.38
400.613	93.38
400.837	94.38
401.062	85.38
401.286	89.38
401.51	90.38
401.734	98.38
401.958	92.38
402.182	107.38
402.406	125.38
402.63	105.38
402.854	86.38
403.078	98.38
403.302	97.38
403.526	99.38
403.75	90.38
403.974	85.38
404.198	90.38
404.422	95.38
404.645	101.38
404.869	88.38
405.093	85.38
405.317	107.38
405.541	102.38
405.765	84.38
405.988	114.38
406.212	153.38
406.436	206.38
406.66	120.38
406.883	101.38
407.107	90.38
407.331	83.38
407.555	108.38
407.778	94.38
408.002	77.38
408.226	96.38
408.449	100.38
408.673	97.38
408.896	95.38
409.12	100.38
409.344	95.38
409.567	91.38
409.791	89.38
410.014	92.38
410.238	98.38
410.461	94.38
410.685	86.38
410.908	90.38
411.132	106.38
411.355	115.38
411.578	73.38
411.802	88.38
412.025	96.38
412.249	100.38
412.472	106.38
412.695	99.38
412.919	86.38
413.142	82.38
413.365	82.38
413.589	97.38
413.812	88.38
414.035	103.38
414.258	89.38
414.482	98.38
414.705	92.38
414.928	94.38
415.151	82.38
415.374	101.38
415.597	86.38
415.821	90.38
416.044	92.38
416.267	90.38
416.49	98.38
416.713	80.38
416.936	103.38
417.159	99.38
417.382	88.38
417.605	88.38
417.828	96.38
418.051	97.38
418.274	94.38
418.497	76.38
418.72	98.38
418.943	99.38
419.166	94.38
419.389	90.38
419.611	92.38
419.834	84.38
420.057	84.38
420.28	89.38
420.503	80.38
420.726	84.38
420.948	90.38
421.171	94.38
421.394	99.38
421.617	81.38
421.839	97.38
422.062	104.38
422.285	104.38
422.507	94.38
422.73	104.38
422.953	107.38
423.175	89.38
423.398	91.38
423.621	89.38
423.843	92.38
424.066	76.38
424.288	76.38
424.511	96.38
424.733	102.38
424.956	106.38
425.178	107.38
425.401	92.38
425.623	90.38
425.846	87.38
426.068	91.38
426.291	102.38
426.513	88.38
426.735	94.38
426.958	98.38
427.18	108.38
427.402	128.38
427.625	138.38
427.847	109.38
428.069	97.38
428.292	89.38
428.514	87.38
428.736	83.38
428.958	92.38
429.181	97.38
429.403	102.38
429.625	78.38
429.847	92.38
430.069	83.38
430.292	87.38
430.514	75.38
430.736	84.38
430.958	89.38
431.18	78.38
431.402	83.38
431.624	90.38
431.846	76.38
432.068	73.38
432.29	77.38
432.512	94.38
432.734	93.38
432.956	93.38
433.178	95.38
433.4	91.38
433.622	90.38
433.844	100.38
434.066	99.38
434.287	83.38
434.509	81.38
434.731	97.38
434.953	93.38
435.175	86.38
435.397	94.38
435.618	94.38
435.84	93.38
436.062	100.38
436.284	108.38
436.505	91.38
436.727	91.38
436.949	89.38
437.17	92.38
437.392	105.38
437.614	97.38
437.835	105.38
438.057	104.38
438.278	90.38
438.5	104.38
438.721	113.38
438.943	93.38
439.165	98.38
439.386	93.38
439.608	96.38
439.829	91.38
440.05	108.38
440.272	124.38
440.493	103.38
440.715	86.38
440.936	86.38
441.158	88.38
441.379	94.38
441.6	94.38
441.822	82.38
442.043	90.38
442.264	89.38
442.486	85.38
442.707	90.38
442.928	98.38
443.149	125.38
443.371	109.38
443.592	121.38
443.813	118.38
444.034	103.38
444.255	84.38
444.476	78.38
444.698	73.38
444.919	87.38
445.14	121.38
445.361	125.38
445.582	105.38
445.803	141.38
446.024	114.38
446.245	115.38
446.466	108.38
446.687	85.38
446.908	89.38
447.129	89.38
447.35	86.38
447.571	96.38
447.792	101.38
448.013	108.38
448.234	94.38
448.455	99.38
448.675	96.38
448.896	101.38
449.117	93.38
449.338	102.38
449.559	107.38
449.779	107.38
450	102.38
450.221	75.38
450.442	93.38
450.662	85.38
450.883	105.38
451.104	104.38
451.324	96.38
451.545	86.38
451.766	96.38
451.986	89.38
452.207	84.38
452.428	98.38
452.648	100.38
452.869	87.38
453.089	100.38
453.31	119.38
453.53	96.38
453.751	94.38
453.971	94.38
454.192	114.38
454.412	99.38
454.633	85.38
454.853	80.38
455.073	94.38
455.294	85.38
455.514	98.38
455.734	101.38
455.955	86.38
456.175	90.38
456.395	96.38
456.616	77.38
456.836	80.38
457.056	84.38
457.276	70.38
457.497	75.38
457.717	77.38
457.937	76.38
458.157	87.38
458.377	88.38
458.598	87.38
458.818	131.38
459.038	132.38
459.258	101.38
459.478	97.38
459.698	87.38
459.918	85.38
460.138	84.38
460.358	93.38
460.578	89.38
460.798	98.38
461.018	97.38
461.238	84.38
461.458	79.38
461.678	97.38
461.898	90.38
462.118	76.38
462.338	86.38
462.558	86.38
462.777	69.38
462.997	100.38
463.217	93.38
463.437	91.38
463.657	77.38
463.876	90.38
464.096	93.38
464.316	108.38
464.536	82.38
464.755	83.38
464.975	95.38
465.195	132.38
465.414	145.38
465.634	90.38
465.854	71.38
466.073	78.38
466.293	93.38
466.512	89.38
466.732	85.38
466.951	89.38
467.171	91.38
467.391	98.38
467.61	98.38
467.829	106.38
468.049	82.38
468.268	89.38
468.488	92.38
468.707	86.38
468.927	94.38
469.146	100.38
469.365	94.38
469.585	88.38
469.804	89.38
470.023	99.38
470.243	78.38
470.462	92.38
470.681	106.38
470.901	87.38
471.12	85.38
471.339	83.38
471.558	78.38
471.777	94.38
471.997	94.38
472.216	85.38
472.435	122.38
472.654	100.38
472.873	88.38
473.092	94.38
473.311	97.38
473.53	84.38
473.749	91.38
473.968	89.38
474.187	88.38
474.406	97.38
474.625	88.38
474.844	87.38
475.063	89.38
475.282	93.38
475.501	74.38
475.72	96.38
475.939	98.38
476.158	81.38
476.377	86.38
476.596	91.38
476.814	91.38
477.033	92.38
477.252	90.38
477.471	82.38
477.69	99.38
477.908	98.38
478.127	79.38
478.346	90.38
478.564	92.38
478.783	94.38
479.002	107.38
479.22	86.38
479.439	95.38
479.658	101.38
479.876	77.38
480.095	93.38
480.313	98.38
480.532	84.38
480.751	105.38
480.969	88.38
481.188	159.38
481.406	122.38
481.624	91.38
481.843	83.38
482.061	86.38
482.28	95.38
482.498	90.38
482.717	88.38
482.935	94.38
483.153	103.38
483.372	89.38
483.59	80.38
483.808	71.38
484.027	82.38
484.245	94.38
484.463	106.38
484.681	94.38
484.9	100.38
485.118	89.38
485.336	101.38
485.554	99.38
485.772	106.38
485.99	107.38
486.209	117.38
486.427	94.38
486.645	118.38
486.863	104.38
487.081	88.38
487.299	86.38
487.517	100.38
487.735	80.38
487.953	88.38
488.171	92.38
488.389	93.38
488.607	103.38
488.825	98.38
489.043	90.38
489.261	97.38
489.479	88.38
489.696	92.38
489.914	84.38
490.132	100.38
490.35	99.38
490.568	88.38
490.786	92.38
491.003	81.38
491.221	87.38
491.439	69.38
491.657	94.38
491.874	91.38
492.092	77.38
492.31	88.38
492.527	97.38
492.745	90.38
492.963	92.38
493.18	90.38
493.398	88.38
493.615	83.38
493.833	95.38
494.05	80.38
494.268	99.38
494.485	81.38
494.703	92.38
494.92	94.38
495.138	77.38
495.355	88.38
495.573	100.38
495.79	84.38
496.008	91.38
496.225	87.38
496.442	98.38
496.66	94.38
496.877	105.38
497.094	99.38
497.312	88.38
497.529	92.38
497.746	97.38
497.963	93.38
498.181	84.38
498.398	102.38
498.615	94.38
498.832	101.38
499.049	89.38
499.267	97.38
499.484	96.38
499.701	92.38
499.918	100.38
500.135	89.38
500.352	83.38
500.569	88.38
500.786	73.38
501.003	92.38
501.22	87.38
501.437	89.38
501.654	92.38
501.871	98.38
502.088	102.38
502.305	84.38
502.522	107.38
502.739	101.38
502.956	96.38
503.172	64.38
503.389	82.38
503.606	101.38
503.823	103.38
504.04	105.38
504.256	89.38
504.473	89.38
504.69	83.38
504.907	93.38
505.123	80.38
505.34	96.38
505.557	89.38
505.773	85.38
505.99	90.38
506.207	92.38
506.423	90.38
506.64	94.38
506.856	76.38
507.073	88.38
507.289	94.38
507.506	105.38
507.722	105.38
507.939	102.38
508.155	104.38
508.372	100.38
508.588	100.38
508.805	101.38
509.021	89.38
509.238	90.38
509.454	98.38
509.67	109.38
509.887	102.38
510.103	122.38
510.319	181.38
510.536	615.38
510.752	1859.38
510.968	514.38
511.184	148.38
511.401	116.38
511.617	87.38
511.833	92.38
512.049	92.38
512.265	80.38
512.481	105.38
512.698	92.38
512.914	94.38
513.13	94.38
513.346	84.38
513.562	89.38
513.778	84.38
513.994	100.38
514.21	83.38
514.426	102.38
514.642	123.38
514.858	101.38
515.074	147.38
515.29	342.38
515.506	1084.38
515.721	414.38
