Data from Circ_1985_H10_HRD10591_00061.txt Node
Date: Wed Jan 03 12:19:34 EST 2024
User: Yrep
Spectrometer: HR+D1059
Trigger mode: 1
Integration Time (sec): 1.000000E-1
Scans to average: 1
Electric dark correction enabled: true
Nonlinearity correction enabled: false
Boxcar width: 0
XAxis mode: Wavelengths
Number of Pixels in Spectrum: 2048
>>>>>Begin Spectral Data<<<<<
223.165	-17.12
223.4	-17.12
223.635	-17.12
223.869	-20.12
224.104	-22.12
224.338	-6.12
224.573	-19.12
224.808	-11.12
225.042	-14.12
225.277	-7.12
225.511	-12.12
225.746	1.88
225.98	13.88
226.215	13.88
226.449	20.88
226.683	32.88
226.918	25.88
227.152	19.88
227.387	21.88
227.621	50.88
227.856	44.88
228.09	44.88
228.324	53.88
228.559	64.88
228.793	63.88
229.027	77.88
229.262	65.88
229.496	82.88
229.73	77.88
229.964	76.88
230.199	80.88
230.433	56.88
230.667	73.88
230.901	78.88
231.136	77.88
231.37	69.88
231.604	85.88
231.838	96.88
232.072	91.88
232.306	90.88
232.541	78.88
232.775	91.88
233.009	73.88
233.243	85.88
233.477	84.88
233.711	63.88
233.945	82.88
234.179	73.88
234.413	73.88
234.647	80.88
234.881	68.88
235.115	85.88
235.349	68.88
235.583	76.88
235.817	69.88
236.051	73.88
236.285	75.88
236.519	81.88
236.753	83.88
236.987	82.88
237.221	78.88
237.455	88.88
237.689	91.88
237.922	69.88
238.156	73.88
238.39	76.88
238.624	64.88
238.858	85.88
239.091	69.88
239.325	76.88
239.559	89.88
239.793	76.88
240.027	71.88
240.26	74.88
240.494	88.88
240.728	92.88
240.961	81.88
241.195	85.88
241.429	87.88
241.662	66.88
241.896	77.88
242.13	77.88
242.363	70.88
242.597	78.88
242.83	81.88
243.064	89.88
243.298	70.88
243.531	81.88
243.765	61.88
243.998	83.88
244.232	69.88
244.465	82.88
244.699	67.88
244.932	62.88
245.166	74.88
245.399	80.88
245.633	83.88
245.866	76.88
246.099	69.88
246.333	70.88
246.566	81.88
246.8	78.88
247.033	85.88
247.266	75.88
247.5	92.88
247.733	69.88
247.966	84.88
248.2	84.88
248.433	74.88
248.666	80.88
248.899	89.88
249.133	84.88
249.366	81.88
249.599	85.88
249.832	85.88
250.066	76.88
250.299	84.88
250.532	60.88
250.765	92.88
250.998	93.88
251.231	81.88
251.465	85.88
251.698	81.88
251.931	73.88
252.164	67.88
252.397	85.88
252.63	82.88
252.863	84.88
253.096	63.88
253.329	72.88
253.562	82.88
253.795	76.88
254.028	99.88
254.261	72.88
254.494	82.88
254.727	84.88
254.96	71.88
255.193	82.88
255.426	84.88
255.659	76.88
255.892	68.88
256.124	79.88
256.357	91.88
256.59	89.88
256.823	73.88
257.056	85.88
257.289	86.88
257.521	93.88
257.754	83.88
257.987	88.88
258.22	84.88
258.452	87.88
258.685	87.88
258.918	87.88
259.151	90.88
259.383	101.88
259.616	82.88
259.849	84.88
260.081	85.88
260.314	89.88
260.547	93.88
260.779	85.88
261.012	90.88
261.244	91.88
261.477	84.88
261.71	80.88
261.942	98.88
262.175	114.88
262.407	90.88
262.64	94.88
262.872	86.88
263.105	101.88
263.337	76.88
263.57	71.88
263.802	85.88
264.035	92.88
264.267	95.88
264.499	80.88
264.732	80.88
264.964	78.88
265.197	82.88
265.429	77.88
265.661	73.88
265.894	65.88
266.126	67.88
266.358	91.88
266.591	73.88
266.823	84.88
267.055	75.88
267.287	82.88
267.52	78.88
267.752	81.88
267.984	73.88
268.216	81.88
268.448	85.88
268.681	86.88
268.913	85.88
269.145	94.88
269.377	88.88
269.609	94.88
269.841	85.88
270.073	81.88
270.306	85.88
270.538	93.88
270.77	102.88
271.002	84.88
271.234	83.88
271.466	77.88
271.698	73.88
271.93	74.88
272.162	84.88
272.394	95.88
272.626	80.88
272.858	92.88
273.09	93.88
273.322	80.88
273.553	95.88
273.785	80.88
274.017	91.88
274.249	80.88
274.481	80.88
274.713	79.88
274.945	91.88
275.176	84.88
275.408	80.88
275.64	81.88
275.872	83.88
276.104	97.88
276.335	92.88
276.567	92.88
276.799	93.88
277.031	83.88
277.262	100.88
277.494	94.88
277.726	86.88
277.957	77.88
278.189	93.88
278.421	77.88
278.652	89.88
278.884	96.88
279.115	83.88
279.347	84.88
279.579	75.88
279.81	86.88
280.042	88.88
280.273	90.88
280.505	80.88
280.736	87.88
280.968	87.88
281.199	90.88
281.431	81.88
281.662	77.88
281.894	93.88
282.125	96.88
282.356	120.88
282.588	129.88
282.819	100.88
283.051	96.88
283.282	88.88
283.513	91.88
283.745	84.88
283.976	85.88
284.207	89.88
284.439	80.88
284.67	83.88
284.901	93.88
285.132	86.88
285.364	96.88
285.595	86.88
285.826	84.88
286.057	91.88
286.288	82.88
286.52	91.88
286.751	84.88
286.982	90.88
287.213	86.88
287.444	92.88
287.675	92.88
287.906	75.88
288.138	81.88
288.369	101.88
288.6	86.88
288.831	89.88
289.062	96.88
289.293	107.88
289.524	86.88
289.755	87.88
289.986	91.88
290.217	77.88
290.448	89.88
290.679	83.88
290.91	82.88
291.141	91.88
291.371	85.88
291.602	84.88
291.833	88.88
292.064	83.88
292.295	100.88
292.526	95.88
292.757	94.88
292.987	72.88
293.218	92.88
293.449	89.88
293.68	93.88
293.91	93.88
294.141	91.88
294.372	91.88
294.603	83.88
294.833	92.88
295.064	95.88
295.295	109.88
295.525	98.88
295.756	101.88
295.987	107.88
296.217	130.88
296.448	122.88
296.679	92.88
296.909	89.88
297.14	94.88
297.37	87.88
297.601	86.88
297.831	83.88
298.062	89.88
298.292	86.88
298.523	84.88
298.753	90.88
298.984	97.88
299.214	90.88
299.445	99.88
299.675	105.88
299.905	108.88
300.136	80.88
300.366	88.88
300.597	96.88
300.827	97.88
301.057	94.88
301.288	102.88
301.518	98.88
301.748	91.88
301.979	98.88
302.209	74.88
302.439	90.88
302.669	99.88
302.9	81.88
303.13	97.88
303.36	95.88
303.59	108.88
303.82	104.88
304.051	88.88
304.281	93.88
304.511	95.88
304.741	91.88
304.971	99.88
305.201	92.88
305.431	78.88
305.661	80.88
305.891	83.88
306.121	95.88
306.352	106.88
306.582	109.88
306.812	91.88
307.042	89.88
307.272	91.88
307.502	100.88
307.731	91.88
307.961	77.88
308.191	81.88
308.421	90.88
308.651	90.88
308.881	106.88
309.111	80.88
309.341	90.88
309.571	93.88
309.8	90.88
310.03	98.88
310.26	90.88
310.49	98.88
310.72	88.88
310.949	105.88
311.179	82.88
311.409	94.88
311.639	98.88
311.868	105.88
312.098	100.88
312.328	94.88
312.557	98.88
312.787	101.88
313.017	98.88
313.246	99.88
313.476	93.88
313.706	90.88
313.935	101.88
314.165	98.88
314.394	69.88
314.624	99.88
314.853	111.88
315.083	92.88
315.312	99.88
315.542	100.88
315.771	94.88
316.001	80.88
316.23	93.88
316.46	100.88
316.689	87.88
316.919	105.88
317.148	93.88
317.377	99.88
317.607	93.88
317.836	74.88
318.065	99.88
318.295	102.88
318.524	96.88
318.753	92.88
318.983	82.88
319.212	114.88
319.441	110.88
319.67	109.88
319.9	104.88
320.129	93.88
320.358	96.88
320.587	93.88
320.816	101.88
321.046	97.88
321.275	107.88
321.504	80.88
321.733	86.88
321.962	96.88
322.191	89.88
322.42	104.88
322.649	100.88
322.878	109.88
323.108	114.88
323.337	121.88
323.566	123.88
323.795	143.88
324.024	196.88
324.253	365.88
324.482	772.88
324.71	1583.88
324.939	2136.88
325.168	779.88
325.397	222.88
325.626	131.88
325.855	126.88
326.084	122.88
326.313	126.88
326.542	149.88
326.77	230.88
326.999	431.88
327.228	860.88
327.457	1688.88
327.686	1314.88
327.914	362.88
328.143	189.88
328.372	144.88
328.6	115.88
328.829	105.88
329.058	116.88
329.287	122.88
329.515	120.88
329.744	97.88
329.972	115.88
330.201	114.88
330.43	135.88
330.658	119.88
330.887	137.88
331.115	114.88
331.344	86.88
331.572	98.88
331.801	114.88
332.03	102.88
332.258	98.88
332.486	83.88
332.715	90.88
332.943	93.88
333.172	83.88
333.4	107.88
333.629	117.88
333.857	110.88
334.085	105.88
334.314	129.88
334.542	138.88
334.771	132.88
334.999	102.88
335.227	101.88
335.455	105.88
335.684	108.88
335.912	103.88
336.14	102.88
336.369	108.88
336.597	94.88
336.825	96.88
337.053	97.88
337.281	97.88
337.51	96.88
337.738	107.88
337.966	83.88
338.194	86.88
338.422	102.88
338.65	104.88
338.878	89.88
339.106	90.88
339.334	94.88
339.562	84.88
339.79	95.88
340.018	104.88
340.246	89.88
340.474	95.88
340.702	99.88
340.93	93.88
341.158	102.88
341.386	96.88
341.614	91.88
341.842	99.88
342.07	88.88
342.298	89.88
342.526	98.88
342.754	74.88
342.981	94.88
343.209	90.88
343.437	108.88
343.665	84.88
343.893	88.88
344.12	87.88
344.348	94.88
344.576	87.88
344.804	91.88
345.031	90.88
345.259	104.88
345.487	101.88
345.714	93.88
345.942	96.88
346.17	88.88
346.397	88.88
346.625	88.88
346.853	86.88
347.08	83.88
347.308	99.88
347.535	98.88
347.763	110.88
347.99	109.88
348.218	97.88
348.445	97.88
348.673	101.88
348.9	100.88
349.128	102.88
349.355	84.88
349.583	109.88
349.81	95.88
350.037	76.88
350.265	92.88
350.492	87.88
350.72	101.88
350.947	90.88
351.174	96.88
351.402	110.88
351.629	120.88
351.856	99.88
352.083	118.88
352.311	105.88
352.538	105.88
352.765	101.88
352.992	128.88
353.22	110.88
353.447	101.88
353.674	84.88
353.901	97.88
354.128	109.88
354.355	91.88
354.583	97.88
354.81	92.88
355.037	100.88
355.264	106.88
355.491	88.88
355.718	117.88
355.945	77.88
356.172	101.88
356.399	98.88
356.626	103.88
356.853	93.88
357.08	95.88
357.307	94.88
357.534	107.88
357.761	99.88
357.988	91.88
358.215	95.88
358.441	89.88
358.668	84.88
358.895	83.88
359.122	84.88
359.349	90.88
359.576	104.88
359.802	102.88
360.029	123.88
360.256	97.88
360.483	96.88
360.709	86.88
360.936	99.88
361.163	81.88
361.39	74.88
361.616	98.88
361.843	98.88
362.07	101.88
362.296	81.88
362.523	100.88
362.749	91.88
362.976	91.88
363.203	107.88
363.429	85.88
363.656	92.88
363.882	83.88
364.109	101.88
364.335	84.88
364.562	88.88
364.788	91.88
365.015	88.88
365.241	93.88
365.468	102.88
365.694	103.88
365.92	100.88
366.147	92.88
366.373	90.88
366.599	93.88
366.826	89.88
367.052	87.88
367.278	87.88
367.505	102.88
367.731	86.88
367.957	93.88
368.184	87.88
368.41	78.88
368.636	109.88
368.862	108.88
369.089	105.88
369.315	85.88
369.541	99.88
369.767	85.88
369.993	92.88
370.219	97.88
370.445	85.88
370.672	102.88
370.898	81.88
371.124	92.88
371.35	98.88
371.576	90.88
371.802	72.88
372.028	88.88
372.254	87.88
372.48	60.88
372.706	81.88
372.932	81.88
373.158	91.88
373.384	99.88
373.61	83.88
373.835	92.88
374.061	96.88
374.287	91.88
374.513	81.88
374.739	85.88
374.965	74.88
375.191	84.88
375.416	104.88
375.642	95.88
375.868	93.88
376.094	88.88
376.319	93.88
376.545	91.88
376.771	87.88
376.997	88.88
377.222	92.88
377.448	112.88
377.674	86.88
377.899	93.88
378.125	85.88
378.35	96.88
378.576	82.88
378.802	83.88
379.027	101.88
379.253	89.88
379.478	102.88
379.704	99.88
379.929	91.88
380.155	84.88
380.38	93.88
380.606	101.88
380.831	89.88
381.057	96.88
381.282	107.88
381.507	92.88
381.733	93.88
381.958	101.88
382.184	103.88
382.409	103.88
382.634	98.88
382.86	94.88
383.085	101.88
383.31	98.88
383.535	97.88
383.761	108.88
383.986	100.88
384.211	94.88
384.436	105.88
384.662	104.88
384.887	85.88
385.112	109.88
385.337	106.88
385.562	105.88
385.787	109.88
386.013	109.88
386.238	100.88
386.463	106.88
386.688	114.88
386.913	106.88
387.138	102.88
387.363	120.88
387.588	94.88
387.813	104.88
388.038	110.88
388.263	103.88
388.488	106.88
388.713	98.88
388.938	88.88
389.163	94.88
389.387	101.88
389.612	83.88
389.837	90.88
390.062	90.88
390.287	83.88
390.512	90.88
390.736	91.88
390.961	84.88
391.186	98.88
391.411	94.88
391.636	91.88
391.86	85.88
392.085	101.88
392.31	91.88
392.534	101.88
392.759	88.88
392.984	90.88
393.208	82.88
393.433	98.88
393.658	93.88
393.882	85.88
394.107	103.88
394.331	76.88
394.556	94.88
394.78	99.88
395.005	88.88
395.229	88.88
395.454	90.88
395.678	89.88
395.903	86.88
396.127	82.88
396.352	92.88
396.576	75.88
396.801	101.88
397.025	97.88
397.249	90.88
397.474	88.88
397.698	96.88
397.922	88.88
398.147	98.88
398.371	107.88
398.595	85.88
398.82	103.88
399.044	102.88
399.268	84.88
399.492	94.88
399.717	94.88
399.941	83.88
400.165	76.88
400.389	99.88
400.613	85.88
400.837	92.88
401.062	92.88
401.286	94.88
401.51	88.88
401.734	90.88
401.958	109.88
402.182	115.88
402.406	131.88
402.63	117.88
402.854	93.88
403.078	83.88
403.302	99.88
403.526	97.88
403.75	90.88
403.974	74.88
404.198	86.88
404.422	90.88
404.645	102.88
404.869	81.88
405.093	85.88
405.317	102.88
405.541	101.88
405.765	102.88
405.988	118.88
406.212	139.88
406.436	203.88
406.66	129.88
406.883	84.88
407.107	98.88
407.331	84.88
407.555	104.88
407.778	83.88
408.002	84.88
408.226	75.88
408.449	97.88
408.673	94.88
408.896	109.88
409.12	103.88
409.344	85.88
409.567	87.88
409.791	96.88
410.014	95.88
410.238	80.88
410.461	88.88
410.685	89.88
410.908	103.88
411.132	105.88
411.355	100.88
411.578	86.88
411.802	95.88
412.025	76.88
412.249	95.88
412.472	97.88
412.695	107.88
412.919	77.88
413.142	96.88
413.365	96.88
413.589	92.88
413.812	89.88
414.035	72.88
414.258	107.88
414.482	91.88
414.705	109.88
414.928	91.88
415.151	88.88
415.374	96.88
415.597	86.88
415.821	81.88
416.044	86.88
416.267	91.88
416.49	94.88
416.713	101.88
416.936	87.88
417.159	83.88
417.382	92.88
417.605	87.88
417.828	82.88
418.051	82.88
418.274	93.88
418.497	94.88
418.72	87.88
418.943	106.88
419.166	90.88
419.389	90.88
419.611	100.88
419.834	80.88
420.057	83.88
420.28	85.88
420.503	86.88
420.726	96.88
420.948	82.88
421.171	90.88
421.394	87.88
421.617	78.88
421.839	84.88
422.062	81.88
422.285	101.88
422.507	107.88
422.73	94.88
422.953	88.88
423.175	93.88
423.398	86.88
423.621	78.88
423.843	86.88
424.066	91.88
424.288	78.88
424.511	82.88
424.733	98.88
424.956	100.88
425.178	96.88
425.401	92.88
425.623	97.88
425.846	86.88
426.068	99.88
426.291	90.88
426.513	95.88
426.735	91.88
426.958	102.88
427.18	113.88
427.402	119.88
427.625	132.88
427.847	128.88
428.069	120.88
428.292	85.88
428.514	103.88
428.736	82.88
428.958	84.88
429.181	96.88
429.403	87.88
429.625	77.88
429.847	88.88
430.069	98.88
430.292	91.88
430.514	100.88
430.736	91.88
430.958	103.88
431.18	90.88
431.402	86.88
431.624	92.88
431.846	89.88
432.068	88.88
432.29	82.88
432.512	88.88
432.734	93.88
432.956	99.88
433.178	108.88
433.4	101.88
433.622	88.88
433.844	89.88
434.066	75.88
434.287	84.88
434.509	90.88
434.731	95.88
434.953	90.88
435.175	81.88
435.397	90.88
435.618	92.88
435.84	100.88
436.062	112.88
436.284	112.88
436.505	106.88
436.727	112.88
436.949	94.88
437.17	86.88
437.392	102.88
437.614	91.88
437.835	97.88
438.057	120.88
438.278	107.88
438.5	97.88
438.721	106.88
438.943	101.88
439.165	92.88
439.386	81.88
439.608	75.88
439.829	94.88
440.05	109.88
440.272	128.88
440.493	91.88
440.715	95.88
440.936	80.88
441.158	86.88
441.379	75.88
441.6	89.88
441.822	104.88
442.043	93.88
442.264	107.88
442.486	104.88
442.707	93.88
442.928	98.88
443.149	110.88
443.371	109.88
443.592	94.88
443.813	99.88
444.034	120.88
444.255	95.88
444.476	90.88
444.698	93.88
444.919	107.88
445.14	140.88
445.361	127.88
445.582	120.88
445.803	135.88
446.024	114.88
446.245	124.88
446.466	116.88
446.687	92.88
446.908	103.88
447.129	84.88
447.35	101.88
447.571	88.88
447.792	103.88
448.013	105.88
448.234	110.88
448.455	102.88
448.675	104.88
448.896	116.88
449.117	116.88
449.338	101.88
449.559	122.88
449.779	108.88
450	114.88
450.221	77.88
450.442	99.88
450.662	93.88
450.883	97.88
451.104	102.88
451.324	101.88
451.545	91.88
451.766	85.88
451.986	93.88
452.207	83.88
452.428	86.88
452.648	101.88
452.869	107.88
453.089	100.88
453.31	109.88
453.53	92.88
453.751	97.88
453.971	92.88
454.192	105.88
454.412	92.88
454.633	92.88
454.853	82.88
455.073	78.88
455.294	92.88
455.514	91.88
455.734	85.88
455.955	82.88
456.175	91.88
456.395	82.88
456.616	81.88
456.836	87.88
457.056	87.88
457.276	88.88
457.497	84.88
457.717	93.88
457.937	83.88
458.157	85.88
458.377	87.88
458.598	102.88
458.818	138.88
459.038	121.88
459.258	109.88
459.478	89.88
459.698	73.88
459.918	97.88
460.138	82.88
460.358	80.88
460.578	87.88
460.798	101.88
461.018	86.88
461.238	92.88
461.458	91.88
461.678	94.88
461.898	94.88
462.118	103.88
462.338	85.88
462.558	82.88
462.777	86.88
462.997	86.88
463.217	108.88
463.437	77.88
463.657	101.88
463.876	97.88
464.096	96.88
464.316	89.88
464.536	93.88
464.755	97.88
464.975	96.88
465.195	136.88
465.414	148.88
465.634	98.88
465.854	84.88
466.073	94.88
466.293	89.88
466.512	85.88
466.732	76.88
466.951	85.88
467.171	90.88
467.391	100.88
467.61	98.88
467.829	89.88
468.049	105.88
468.268	100.88
468.488	99.88
468.707	97.88
468.927	95.88
469.146	93.88
469.365	86.88
469.585	89.88
469.804	104.88
470.023	103.88
470.243	90.88
470.462	103.88
470.681	97.88
470.901	103.88
471.12	93.88
471.339	102.88
471.558	93.88
471.777	96.88
471.997	84.88
472.216	128.88
472.435	145.88
472.654	89.88
472.873	81.88
473.092	90.88
473.311	96.88
473.53	80.88
473.749	80.88
473.968	100.88
474.187	97.88
474.406	92.88
474.625	87.88
474.844	85.88
475.063	71.88
475.282	105.88
475.501	91.88
475.72	93.88
475.939	103.88
476.158	93.88
476.377	82.88
476.596	86.88
476.814	81.88
477.033	100.88
477.252	100.88
477.471	86.88
477.69	91.88
477.908	78.88
478.127	86.88
478.346	93.88
478.564	84.88
478.783	90.88
479.002	86.88
479.22	86.88
479.439	92.88
479.658	105.88
479.876	90.88
480.095	82.88
480.313	76.88
480.532	76.88
480.751	94.88
480.969	132.88
481.188	222.88
481.406	160.88
481.624	91.88
481.843	98.88
482.061	84.88
482.28	97.88
482.498	86.88
482.717	92.88
482.935	77.88
483.153	75.88
483.372	97.88
483.59	85.88
483.808	93.88
484.027	96.88
484.245	96.88
484.463	94.88
484.681	96.88
484.9	99.88
485.118	100.88
485.336	100.88
485.554	93.88
485.772	103.88
485.99	103.88
486.209	96.88
486.427	108.88
486.645	115.88
486.863	125.88
487.081	112.88
487.299	97.88
487.517	78.88
487.735	90.88
487.953	94.88
488.171	88.88
488.389	92.88
488.607	88.88
488.825	96.88
489.043	93.88
489.261	104.88
489.479	79.88
489.696	83.88
489.914	108.88
490.132	89.88
490.35	81.88
490.568	83.88
490.786	96.88
491.003	83.88
491.221	88.88
491.439	111.88
491.657	103.88
491.874	90.88
492.092	97.88
492.31	72.88
492.527	99.88
492.745	96.88
492.963	96.88
493.18	97.88
493.398	82.88
493.615	91.88
493.833	107.88
494.05	75.88
494.268	94.88
494.485	99.88
494.703	77.88
494.92	86.88
495.138	91.88
495.355	96.88
495.573	91.88
495.79	91.88
496.008	100.88
496.225	94.88
496.442	96.88
496.66	90.88
496.877	93.88
497.094	78.88
497.312	94.88
497.529	75.88
497.746	93.88
497.963	94.88
498.181	93.88
498.398	85.88
498.615	115.88
498.832	100.88
499.049	96.88
499.267	94.88
499.484	82.88
499.701	86.88
499.918	92.88
500.135	76.88
500.352	83.88
500.569	84.88
500.786	91.88
501.003	102.88
501.22	84.88
501.437	88.88
501.654	91.88
501.871	109.88
502.088	98.88
502.305	92.88
502.522	96.88
502.739	86.88
502.956	88.88
503.172	83.88
503.389	90.88
503.606	105.88
503.823	107.88
504.04	93.88
504.256	104.88
504.473	98.88
504.69	109.88
504.907	105.88
505.123	78.88
505.34	81.88
505.557	92.88
505.773	97.88
505.99	94.88
506.207	93.88
506.423	84.88
506.64	72.88
506.856	76.88
507.073	86.88
507.289	82.88
507.506	86.88
507.722	104.88
507.939	103.88
508.155	105.88
508.372	99.88
508.588	91.88
508.805	93.88
509.021	101.88
509.238	108.88
509.454	117.88
509.67	94.88
509.887	102.88
510.103	129.88
510.319	197.88
510.536	683.88
510.752	2103.88
510.968	587.88
511.184	146.88
511.401	102.88
511.617	90.88
511.833	107.88
512.049	88.88
512.265	89.88
512.481	107.88
512.698	104.88
512.914	100.88
513.13	100.88
513.346	89.88
513.562	116.88
513.778	86.88
513.994	84.88
514.21	90.88
514.426	120.88
514.642	121.88
514.858	107.88
515.074	150.88
515.29	376.88
