Data from Circ_1985_H10_HRD10591_00084.txt Node
Date: Wed Jan 03 12:19:39 EST 2024
User: Yrep
Spectrometer: HR+D1059
Trigger mode: 1
Integration Time (sec): 1.000000E-1
Scans to average: 1
Electric dark correction enabled: true
Nonlinearity correction enabled: false
Boxcar width: 0
XAxis mode: Wavelengths
Number of Pixels in Spectrum: 2048
>>>>>Begin Spectral Data<<<<<
223.165	-7.56
223.4	-7.56
223.635	-7.56
223.869	-35.56
224.104	-17.56
224.338	-22.56
224.573	-22.56
224.808	-12.56
225.042	-7.56
225.277	-15.56
225.511	-0.56
225.746	-2.56
225.98	1.44
226.215	10.44
226.449	19.44
226.683	36.44
226.918	40.44
227.152	36.44
227.387	39.44
227.621	47.44
227.856	43.44
228.09	39.44
228.324	57.44
228.559	59.44
228.793	60.44
229.027	72.44
229.262	57.44
229.496	69.44
229.73	81.44
229.964	80.44
230.199	89.44
230.433	73.44
230.667	74.44
230.901	68.44
231.136	73.44
231.37	75.44
231.604	88.44
231.838	93.44
232.072	92.44
232.306	84.44
232.541	80.44
232.775	75.44
233.009	95.44
233.243	79.44
233.477	88.44
233.711	79.44
233.945	84.44
234.179	92.44
234.413	88.44
234.647	66.44
234.881	81.44
235.115	85.44
235.349	85.44
235.583	67.44
235.817	65.44
236.051	85.44
236.285	75.44
236.519	69.44
236.753	75.44
236.987	87.44
237.221	85.44
237.455	75.44
237.689	77.44
237.922	68.44
238.156	72.44
238.39	71.44
238.624	60.44
238.858	62.44
239.091	85.44
239.325	83.44
239.559	80.44
239.793	83.44
240.027	62.44
240.26	72.44
240.494	65.44
240.728	67.44
240.961	75.44
241.195	75.44
241.429	85.44
241.662	80.44
241.896	73.44
242.13	74.44
242.363	84.44
242.597	89.44
242.83	86.44
243.064	75.44
243.298	75.44
243.531	72.44
243.765	77.44
243.998	70.44
244.232	75.44
244.465	97.44
244.699	80.44
244.932	82.44
245.166	87.44
245.399	72.44
245.633	77.44
245.866	74.44
246.099	68.44
246.333	89.44
246.566	89.44
246.8	89.44
247.033	72.44
247.266	64.44
247.5	94.44
247.733	81.44
247.966	73.44
248.2	84.44
248.433	76.44
248.666	84.44
248.899	85.44
249.133	81.44
249.366	98.44
249.599	86.44
249.832	87.44
250.066	74.44
250.299	80.44
250.532	72.44
250.765	82.44
250.998	89.44
251.231	83.44
251.465	75.44
251.698	85.44
251.931	79.44
252.164	72.44
252.397	83.44
252.63	79.44
252.863	90.44
253.096	87.44
253.329	79.44
253.562	79.44
253.795	87.44
254.028	79.44
254.261	81.44
254.494	75.44
254.727	93.44
254.96	85.44
255.193	76.44
255.426	81.44
255.659	78.44
255.892	88.44
256.124	92.44
256.357	88.44
256.59	81.44
256.823	76.44
257.056	75.44
257.289	88.44
257.521	87.44
257.754	74.44
257.987	107.44
258.22	96.44
258.452	73.44
258.685	83.44
258.918	61.44
259.151	77.44
259.383	98.44
259.616	95.44
259.849	89.44
260.081	96.44
260.314	88.44
260.547	79.44
260.779	88.44
261.012	67.44
261.244	87.44
261.477	89.44
261.71	88.44
261.942	95.44
262.175	101.44
262.407	77.44
262.64	82.44
262.872	83.44
263.105	85.44
263.337	96.44
263.57	92.44
263.802	81.44
264.035	87.44
264.267	88.44
264.499	74.44
264.732	87.44
264.964	88.44
265.197	90.44
265.429	85.44
265.661	98.44
265.894	76.44
266.126	93.44
266.358	90.44
266.591	93.44
266.823	84.44
267.055	97.44
267.287	78.44
267.52	70.44
267.752	95.44
267.984	87.44
268.216	76.44
268.448	86.44
268.681	84.44
268.913	93.44
269.145	98.44
269.377	87.44
269.609	82.44
269.841	84.44
270.073	90.44
270.306	81.44
270.538	90.44
270.77	75.44
271.002	72.44
271.234	79.44
271.466	84.44
271.698	84.44
271.93	87.44
272.162	82.44
272.394	87.44
272.626	89.44
272.858	85.44
273.09	76.44
273.322	80.44
273.553	92.44
273.785	80.44
274.017	87.44
274.249	77.44
274.481	93.44
274.713	83.44
274.945	72.44
275.176	97.44
275.408	93.44
275.64	103.44
275.872	81.44
276.104	80.44
276.335	104.44
276.567	88.44
276.799	98.44
277.031	97.44
277.262	97.44
277.494	95.44
277.726	93.44
277.957	101.44
278.189	92.44
278.421	82.44
278.652	76.44
278.884	100.44
279.115	89.44
279.347	95.44
279.579	98.44
279.81	95.44
280.042	90.44
280.273	92.44
280.505	96.44
280.736	99.44
280.968	90.44
281.199	91.44
281.431	94.44
281.662	78.44
281.894	90.44
282.125	103.44
282.356	98.44
282.588	137.44
282.819	103.44
283.051	81.44
283.282	92.44
283.513	84.44
283.745	94.44
283.976	99.44
284.207	91.44
284.439	90.44
284.67	89.44
284.901	95.44
285.132	77.44
285.364	89.44
285.595	92.44
285.826	86.44
286.057	99.44
286.288	79.44
286.52	85.44
286.751	93.44
286.982	92.44
287.213	85.44
287.444	88.44
287.675	87.44
287.906	94.44
288.138	78.44
288.369	101.44
288.6	95.44
288.831	86.44
289.062	92.44
289.293	82.44
289.524	84.44
289.755	88.44
289.986	94.44
290.217	90.44
290.448	89.44
290.679	91.44
290.91	108.44
291.141	93.44
291.371	89.44
291.602	96.44
291.833	93.44
292.064	99.44
292.295	90.44
292.526	91.44
292.757	92.44
292.987	95.44
293.218	86.44
293.449	96.44
293.68	107.44
293.91	80.44
294.141	99.44
294.372	87.44
294.603	81.44
294.833	82.44
295.064	101.44
295.295	83.44
295.525	97.44
295.756	99.44
295.987	112.44
296.217	146.44
296.448	119.44
296.679	84.44
296.909	84.44
297.14	95.44
297.37	99.44
297.601	84.44
297.831	84.44
298.062	92.44
298.292	99.44
298.523	99.44
298.753	101.44
298.984	92.44
299.214	89.44
299.445	83.44
299.675	86.44
299.905	104.44
300.136	82.44
300.366	101.44
300.597	101.44
300.827	99.44
301.057	95.44
301.288	101.44
301.518	99.44
301.748	100.44
301.979	109.44
302.209	107.44
302.439	92.44
302.669	87.44
302.9	100.44
303.13	82.44
303.36	103.44
303.59	104.44
303.82	96.44
304.051	98.44
304.281	83.44
304.511	88.44
304.741	91.44
304.971	80.44
305.201	83.44
305.431	89.44
305.661	83.44
305.891	99.44
306.121	86.44
306.352	96.44
306.582	102.44
306.812	92.44
307.042	75.44
307.272	88.44
307.502	98.44
307.731	97.44
307.961	89.44
308.191	92.44
308.421	93.44
308.651	95.44
308.881	93.44
309.111	83.44
309.341	88.44
309.571	81.44
309.8	92.44
310.03	89.44
310.26	88.44
310.49	106.44
310.72	107.44
310.949	87.44
311.179	105.44
311.409	83.44
311.639	92.44
311.868	104.44
312.098	87.44
312.328	82.44
312.557	100.44
312.787	100.44
313.017	95.44
313.246	95.44
313.476	89.44
313.706	81.44
313.935	95.44
314.165	100.44
314.394	106.44
314.624	99.44
314.853	91.44
315.083	82.44
315.312	100.44
315.542	100.44
315.771	92.44
316.001	94.44
316.23	108.44
316.46	98.44
316.689	100.44
316.919	91.44
317.148	96.44
317.377	109.44
317.607	101.44
317.836	98.44
318.065	88.44
318.295	91.44
318.524	95.44
318.753	93.44
318.983	99.44
319.212	109.44
319.441	95.44
319.67	98.44
319.9	96.44
320.129	89.44
320.358	99.44
320.587	95.44
320.816	107.44
321.046	103.44
321.275	100.44
321.504	92.44
321.733	97.44
321.962	83.44
322.191	103.44
322.42	99.44
322.649	124.44
322.878	100.44
323.108	116.44
323.337	114.44
323.566	126.44
323.795	148.44
324.024	204.44
324.253	378.44
324.482	841.44
324.71	1672.44
324.939	2230.44
325.168	807.44
325.397	230.44
325.626	130.44
325.855	131.44
326.084	120.44
326.313	143.44
326.542	159.44
326.77	223.44
326.999	476.44
327.228	955.44
327.457	1694.44
327.686	1385.44
327.914	360.44
328.143	184.44
328.372	154.44
328.6	128.44
328.829	120.44
329.058	113.44
329.287	112.44
329.515	104.44
329.744	102.44
329.972	108.44
330.201	126.44
330.43	160.44
330.658	116.44
330.887	123.44
331.115	111.44
331.344	96.44
331.572	105.44
331.801	106.44
332.03	89.44
332.258	103.44
332.486	103.44
332.715	108.44
332.943	95.44
333.172	101.44
333.4	99.44
333.629	111.44
333.857	121.44
334.085	123.44
334.314	147.44
334.542	172.44
334.771	175.44
334.999	116.44
335.227	104.44
335.455	92.44
335.684	85.44
335.912	96.44
336.14	100.44
336.369	94.44
336.597	88.44
336.825	94.44
337.053	90.44
337.281	77.44
337.51	75.44
337.738	103.44
337.966	83.44
338.194	92.44
338.422	97.44
338.65	81.44
338.878	96.44
339.106	95.44
339.334	101.44
339.562	89.44
339.79	91.44
340.018	95.44
340.246	80.44
340.474	90.44
340.702	97.44
340.93	88.44
341.158	87.44
341.386	84.44
341.614	89.44
341.842	93.44
342.07	83.44
342.298	86.44
342.526	101.44
342.754	89.44
342.981	99.44
343.209	97.44
343.437	92.44
343.665	83.44
343.893	89.44
344.12	89.44
344.348	86.44
344.576	84.44
344.804	102.44
345.031	104.44
345.259	105.44
345.487	94.44
345.714	95.44
345.942	93.44
346.17	100.44
346.397	103.44
346.625	98.44
346.853	106.44
347.08	90.44
347.308	102.44
347.535	91.44
347.763	105.44
347.99	111.44
348.218	113.44
348.445	110.44
348.673	103.44
348.9	87.44
349.128	99.44
349.355	108.44
349.583	104.44
349.81	86.44
350.037	97.44
350.265	97.44
350.492	100.44
350.72	106.44
350.947	96.44
351.174	109.44
351.402	122.44
351.629	101.44
351.856	100.44
352.083	99.44
352.311	124.44
352.538	112.44
352.765	110.44
352.992	108.44
353.22	113.44
353.447	109.44
353.674	103.44
353.901	108.44
354.128	108.44
354.355	110.44
354.583	97.44
354.81	107.44
355.037	88.44
355.264	96.44
355.491	87.44
355.718	88.44
355.945	90.44
356.172	90.44
356.399	93.44
356.626	93.44
356.853	93.44
357.08	90.44
357.307	85.44
357.534	93.44
357.761	94.44
357.988	97.44
358.215	89.44
358.441	108.44
358.668	88.44
358.895	108.44
359.122	90.44
359.349	89.44
359.576	99.44
359.802	115.44
360.029	124.44
360.256	118.44
360.483	103.44
360.709	82.44
360.936	99.44
361.163	94.44
361.39	102.44
361.616	90.44
361.843	91.44
362.07	96.44
362.296	108.44
362.523	91.44
362.749	100.44
362.976	106.44
363.203	96.44
363.429	84.44
363.656	98.44
363.882	93.44
364.109	89.44
364.335	93.44
364.562	89.44
364.788	96.44
365.015	97.44
365.241	108.44
365.468	105.44
365.694	113.44
365.92	120.44
366.147	95.44
366.373	89.44
366.599	81.44
366.826	90.44
367.052	95.44
367.278	93.44
367.505	87.44
367.731	74.44
367.957	79.44
368.184	89.44
368.41	104.44
368.636	103.44
368.862	119.44
369.089	96.44
369.315	89.44
369.541	86.44
369.767	106.44
369.993	94.44
370.219	102.44
370.445	71.44
370.672	106.44
370.898	96.44
371.124	92.44
371.35	87.44
371.576	91.44
371.802	98.44
372.028	95.44
372.254	96.44
372.48	98.44
372.706	78.44
372.932	82.44
373.158	82.44
373.384	90.44
373.61	101.44
373.835	80.44
374.061	81.44
374.287	83.44
374.513	92.44
374.739	101.44
374.965	99.44
375.191	81.44
375.416	92.44
375.642	95.44
375.868	91.44
376.094	86.44
376.319	97.44
376.545	87.44
376.771	99.44
376.997	92.44
377.222	86.44
377.448	98.44
377.674	79.44
377.899	91.44
378.125	99.44
378.35	106.44
378.576	82.44
378.802	108.44
379.027	107.44
379.253	113.44
379.478	87.44
379.704	93.44
379.929	91.44
380.155	92.44
380.38	91.44
380.606	96.44
380.831	107.44
381.057	82.44
381.282	103.44
381.507	91.44
381.733	102.44
381.958	91.44
382.184	103.44
382.409	106.44
382.634	90.44
382.86	81.44
383.085	95.44
383.31	98.44
383.535	88.44
383.761	98.44
383.986	99.44
384.211	90.44
384.436	103.44
384.662	102.44
384.887	95.44
385.112	104.44
385.337	98.44
385.562	114.44
385.787	112.44
386.013	115.44
386.238	103.44
386.463	113.44
386.688	113.44
386.913	100.44
387.138	107.44
387.363	118.44
387.588	112.44
387.813	100.44
388.038	116.44
388.263	118.44
388.488	121.44
388.713	98.44
388.938	94.44
389.163	100.44
389.387	95.44
389.612	90.44
389.837	99.44
390.062	103.44
390.287	100.44
390.512	92.44
390.736	89.44
390.961	107.44
391.186	95.44
391.411	95.44
391.636	90.44
391.86	88.44
392.085	75.44
392.31	84.44
392.534	75.44
392.759	89.44
392.984	80.44
393.208	98.44
393.433	83.44
393.658	109.44
393.882	90.44
394.107	85.44
394.331	92.44
394.556	87.44
394.78	93.44
395.005	88.44
395.229	76.44
395.454	97.44
395.678	81.44
395.903	97.44
396.127	90.44
396.352	102.44
396.576	95.44
396.801	86.44
397.025	97.44
397.249	105.44
397.474	99.44
397.698	92.44
397.922	92.44
398.147	80.44
398.371	104.44
398.595	94.44
398.82	99.44
399.044	94.44
399.268	88.44
399.492	77.44
399.717	103.44
399.941	89.44
400.165	90.44
400.389	100.44
400.613	89.44
400.837	92.44
401.062	88.44
401.286	92.44
401.51	80.44
401.734	77.44
401.958	91.44
402.182	100.44
402.406	133.44
402.63	115.44
402.854	90.44
403.078	92.44
403.302	84.44
403.526	104.44
403.75	88.44
403.974	90.44
404.198	86.44
404.422	79.44
404.645	92.44
404.869	96.44
405.093	91.44
405.317	98.44
405.541	99.44
405.765	103.44
405.988	116.44
406.212	148.44
406.436	202.44
406.66	122.44
406.883	95.44
407.107	93.44
407.331	89.44
407.555	105.44
407.778	103.44
408.002	88.44
408.226	95.44
408.449	89.44
408.673	96.44
408.896	98.44
409.12	105.44
409.344	95.44
409.567	87.44
409.791	88.44
410.014	82.44
410.238	77.44
410.461	79.44
410.685	84.44
410.908	90.44
411.132	100.44
411.355	107.44
411.578	92.44
411.802	86.44
412.025	87.44
412.249	91.44
412.472	98.44
412.695	107.44
412.919	94.44
413.142	97.44
413.365	95.44
413.589	82.44
413.812	85.44
414.035	84.44
414.258	88.44
414.482	90.44
414.705	93.44
414.928	95.44
415.151	83.44
415.374	102.44
415.597	84.44
415.821	93.44
416.044	95.44
416.267	92.44
416.49	96.44
416.713	96.44
416.936	99.44
417.159	100.44
417.382	95.44
417.605	89.44
417.828	79.44
418.051	87.44
418.274	96.44
418.497	84.44
418.72	98.44
418.943	99.44
419.166	71.44
419.389	92.44
419.611	95.44
419.834	87.44
420.057	92.44
420.28	100.44
420.503	81.44
420.726	91.44
420.948	88.44
421.171	90.44
421.394	101.44
421.617	88.44
421.839	96.44
422.062	87.44
422.285	110.44
422.507	96.44
422.73	104.44
422.953	101.44
423.175	101.44
423.398	104.44
423.621	96.44
423.843	90.44
424.066	86.44
424.288	106.44
424.511	87.44
424.733	91.44
424.956	100.44
425.178	112.44
425.401	93.44
425.623	88.44
425.846	88.44
426.068	85.44
426.291	96.44
426.513	97.44
426.735	82.44
426.958	103.44
427.18	115.44
427.402	130.44
427.625	158.44
427.847	131.44
428.069	109.44
428.292	87.44
428.514	101.44
428.736	91.44
428.958	88.44
429.181	80.44
429.403	93.44
429.625	95.44
429.847	81.44
430.069	103.44
430.292	93.44
430.514	87.44
430.736	86.44
430.958	83.44
431.18	90.44
431.402	96.44
431.624	103.44
431.846	97.44
432.068	95.44
432.29	89.44
432.512	103.44
432.734	88.44
432.956	85.44
433.178	101.44
433.4	91.44
433.622	99.44
433.844	79.44
434.066	100.44
434.287	84.44
434.509	91.44
434.731	73.44
434.953	87.44
435.175	96.44
435.397	91.44
435.618	100.44
435.84	109.44
436.062	121.44
436.284	102.44
436.505	103.44
436.727	96.44
436.949	92.44
437.17	92.44
437.392	96.44
437.614	89.44
437.835	97.44
438.057	105.44
438.278	107.44
438.5	90.44
438.721	109.44
438.943	102.44
439.165	81.44
439.386	93.44
439.608	87.44
439.829	97.44
440.05	119.44
440.272	130.44
440.493	99.44
440.715	84.44
440.936	93.44
441.158	90.44
441.379	82.44
441.6	92.44
441.822	91.44
442.043	89.44
442.264	90.44
442.486	96.44
442.707	93.44
442.928	102.44
443.149	124.44
443.371	124.44
443.592	89.44
443.813	93.44
444.034	107.44
444.255	83.44
444.476	87.44
444.698	97.44
444.919	104.44
445.14	150.44
445.361	135.44
445.582	114.44
445.803	134.44
446.024	111.44
446.245	124.44
446.466	107.44
446.687	92.44
446.908	104.44
447.129	84.44
447.35	75.44
447.571	92.44
447.792	107.44
448.013	102.44
448.234	96.44
448.455	98.44
448.675	112.44
448.896	108.44
449.117	104.44
449.338	102.44
449.559	104.44
449.779	119.44
450	100.44
450.221	83.44
450.442	88.44
450.662	87.44
450.883	96.44
451.104	95.44
451.324	88.44
451.545	88.44
451.766	80.44
451.986	90.44
452.207	90.44
452.428	87.44
452.648	100.44
452.869	109.44
453.089	124.44
453.31	109.44
453.53	75.44
453.751	99.44
453.971	112.44
454.192	108.44
454.412	86.44
454.633	87.44
454.853	86.44
455.073	84.44
455.294	98.44
455.514	84.44
455.734	89.44
455.955	80.44
456.175	89.44
456.395	77.44
456.616	79.44
456.836	88.44
457.056	79.44
457.276	76.44
457.497	85.44
457.717	95.44
457.937	83.44
458.157	88.44
458.377	88.44
458.598	115.44
458.818	119.44
459.038	137.44
459.258	103.44
459.478	85.44
459.698	90.44
459.918	90.44
460.138	83.44
460.358	86.44
460.578	82.44
460.798	95.44
461.018	88.44
461.238	91.44
461.458	82.44
461.678	87.44
461.898	88.44
462.118	92.44
462.338	83.44
462.558	94.44
462.777	88.44
462.997	84.44
463.217	83.44
463.437	85.44
463.657	83.44
463.876	106.44
464.096	85.44
464.316	90.44
464.536	82.44
464.755	88.44
464.975	91.44
465.195	150.44
465.414	132.44
465.634	87.44
465.854	97.44
466.073	76.44
466.293	91.44
466.512	97.44
466.732	95.44
466.951	83.44
467.171	103.44
467.391	84.44
467.61	97.44
467.829	92.44
468.049	108.44
468.268	117.44
468.488	96.44
468.707	87.44
468.927	81.44
469.146	79.44
469.365	84.44
469.585	87.44
469.804	102.44
470.023	93.44
470.243	82.44
470.462	96.44
470.681	88.44
470.901	85.44
471.12	85.44
471.339	100.44
471.558	76.44
471.777	73.44
471.997	97.44
472.216	143.44
472.435	184.44
472.654	106.44
472.873	91.44
473.092	92.44
473.311	79.44
473.53	75.44
473.749	84.44
473.968	97.44
474.187	102.44
474.406	83.44
474.625	85.44
474.844	101.44
475.063	83.44
475.282	95.44
475.501	78.44
475.72	85.44
475.939	101.44
476.158	94.44
476.377	89.44
476.596	86.44
476.814	74.44
477.033	101.44
477.252	90.44
477.471	66.44
477.69	88.44
477.908	90.44
478.127	89.44
478.346	80.44
478.564	97.44
478.783	105.44
479.002	110.44
479.22	90.44
479.439	100.44
479.658	101.44
479.876	89.44
480.095	88.44
480.313	95.44
480.532	103.44
480.751	94.44
480.969	136.44
481.188	291.44
481.406	197.44
481.624	102.44
481.843	104.44
482.061	88.44
482.28	96.44
482.498	86.44
482.717	103.44
482.935	82.44
483.153	92.44
483.372	93.44
483.59	92.44
483.808	92.44
484.027	73.44
484.245	94.44
484.463	93.44
484.681	91.44
484.9	106.44
485.118	91.44
485.336	100.44
485.554	95.44
485.772	99.44
485.99	100.44
486.209	114.44
486.427	108.44
486.645	108.44
486.863	114.44
487.081	91.44
487.299	101.44
487.517	99.44
487.735	98.44
487.953	100.44
488.171	102.44
488.389	104.44
488.607	91.44
488.825	88.44
489.043	90.44
489.261	86.44
489.479	96.44
489.696	93.44
489.914	93.44
490.132	102.44
490.35	87.44
490.568	73.44
490.786	83.44
491.003	85.44
491.221	86.44
491.439	90.44
491.657	108.44
491.874	88.44
492.092	87.44
492.31	108.44
492.527	95.44
492.745	89.44
492.963	90.44
493.18	91.44
493.398	92.44
493.615	92.44
493.833	82.44
494.05	87.44
494.268	94.44
494.485	86.44
494.703	79.44
494.92	96.44
495.138	77.44
495.355	87.44
495.573	93.44
495.79	92.44
496.008	101.44
496.225	91.44
496.442	75.44
496.66	86.44
496.877	80.44
497.094	89.44
497.312	95.44
497.529	106.44
497.746	84.44
497.963	95.44
498.181	98.44
498.398	81.44
498.615	107.44
498.832	91.44
499.049	92.44
499.267	89.44
499.484	85.44
499.701	80.44
499.918	98.44
500.135	97.44
500.352	84.44
500.569	82.44
500.786	91.44
501.003	91.44
501.22	94.44
501.437	87.44
501.654	107.44
501.871	84.44
502.088	85.44
502.305	99.44
502.522	85.44
502.739	88.44
502.956	94.44
503.172	87.44
503.389	89.44
503.606	94.44
503.823	83.44
504.04	93.44
504.256	93.44
504.473	83.44
504.69	88.44
504.907	92.44
505.123	75.44
505.34	70.44
505.557	106.44
505.773	88.44
505.99	85.44
506.207	78.44
506.423	93.44
506.64	103.44
506.856	98.44
507.073	111.44
507.289	86.44
507.506	104.44
507.722	102.44
507.939	111.44
508.155	107.44
508.372	95.44
508.588	84.44
508.805	96.44
509.021	96.44
509.238	103.44
509.454	104.44
509.67	114.44
509.887	102.44
510.103	128.44
510.319	197.44
510.536	678.44
510.752	2077.44
510.968	580.44
511.184	138.44
511.401	96.44
511.617	92.44
511.833	97.44
512.049	94.44
512.265	95.44
512.481	85.44
512.698	103.44
512.914	95.44
513.13	106.44
513.346	93.44
513.562	100.44
513.778	70.44
513.994	92.44
514.21	97.44
514.426	109.44
514.642	107.44
514.858	115.44
515.074	161.44
515.29	400.44
