Data from Circ_1985_H10_HRD10591_00049.txt Node
Date: Wed Jan 03 12:19:32 EST 2024
User: Yrep
Spectrometer: HR+D1059
Trigger mode: 1
Integration Time (sec): 1.000000E-1
Scans to average: 1
Electric dark correction enabled: true
Nonlinearity correction enabled: false
Boxcar width: 0
XAxis mode: Wavelengths
Number of Pixels in Spectrum: 2048
>>>>>Begin Spectral Data<<<<<
223.165	-6.38
223.4	-6.38
223.635	-6.38
223.869	-17.38
224.104	-24.38
224.338	-5.38
224.573	-26.38
224.808	-21.38
225.042	-21.38
225.277	-8.38
225.511	-5.38
225.746	6.62
225.98	14.62
226.215	11.62
226.449	8.62
226.683	20.62
226.918	42.62
227.152	31.62
227.387	44.62
227.621	39.62
227.856	40.62
228.09	49.62
228.324	56.62
228.559	59.62
228.793	54.62
229.027	55.62
229.262	68.62
229.496	68.62
229.73	94.62
229.964	78.62
230.199	72.62
230.433	69.62
230.667	84.62
230.901	67.62
231.136	84.62
231.37	85.62
231.604	83.62
231.838	82.62
232.072	92.62
232.306	86.62
232.541	80.62
232.775	58.62
233.009	83.62
233.243	77.62
233.477	71.62
233.711	89.62
233.945	84.62
234.179	94.62
234.413	80.62
234.647	73.62
234.881	97.62
235.115	78.62
235.349	84.62
235.583	88.62
235.817	90.62
236.051	84.62
236.285	80.62
236.519	82.62
236.753	76.62
236.987	67.62
237.221	88.62
237.455	77.62
237.689	75.62
237.922	85.62
238.156	82.62
238.39	73.62
238.624	84.62
238.858	83.62
239.091	84.62
239.325	81.62
239.559	64.62
239.793	71.62
240.027	69.62
240.26	67.62
240.494	87.62
240.728	77.62
240.961	83.62
241.195	81.62
241.429	78.62
241.662	67.62
241.896	83.62
242.13	72.62
242.363	70.62
242.597	80.62
242.83	83.62
243.064	88.62
243.298	80.62
243.531	77.62
243.765	77.62
243.998	85.62
244.232	86.62
244.465	79.62
244.699	80.62
244.932	84.62
245.166	71.62
245.399	80.62
245.633	80.62
245.866	70.62
246.099	69.62
246.333	82.62
246.566	84.62
246.8	80.62
247.033	77.62
247.266	82.62
247.5	60.62
247.733	70.62
247.966	76.62
248.2	97.62
248.433	83.62
248.666	88.62
248.899	97.62
249.133	75.62
249.366	91.62
249.599	106.62
249.832	89.62
250.066	102.62
250.299	82.62
250.532	95.62
250.765	89.62
250.998	89.62
251.231	78.62
251.465	77.62
251.698	84.62
251.931	75.62
252.164	89.62
252.397	82.62
252.63	75.62
252.863	93.62
253.096	83.62
253.329	75.62
253.562	79.62
253.795	88.62
254.028	85.62
254.261	90.62
254.494	73.62
254.727	80.62
254.96	88.62
255.193	76.62
255.426	75.62
255.659	80.62
255.892	86.62
256.124	98.62
256.357	83.62
256.59	82.62
256.823	73.62
257.056	83.62
257.289	90.62
257.521	89.62
257.754	89.62
257.987	98.62
258.22	92.62
258.452	83.62
258.685	73.62
258.918	94.62
259.151	71.62
259.383	74.62
259.616	70.62
259.849	89.62
260.081	94.62
260.314	82.62
260.547	84.62
260.779	103.62
261.012	89.62
261.244	74.62
261.477	99.62
261.71	89.62
261.942	105.62
262.175	110.62
262.407	97.62
262.64	73.62
262.872	80.62
263.105	95.62
263.337	98.62
263.57	91.62
263.802	86.62
264.035	88.62
264.267	88.62
264.499	87.62
264.732	94.62
264.964	88.62
265.197	81.62
265.429	93.62
265.661	89.62
265.894	89.62
266.126	99.62
266.358	82.62
266.591	87.62
266.823	85.62
267.055	82.62
267.287	82.62
267.52	89.62
267.752	99.62
267.984	90.62
268.216	76.62
268.448	84.62
268.681	86.62
268.913	89.62
269.145	87.62
269.377	83.62
269.609	88.62
269.841	86.62
270.073	94.62
270.306	81.62
270.538	99.62
270.77	85.62
271.002	97.62
271.234	85.62
271.466	95.62
271.698	82.62
271.93	86.62
272.162	85.62
272.394	97.62
272.626	103.62
272.858	69.62
273.09	77.62
273.322	81.62
273.553	88.62
273.785	96.62
274.017	84.62
274.249	94.62
274.481	80.62
274.713	102.62
274.945	89.62
275.176	91.62
275.408	76.62
275.64	81.62
275.872	86.62
276.104	86.62
276.335	80.62
276.567	99.62
276.799	107.62
277.031	105.62
277.262	100.62
277.494	86.62
277.726	85.62
277.957	73.62
278.189	97.62
278.421	105.62
278.652	93.62
278.884	87.62
279.115	85.62
279.347	86.62
279.579	103.62
279.81	98.62
280.042	83.62
280.273	95.62
280.505	82.62
280.736	97.62
280.968	92.62
281.199	91.62
281.431	84.62
281.662	91.62
281.894	89.62
282.125	87.62
282.356	118.62
282.588	125.62
282.819	119.62
283.051	94.62
283.282	88.62
283.513	93.62
283.745	92.62
283.976	84.62
284.207	81.62
284.439	80.62
284.67	95.62
284.901	88.62
285.132	84.62
285.364	85.62
285.595	87.62
285.826	79.62
286.057	96.62
286.288	75.62
286.52	97.62
286.751	90.62
286.982	81.62
287.213	85.62
287.444	90.62
287.675	88.62
287.906	93.62
288.138	89.62
288.369	84.62
288.6	88.62
288.831	88.62
289.062	82.62
289.293	100.62
289.524	98.62
289.755	92.62
289.986	96.62
290.217	88.62
290.448	89.62
290.679	100.62
290.91	85.62
291.141	97.62
291.371	91.62
291.602	94.62
291.833	86.62
292.064	88.62
292.295	92.62
292.526	81.62
292.757	93.62
292.987	94.62
293.218	103.62
293.449	91.62
293.68	97.62
293.91	98.62
294.141	98.62
294.372	89.62
294.603	101.62
294.833	106.62
295.064	92.62
295.295	101.62
295.525	102.62
295.756	100.62
295.987	110.62
296.217	125.62
296.448	112.62
296.679	86.62
296.909	91.62
297.14	87.62
297.37	87.62
297.601	106.62
297.831	93.62
298.062	84.62
298.292	100.62
298.523	85.62
298.753	76.62
298.984	81.62
299.214	83.62
299.445	78.62
299.675	75.62
299.905	92.62
300.136	87.62
300.366	85.62
300.597	90.62
300.827	84.62
301.057	94.62
301.288	110.62
301.518	92.62
301.748	92.62
301.979	97.62
302.209	102.62
302.439	93.62
302.669	91.62
302.9	91.62
303.13	90.62
303.36	86.62
303.59	93.62
303.82	97.62
304.051	87.62
304.281	89.62
304.511	82.62
304.741	98.62
304.971	94.62
305.201	92.62
305.431	108.62
305.661	92.62
305.891	91.62
306.121	89.62
306.352	90.62
306.582	102.62
306.812	98.62
307.042	106.62
307.272	107.62
307.502	91.62
307.731	88.62
307.961	98.62
308.191	73.62
308.421	85.62
308.651	89.62
308.881	88.62
309.111	110.62
309.341	82.62
309.571	90.62
309.8	92.62
310.03	95.62
310.26	100.62
310.49	88.62
310.72	88.62
310.949	104.62
311.179	101.62
311.409	86.62
311.639	85.62
311.868	105.62
312.098	89.62
312.328	90.62
312.557	105.62
312.787	100.62
313.017	93.62
313.246	98.62
313.476	96.62
313.706	98.62
313.935	88.62
314.165	94.62
314.394	99.62
314.624	109.62
314.853	99.62
315.083	96.62
315.312	94.62
315.542	101.62
315.771	97.62
316.001	92.62
316.23	88.62
316.46	89.62
316.689	103.62
316.919	92.62
317.148	98.62
317.377	96.62
317.607	104.62
317.836	73.62
318.065	94.62
318.295	86.62
318.524	76.62
318.753	91.62
318.983	86.62
319.212	88.62
319.441	103.62
319.67	105.62
319.9	86.62
320.129	85.62
320.358	102.62
320.587	82.62
320.816	77.62
321.046	109.62
321.275	107.62
321.504	105.62
321.733	96.62
321.962	96.62
322.191	101.62
322.42	100.62
322.649	77.62
322.878	119.62
323.108	115.62
323.337	131.62
323.566	120.62
323.795	154.62
324.024	199.62
324.253	366.62
324.482	774.62
324.71	1613.62
324.939	2183.62
325.168	785.62
325.397	237.62
325.626	140.62
325.855	117.62
326.084	119.62
326.313	110.62
326.542	147.62
326.77	222.62
326.999	457.62
327.228	918.62
327.457	1688.62
327.686	1354.62
327.914	352.62
328.143	196.62
328.372	159.62
328.6	136.62
328.829	120.62
329.058	120.62
329.287	113.62
329.515	94.62
329.744	93.62
329.972	108.62
330.201	119.62
330.43	130.62
330.658	119.62
330.887	124.62
331.115	121.62
331.344	95.62
331.572	86.62
331.801	119.62
332.03	102.62
332.258	108.62
332.486	98.62
332.715	93.62
332.943	90.62
333.172	94.62
333.4	88.62
333.629	93.62
333.857	109.62
334.085	102.62
334.314	108.62
334.542	125.62
334.771	141.62
334.999	113.62
335.227	93.62
335.455	100.62
335.684	101.62
335.912	92.62
336.14	96.62
336.369	96.62
336.597	92.62
336.825	104.62
337.053	106.62
337.281	104.62
337.51	99.62
337.738	85.62
337.966	101.62
338.194	98.62
338.422	101.62
338.65	90.62
338.878	101.62
339.106	94.62
339.334	97.62
339.562	98.62
339.79	85.62
340.018	84.62
340.246	84.62
340.474	102.62
340.702	99.62
340.93	101.62
341.158	78.62
341.386	96.62
341.614	97.62
341.842	97.62
342.07	97.62
342.298	97.62
342.526	90.62
342.754	88.62
342.981	90.62
343.209	85.62
343.437	107.62
343.665	101.62
343.893	80.62
344.12	96.62
344.348	94.62
344.576	83.62
344.804	86.62
345.031	85.62
345.259	100.62
345.487	92.62
345.714	105.62
345.942	93.62
346.17	97.62
346.397	94.62
346.625	96.62
346.853	98.62
347.08	96.62
347.308	106.62
347.535	103.62
347.763	107.62
347.99	89.62
348.218	107.62
348.445	102.62
348.673	94.62
348.9	89.62
349.128	103.62
349.355	94.62
349.583	96.62
349.81	84.62
350.037	89.62
350.265	91.62
350.492	85.62
350.72	97.62
350.947	113.62
351.174	102.62
351.402	117.62
351.629	104.62
351.856	108.62
352.083	108.62
352.311	121.62
352.538	121.62
352.765	112.62
352.992	116.62
353.22	105.62
353.447	105.62
353.674	113.62
353.901	98.62
354.128	97.62
354.355	99.62
354.583	98.62
354.81	107.62
355.037	103.62
355.264	98.62
355.491	99.62
355.718	98.62
355.945	98.62
356.172	91.62
356.399	89.62
356.626	93.62
356.853	100.62
357.08	78.62
357.307	84.62
357.534	100.62
357.761	91.62
357.988	86.62
358.215	96.62
358.441	107.62
358.668	98.62
358.895	96.62
359.122	96.62
359.349	101.62
359.576	96.62
359.802	105.62
360.029	107.62
360.256	92.62
360.483	98.62
360.709	92.62
360.936	101.62
361.163	91.62
361.39	88.62
361.616	99.62
361.843	105.62
362.07	87.62
362.296	80.62
362.523	82.62
362.749	97.62
362.976	105.62
363.203	100.62
363.429	89.62
363.656	80.62
363.882	89.62
364.109	91.62
364.335	87.62
364.562	85.62
364.788	88.62
365.015	94.62
365.241	84.62
365.468	98.62
365.694	108.62
365.92	100.62
366.147	93.62
366.373	95.62
366.599	87.62
366.826	83.62
367.052	86.62
367.278	88.62
367.505	97.62
367.731	84.62
367.957	85.62
368.184	90.62
368.41	96.62
368.636	101.62
368.862	112.62
369.089	119.62
369.315	100.62
369.541	91.62
369.767	83.62
369.993	91.62
370.219	99.62
370.445	82.62
370.672	100.62
370.898	90.62
371.124	86.62
371.35	93.62
371.576	92.62
371.802	86.62
372.028	92.62
372.254	96.62
372.48	80.62
372.706	90.62
372.932	84.62
373.158	88.62
373.384	97.62
373.61	93.62
373.835	83.62
374.061	98.62
374.287	81.62
374.513	89.62
374.739	97.62
374.965	99.62
375.191	96.62
375.416	89.62
375.642	97.62
375.868	102.62
376.094	97.62
376.319	81.62
376.545	87.62
376.771	103.62
376.997	95.62
377.222	100.62
377.448	98.62
377.674	100.62
377.899	98.62
378.125	96.62
378.35	101.62
378.576	91.62
378.802	97.62
379.027	103.62
379.253	110.62
379.478	98.62
379.704	96.62
379.929	67.62
380.155	91.62
380.38	92.62
380.606	88.62
380.831	100.62
381.057	84.62
381.282	107.62
381.507	83.62
381.733	91.62
381.958	90.62
382.184	92.62
382.409	112.62
382.634	107.62
382.86	112.62
383.085	105.62
383.31	93.62
383.535	90.62
383.761	99.62
383.986	96.62
384.211	103.62
384.436	106.62
384.662	114.62
384.887	113.62
385.112	90.62
385.337	92.62
385.562	101.62
385.787	125.62
386.013	99.62
386.238	108.62
386.463	110.62
386.688	105.62
386.913	98.62
387.138	105.62
387.363	99.62
387.588	107.62
387.813	108.62
388.038	118.62
388.263	106.62
388.488	100.62
388.713	83.62
388.938	101.62
389.163	92.62
389.387	94.62
389.612	97.62
389.837	85.62
390.062	94.62
390.287	109.62
390.512	82.62
390.736	84.62
390.961	94.62
391.186	94.62
391.411	87.62
391.636	86.62
391.86	80.62
392.085	84.62
392.31	81.62
392.534	99.62
392.759	90.62
392.984	84.62
393.208	94.62
393.433	101.62
393.658	85.62
393.882	100.62
394.107	79.62
394.331	79.62
394.556	89.62
394.78	96.62
395.005	86.62
395.229	98.62
395.454	99.62
395.678	91.62
395.903	98.62
396.127	77.62
396.352	87.62
396.576	87.62
396.801	88.62
397.025	92.62
397.249	82.62
397.474	101.62
397.698	90.62
397.922	91.62
398.147	81.62
398.371	85.62
398.595	87.62
398.82	70.62
399.044	88.62
399.268	96.62
399.492	84.62
399.717	101.62
399.941	97.62
400.165	89.62
400.389	94.62
400.613	97.62
400.837	76.62
401.062	84.62
401.286	86.62
401.51	96.62
401.734	85.62
401.958	88.62
402.182	118.62
402.406	137.62
402.63	106.62
402.854	95.62
403.078	98.62
403.302	87.62
403.526	82.62
403.75	89.62
403.974	81.62
404.198	87.62
404.422	93.62
404.645	98.62
404.869	97.62
405.093	105.62
405.317	95.62
405.541	89.62
405.765	91.62
405.988	95.62
406.212	151.62
406.436	178.62
406.66	129.62
406.883	86.62
407.107	96.62
407.331	94.62
407.555	101.62
407.778	105.62
408.002	92.62
408.226	85.62
408.449	99.62
408.673	97.62
408.896	75.62
409.12	103.62
409.344	95.62
409.567	94.62
409.791	96.62
410.014	106.62
410.238	85.62
410.461	88.62
410.685	98.62
410.908	104.62
411.132	108.62
411.355	92.62
411.578	105.62
411.802	85.62
412.025	87.62
412.249	105.62
412.472	87.62
412.695	94.62
412.919	80.62
413.142	80.62
413.365	93.62
413.589	95.62
413.812	106.62
414.035	103.62
414.258	102.62
414.482	97.62
414.705	89.62
414.928	81.62
415.151	87.62
415.374	107.62
415.597	80.62
415.821	92.62
416.044	92.62
416.267	82.62
416.49	100.62
416.713	94.62
416.936	95.62
417.159	84.62
417.382	91.62
417.605	90.62
417.828	97.62
418.051	86.62
418.274	88.62
418.497	88.62
418.72	80.62
418.943	88.62
419.166	101.62
419.389	84.62
419.611	77.62
419.834	75.62
420.057	87.62
420.28	94.62
420.503	85.62
420.726	88.62
420.948	78.62
421.171	92.62
421.394	90.62
421.617	96.62
421.839	77.62
422.062	87.62
422.285	101.62
422.507	93.62
422.73	105.62
422.953	108.62
423.175	90.62
423.398	86.62
423.621	86.62
423.843	76.62
424.066	94.62
424.288	77.62
424.511	79.62
424.733	98.62
424.956	109.62
425.178	97.62
425.401	100.62
425.623	79.62
425.846	82.62
426.068	97.62
426.291	87.62
426.513	91.62
426.735	97.62
426.958	86.62
427.18	114.62
427.402	110.62
427.625	160.62
427.847	130.62
428.069	99.62
428.292	99.62
428.514	106.62
428.736	77.62
428.958	96.62
429.181	74.62
429.403	76.62
429.625	85.62
429.847	84.62
430.069	90.62
430.292	92.62
430.514	85.62
430.736	94.62
430.958	83.62
431.18	80.62
431.402	88.62
431.624	95.62
431.846	95.62
432.068	95.62
432.29	84.62
432.512	84.62
432.734	79.62
432.956	98.62
433.178	101.62
433.4	94.62
433.622	95.62
433.844	94.62
434.066	84.62
434.287	86.62
434.509	100.62
434.731	85.62
434.953	81.62
435.175	100.62
435.397	86.62
435.618	78.62
435.84	92.62
436.062	113.62
436.284	100.62
436.505	105.62
436.727	99.62
436.949	104.62
437.17	100.62
437.392	90.62
437.614	93.62
437.835	102.62
438.057	112.62
438.278	109.62
438.5	104.62
438.721	113.62
438.943	94.62
439.165	97.62
439.386	93.62
439.608	95.62
439.829	109.62
440.05	118.62
440.272	123.62
440.493	105.62
440.715	99.62
440.936	93.62
441.158	98.62
441.379	89.62
441.6	89.62
441.822	80.62
442.043	99.62
442.264	91.62
442.486	92.62
442.707	89.62
442.928	104.62
443.149	124.62
443.371	114.62
443.592	107.62
443.813	102.62
444.034	98.62
444.255	84.62
444.476	94.62
444.698	103.62
444.919	101.62
445.14	136.62
445.361	118.62
445.582	104.62
445.803	125.62
446.024	129.62
446.245	117.62
446.466	111.62
446.687	90.62
446.908	82.62
447.129	83.62
447.35	101.62
447.571	100.62
447.792	95.62
448.013	99.62
448.234	98.62
448.455	93.62
448.675	94.62
448.896	104.62
449.117	90.62
449.338	96.62
449.559	118.62
449.779	125.62
450	90.62
450.221	86.62
450.442	102.62
450.662	96.62
450.883	90.62
451.104	110.62
451.324	106.62
451.545	92.62
451.766	82.62
451.986	101.62
452.207	85.62
452.428	93.62
452.648	100.62
452.869	98.62
453.089	109.62
453.31	108.62
453.53	96.62
453.751	87.62
453.971	101.62
454.192	93.62
454.412	94.62
454.633	83.62
454.853	86.62
455.073	100.62
455.294	94.62
455.514	102.62
455.734	96.62
455.955	92.62
456.175	85.62
456.395	84.62
456.616	85.62
456.836	89.62
457.056	82.62
457.276	81.62
457.497	84.62
457.717	96.62
457.937	86.62
458.157	88.62
458.377	101.62
458.598	103.62
458.818	128.62
459.038	140.62
459.258	96.62
459.478	86.62
459.698	78.62
459.918	95.62
460.138	92.62
460.358	93.62
460.578	84.62
460.798	95.62
461.018	91.62
461.238	75.62
461.458	94.62
461.678	82.62
461.898	81.62
462.118	88.62
462.338	98.62
462.558	110.62
462.777	78.62
462.997	80.62
463.217	90.62
463.437	87.62
463.657	88.62
463.876	84.62
464.096	85.62
464.316	84.62
464.536	94.62
464.755	84.62
464.975	102.62
465.195	130.62
465.414	121.62
465.634	91.62
465.854	95.62
466.073	72.62
466.293	82.62
466.512	99.62
466.732	77.62
466.951	75.62
467.171	86.62
467.391	83.62
467.61	102.62
467.829	81.62
468.049	102.62
468.268	103.62
468.488	97.62
468.707	100.62
468.927	86.62
469.146	88.62
469.365	94.62
469.585	96.62
469.804	88.62
470.023	90.62
470.243	92.62
470.462	106.62
470.681	98.62
470.901	73.62
471.12	75.62
471.339	76.62
471.558	83.62
471.777	91.62
471.997	85.62
472.216	115.62
472.435	137.62
472.654	110.62
472.873	95.62
473.092	78.62
473.311	80.62
473.53	91.62
473.749	84.62
473.968	95.62
474.187	96.62
474.406	97.62
474.625	93.62
474.844	88.62
475.063	83.62
475.282	89.62
475.501	90.62
475.72	89.62
475.939	86.62
476.158	81.62
476.377	94.62
476.596	81.62
476.814	94.62
477.033	90.62
477.252	83.62
477.471	90.62
477.69	80.62
477.908	91.62
478.127	91.62
478.346	89.62
478.564	89.62
478.783	97.62
479.002	97.62
479.22	100.62
479.439	89.62
479.658	101.62
479.876	106.62
480.095	93.62
480.313	73.62
480.532	84.62
480.751	96.62
480.969	108.62
481.188	189.62
481.406	153.62
481.624	108.62
481.843	94.62
482.061	86.62
482.28	83.62
482.498	96.62
482.717	73.62
482.935	71.62
483.153	73.62
483.372	90.62
483.59	96.62
483.808	99.62
484.027	93.62
484.245	93.62
484.463	82.62
484.681	92.62
484.9	96.62
485.118	95.62
485.336	98.62
485.554	93.62
485.772	109.62
485.99	101.62
486.209	98.62
486.427	113.62
486.645	109.62
486.863	108.62
487.081	99.62
487.299	112.62
487.517	102.62
487.735	94.62
487.953	97.62
488.171	90.62
488.389	93.62
488.607	90.62
488.825	99.62
489.043	89.62
489.261	99.62
489.479	76.62
489.696	91.62
489.914	86.62
490.132	85.62
490.35	107.62
490.568	82.62
490.786	97.62
491.003	98.62
491.221	92.62
491.439	84.62
491.657	84.62
491.874	95.62
492.092	76.62
492.31	104.62
492.527	85.62
492.745	87.62
492.963	93.62
493.18	106.62
493.398	89.62
493.615	85.62
493.833	86.62
494.05	81.62
494.268	105.62
494.485	84.62
494.703	97.62
494.92	96.62
495.138	92.62
495.355	83.62
495.573	93.62
495.79	107.62
496.008	97.62
496.225	81.62
496.442	104.62
496.66	99.62
496.877	95.62
497.094	95.62
497.312	93.62
497.529	89.62
497.746	67.62
497.963	82.62
498.181	94.62
498.398	103.62
498.615	95.62
498.832	94.62
499.049	86.62
499.267	101.62
499.484	88.62
499.701	99.62
499.918	90.62
500.135	81.62
500.352	93.62
500.569	85.62
500.786	85.62
501.003	89.62
501.22	93.62
501.437	106.62
501.654	92.62
501.871	94.62
502.088	110.62
502.305	103.62
502.522	99.62
502.739	94.62
502.956	116.62
503.172	86.62
503.389	89.62
503.606	98.62
503.823	89.62
504.04	87.62
504.256	87.62
504.473	93.62
504.69	106.62
504.907	87.62
505.123	97.62
505.34	84.62
505.557	95.62
505.773	107.62
505.99	93.62
506.207	83.62
506.423	84.62
506.64	100.62
506.856	92.62
507.073	95.62
507.289	78.62
507.506	99.62
507.722	108.62
507.939	114.62
508.155	106.62
508.372	100.62
508.588	93.62
508.805	82.62
509.021	90.62
509.238	81.62
509.454	117.62
509.67	101.62
509.887	115.62
510.103	116.62
510.319	184.62
510.536	639.62
510.752	1950.62
510.968	551.62
511.184	137.62
511.401	97.62
511.617	92.62
511.833	99.62
512.049	96.62
512.265	86.62
512.481	82.62
512.698	85.62
512.914	86.62
513.13	101.62
513.346	91.62
513.562	103.62
513.778	84.62
513.994	99.62
514.21	105.62
514.426	105.62
514.642	118.62
514.858	114.62
515.074	141.62
515.29	386.62
515.506	1146.62
