Data from Circ_1985_H10_HRD10591_00019.txt Node
Date: Wed Jan 03 12:19:26 EST 2024
User: Yrep
Spectrometer: HR+D1059
Trigger mode: 1
Integration Time (sec): 1.000000E-1
Scans to average: 1
Electric dark correction enabled: true
Nonlinearity correction enabled: false
Boxcar width: 0
XAxis mode: Wavelengths
Number of Pixels in Spectrum: 2048
>>>>>Begin Spectral Data<<<<<
223.165	-21.62
223.4	-21.62
223.635	-21.62
223.869	-23.62
224.104	-22.62
224.338	-14.62
224.573	-8.62
224.808	-5.62
225.042	-6.62
225.277	3.38
225.511	7.38
225.746	1.38
225.98	13.38
226.215	15.38
226.449	5.38
226.683	5.38
226.918	27.38
227.152	24.38
227.387	36.38
227.621	38.38
227.856	49.38
228.09	62.38
228.324	58.38
228.559	62.38
228.793	66.38
229.027	71.38
229.262	60.38
229.496	67.38
229.73	73.38
229.964	69.38
230.199	71.38
230.433	61.38
230.667	72.38
230.901	97.38
231.136	70.38
231.37	87.38
231.604	79.38
231.838	90.38
232.072	73.38
232.306	84.38
232.541	68.38
232.775	76.38
233.009	88.38
233.243	82.38
233.477	80.38
233.711	89.38
233.945	66.38
234.179	83.38
234.413	80.38
234.647	81.38
234.881	87.38
235.115	79.38
235.349	84.38
235.583	82.38
235.817	73.38
236.051	75.38
236.285	63.38
236.519	64.38
236.753	80.38
236.987	85.38
237.221	72.38
237.455	90.38
237.689	84.38
237.922	73.38
238.156	62.38
238.39	80.38
238.624	78.38
238.858	77.38
239.091	66.38
239.325	74.38
239.559	75.38
239.793	74.38
240.027	79.38
240.26	88.38
240.494	81.38
240.728	64.38
240.961	86.38
241.195	68.38
241.429	81.38
241.662	83.38
241.896	70.38
242.13	85.38
242.363	77.38
242.597	78.38
242.83	69.38
243.064	75.38
243.298	72.38
243.531	78.38
243.765	77.38
243.998	65.38
244.232	79.38
244.465	80.38
244.699	77.38
244.932	83.38
245.166	81.38
245.399	83.38
245.633	79.38
245.866	82.38
246.099	71.38
246.333	86.38
246.566	74.38
246.8	73.38
247.033	68.38
247.266	75.38
247.5	66.38
247.733	72.38
247.966	65.38
248.2	77.38
248.433	79.38
248.666	72.38
248.899	88.38
249.133	74.38
249.366	99.38
249.599	90.38
249.832	87.38
250.066	77.38
250.299	73.38
250.532	77.38
250.765	74.38
250.998	63.38
251.231	84.38
251.465	86.38
251.698	57.38
251.931	69.38
252.164	72.38
252.397	73.38
252.63	86.38
252.863	75.38
253.096	77.38
253.329	83.38
253.562	84.38
253.795	87.38
254.028	59.38
254.261	81.38
254.494	65.38
254.727	74.38
254.96	83.38
255.193	82.38
255.426	75.38
255.659	85.38
255.892	89.38
256.124	73.38
256.357	83.38
256.59	88.38
256.823	71.38
257.056	84.38
257.289	79.38
257.521	81.38
257.754	79.38
257.987	80.38
258.22	81.38
258.452	88.38
258.685	87.38
258.918	79.38
259.151	86.38
259.383	91.38
259.616	79.38
259.849	84.38
260.081	83.38
260.314	82.38
260.547	72.38
260.779	82.38
261.012	74.38
261.244	81.38
261.477	82.38
261.71	83.38
261.942	100.38
262.175	91.38
262.407	87.38
262.64	73.38
262.872	85.38
263.105	83.38
263.337	77.38
263.57	71.38
263.802	99.38
264.035	94.38
264.267	88.38
264.499	87.38
264.732	78.38
264.964	73.38
265.197	70.38
265.429	91.38
265.661	93.38
265.894	89.38
266.126	100.38
266.358	79.38
266.591	82.38
266.823	91.38
267.055	83.38
267.287	78.38
267.52	79.38
267.752	86.38
267.984	83.38
268.216	87.38
268.448	81.38
268.681	77.38
268.913	89.38
269.145	65.38
269.377	77.38
269.609	71.38
269.841	83.38
270.073	74.38
270.306	89.38
270.538	72.38
270.77	73.38
271.002	78.38
271.234	82.38
271.466	90.38
271.698	82.38
271.93	84.38
272.162	93.38
272.394	85.38
272.626	90.38
272.858	65.38
273.09	80.38
273.322	74.38
273.553	85.38
273.785	95.38
274.017	67.38
274.249	80.38
274.481	79.38
274.713	83.38
274.945	81.38
275.176	97.38
275.408	103.38
275.64	86.38
275.872	93.38
276.104	86.38
276.335	90.38
276.567	92.38
276.799	99.38
277.031	95.38
277.262	71.38
277.494	70.38
277.726	95.38
277.957	87.38
278.189	93.38
278.421	89.38
278.652	87.38
278.884	82.38
279.115	87.38
279.347	94.38
279.579	74.38
279.81	87.38
280.042	88.38
280.273	99.38
280.505	89.38
280.736	101.38
280.968	95.38
281.199	89.38
281.431	86.38
281.662	95.38
281.894	101.38
282.125	94.38
282.356	94.38
282.588	126.38
282.819	110.38
283.051	86.38
283.282	89.38
283.513	97.38
283.745	87.38
283.976	85.38
284.207	86.38
284.439	90.38
284.67	77.38
284.901	77.38
285.132	84.38
285.364	70.38
285.595	98.38
285.826	102.38
286.057	88.38
286.288	96.38
286.52	99.38
286.751	75.38
286.982	77.38
287.213	91.38
287.444	81.38
287.675	86.38
287.906	99.38
288.138	93.38
288.369	89.38
288.6	86.38
288.831	78.38
289.062	88.38
289.293	88.38
289.524	87.38
289.755	88.38
289.986	77.38
290.217	85.38
290.448	84.38
290.679	93.38
290.91	91.38
291.141	95.38
291.371	90.38
291.602	68.38
291.833	72.38
292.064	96.38
292.295	98.38
292.526	91.38
292.757	88.38
292.987	88.38
293.218	88.38
293.449	76.38
293.68	87.38
293.91	77.38
294.141	84.38
294.372	94.38
294.603	103.38
294.833	89.38
295.064	95.38
295.295	84.38
295.525	94.38
295.756	104.38
295.987	103.38
296.217	111.38
296.448	104.38
296.679	91.38
296.909	88.38
297.14	83.38
297.37	77.38
297.601	83.38
297.831	84.38
298.062	86.38
298.292	89.38
298.523	75.38
298.753	87.38
298.984	83.38
299.214	87.38
299.445	92.38
299.675	81.38
299.905	93.38
300.136	91.38
300.366	88.38
300.597	84.38
300.827	85.38
301.057	88.38
301.288	95.38
301.518	115.38
301.748	81.38
301.979	104.38
302.209	79.38
302.439	101.38
302.669	93.38
302.9	82.38
303.13	99.38
303.36	103.38
303.59	101.38
303.82	86.38
304.051	102.38
304.281	83.38
304.511	92.38
304.741	95.38
304.971	96.38
305.201	93.38
305.431	83.38
305.661	89.38
305.891	94.38
306.121	81.38
306.352	99.38
306.582	95.38
306.812	94.38
307.042	96.38
307.272	96.38
307.502	89.38
307.731	106.38
307.961	91.38
308.191	83.38
308.421	78.38
308.651	81.38
308.881	91.38
309.111	95.38
309.341	93.38
309.571	100.38
309.8	88.38
310.03	84.38
310.26	101.38
310.49	100.38
310.72	101.38
310.949	86.38
311.179	99.38
311.409	84.38
311.639	86.38
311.868	90.38
312.098	96.38
312.328	101.38
312.557	103.38
312.787	99.38
313.017	96.38
313.246	101.38
313.476	83.38
313.706	98.38
313.935	97.38
314.165	88.38
314.394	103.38
314.624	89.38
314.853	96.38
315.083	102.38
315.312	89.38
315.542	93.38
315.771	82.38
316.001	89.38
316.23	93.38
316.46	81.38
316.689	105.38
316.919	85.38
317.148	83.38
317.377	111.38
317.607	87.38
317.836	87.38
318.065	89.38
318.295	81.38
318.524	78.38
318.753	93.38
318.983	98.38
319.212	93.38
319.441	107.38
319.67	91.38
319.9	90.38
320.129	85.38
320.358	100.38
320.587	81.38
320.816	94.38
321.046	93.38
321.275	96.38
321.504	101.38
321.733	81.38
321.962	92.38
322.191	99.38
322.42	99.38
322.649	107.38
322.878	107.38
323.108	107.38
323.337	112.38
323.566	129.38
323.795	133.38
324.024	194.38
324.253	353.38
324.482	730.38
324.71	1507.38
324.939	2011.38
325.168	749.38
325.397	225.38
325.626	136.38
325.855	118.38
326.084	117.38
326.313	130.38
326.542	137.38
326.77	209.38
326.999	402.38
327.228	861.38
327.457	1593.38
327.686	1267.38
327.914	336.38
328.143	169.38
328.372	129.38
328.6	118.38
328.829	101.38
329.058	112.38
329.287	108.38
329.515	98.38
329.744	104.38
329.972	97.38
330.201	104.38
330.43	111.38
330.658	112.38
330.887	117.38
331.115	118.38
331.344	92.38
331.572	98.38
331.801	101.38
332.03	85.38
332.258	107.38
332.486	103.38
332.715	93.38
332.943	78.38
333.172	90.38
333.4	90.38
333.629	106.38
333.857	104.38
334.085	115.38
334.314	95.38
334.542	84.38
334.771	106.38
334.999	97.38
335.227	100.38
335.455	102.38
335.684	83.38
335.912	94.38
336.14	98.38
336.369	102.38
336.597	94.38
336.825	109.38
337.053	100.38
337.281	104.38
337.51	88.38
337.738	91.38
337.966	96.38
338.194	81.38
338.422	95.38
338.65	103.38
338.878	108.38
339.106	106.38
339.334	106.38
339.562	95.38
339.79	87.38
340.018	95.38
340.246	82.38
340.474	91.38
340.702	103.38
340.93	96.38
341.158	94.38
341.386	98.38
341.614	99.38
341.842	103.38
342.07	86.38
342.298	92.38
342.526	87.38
342.754	87.38
342.981	97.38
343.209	97.38
343.437	94.38
343.665	94.38
343.893	101.38
344.12	103.38
344.348	85.38
344.576	68.38
344.804	103.38
345.031	105.38
345.259	97.38
345.487	98.38
345.714	104.38
345.942	82.38
346.17	83.38
346.397	83.38
346.625	102.38
346.853	96.38
347.08	109.38
347.308	93.38
347.535	104.38
347.763	102.38
347.99	95.38
348.218	90.38
348.445	104.38
348.673	99.38
348.9	71.38
349.128	92.38
349.355	85.38
349.583	85.38
349.81	81.38
350.037	82.38
350.265	100.38
350.492	104.38
350.72	104.38
350.947	85.38
351.174	99.38
351.402	102.38
351.629	93.38
351.856	97.38
352.083	93.38
352.311	104.38
352.538	110.38
352.765	107.38
352.992	112.38
353.22	110.38
353.447	104.38
353.674	99.38
353.901	91.38
354.128	93.38
354.355	97.38
354.583	96.38
354.81	99.38
355.037	111.38
355.264	105.38
355.491	95.38
355.718	101.38
355.945	95.38
356.172	101.38
356.399	100.38
356.626	113.38
356.853	106.38
357.08	89.38
357.307	91.38
357.534	100.38
357.761	97.38
357.988	106.38
358.215	112.38
358.441	90.38
358.668	95.38
358.895	107.38
359.122	88.38
359.349	99.38
359.576	93.38
359.802	89.38
360.029	99.38
360.256	109.38
360.483	101.38
360.709	98.38
360.936	99.38
361.163	113.38
361.39	112.38
361.616	85.38
361.843	77.38
362.07	91.38
362.296	97.38
362.523	96.38
362.749	78.38
362.976	97.38
363.203	96.38
363.429	97.38
363.656	76.38
363.882	87.38
364.109	89.38
364.335	97.38
364.562	90.38
364.788	78.38
365.015	96.38
365.241	90.38
365.468	103.38
365.694	94.38
365.92	91.38
366.147	85.38
366.373	92.38
366.599	99.38
366.826	89.38
367.052	93.38
367.278	104.38
367.505	86.38
367.731	80.38
367.957	91.38
368.184	90.38
368.41	90.38
368.636	106.38
368.862	108.38
369.089	98.38
369.315	99.38
369.541	92.38
369.767	89.38
369.993	82.38
370.219	93.38
370.445	103.38
370.672	89.38
370.898	88.38
371.124	96.38
371.35	82.38
371.576	97.38
371.802	94.38
372.028	96.38
372.254	79.38
372.48	79.38
372.706	82.38
372.932	79.38
373.158	102.38
373.384	91.38
373.61	92.38
373.835	90.38
374.061	90.38
374.287	79.38
374.513	85.38
374.739	87.38
374.965	81.38
375.191	91.38
375.416	99.38
375.642	88.38
375.868	88.38
376.094	82.38
376.319	90.38
376.545	84.38
376.771	69.38
376.997	93.38
377.222	91.38
377.448	82.38
377.674	84.38
377.899	97.38
378.125	93.38
378.35	82.38
378.576	81.38
378.802	90.38
379.027	96.38
379.253	98.38
379.478	93.38
379.704	98.38
379.929	105.38
380.155	98.38
380.38	94.38
380.606	96.38
380.831	96.38
381.057	100.38
381.282	110.38
381.507	107.38
381.733	103.38
381.958	100.38
382.184	94.38
382.409	100.38
382.634	97.38
382.86	102.38
383.085	102.38
383.31	111.38
383.535	114.38
383.761	83.38
383.986	96.38
384.211	99.38
384.436	107.38
384.662	106.38
384.887	117.38
385.112	109.38
385.337	111.38
385.562	120.38
385.787	116.38
386.013	118.38
386.238	105.38
386.463	115.38
386.688	118.38
386.913	106.38
387.138	105.38
387.363	105.38
387.588	102.38
387.813	114.38
388.038	117.38
388.263	122.38
388.488	118.38
388.713	98.38
388.938	101.38
389.163	106.38
389.387	97.38
389.612	95.38
389.837	95.38
390.062	94.38
390.287	81.38
390.512	92.38
390.736	101.38
390.961	75.38
391.186	96.38
391.411	95.38
391.636	94.38
391.86	82.38
392.085	81.38
392.31	77.38
392.534	90.38
392.759	77.38
392.984	97.38
393.208	91.38
393.433	104.38
393.658	86.38
393.882	72.38
394.107	93.38
394.331	97.38
394.556	90.38
394.78	99.38
395.005	88.38
395.229	78.38
395.454	103.38
395.678	86.38
395.903	83.38
396.127	77.38
396.352	85.38
396.576	94.38
396.801	93.38
397.025	81.38
397.249	81.38
397.474	84.38
397.698	87.38
397.922	98.38
398.147	84.38
398.371	96.38
398.595	94.38
398.82	85.38
399.044	85.38
399.268	79.38
399.492	90.38
399.717	97.38
399.941	87.38
400.165	86.38
400.389	93.38
400.613	84.38
400.837	88.38
401.062	92.38
401.286	85.38
401.51	81.38
401.734	96.38
401.958	100.38
402.182	112.38
402.406	127.38
402.63	107.38
402.854	78.38
403.078	83.38
403.302	95.38
403.526	83.38
403.75	101.38
403.974	89.38
404.198	87.38
404.422	96.38
404.645	83.38
404.869	86.38
405.093	90.38
405.317	90.38
405.541	86.38
405.765	91.38
405.988	106.38
406.212	153.38
406.436	193.38
406.66	126.38
406.883	83.38
407.107	92.38
407.331	97.38
407.555	91.38
407.778	81.38
408.002	90.38
408.226	86.38
408.449	92.38
408.673	100.38
408.896	102.38
409.12	88.38
409.344	85.38
409.567	69.38
409.791	85.38
410.014	98.38
410.238	97.38
410.461	87.38
410.685	89.38
410.908	90.38
411.132	99.38
411.355	95.38
411.578	86.38
411.802	97.38
412.025	84.38
412.249	82.38
412.472	104.38
412.695	104.38
412.919	100.38
413.142	78.38
413.365	94.38
413.589	92.38
413.812	106.38
414.035	94.38
414.258	105.38
414.482	100.38
414.705	98.38
414.928	104.38
415.151	82.38
415.374	96.38
415.597	95.38
415.821	103.38
416.044	86.38
416.267	80.38
416.49	85.38
416.713	89.38
416.936	101.38
417.159	85.38
417.382	91.38
417.605	82.38
417.828	95.38
418.051	100.38
418.274	98.38
418.497	79.38
418.72	90.38
418.943	75.38
419.166	76.38
419.389	89.38
419.611	93.38
419.834	89.38
420.057	91.38
420.28	88.38
420.503	90.38
420.726	100.38
420.948	98.38
421.171	87.38
421.394	95.38
421.617	97.38
421.839	81.38
422.062	89.38
422.285	74.38
422.507	93.38
422.73	108.38
422.953	88.38
423.175	70.38
423.398	81.38
423.621	90.38
423.843	81.38
424.066	73.38
424.288	92.38
424.511	103.38
424.733	106.38
424.956	102.38
425.178	86.38
425.401	88.38
425.623	98.38
425.846	82.38
426.068	101.38
426.291	94.38
426.513	81.38
426.735	93.38
426.958	91.38
427.18	93.38
427.402	120.38
427.625	139.38
427.847	123.38
428.069	111.38
428.292	92.38
428.514	76.38
428.736	70.38
428.958	87.38
429.181	83.38
429.403	73.38
429.625	95.38
429.847	88.38
430.069	103.38
430.292	82.38
430.514	78.38
430.736	80.38
430.958	87.38
431.18	85.38
431.402	90.38
431.624	86.38
431.846	96.38
432.068	86.38
432.29	89.38
432.512	87.38
432.734	80.38
432.956	77.38
433.178	94.38
433.4	89.38
433.622	86.38
433.844	87.38
434.066	82.38
434.287	94.38
434.509	98.38
434.731	91.38
434.953	95.38
435.175	88.38
435.397	85.38
435.618	96.38
435.84	94.38
436.062	114.38
436.284	105.38
436.505	89.38
436.727	99.38
436.949	98.38
437.17	88.38
437.392	74.38
437.614	94.38
437.835	84.38
438.057	114.38
438.278	107.38
438.5	114.38
438.721	107.38
438.943	109.38
439.165	82.38
439.386	83.38
439.608	97.38
439.829	90.38
440.05	109.38
440.272	133.38
440.493	90.38
440.715	79.38
440.936	88.38
441.158	86.38
441.379	78.38
441.6	82.38
441.822	86.38
442.043	87.38
442.264	107.38
442.486	97.38
442.707	101.38
442.928	100.38
443.149	112.38
443.371	111.38
443.592	108.38
443.813	107.38
444.034	104.38
444.255	86.38
444.476	100.38
444.698	81.38
444.919	83.38
445.14	123.38
445.361	111.38
445.582	113.38
445.803	127.38
446.024	111.38
446.245	118.38
446.466	120.38
446.687	96.38
446.908	77.38
447.129	79.38
447.35	103.38
447.571	83.38
447.792	90.38
448.013	99.38
448.234	92.38
448.455	106.38
448.675	98.38
448.896	118.38
449.117	98.38
449.338	116.38
449.559	121.38
449.779	122.38
450	91.38
450.221	78.38
450.442	86.38
450.662	82.38
450.883	103.38
451.104	93.38
451.324	91.38
451.545	83.38
451.766	77.38
451.986	77.38
452.207	70.38
452.428	77.38
452.648	97.38
452.869	97.38
453.089	90.38
453.31	104.38
453.53	66.38
453.751	67.38
453.971	96.38
454.192	104.38
454.412	98.38
454.633	73.38
454.853	71.38
455.073	83.38
455.294	87.38
455.514	84.38
455.734	100.38
455.955	91.38
456.175	84.38
456.395	86.38
456.616	101.38
456.836	91.38
457.056	99.38
457.276	86.38
457.497	74.38
457.717	79.38
457.937	97.38
458.157	74.38
458.377	87.38
458.598	101.38
458.818	122.38
459.038	125.38
459.258	100.38
459.478	93.38
459.698	87.38
459.918	82.38
460.138	79.38
460.358	68.38
460.578	83.38
460.798	83.38
461.018	88.38
461.238	83.38
461.458	82.38
461.678	72.38
461.898	88.38
462.118	79.38
462.338	70.38
462.558	81.38
462.777	63.38
462.997	83.38
463.217	91.38
463.437	91.38
463.657	82.38
463.876	85.38
464.096	77.38
464.316	84.38
464.536	73.38
464.755	93.38
464.975	98.38
465.195	140.38
465.414	130.38
465.634	97.38
465.854	85.38
466.073	85.38
466.293	90.38
466.512	87.38
466.732	75.38
466.951	87.38
467.171	100.38
467.391	88.38
467.61	95.38
467.829	84.38
468.049	97.38
468.268	96.38
468.488	93.38
468.707	86.38
468.927	90.38
469.146	79.38
469.365	80.38
469.585	91.38
469.804	79.38
470.023	89.38
470.243	93.38
470.462	90.38
470.681	98.38
470.901	89.38
471.12	86.38
471.339	79.38
471.558	82.38
471.777	79.38
471.997	89.38
472.216	91.38
472.435	100.38
472.654	83.38
472.873	81.38
473.092	90.38
473.311	88.38
473.53	88.38
473.749	74.38
473.968	104.38
474.187	105.38
474.406	93.38
474.625	87.38
474.844	84.38
475.063	95.38
475.282	71.38
475.501	67.38
475.72	75.38
475.939	72.38
476.158	85.38
476.377	94.38
476.596	90.38
476.814	74.38
477.033	70.38
477.252	86.38
477.471	80.38
477.69	87.38
477.908	74.38
478.127	91.38
478.346	83.38
478.564	86.38
478.783	90.38
479.002	95.38
479.22	72.38
479.439	79.38
479.658	88.38
479.876	89.38
480.095	73.38
480.313	89.38
480.532	91.38
480.751	94.38
480.969	102.38
481.188	117.38
481.406	107.38
481.624	104.38
481.843	91.38
482.061	103.38
482.28	87.38
482.498	77.38
482.717	91.38
482.935	94.38
483.153	92.38
483.372	74.38
483.59	94.38
483.808	83.38
484.027	90.38
484.245	83.38
484.463	87.38
484.681	93.38
484.9	85.38
485.118	95.38
485.336	94.38
485.554	100.38
485.772	106.38
485.99	102.38
486.209	107.38
486.427	100.38
486.645	106.38
486.863	105.38
487.081	113.38
487.299	101.38
487.517	91.38
487.735	88.38
487.953	84.38
488.171	89.38
488.389	93.38
488.607	89.38
488.825	76.38
489.043	93.38
489.261	89.38
489.479	88.38
489.696	87.38
489.914	81.38
490.132	74.38
490.35	90.38
490.568	86.38
490.786	79.38
491.003	90.38
491.221	104.38
491.439	91.38
491.657	93.38
491.874	95.38
492.092	101.38
492.31	93.38
492.527	83.38
492.745	93.38
492.963	96.38
493.18	92.38
493.398	85.38
493.615	103.38
493.833	101.38
494.05	81.38
494.268	91.38
494.485	77.38
494.703	111.38
494.92	80.38
495.138	92.38
495.355	94.38
495.573	88.38
495.79	91.38
496.008	92.38
496.225	100.38
496.442	72.38
496.66	90.38
496.877	74.38
497.094	94.38
497.312	93.38
497.529	77.38
497.746	81.38
497.963	86.38
498.181	93.38
498.398	83.38
498.615	109.38
498.832	89.38
499.049	74.38
499.267	77.38
499.484	89.38
499.701	90.38
499.918	85.38
500.135	107.38
500.352	91.38
500.569	83.38
500.786	85.38
501.003	79.38
501.22	93.38
501.437	81.38
501.654	87.38
501.871	97.38
502.088	81.38
502.305	84.38
502.522	69.38
502.739	79.38
502.956	91.38
503.172	79.38
503.389	87.38
503.606	100.38
503.823	96.38
504.04	86.38
504.256	94.38
504.473	75.38
504.69	74.38
504.907	88.38
505.123	86.38
505.34	83.38
505.557	90.38
505.773	90.38
505.99	100.38
506.207	93.38
506.423	93.38
506.64	90.38
506.856	88.38
507.073	94.38
507.289	86.38
507.506	79.38
507.722	91.38
507.939	106.38
508.155	83.38
508.372	77.38
508.588	94.38
508.805	88.38
509.021	87.38
509.238	108.38
509.454	99.38
509.67	89.38
509.887	101.38
510.103	112.38
510.319	175.38
510.536	582.38
510.752	1746.38
510.968	497.38
511.184	143.38
511.401	95.38
511.617	87.38
511.833	85.38
512.049	97.38
512.265	82.38
512.481	83.38
512.698	81.38
512.914	99.38
513.13	94.38
513.346	89.38
513.562	94.38
513.778	101.38
513.994	102.38
514.21	100.38
514.426	103.38
514.642	114.38
514.858	113.38
515.074	144.38
515.29	325.38
515.506	1063.38
515.721	404.38
515.937	126.38
516.153	101.38
