Data from Circ_1985_H10_HRD10591_00015.txt Node
Date: Wed Jan 03 12:19:25 EST 2024
User: Yrep
Spectrometer: HR+D1059
Trigger mode: 1
Integration Time (sec): 1.000000E-1
Scans to average: 1
Electric dark correction enabled: true
Nonlinearity correction enabled: false
Boxcar width: 0
XAxis mode: Wavelengths
Number of Pixels in Spectrum: 2048
>>>>>Begin Spectral Data<<<<<
223.165	-21.94
223.4	-21.94
223.635	-21.94
223.869	-8.94
224.104	-2.94
224.338	0.06
224.573	-27.94
224.808	-13.94
225.042	-16.94
225.277	-14.94
225.511	-3.94
225.746	17.06
225.98	8.06
226.215	10.06
226.449	20.06
226.683	9.06
226.918	25.06
227.152	22.06
227.387	27.06
227.621	34.06
227.856	39.06
228.09	38.06
228.324	47.06
228.559	47.06
228.793	49.06
229.027	60.06
229.262	59.06
229.496	62.06
229.73	87.06
229.964	83.06
230.199	58.06
230.433	72.06
230.667	80.06
230.901	70.06
231.136	70.06
231.37	79.06
231.604	85.06
231.838	78.06
232.072	80.06
232.306	71.06
232.541	82.06
232.775	88.06
233.009	85.06
233.243	76.06
233.477	89.06
233.711	82.06
233.945	80.06
234.179	81.06
234.413	82.06
234.647	82.06
234.881	78.06
235.115	57.06
235.349	71.06
235.583	76.06
235.817	83.06
236.051	76.06
236.285	72.06
236.519	71.06
236.753	72.06
236.987	78.06
237.221	79.06
237.455	92.06
237.689	78.06
237.922	87.06
238.156	81.06
238.39	69.06
238.624	68.06
238.858	82.06
239.091	69.06
239.325	70.06
239.559	78.06
239.793	64.06
240.027	78.06
240.26	81.06
240.494	71.06
240.728	68.06
240.961	72.06
241.195	75.06
241.429	71.06
241.662	60.06
241.896	62.06
242.13	80.06
242.363	77.06
242.597	77.06
242.83	73.06
243.064	71.06
243.298	76.06
243.531	81.06
243.765	68.06
243.998	72.06
244.232	82.06
244.465	80.06
244.699	92.06
244.932	80.06
245.166	60.06
245.399	69.06
245.633	71.06
245.866	68.06
246.099	77.06
246.333	81.06
246.566	77.06
246.8	77.06
247.033	92.06
247.266	80.06
247.5	82.06
247.733	77.06
247.966	73.06
248.2	79.06
248.433	67.06
248.666	70.06
248.899	64.06
249.133	77.06
249.366	102.06
249.599	87.06
249.832	84.06
250.066	68.06
250.299	70.06
250.532	57.06
250.765	76.06
250.998	84.06
251.231	70.06
251.465	91.06
251.698	87.06
251.931	71.06
252.164	71.06
252.397	71.06
252.63	82.06
252.863	84.06
253.096	77.06
253.329	64.06
253.562	65.06
253.795	86.06
254.028	76.06
254.261	87.06
254.494	91.06
254.727	84.06
254.96	76.06
255.193	80.06
255.426	72.06
255.659	73.06
255.892	71.06
256.124	80.06
256.357	71.06
256.59	72.06
256.823	67.06
257.056	72.06
257.289	70.06
257.521	71.06
257.754	68.06
257.987	74.06
258.22	84.06
258.452	68.06
258.685	82.06
258.918	72.06
259.151	55.06
259.383	88.06
259.616	78.06
259.849	77.06
260.081	77.06
260.314	87.06
260.547	61.06
260.779	86.06
261.012	79.06
261.244	83.06
261.477	96.06
261.71	81.06
261.942	107.06
262.175	103.06
262.407	88.06
262.64	75.06
262.872	91.06
263.105	97.06
263.337	68.06
263.57	67.06
263.802	72.06
264.035	92.06
264.267	82.06
264.499	70.06
264.732	80.06
264.964	87.06
265.197	91.06
265.429	86.06
265.661	81.06
265.894	68.06
266.126	75.06
266.358	79.06
266.591	84.06
266.823	79.06
267.055	85.06
267.287	79.06
267.52	80.06
267.752	90.06
267.984	89.06
268.216	73.06
268.448	88.06
268.681	86.06
268.913	99.06
269.145	81.06
269.377	73.06
269.609	69.06
269.841	76.06
270.073	78.06
270.306	79.06
270.538	84.06
270.77	87.06
271.002	82.06
271.234	73.06
271.466	85.06
271.698	72.06
271.93	77.06
272.162	91.06
272.394	89.06
272.626	91.06
272.858	81.06
273.09	79.06
273.322	86.06
273.553	75.06
273.785	86.06
274.017	91.06
274.249	100.06
274.481	80.06
274.713	78.06
274.945	86.06
275.176	86.06
275.408	71.06
275.64	64.06
275.872	87.06
276.104	85.06
276.335	91.06
276.567	89.06
276.799	95.06
277.031	81.06
277.262	74.06
277.494	96.06
277.726	96.06
277.957	83.06
278.189	95.06
278.421	85.06
278.652	67.06
278.884	81.06
279.115	87.06
279.347	79.06
279.579	88.06
279.81	79.06
280.042	97.06
280.273	82.06
280.505	90.06
280.736	76.06
280.968	86.06
281.199	79.06
281.431	87.06
281.662	80.06
281.894	74.06
282.125	98.06
282.356	94.06
282.588	105.06
282.819	107.06
283.051	85.06
283.282	82.06
283.513	91.06
283.745	75.06
283.976	84.06
284.207	80.06
284.439	76.06
284.67	87.06
284.901	98.06
285.132	100.06
285.364	84.06
285.595	81.06
285.826	71.06
286.057	75.06
286.288	76.06
286.52	88.06
286.751	86.06
286.982	95.06
287.213	85.06
287.444	84.06
287.675	76.06
287.906	97.06
288.138	83.06
288.369	89.06
288.6	87.06
288.831	92.06
289.062	88.06
289.293	92.06
289.524	82.06
289.755	68.06
289.986	91.06
290.217	81.06
290.448	80.06
290.679	91.06
290.91	77.06
291.141	70.06
291.371	81.06
291.602	78.06
291.833	96.06
292.064	77.06
292.295	92.06
292.526	89.06
292.757	69.06
292.987	80.06
293.218	86.06
293.449	85.06
293.68	86.06
293.91	82.06
294.141	88.06
294.372	79.06
294.603	97.06
294.833	88.06
295.064	88.06
295.295	90.06
295.525	87.06
295.756	86.06
295.987	100.06
296.217	124.06
296.448	112.06
296.679	92.06
296.909	82.06
297.14	91.06
297.37	84.06
297.601	90.06
297.831	101.06
298.062	78.06
298.292	75.06
298.523	81.06
298.753	76.06
298.984	83.06
299.214	87.06
299.445	83.06
299.675	88.06
299.905	86.06
300.136	91.06
300.366	77.06
300.597	93.06
300.827	86.06
301.057	103.06
301.288	105.06
301.518	88.06
301.748	91.06
301.979	87.06
302.209	87.06
302.439	94.06
302.669	87.06
302.9	79.06
303.13	89.06
303.36	88.06
303.59	96.06
303.82	100.06
304.051	93.06
304.281	88.06
304.511	100.06
304.741	84.06
304.971	92.06
305.201	103.06
305.431	80.06
305.661	72.06
305.891	88.06
306.121	76.06
306.352	97.06
306.582	103.06
306.812	95.06
307.042	80.06
307.272	77.06
307.502	89.06
307.731	85.06
307.961	97.06
308.191	68.06
308.421	81.06
308.651	94.06
308.881	105.06
309.111	88.06
309.341	104.06
309.571	89.06
309.8	80.06
310.03	93.06
310.26	85.06
310.49	83.06
310.72	89.06
310.949	79.06
311.179	91.06
311.409	92.06
311.639	94.06
311.868	88.06
312.098	97.06
312.328	91.06
312.557	90.06
312.787	103.06
313.017	103.06
313.246	91.06
313.476	98.06
313.706	86.06
313.935	97.06
314.165	77.06
314.394	94.06
314.624	94.06
314.853	99.06
315.083	70.06
315.312	77.06
315.542	96.06
315.771	87.06
316.001	82.06
316.23	97.06
316.46	94.06
316.689	102.06
316.919	90.06
317.148	95.06
317.377	85.06
317.607	78.06
317.836	83.06
318.065	83.06
318.295	90.06
318.524	89.06
318.753	89.06
318.983	88.06
319.212	94.06
319.441	81.06
319.67	94.06
319.9	93.06
320.129	88.06
320.358	92.06
320.587	99.06
320.816	105.06
321.046	90.06
321.275	99.06
321.504	95.06
321.733	88.06
321.962	102.06
322.191	94.06
322.42	87.06
322.649	104.06
322.878	104.06
323.108	107.06
323.337	114.06
323.566	115.06
323.795	134.06
324.024	188.06
324.253	330.06
324.482	682.06
324.71	1459.06
324.939	1896.06
325.168	682.06
325.397	228.06
325.626	144.06
325.855	113.06
326.084	120.06
326.313	118.06
326.542	134.06
326.77	209.06
326.999	385.06
327.228	823.06
327.457	1508.06
327.686	1179.06
327.914	326.06
328.143	160.06
328.372	127.06
328.6	118.06
328.829	107.06
329.058	112.06
329.287	119.06
329.515	97.06
329.744	89.06
329.972	91.06
330.201	87.06
330.43	92.06
330.658	95.06
330.887	117.06
331.115	103.06
331.344	81.06
331.572	76.06
331.801	93.06
332.03	94.06
332.258	86.06
332.486	88.06
332.715	83.06
332.943	84.06
333.172	94.06
333.4	89.06
333.629	105.06
333.857	123.06
334.085	98.06
334.314	104.06
334.542	119.06
334.771	93.06
334.999	98.06
335.227	82.06
335.455	95.06
335.684	100.06
335.912	91.06
336.14	93.06
336.369	100.06
336.597	96.06
336.825	85.06
337.053	95.06
337.281	83.06
337.51	101.06
337.738	89.06
337.966	93.06
338.194	87.06
338.422	95.06
338.65	94.06
338.878	99.06
339.106	95.06
339.334	93.06
339.562	85.06
339.79	83.06
340.018	89.06
340.246	78.06
340.474	79.06
340.702	101.06
340.93	89.06
341.158	90.06
341.386	95.06
341.614	91.06
341.842	93.06
342.07	77.06
342.298	100.06
342.526	81.06
342.754	82.06
342.981	72.06
343.209	86.06
343.437	95.06
343.665	96.06
343.893	99.06
344.12	97.06
344.348	73.06
344.576	84.06
344.804	95.06
345.031	93.06
345.259	82.06
345.487	87.06
345.714	85.06
345.942	94.06
346.17	91.06
346.397	85.06
346.625	88.06
346.853	95.06
347.08	93.06
347.308	86.06
347.535	95.06
347.763	104.06
347.99	85.06
348.218	108.06
348.445	93.06
348.673	91.06
348.9	99.06
349.128	95.06
349.355	79.06
349.583	88.06
349.81	107.06
350.037	91.06
350.265	94.06
350.492	87.06
350.72	80.06
350.947	91.06
351.174	87.06
351.402	93.06
351.629	103.06
351.856	83.06
352.083	86.06
352.311	109.06
352.538	100.06
352.765	99.06
352.992	97.06
353.22	97.06
353.447	81.06
353.674	85.06
353.901	99.06
354.128	88.06
354.355	78.06
354.583	94.06
354.81	96.06
355.037	79.06
355.264	91.06
355.491	75.06
355.718	93.06
355.945	102.06
356.172	87.06
356.399	113.06
356.626	92.06
356.853	86.06
357.08	81.06
357.307	92.06
357.534	89.06
357.761	99.06
357.988	91.06
358.215	97.06
358.441	90.06
358.668	97.06
358.895	81.06
359.122	87.06
359.349	83.06
359.576	100.06
359.802	89.06
360.029	98.06
360.256	108.06
360.483	87.06
360.709	80.06
360.936	95.06
361.163	94.06
361.39	89.06
361.616	78.06
361.843	91.06
362.07	84.06
362.296	95.06
362.523	89.06
362.749	81.06
362.976	87.06
363.203	103.06
363.429	72.06
363.656	84.06
363.882	81.06
364.109	82.06
364.335	93.06
364.562	83.06
364.788	78.06
365.015	89.06
365.241	102.06
365.468	113.06
365.694	104.06
365.92	89.06
366.147	83.06
366.373	75.06
366.599	79.06
366.826	87.06
367.052	85.06
367.278	81.06
367.505	76.06
367.731	93.06
367.957	72.06
368.184	82.06
368.41	83.06
368.636	101.06
368.862	103.06
369.089	87.06
369.315	93.06
369.541	88.06
369.767	82.06
369.993	92.06
370.219	79.06
370.445	83.06
370.672	82.06
370.898	83.06
371.124	79.06
371.35	85.06
371.576	83.06
371.802	93.06
372.028	86.06
372.254	81.06
372.48	88.06
372.706	81.06
372.932	78.06
373.158	79.06
373.384	87.06
373.61	93.06
373.835	93.06
374.061	90.06
374.287	81.06
374.513	85.06
374.739	75.06
374.965	80.06
375.191	81.06
375.416	94.06
375.642	80.06
375.868	87.06
376.094	88.06
376.319	82.06
376.545	85.06
376.771	69.06
376.997	76.06
377.222	81.06
377.448	86.06
377.674	90.06
377.899	87.06
378.125	88.06
378.35	86.06
378.576	91.06
378.802	87.06
379.027	92.06
379.253	100.06
379.478	96.06
379.704	112.06
379.929	97.06
380.155	85.06
380.38	91.06
380.606	87.06
380.831	88.06
381.057	84.06
381.282	85.06
381.507	108.06
381.733	108.06
381.958	94.06
382.184	122.06
382.409	99.06
382.634	103.06
382.86	101.06
383.085	109.06
383.31	102.06
383.535	103.06
383.761	96.06
383.986	112.06
384.211	91.06
384.436	109.06
384.662	105.06
384.887	120.06
385.112	126.06
385.337	109.06
385.562	108.06
385.787	120.06
386.013	132.06
386.238	118.06
386.463	107.06
386.688	115.06
386.913	108.06
387.138	130.06
387.363	112.06
387.588	116.06
387.813	102.06
388.038	115.06
388.263	113.06
388.488	125.06
388.713	99.06
388.938	89.06
389.163	79.06
389.387	82.06
389.612	78.06
389.837	85.06
390.062	103.06
390.287	87.06
390.512	93.06
390.736	93.06
390.961	96.06
391.186	102.06
391.411	92.06
391.636	95.06
391.86	87.06
392.085	69.06
392.31	83.06
392.534	93.06
392.759	78.06
392.984	98.06
393.208	100.06
393.433	119.06
393.658	71.06
393.882	82.06
394.107	90.06
394.331	78.06
394.556	75.06
394.78	83.06
395.005	91.06
395.229	83.06
395.454	83.06
395.678	76.06
395.903	84.06
396.127	88.06
396.352	91.06
396.576	79.06
396.801	93.06
397.025	87.06
397.249	93.06
397.474	86.06
397.698	79.06
397.922	75.06
398.147	93.06
398.371	78.06
398.595	87.06
398.82	90.06
399.044	79.06
399.268	79.06
399.492	91.06
399.717	95.06
399.941	85.06
400.165	87.06
400.389	87.06
400.613	79.06
400.837	80.06
401.062	86.06
401.286	82.06
401.51	79.06
401.734	80.06
401.958	92.06
402.182	121.06
402.406	124.06
402.63	104.06
402.854	81.06
403.078	89.06
403.302	91.06
403.526	91.06
403.75	87.06
403.974	75.06
404.198	78.06
404.422	90.06
404.645	90.06
404.869	95.06
405.093	81.06
405.317	99.06
405.541	70.06
405.765	95.06
405.988	92.06
406.212	127.06
406.436	169.06
406.66	108.06
406.883	81.06
407.107	95.06
407.331	80.06
407.555	105.06
407.778	97.06
408.002	69.06
408.226	85.06
408.449	87.06
408.673	79.06
408.896	91.06
409.12	102.06
409.344	100.06
409.567	95.06
409.791	80.06
410.014	84.06
410.238	87.06
410.461	96.06
410.685	96.06
410.908	80.06
411.132	97.06
411.355	94.06
411.578	89.06
411.802	80.06
412.025	103.06
412.249	91.06
412.472	87.06
412.695	78.06
412.919	84.06
413.142	83.06
413.365	89.06
413.589	92.06
413.812	80.06
414.035	85.06
414.258	79.06
414.482	81.06
414.705	81.06
414.928	85.06
415.151	95.06
415.374	104.06
415.597	89.06
415.821	91.06
416.044	74.06
416.267	73.06
416.49	79.06
416.713	85.06
416.936	75.06
417.159	95.06
417.382	95.06
417.605	85.06
417.828	80.06
418.051	72.06
418.274	89.06
418.497	81.06
418.72	96.06
418.943	85.06
419.166	90.06
419.389	86.06
419.611	87.06
419.834	79.06
420.057	79.06
420.28	68.06
420.503	84.06
420.726	91.06
420.948	84.06
421.171	81.06
421.394	97.06
421.617	89.06
421.839	81.06
422.062	75.06
422.285	105.06
422.507	87.06
422.73	104.06
422.953	83.06
423.175	88.06
423.398	93.06
423.621	83.06
423.843	77.06
424.066	86.06
424.288	87.06
424.511	84.06
424.733	94.06
424.956	98.06
425.178	99.06
425.401	97.06
425.623	101.06
425.846	98.06
426.068	69.06
426.291	94.06
426.513	88.06
426.735	98.06
426.958	81.06
427.18	104.06
427.402	134.06
427.625	122.06
427.847	106.06
428.069	106.06
428.292	71.06
428.514	79.06
428.736	85.06
428.958	86.06
429.181	86.06
429.403	80.06
429.625	79.06
429.847	88.06
430.069	100.06
430.292	90.06
430.514	81.06
430.736	86.06
430.958	79.06
431.18	84.06
431.402	79.06
431.624	80.06
431.846	72.06
432.068	100.06
432.29	81.06
432.512	105.06
432.734	78.06
432.956	85.06
433.178	97.06
433.4	90.06
433.622	91.06
433.844	96.06
434.066	94.06
434.287	78.06
434.509	88.06
434.731	73.06
434.953	82.06
435.175	79.06
435.397	75.06
435.618	80.06
435.84	93.06
436.062	113.06
436.284	107.06
436.505	93.06
436.727	92.06
436.949	84.06
437.17	77.06
437.392	79.06
437.614	91.06
437.835	97.06
438.057	102.06
438.278	100.06
438.5	87.06
438.721	109.06
438.943	96.06
439.165	79.06
439.386	97.06
439.608	88.06
439.829	83.06
440.05	116.06
440.272	128.06
440.493	110.06
440.715	86.06
440.936	84.06
441.158	83.06
441.379	103.06
441.6	84.06
441.822	80.06
442.043	80.06
442.264	109.06
442.486	92.06
442.707	95.06
442.928	97.06
443.149	115.06
443.371	105.06
443.592	95.06
443.813	85.06
444.034	93.06
444.255	91.06
444.476	72.06
444.698	93.06
444.919	75.06
445.14	120.06
445.361	113.06
445.582	104.06
445.803	118.06
446.024	114.06
446.245	118.06
446.466	101.06
446.687	84.06
446.908	79.06
447.129	84.06
447.35	85.06
447.571	99.06
447.792	90.06
448.013	90.06
448.234	99.06
448.455	102.06
448.675	104.06
448.896	98.06
449.117	90.06
449.338	109.06
449.559	114.06
449.779	94.06
450	88.06
450.221	78.06
450.442	71.06
450.662	85.06
450.883	107.06
451.104	93.06
451.324	86.06
451.545	91.06
451.766	84.06
451.986	91.06
452.207	93.06
452.428	87.06
452.648	94.06
452.869	91.06
453.089	101.06
453.31	106.06
453.53	84.06
453.751	103.06
453.971	79.06
454.192	83.06
454.412	81.06
454.633	87.06
454.853	87.06
455.073	77.06
455.294	87.06
455.514	87.06
455.734	82.06
455.955	75.06
456.175	86.06
456.395	79.06
456.616	92.06
456.836	81.06
457.056	78.06
457.276	80.06
457.497	88.06
457.717	76.06
457.937	87.06
458.157	85.06
458.377	83.06
458.598	95.06
458.818	120.06
459.038	131.06
459.258	111.06
459.478	84.06
459.698	91.06
459.918	95.06
460.138	90.06
460.358	63.06
460.578	86.06
460.798	97.06
461.018	81.06
461.238	89.06
461.458	67.06
461.678	77.06
461.898	79.06
462.118	85.06
462.338	65.06
462.558	79.06
462.777	90.06
462.997	82.06
463.217	70.06
463.437	88.06
463.657	78.06
463.876	81.06
464.096	68.06
464.316	67.06
464.536	85.06
464.755	92.06
464.975	87.06
465.195	123.06
465.414	126.06
465.634	79.06
465.854	79.06
466.073	86.06
466.293	86.06
466.512	77.06
466.732	91.06
466.951	83.06
467.171	92.06
467.391	89.06
467.61	110.06
467.829	93.06
468.049	89.06
468.268	94.06
468.488	85.06
468.707	87.06
468.927	81.06
469.146	73.06
469.365	78.06
469.585	88.06
469.804	101.06
470.023	87.06
470.243	92.06
470.462	86.06
470.681	107.06
470.901	84.06
471.12	94.06
471.339	104.06
471.558	86.06
471.777	80.06
471.997	82.06
472.216	103.06
472.435	96.06
472.654	79.06
472.873	91.06
473.092	71.06
473.311	81.06
473.53	78.06
473.749	108.06
473.968	96.06
474.187	102.06
474.406	89.06
474.625	93.06
474.844	90.06
475.063	81.06
475.282	94.06
475.501	83.06
475.72	79.06
475.939	83.06
476.158	81.06
476.377	85.06
476.596	80.06
476.814	91.06
477.033	68.06
477.252	86.06
477.471	86.06
477.69	89.06
477.908	85.06
478.127	90.06
478.346	81.06
478.564	86.06
478.783	98.06
479.002	90.06
479.22	93.06
479.439	84.06
479.658	84.06
479.876	88.06
480.095	84.06
480.313	77.06
480.532	91.06
480.751	80.06
480.969	77.06
481.188	111.06
481.406	94.06
481.624	83.06
481.843	91.06
482.061	68.06
482.28	85.06
482.498	90.06
482.717	81.06
482.935	101.06
483.153	89.06
483.372	100.06
483.59	100.06
483.808	86.06
484.027	86.06
484.245	80.06
484.463	86.06
484.681	84.06
484.9	85.06
485.118	81.06
485.336	88.06
485.554	91.06
485.772	94.06
485.99	122.06
486.209	112.06
486.427	99.06
486.645	103.06
486.863	104.06
487.081	113.06
487.299	91.06
487.517	96.06
487.735	75.06
487.953	92.06
488.171	82.06
488.389	92.06
488.607	94.06
488.825	82.06
489.043	58.06
489.261	91.06
489.479	84.06
489.696	100.06
489.914	86.06
490.132	84.06
490.35	92.06
490.568	85.06
490.786	70.06
491.003	94.06
491.221	94.06
491.439	101.06
491.657	87.06
491.874	92.06
492.092	95.06
492.31	88.06
492.527	91.06
492.745	79.06
492.963	89.06
493.18	83.06
493.398	80.06
493.615	90.06
493.833	96.06
494.05	83.06
494.268	95.06
494.485	93.06
494.703	86.06
494.92	91.06
495.138	103.06
495.355	77.06
495.573	71.06
495.79	77.06
496.008	85.06
496.225	85.06
496.442	83.06
496.66	85.06
496.877	77.06
497.094	94.06
497.312	93.06
497.529	78.06
497.746	77.06
497.963	79.06
498.181	75.06
498.398	94.06
498.615	91.06
498.832	91.06
499.049	95.06
499.267	95.06
499.484	87.06
499.701	98.06
499.918	83.06
500.135	96.06
500.352	91.06
500.569	88.06
500.786	97.06
501.003	86.06
501.22	88.06
501.437	91.06
501.654	99.06
501.871	103.06
502.088	89.06
502.305	87.06
502.522	86.06
502.739	87.06
502.956	84.06
503.172	90.06
503.389	67.06
503.606	98.06
503.823	99.06
504.04	90.06
504.256	87.06
504.473	73.06
504.69	83.06
504.907	86.06
505.123	82.06
505.34	84.06
505.557	90.06
505.773	88.06
505.99	82.06
506.207	69.06
506.423	98.06
506.64	96.06
506.856	79.06
507.073	79.06
507.289	94.06
507.506	87.06
507.722	112.06
507.939	92.06
508.155	88.06
508.372	97.06
508.588	97.06
508.805	87.06
509.021	98.06
509.238	98.06
509.454	92.06
509.67	85.06
509.887	99.06
510.103	118.06
510.319	182.06
510.536	579.06
510.752	1698.06
510.968	510.06
511.184	134.06
511.401	90.06
511.617	97.06
511.833	93.06
512.049	92.06
512.265	78.06
512.481	95.06
512.698	71.06
512.914	82.06
513.13	89.06
513.346	86.06
513.562	103.06
513.778	96.06
513.994	97.06
514.21	101.06
514.426	101.06
514.642	108.06
514.858	91.06
515.074	140.06
515.29	327.06
515.506	1022.06
515.721	379.06
515.937	122.06
516.153	88.06
516.369	87.06
516.585	88.06
516.801	85.06
517.016	87.06
517.232	80.06
