Data from Circ_1985_H10_HRD10591_00052.txt Node
Date: Wed Jan 03 12:19:33 EST 2024
User: Yrep
Spectrometer: HR+D1059
Trigger mode: 1
Integration Time (sec): 1.000000E-1
Scans to average: 1
Electric dark correction enabled: true
Nonlinearity correction enabled: false
Boxcar width: 0
XAxis mode: Wavelengths
Number of Pixels in Spectrum: 2048
>>>>>Begin Spectral Data<<<<<
223.165	-14.69
223.4	-14.69
223.635	-14.69
223.869	-11.69
224.104	-31.69
224.338	-22.69
224.573	-8.69
224.808	-12.69
225.042	-4.69
225.277	-6.69
225.511	2.31
225.746	3.31
225.98	12.31
226.215	9.31
226.449	21.31
226.683	15.31
226.918	10.31
227.152	39.31
227.387	50.31
227.621	57.31
227.856	43.31
228.09	59.31
228.324	38.31
228.559	61.31
228.793	59.31
229.027	58.31
229.262	69.31
229.496	55.31
229.73	77.31
229.964	81.31
230.199	93.31
230.433	75.31
230.667	75.31
230.901	77.31
231.136	81.31
231.37	73.31
231.604	99.31
231.838	71.31
232.072	76.31
232.306	91.31
232.541	79.31
232.775	73.31
233.009	92.31
233.243	72.31
233.477	83.31
233.711	89.31
233.945	88.31
234.179	85.31
234.413	81.31
234.647	68.31
234.881	81.31
235.115	85.31
235.349	63.31
235.583	74.31
235.817	77.31
236.051	76.31
236.285	84.31
236.519	70.31
236.753	72.31
236.987	76.31
237.221	96.31
237.455	77.31
237.689	55.31
237.922	66.31
238.156	75.31
238.39	80.31
238.624	71.31
238.858	93.31
239.091	81.31
239.325	80.31
239.559	71.31
239.793	87.31
240.027	72.31
240.26	90.31
240.494	82.31
240.728	80.31
240.961	79.31
241.195	72.31
241.429	79.31
241.662	63.31
241.896	66.31
242.13	88.31
242.363	86.31
242.597	73.31
242.83	83.31
243.064	76.31
243.298	72.31
243.531	83.31
243.765	93.31
243.998	83.31
244.232	87.31
244.465	80.31
244.699	82.31
244.932	85.31
245.166	71.31
245.399	83.31
245.633	85.31
245.866	84.31
246.099	84.31
246.333	81.31
246.566	71.31
246.8	77.31
247.033	79.31
247.266	73.31
247.5	72.31
247.733	70.31
247.966	88.31
248.2	82.31
248.433	77.31
248.666	76.31
248.899	76.31
249.133	85.31
249.366	90.31
249.599	95.31
249.832	81.31
250.066	72.31
250.299	97.31
250.532	75.31
250.765	80.31
250.998	83.31
251.231	70.31
251.465	72.31
251.698	80.31
251.931	73.31
252.164	74.31
252.397	88.31
252.63	77.31
252.863	78.31
253.096	78.31
253.329	84.31
253.562	71.31
253.795	89.31
254.028	83.31
254.261	81.31
254.494	91.31
254.727	88.31
254.96	82.31
255.193	86.31
255.426	75.31
255.659	70.31
255.892	84.31
256.124	73.31
256.357	81.31
256.59	81.31
256.823	75.31
257.056	93.31
257.289	89.31
257.521	99.31
257.754	76.31
257.987	86.31
258.22	81.31
258.452	87.31
258.685	83.31
258.918	83.31
259.151	76.31
259.383	100.31
259.616	84.31
259.849	91.31
260.081	85.31
260.314	88.31
260.547	95.31
260.779	98.31
261.012	86.31
261.244	87.31
261.477	98.31
261.71	90.31
261.942	112.31
262.175	102.31
262.407	79.31
262.64	85.31
262.872	94.31
263.105	81.31
263.337	73.31
263.57	66.31
263.802	87.31
264.035	85.31
264.267	86.31
264.499	74.31
264.732	82.31
264.964	94.31
265.197	72.31
265.429	96.31
265.661	77.31
265.894	67.31
266.126	81.31
266.358	84.31
266.591	95.31
266.823	87.31
267.055	82.31
267.287	76.31
267.52	82.31
267.752	88.31
267.984	67.31
268.216	67.31
268.448	81.31
268.681	81.31
268.913	76.31
269.145	87.31
269.377	93.31
269.609	75.31
269.841	73.31
270.073	87.31
270.306	80.31
270.538	73.31
270.77	79.31
271.002	79.31
271.234	68.31
271.466	91.31
271.698	79.31
271.93	75.31
272.162	73.31
272.394	88.31
272.626	87.31
272.858	91.31
273.09	96.31
273.322	85.31
273.553	83.31
273.785	100.31
274.017	87.31
274.249	73.31
274.481	79.31
274.713	99.31
274.945	96.31
275.176	80.31
275.408	100.31
275.64	71.31
275.872	83.31
276.104	83.31
276.335	89.31
276.567	99.31
276.799	106.31
277.031	107.31
277.262	92.31
277.494	93.31
277.726	79.31
277.957	81.31
278.189	87.31
278.421	75.31
278.652	78.31
278.884	85.31
279.115	85.31
279.347	80.31
279.579	72.31
279.81	91.31
280.042	88.31
280.273	102.31
280.505	90.31
280.736	94.31
280.968	83.31
281.199	87.31
281.431	81.31
281.662	73.31
281.894	93.31
282.125	89.31
282.356	119.31
282.588	124.31
282.819	96.31
283.051	93.31
283.282	84.31
283.513	77.31
283.745	87.31
283.976	89.31
284.207	97.31
284.439	85.31
284.67	81.31
284.901	89.31
285.132	87.31
285.364	88.31
285.595	90.31
285.826	93.31
286.057	91.31
286.288	99.31
286.52	95.31
286.751	73.31
286.982	89.31
287.213	77.31
287.444	98.31
287.675	84.31
287.906	86.31
288.138	80.31
288.369	99.31
288.6	84.31
288.831	74.31
289.062	91.31
289.293	72.31
289.524	88.31
289.755	98.31
289.986	87.31
290.217	88.31
290.448	91.31
290.679	89.31
290.91	90.31
291.141	90.31
291.371	88.31
291.602	99.31
291.833	81.31
292.064	77.31
292.295	71.31
292.526	81.31
292.757	77.31
292.987	77.31
293.218	93.31
293.449	84.31
293.68	98.31
293.91	85.31
294.141	83.31
294.372	82.31
294.603	76.31
294.833	91.31
295.064	91.31
295.295	77.31
295.525	74.31
295.756	103.31
295.987	104.31
296.217	110.31
296.448	132.31
296.679	114.31
296.909	82.31
297.14	102.31
297.37	91.31
297.601	91.31
297.831	93.31
298.062	87.31
298.292	90.31
298.523	85.31
298.753	82.31
298.984	103.31
299.214	96.31
299.445	75.31
299.675	95.31
299.905	103.31
300.136	95.31
300.366	84.31
300.597	106.31
300.827	92.31
301.057	89.31
301.288	97.31
301.518	91.31
301.748	80.31
301.979	103.31
302.209	90.31
302.439	97.31
302.669	79.31
302.9	95.31
303.13	84.31
303.36	80.31
303.59	95.31
303.82	99.31
304.051	82.31
304.281	91.31
304.511	89.31
304.741	89.31
304.971	74.31
305.201	103.31
305.431	89.31
305.661	83.31
305.891	90.31
306.121	88.31
306.352	102.31
306.582	100.31
306.812	90.31
307.042	114.31
307.272	90.31
307.502	93.31
307.731	108.31
307.961	92.31
308.191	84.31
308.421	98.31
308.651	88.31
308.881	97.31
309.111	86.31
309.341	75.31
309.571	92.31
309.8	90.31
310.03	102.31
310.26	90.31
310.49	90.31
310.72	101.31
310.949	114.31
311.179	102.31
311.409	91.31
311.639	95.31
311.868	84.31
312.098	94.31
312.328	89.31
312.557	104.31
312.787	99.31
313.017	89.31
313.246	97.31
313.476	105.31
313.706	92.31
313.935	96.31
314.165	103.31
314.394	91.31
314.624	87.31
314.853	104.31
315.083	91.31
315.312	97.31
315.542	113.31
315.771	83.31
316.001	85.31
316.23	88.31
316.46	82.31
316.689	77.31
316.919	93.31
317.148	104.31
317.377	104.31
317.607	94.31
317.836	93.31
318.065	87.31
318.295	78.31
318.524	84.31
318.753	86.31
318.983	80.31
319.212	96.31
319.441	106.31
319.67	101.31
319.9	93.31
320.129	85.31
320.358	93.31
320.587	92.31
320.816	115.31
321.046	93.31
321.275	93.31
321.504	83.31
321.733	103.31
321.962	106.31
322.191	96.31
322.42	92.31
322.649	103.31
322.878	111.31
323.108	117.31
323.337	130.31
323.566	109.31
323.795	141.31
324.024	196.31
324.253	376.31
324.482	750.31
324.71	1553.31
324.939	2045.31
325.168	779.31
325.397	236.31
325.626	132.31
325.855	113.31
326.084	133.31
326.313	117.31
326.542	155.31
326.77	205.31
326.999	439.31
327.228	890.31
327.457	1619.31
327.686	1258.31
327.914	353.31
328.143	190.31
328.372	140.31
328.6	128.31
328.829	109.31
329.058	123.31
329.287	114.31
329.515	98.31
329.744	97.31
329.972	102.31
330.201	107.31
330.43	127.31
330.658	128.31
330.887	118.31
331.115	118.31
331.344	103.31
331.572	86.31
331.801	103.31
332.03	101.31
332.258	94.31
332.486	98.31
332.715	88.31
332.943	93.31
333.172	97.31
333.4	105.31
333.629	105.31
333.857	122.31
334.085	98.31
334.314	122.31
334.542	129.31
334.771	133.31
334.999	104.31
335.227	108.31
335.455	101.31
335.684	100.31
335.912	98.31
336.14	101.31
336.369	106.31
336.597	83.31
336.825	103.31
337.053	86.31
337.281	93.31
337.51	104.31
337.738	98.31
337.966	104.31
338.194	107.31
338.422	104.31
338.65	101.31
338.878	87.31
339.106	105.31
339.334	95.31
339.562	94.31
339.79	103.31
340.018	87.31
340.246	96.31
340.474	99.31
340.702	97.31
340.93	99.31
341.158	93.31
341.386	102.31
341.614	119.31
341.842	94.31
342.07	82.31
342.298	103.31
342.526	83.31
342.754	83.31
342.981	85.31
343.209	96.31
343.437	118.31
343.665	102.31
343.893	109.31
344.12	91.31
344.348	74.31
344.576	96.31
344.804	88.31
345.031	83.31
345.259	103.31
345.487	89.31
345.714	104.31
345.942	82.31
346.17	88.31
346.397	88.31
346.625	100.31
346.853	87.31
347.08	76.31
347.308	102.31
347.535	94.31
347.763	92.31
347.99	95.31
348.218	90.31
348.445	105.31
348.673	110.31
348.9	104.31
349.128	108.31
349.355	92.31
349.583	90.31
349.81	86.31
350.037	100.31
350.265	96.31
350.492	84.31
350.72	98.31
350.947	99.31
351.174	119.31
351.402	104.31
351.629	97.31
351.856	87.31
352.083	99.31
352.311	113.31
352.538	105.31
352.765	102.31
352.992	107.31
353.22	99.31
353.447	98.31
353.674	103.31
353.901	77.31
354.128	106.31
354.355	103.31
354.583	93.31
354.81	99.31
355.037	101.31
355.264	96.31
355.491	95.31
355.718	103.31
355.945	93.31
356.172	95.31
356.399	95.31
356.626	100.31
356.853	100.31
357.08	100.31
357.307	94.31
357.534	87.31
357.761	89.31
357.988	91.31
358.215	106.31
358.441	93.31
358.668	93.31
358.895	92.31
359.122	92.31
359.349	92.31
359.576	88.31
359.802	90.31
360.029	106.31
360.256	109.31
360.483	101.31
360.709	100.31
360.936	86.31
361.163	104.31
361.39	89.31
361.616	99.31
361.843	108.31
362.07	107.31
362.296	97.31
362.523	96.31
362.749	82.31
362.976	85.31
363.203	82.31
363.429	89.31
363.656	97.31
363.882	89.31
364.109	82.31
364.335	92.31
364.562	99.31
364.788	101.31
365.015	101.31
365.241	88.31
365.468	101.31
365.694	97.31
365.92	92.31
366.147	99.31
366.373	79.31
366.599	91.31
366.826	80.31
367.052	84.31
367.278	100.31
367.505	100.31
367.731	91.31
367.957	85.31
368.184	92.31
368.41	99.31
368.636	108.31
368.862	114.31
369.089	103.31
369.315	90.31
369.541	95.31
369.767	97.31
369.993	94.31
370.219	90.31
370.445	92.31
370.672	81.31
370.898	76.31
371.124	91.31
371.35	79.31
371.576	89.31
371.802	84.31
372.028	93.31
372.254	97.31
372.48	80.31
372.706	83.31
372.932	81.31
373.158	90.31
373.384	102.31
373.61	101.31
373.835	91.31
374.061	91.31
374.287	95.31
374.513	93.31
374.739	99.31
374.965	82.31
375.191	68.31
375.416	98.31
375.642	109.31
375.868	98.31
376.094	92.31
376.319	91.31
376.545	74.31
376.771	100.31
376.997	73.31
377.222	81.31
377.448	91.31
377.674	101.31
377.899	87.31
378.125	85.31
378.35	79.31
378.576	91.31
378.802	93.31
379.027	82.31
379.253	94.31
379.478	93.31
379.704	96.31
379.929	87.31
380.155	91.31
380.38	100.31
380.606	104.31
380.831	95.31
381.057	99.31
381.282	105.31
381.507	92.31
381.733	95.31
381.958	98.31
382.184	101.31
382.409	99.31
382.634	112.31
382.86	95.31
383.085	111.31
383.31	84.31
383.535	97.31
383.761	105.31
383.986	103.31
384.211	106.31
384.436	99.31
384.662	98.31
384.887	106.31
385.112	103.31
385.337	104.31
385.562	102.31
385.787	102.31
386.013	107.31
386.238	107.31
386.463	103.31
386.688	111.31
386.913	115.31
387.138	113.31
387.363	111.31
387.588	99.31
387.813	112.31
388.038	106.31
388.263	100.31
388.488	112.31
388.713	98.31
388.938	85.31
389.163	103.31
389.387	83.31
389.612	75.31
389.837	104.31
390.062	101.31
390.287	90.31
390.512	97.31
390.736	88.31
390.961	102.31
391.186	99.31
391.411	94.31
391.636	97.31
391.86	84.31
392.085	77.31
392.31	83.31
392.534	83.31
392.759	90.31
392.984	90.31
393.208	89.31
393.433	115.31
393.658	95.31
393.882	85.31
394.107	86.31
394.331	81.31
394.556	80.31
394.78	96.31
395.005	78.31
395.229	98.31
395.454	94.31
395.678	75.31
395.903	73.31
396.127	92.31
396.352	90.31
396.576	94.31
396.801	100.31
397.025	107.31
397.249	74.31
397.474	91.31
397.698	97.31
397.922	82.31
398.147	96.31
398.371	91.31
398.595	97.31
398.82	81.31
399.044	87.31
399.268	94.31
399.492	87.31
399.717	87.31
399.941	75.31
400.165	90.31
400.389	85.31
400.613	92.31
400.837	74.31
401.062	89.31
401.286	108.31
401.51	76.31
401.734	93.31
401.958	96.31
402.182	104.31
402.406	140.31
402.63	117.31
402.854	94.31
403.078	93.31
403.302	94.31
403.526	83.31
403.75	92.31
403.974	97.31
404.198	93.31
404.422	79.31
404.645	87.31
404.869	100.31
405.093	82.31
405.317	103.31
405.541	103.31
405.765	100.31
405.988	113.31
406.212	164.31
406.436	198.31
406.66	129.31
406.883	100.31
407.107	89.31
407.331	101.31
407.555	92.31
407.778	103.31
408.002	109.31
408.226	82.31
408.449	95.31
408.673	85.31
408.896	99.31
409.12	91.31
409.344	90.31
409.567	100.31
409.791	98.31
410.014	109.31
410.238	98.31
410.461	91.31
410.685	79.31
410.908	104.31
411.132	104.31
411.355	102.31
411.578	100.31
411.802	82.31
412.025	80.31
412.249	97.31
412.472	92.31
412.695	94.31
412.919	96.31
413.142	94.31
413.365	96.31
413.589	82.31
413.812	92.31
414.035	82.31
414.258	91.31
414.482	90.31
414.705	102.31
414.928	88.31
415.151	104.31
415.374	93.31
415.597	101.31
415.821	91.31
416.044	93.31
416.267	88.31
416.49	84.31
416.713	87.31
416.936	83.31
417.159	75.31
417.382	91.31
417.605	81.31
417.828	100.31
418.051	80.31
418.274	91.31
418.497	86.31
418.72	98.31
418.943	86.31
419.166	101.31
419.389	86.31
419.611	91.31
419.834	72.31
420.057	77.31
420.28	81.31
420.503	82.31
420.726	90.31
420.948	89.31
421.171	92.31
421.394	92.31
421.617	91.31
421.839	86.31
422.062	86.31
422.285	100.31
422.507	98.31
422.73	101.31
422.953	101.31
423.175	82.31
423.398	91.31
423.621	98.31
423.843	91.31
424.066	80.31
424.288	85.31
424.511	96.31
424.733	98.31
424.956	100.31
425.178	102.31
425.401	103.31
425.623	90.31
425.846	106.31
426.068	89.31
426.291	91.31
426.513	92.31
426.735	98.31
426.958	72.31
427.18	97.31
427.402	137.31
427.625	151.31
427.847	124.31
428.069	105.31
428.292	84.31
428.514	83.31
428.736	93.31
428.958	72.31
429.181	83.31
429.403	81.31
429.625	83.31
429.847	85.31
430.069	87.31
430.292	81.31
430.514	89.31
430.736	84.31
430.958	108.31
431.18	89.31
431.402	89.31
431.624	84.31
431.846	75.31
432.068	69.31
432.29	79.31
432.512	83.31
432.734	89.31
432.956	88.31
433.178	98.31
433.4	74.31
433.622	94.31
433.844	99.31
434.066	89.31
434.287	107.31
434.509	81.31
434.731	90.31
434.953	78.31
435.175	83.31
435.397	96.31
435.618	75.31
435.84	92.31
436.062	117.31
436.284	103.31
436.505	96.31
436.727	102.31
436.949	80.31
437.17	88.31
437.392	92.31
437.614	99.31
437.835	108.31
438.057	102.31
438.278	103.31
438.5	95.31
438.721	104.31
438.943	121.31
439.165	92.31
439.386	95.31
439.608	80.31
439.829	87.31
440.05	113.31
440.272	123.31
440.493	98.31
440.715	82.31
440.936	103.31
441.158	98.31
441.379	87.31
441.6	102.31
441.822	85.31
442.043	102.31
442.264	93.31
442.486	104.31
442.707	94.31
442.928	101.31
443.149	127.31
443.371	125.31
443.592	112.31
443.813	120.31
444.034	111.31
444.255	93.31
444.476	87.31
444.698	79.31
444.919	70.31
445.14	133.31
445.361	124.31
445.582	121.31
445.803	132.31
446.024	121.31
446.245	124.31
446.466	106.31
446.687	91.31
446.908	91.31
447.129	92.31
447.35	99.31
447.571	74.31
447.792	92.31
448.013	105.31
448.234	101.31
448.455	90.31
448.675	112.31
448.896	107.31
449.117	109.31
449.338	105.31
449.559	104.31
449.779	116.31
450	97.31
450.221	93.31
450.442	94.31
450.662	95.31
450.883	102.31
451.104	87.31
451.324	88.31
451.545	91.31
451.766	94.31
451.986	91.31
452.207	99.31
452.428	90.31
452.648	82.31
452.869	113.31
453.089	119.31
453.31	114.31
453.53	95.31
453.751	90.31
453.971	95.31
454.192	103.31
454.412	97.31
454.633	96.31
454.853	89.31
455.073	88.31
455.294	92.31
455.514	94.31
455.734	88.31
455.955	85.31
456.175	83.31
456.395	85.31
456.616	88.31
456.836	78.31
457.056	85.31
457.276	83.31
457.497	93.31
457.717	84.31
457.937	90.31
458.157	86.31
458.377	100.31
458.598	108.31
458.818	144.31
459.038	143.31
459.258	105.31
459.478	104.31
459.698	93.31
459.918	92.31
460.138	83.31
460.358	93.31
460.578	85.31
460.798	104.31
461.018	87.31
461.238	87.31
461.458	76.31
461.678	82.31
461.898	81.31
462.118	90.31
462.338	80.31
462.558	97.31
462.777	86.31
462.997	71.31
463.217	84.31
463.437	81.31
463.657	104.31
463.876	92.31
464.096	97.31
464.316	95.31
464.536	106.31
464.755	91.31
464.975	91.31
465.195	153.31
465.414	135.31
465.634	100.31
465.854	99.31
466.073	90.31
466.293	103.31
466.512	92.31
466.732	81.31
466.951	107.31
467.171	96.31
467.391	85.31
467.61	101.31
467.829	96.31
468.049	102.31
468.268	105.31
468.488	82.31
468.707	93.31
468.927	81.31
469.146	101.31
469.365	83.31
469.585	69.31
469.804	90.31
470.023	77.31
470.243	99.31
470.462	92.31
470.681	97.31
470.901	92.31
471.12	81.31
471.339	94.31
471.558	85.31
471.777	90.31
471.997	96.31
472.216	128.31
472.435	150.31
472.654	94.31
472.873	83.31
473.092	96.31
473.311	80.31
473.53	89.31
473.749	100.31
473.968	98.31
474.187	86.31
474.406	79.31
474.625	88.31
474.844	91.31
475.063	91.31
475.282	87.31
475.501	93.31
475.72	95.31
475.939	99.31
476.158	98.31
476.377	106.31
476.596	104.31
476.814	87.31
477.033	83.31
477.252	115.31
477.471	97.31
477.69	89.31
477.908	96.31
478.127	96.31
478.346	84.31
478.564	82.31
478.783	87.31
479.002	89.31
479.22	93.31
479.439	104.31
479.658	90.31
479.876	92.31
480.095	77.31
480.313	71.31
480.532	82.31
480.751	93.31
480.969	105.31
481.188	221.31
481.406	159.31
481.624	92.31
481.843	89.31
482.061	101.31
482.28	98.31
482.498	103.31
482.717	95.31
482.935	88.31
483.153	89.31
483.372	85.31
483.59	92.31
483.808	99.31
484.027	80.31
484.245	86.31
484.463	87.31
484.681	100.31
484.9	89.31
485.118	111.31
485.336	81.31
485.554	87.31
485.772	106.31
485.99	102.31
486.209	115.31
486.427	108.31
486.645	107.31
486.863	100.31
487.081	104.31
487.299	103.31
487.517	101.31
487.735	96.31
487.953	92.31
488.171	77.31
488.389	109.31
488.607	107.31
488.825	91.31
489.043	84.31
489.261	92.31
489.479	98.31
489.696	87.31
489.914	87.31
490.132	76.31
490.35	98.31
490.568	91.31
490.786	95.31
491.003	84.31
491.221	83.31
491.439	86.31
491.657	98.31
491.874	103.31
492.092	82.31
492.31	85.31
492.527	85.31
492.745	90.31
492.963	87.31
493.18	84.31
493.398	92.31
493.615	102.31
493.833	85.31
494.05	82.31
494.268	87.31
494.485	104.31
494.703	87.31
494.92	78.31
495.138	109.31
495.355	92.31
495.573	75.31
495.79	99.31
496.008	100.31
496.225	100.31
496.442	96.31
496.66	92.31
496.877	95.31
497.094	91.31
497.312	87.31
497.529	83.31
497.746	95.31
497.963	87.31
498.181	98.31
498.398	101.31
498.615	101.31
498.832	91.31
499.049	75.31
499.267	91.31
499.484	83.31
499.701	85.31
499.918	93.31
500.135	81.31
500.352	89.31
500.569	90.31
500.786	91.31
501.003	90.31
501.22	85.31
501.437	83.31
501.654	103.31
501.871	111.31
502.088	97.31
502.305	79.31
502.522	105.31
502.739	87.31
502.956	84.31
503.172	95.31
503.389	92.31
503.606	112.31
503.823	97.31
504.04	91.31
504.256	88.31
504.473	100.31
504.69	93.31
504.907	113.31
505.123	86.31
505.34	93.31
505.557	103.31
505.773	91.31
505.99	85.31
506.207	91.31
506.423	96.31
506.64	89.31
506.856	104.31
507.073	101.31
507.289	81.31
507.506	98.31
507.722	95.31
507.939	89.31
508.155	100.31
508.372	102.31
508.588	90.31
508.805	91.31
509.021	83.31
509.238	88.31
509.454	107.31
509.67	93.31
509.887	98.31
510.103	119.31
510.319	199.31
510.536	695.31
510.752	2172.31
510.968	583.31
511.184	139.31
511.401	109.31
511.617	91.31
511.833	85.31
512.049	85.31
512.265	84.31
512.481	87.31
512.698	95.31
512.914	100.31
513.13	77.31
513.346	93.31
513.562	95.31
513.778	115.31
513.994	102.31
514.21	100.31
514.426	119.31
514.642	131.31
514.858	114.31
515.074	144.31
515.29	393.31
