Data from Circ_1985_H10_HRD10591_00012.txt Node
Date: Wed Jan 03 12:19:25 EST 2024
User: Yrep
Spectrometer: HR+D1059
Trigger mode: 1
Integration Time (sec): 1.000000E-1
Scans to average: 1
Electric dark correction enabled: true
Nonlinearity correction enabled: false
Boxcar width: 0
XAxis mode: Wavelengths
Number of Pixels in Spectrum: 2048
>>>>>Begin Spectral Data<<<<<
223.165	-15.19
223.4	-15.19
223.635	-15.19
223.869	-22.19
224.104	-14.19
224.338	-16.19
224.573	-7.19
224.808	-11.19
225.042	-10.19
225.277	13.81
225.511	13.81
225.746	-7.19
225.98	0.81
226.215	9.81
226.449	13.81
226.683	18.81
226.918	8.81
227.152	23.81
227.387	25.81
227.621	34.81
227.856	47.81
228.09	43.81
228.324	56.81
228.559	66.81
228.793	164.81
229.027	417.81
229.262	486.81
229.496	541.81
229.73	747.81
229.964	774.81
230.199	511.81
230.433	451.81
230.667	450.81
230.901	459.81
231.136	425.81
231.37	434.81
231.604	439.81
231.838	442.81
232.072	447.81
232.306	459.81
232.541	459.81
232.775	459.81
233.009	465.81
233.243	454.81
233.477	447.81
233.711	483.81
233.945	518.81
234.179	516.81
234.413	487.81
234.647	491.81
234.881	502.81
235.115	519.81
235.349	541.81
235.583	543.81
235.817	590.81
236.051	611.81
236.285	598.81
236.519	596.81
236.753	663.81
236.987	842.81
237.221	1265.81
237.455	1400.81
237.689	872.81
237.922	712.81
238.156	707.81
238.39	666.81
238.624	619.81
238.858	653.81
239.091	661.81
239.325	626.81
239.559	645.81
239.793	678.81
240.027	745.81
240.26	872.81
240.494	918.81
240.728	910.81
240.961	866.81
241.195	782.81
241.429	756.81
241.662	765.81
241.896	773.81
242.13	768.81
242.363	754.81
242.597	802.81
242.83	830.81
243.064	813.81
243.298	797.81
243.531	823.81
243.765	835.81
243.998	832.81
244.232	840.81
244.465	875.81
244.699	894.81
244.932	881.81
245.166	899.81
245.399	880.81
245.633	894.81
245.866	873.81
246.099	912.81
246.333	929.81
246.566	933.81
246.8	939.81
247.033	1007.81
247.266	1014.81
247.5	1044.81
247.733	1137.81
247.966	1143.81
248.2	1106.81
248.433	1135.81
248.666	1171.81
248.899	1288.81
249.133	1393.81
249.366	1399.81
249.599	1274.81
249.832	1193.81
250.066	1199.81
250.299	1248.81
250.532	1287.81
250.765	1491.81
250.998	1673.81
251.231	1610.81
251.465	1457.81
251.698	1423.81
251.931	1376.81
252.164	1391.81
252.397	1377.81
252.63	1449.81
252.863	1506.81
253.096	1653.81
253.329	1704.81
253.562	1605.81
253.795	1530.81
254.028	1553.81
254.261	1560.81
254.494	1733.81
254.727	2062.81
254.96	2081.81
255.193	1904.81
255.426	1742.81
255.659	1600.81
255.892	1595.81
256.124	1585.81
256.357	1543.81
256.59	1493.81
256.823	1493.81
257.056	1474.81
257.289	1472.81
257.521	1491.81
257.754	1530.81
257.987	1512.81
258.22	1498.81
258.452	1509.81
258.685	1515.81
258.918	1518.81
259.151	1582.81
259.383	1636.81
259.616	1641.81
259.849	1691.81
260.081	1865.81
260.314	2035.81
260.547	1985.81
260.779	1793.81
261.012	1703.81
261.244	1687.81
261.477	1623.81
261.71	1661.81
261.942	1681.81
262.175	1697.81
262.407	1674.81
262.64	1616.81
262.872	1584.81
263.105	1592.81
263.337	1567.81
263.57	1626.81
263.802	1637.81
264.035	1638.81
264.267	1702.81
264.499	1655.81
264.732	1650.81
264.964	1652.81
265.197	1651.81
265.429	1681.81
265.661	1650.81
265.894	1668.81
266.126	1708.81
266.358	1701.81
266.591	1748.81
266.823	1830.81
267.055	1827.81
267.287	1802.81
267.52	1828.81
267.752	1829.81
267.984	1838.81
268.216	1837.81
268.448	1892.81
268.681	1937.81
268.913	2074.81
269.145	2249.81
269.377	2294.81
269.609	2182.81
269.841	2172.81
270.073	2283.81
270.306	2526.81
270.538	2700.81
270.77	2566.81
271.002	2445.81
271.234	2351.81
271.466	2538.81
271.698	2641.81
271.93	2642.81
272.162	2673.81
272.394	2567.81
272.626	2434.81
272.858	2286.81
273.09	2267.81
273.322	2232.81
273.553	2174.81
273.785	2130.81
274.017	2166.81
274.249	2154.81
274.481	2205.81
274.713	2223.81
274.945	2243.81
275.176	2200.81
275.408	2197.81
275.64	2191.81
275.872	2174.81
276.104	2208.81
276.335	2221.81
276.567	2248.81
276.799	2441.81
277.031	2643.81
277.262	2771.81
277.494	2623.81
277.726	2514.81
277.957	2418.81
278.189	2317.81
278.421	2344.81
278.652	2347.81
278.884	2331.81
279.115	2308.81
279.347	2337.81
279.579	2331.81
279.81	2304.81
280.042	2350.81
280.273	2325.81
280.505	2366.81
280.736	2338.81
280.968	2353.81
281.199	2346.81
281.431	2343.81
281.662	2345.81
281.894	2379.81
282.125	2434.81
282.356	2558.81
282.588	2685.81
282.819	2589.81
283.051	2467.81
283.282	2467.81
283.513	2491.81
283.745	2571.81
283.976	2539.81
284.207	2570.81
284.439	2539.81
284.67	2539.81
284.901	2559.81
285.132	2567.81
285.364	2583.81
285.595	2553.81
285.826	2601.81
286.057	2554.81
286.288	2601.81
286.52	2599.81
286.751	2587.81
286.982	2624.81
287.213	2618.81
287.444	2708.81
287.675	2685.81
287.906	2749.81
288.138	2871.81
288.369	2810.81
288.6	2796.81
288.831	2771.81
289.062	2751.81
289.293	2699.81
289.524	2711.81
289.755	2726.81
289.986	2717.81
290.217	2735.81
290.448	2666.81
290.679	2703.81
290.91	2702.81
291.141	2719.81
291.371	2714.81
291.602	2725.81
291.833	2739.81
292.064	2762.81
292.295	2757.81
292.526	2747.81
292.757	2754.81
292.987	2737.81
293.218	2692.81
293.449	2791.81
293.68	2794.81
293.91	2764.81
294.141	2777.81
294.372	2761.81
294.603	2785.81
294.833	2826.81
295.064	2827.81
295.295	2816.81
295.525	2751.81
295.756	2874.81
295.987	2904.81
296.217	3039.81
296.448	3004.81
296.679	2917.81
296.909	2845.81
297.14	2886.81
297.37	2924.81
297.601	2934.81
297.831	2941.81
298.062	2936.81
298.292	2944.81
298.523	3086.81
298.753	3034.81
298.984	2977.81
299.214	2981.81
299.445	2995.81
299.675	3055.81
299.905	3059.81
300.136	3008.81
300.366	3047.81
300.597	3124.81
300.827	3172.81
301.057	3275.81
301.288	3257.81
301.518	3240.81
301.748	3248.81
301.979	3264.81
302.209	3243.81
302.439	3248.81
302.669	3169.81
302.9	3162.81
303.13	3130.81
303.36	3181.81
303.59	3229.81
303.82	3287.81
304.051	3245.81
304.281	3227.81
304.511	3142.81
304.741	3206.81
304.971	3199.81
305.201	3112.81
305.431	3186.81
305.661	3173.81
305.891	3185.81
306.121	3123.81
306.352	3207.81
306.582	3133.81
306.812	3163.81
307.042	3095.81
307.272	3152.81
307.502	3179.81
307.731	3134.81
307.961	3170.81
308.191	3145.81
308.421	3209.81
308.651	3182.81
308.881	3178.81
309.111	3201.81
309.341	3233.81
309.571	3259.81
309.8	3403.81
310.03	3391.81
310.26	3464.81
310.49	3395.81
310.72	3527.81
310.949	3603.81
311.179	3584.81
311.409	3395.81
311.639	3434.81
311.868	3471.81
312.098	3507.81
312.328	3568.81
312.557	3676.81
312.787	3800.81
313.017	3639.81
313.246	3615.81
313.476	3542.81
313.706	3609.81
313.935	3692.81
314.165	3778.81
314.394	3725.81
314.624	3706.81
314.853	3613.81
315.083	3609.81
315.312	3597.81
315.542	3569.81
315.771	3509.81
316.001	3532.81
316.23	3512.81
316.46	3470.81
316.689	3550.81
316.919	3571.81
317.148	3588.81
317.377	3595.81
317.607	3569.81
317.836	3542.81
318.065	3452.81
318.295	3539.81
318.524	3510.81
318.753	3537.81
318.983	3530.81
319.212	3493.81
319.441	3558.81
319.67	3591.81
319.9	3542.81
320.129	3539.81
320.358	3473.81
320.587	3578.81
320.816	3633.81
321.046	3635.81
321.275	3658.81
321.504	3654.81
321.733	3638.81
321.962	3703.81
322.191	3763.81
322.42	3863.81
322.649	3940.81
322.878	4011.81
323.108	4019.81
323.337	4220.81
323.566	4337.81
323.795	4517.81
324.024	4937.81
324.253	6199.81
324.482	9283.81
324.71	13900.81
324.939	15627.81
325.168	10629.81
325.397	5823.81
325.626	4819.81
325.855	4507.81
326.084	4414.81
326.313	4468.81
326.542	4586.81
326.77	5093.81
326.999	6073.81
327.228	8758.81
327.457	13128.81
327.686	12398.81
327.914	6464.81
328.143	5215.81
328.372	4964.81
328.6	4799.81
328.829	4721.81
329.058	4947.81
329.287	4861.81
329.515	4637.81
329.744	4504.81
329.972	4537.81
330.201	4628.81
330.43	4816.81
330.658	5013.81
330.887	5250.81
331.115	4947.81
331.344	4619.81
331.572	4576.81
331.801	4725.81
332.03	4781.81
332.258	4673.81
332.486	4661.81
332.715	4781.81
332.943	5008.81
333.172	5124.81
333.4	5238.81
333.629	5282.81
333.857	5337.81
334.085	5283.81
334.314	5261.81
334.542	5223.81
334.771	5238.81
334.999	5059.81
335.227	5022.81
335.455	4922.81
335.684	4832.81
335.912	4845.81
336.14	4722.81
336.369	4669.81
336.597	4801.81
336.825	4701.81
337.053	4667.81
337.281	4580.81
337.51	4523.81
337.738	4510.81
337.966	4514.81
338.194	4460.81
338.422	4364.81
338.65	4339.81
338.878	4281.81
339.106	4298.81
339.334	4312.81
339.562	4237.81
339.79	4227.81
340.018	4200.81
340.246	4228.81
340.474	4241.81
340.702	4186.81
340.93	4228.81
341.158	4222.81
341.386	4179.81
341.614	4209.81
341.842	4199.81
342.07	4153.81
342.298	4097.81
342.526	4114.81
342.754	4090.81
342.981	4165.81
343.209	4220.81
343.437	4485.81
343.665	4784.81
343.893	4958.81
344.12	4959.81
344.348	4687.81
344.576	4498.81
344.804	4469.81
345.031	4450.81
345.259	4431.81
345.487	4218.81
345.714	4106.81
345.942	4087.81
346.17	4012.81
346.397	4040.81
346.625	4017.81
346.853	3985.81
347.08	3960.81
347.308	4032.81
347.535	4088.81
347.763	4081.81
347.99	4040.81
348.218	4075.81
348.445	4122.81
348.673	4034.81
348.9	3987.81
349.128	3917.81
349.355	3855.81
349.583	3905.81
349.81	3880.81
350.037	3901.81
350.265	3879.81
350.492	3902.81
350.72	3909.81
350.947	3921.81
351.174	4029.81
351.402	4010.81
351.629	3903.81
351.856	3946.81
352.083	4021.81
352.311	4027.81
352.538	4050.81
352.765	3978.81
352.992	3999.81
353.22	3934.81
353.447	3887.81
353.674	3832.81
353.901	3847.81
354.128	3775.81
354.355	3795.81
354.583	3786.81
354.81	3697.81
355.037	3855.81
355.264	3805.81
355.491	3771.81
355.718	3826.81
355.945	3805.81
356.172	3819.81
356.399	3835.81
356.626	3803.81
356.853	3802.81
357.08	3755.81
357.307	3817.81
357.534	3755.81
357.761	3843.81
357.988	3819.81
358.215	3767.81
358.441	3853.81
358.668	3872.81
358.895	3864.81
359.122	3921.81
359.349	3905.81
359.576	4034.81
359.802	4146.81
360.029	4266.81
360.256	4307.81
360.483	4143.81
360.709	4042.81
360.936	4005.81
361.163	3998.81
361.39	3980.81
361.616	4009.81
361.843	3990.81
362.07	4011.81
362.296	3980.81
362.523	3979.81
362.749	3958.81
362.976	3921.81
363.203	3869.81
363.429	3913.81
363.656	3870.81
363.882	3892.81
364.109	3869.81
364.335	3851.81
364.562	3810.81
364.788	3831.81
365.015	3897.81
365.241	3891.81
365.468	3877.81
365.694	3949.81
365.92	3901.81
366.147	3850.81
366.373	3875.81
366.599	3846.81
366.826	3869.81
367.052	3808.81
367.278	3882.81
367.505	3883.81
367.731	3938.81
367.957	3934.81
368.184	3925.81
368.41	3952.81
368.636	4016.81
368.862	4075.81
369.089	4058.81
369.315	4002.81
369.541	3923.81
369.767	3965.81
369.993	3988.81
370.219	3993.81
370.445	3998.81
370.672	4029.81
370.898	4006.81
371.124	4058.81
371.35	4137.81
371.576	4129.81
371.802	4080.81
372.028	4149.81
372.254	4168.81
372.48	4149.81
372.706	4253.81
372.932	4346.81
373.158	4173.81
373.384	4234.81
373.61	4160.81
373.835	4161.81
374.061	4156.81
374.287	4278.81
374.513	4324.81
374.739	4467.81
374.965	4567.81
375.191	4525.81
375.416	4513.81
375.642	4361.81
375.868	4336.81
376.094	4265.81
376.319	4273.81
376.545	4240.81
376.771	4240.81
376.997	4178.81
377.222	4186.81
377.448	4216.81
377.674	4185.81
377.899	4121.81
378.125	4127.81
378.35	4045.81
378.576	4083.81
378.802	4071.81
379.027	4158.81
379.253	4149.81
379.478	4119.81
379.704	4134.81
379.929	4235.81
380.155	4165.81
380.38	4203.81
380.606	4193.81
380.831	4131.81
381.057	4235.81
381.282	4179.81
381.507	4171.81
381.733	4249.81
381.958	4278.81
382.184	4319.81
382.409	4369.81
382.634	4409.81
382.86	4413.81
383.085	4458.81
383.31	4571.81
383.535	4509.81
383.761	4644.81
383.986	4738.81
384.211	4815.81
384.436	4934.81
384.662	4914.81
384.887	4983.81
385.112	4941.81
385.337	5073.81
385.562	5059.81
385.787	5061.81
386.013	5122.81
386.238	5157.81
386.463	5108.81
386.688	5098.81
386.913	4957.81
387.138	5024.81
387.363	5013.81
387.588	4935.81
387.813	5025.81
388.038	5001.81
388.263	5050.81
388.488	5042.81
388.713	5013.81
388.938	4975.81
389.163	4944.81
389.387	4969.81
389.612	4893.81
389.837	4877.81
390.062	4818.81
390.287	4899.81
390.512	4837.81
390.736	4972.81
390.961	5057.81
391.186	5161.81
391.411	5306.81
391.636	5384.81
391.86	5593.81
392.085	5625.81
392.31	5489.81
392.534	5422.81
392.759	5301.81
392.984	5320.81
393.208	5162.81
393.433	5244.81
393.658	5193.81
393.882	5123.81
394.107	5169.81
394.331	5277.81
394.556	5220.81
394.78	5256.81
395.005	5351.81
395.229	5342.81
395.454	5482.81
395.678	5601.81
395.903	5626.81
396.127	5665.81
396.352	5427.81
396.576	5278.81
396.801	5271.81
397.025	5459.81
397.249	5439.81
397.474	5585.81
397.698	5623.81
397.922	5714.81
398.147	5804.81
398.371	5953.81
398.595	5976.81
398.82	6316.81
399.044	6865.81
399.268	7635.81
399.492	8680.81
399.717	9373.81
399.941	9029.81
400.165	8338.81
400.389	7717.81
400.613	6993.81
400.837	6561.81
401.062	6399.81
401.286	6313.81
401.51	6205.81
401.734	6178.81
401.958	6399.81
402.182	6393.81
402.406	6548.81
402.63	6600.81
402.854	6843.81
403.078	6814.81
403.302	6945.81
403.526	7042.81
403.75	7155.81
403.974	7107.81
404.198	7159.81
404.422	7196.81
404.645	7117.81
404.869	7085.81
405.093	7204.81
405.317	7297.81
405.541	7316.81
405.765	6993.81
405.988	6872.81
406.212	7140.81
406.436	7249.81
406.66	7336.81
406.883	7391.81
407.107	7915.81
407.331	8487.81
407.555	8919.81
407.778	8697.81
408.002	7927.81
408.226	7636.81
408.449	7456.81
408.673	7321.81
408.896	7469.81
409.12	7552.81
409.344	7330.81
409.567	6966.81
409.791	6895.81
410.014	6810.81
410.238	6692.81
410.461	6742.81
410.685	6811.81
410.908	6847.81
411.132	7048.81
411.355	7050.81
411.578	6785.81
411.802	6461.81
412.025	6457.81
412.249	6578.81
412.472	6644.81
412.695	6645.81
412.919	6332.81
413.142	6278.81
413.365	6198.81
413.589	6235.81
413.812	6101.81
414.035	6083.81
414.258	6137.81
414.482	6205.81
414.705	6278.81
414.928	6225.81
415.151	6097.81
415.374	6157.81
415.597	6081.81
415.821	5992.81
416.044	6102.81
416.267	6017.81
416.49	6069.81
416.713	5991.81
416.936	6059.81
417.159	6029.81
417.382	6159.81
417.605	6140.81
417.828	6260.81
418.051	6309.81
418.274	6274.81
418.497	6206.81
418.72	6284.81
418.943	6202.81
419.166	6674.81
419.389	6979.81
419.611	6917.81
419.834	6675.81
420.057	6495.81
420.28	6332.81
420.503	6237.81
420.726	6206.81
420.948	6343.81
421.171	6767.81
421.394	6757.81
421.617	6296.81
421.839	6329.81
422.062	6332.81
422.285	6506.81
422.507	7127.81
422.73	7638.81
422.953	7047.81
423.175	6737.81
423.398	6730.81
423.621	6695.81
423.843	7013.81
424.066	6966.81
424.288	6793.81
424.511	7034.81
424.733	7409.81
424.956	7749.81
425.178	7369.81
425.401	7489.81
425.623	7407.81
425.846	6489.81
426.068	6401.81
426.291	6267.81
426.513	6205.81
426.735	6439.81
426.958	6673.81
427.18	7430.81
427.402	8576.81
427.625	8451.81
427.847	7192.81
428.069	6417.81
428.292	6123.81
428.514	5768.81
428.736	5750.81
428.958	5810.81
429.181	5624.81
429.403	5627.81
429.625	5683.81
429.847	5989.81
430.069	6565.81
430.292	6178.81
430.514	5588.81
430.736	5621.81
430.958	5508.81
431.18	5432.81
431.402	5519.81
431.624	5395.81
431.846	5502.81
432.068	5541.81
432.29	5634.81
432.512	5531.81
432.734	5661.81
432.956	5505.81
433.178	5640.81
433.4	5591.81
433.622	5479.81
433.844	5554.81
434.066	5622.81
434.287	5651.81
434.509	5880.81
434.731	6136.81
434.953	6194.81
435.175	6423.81
435.397	6500.81
435.618	6399.81
435.84	6645.81
436.062	7410.81
436.284	7399.81
436.505	6242.81
436.727	6015.81
436.949	5702.81
437.17	5603.81
437.392	5556.81
437.614	5744.81
437.835	6059.81
438.057	6872.81
438.278	7529.81
438.5	7439.81
438.721	8266.81
438.943	7140.81
439.165	6119.81
439.386	5990.81
439.608	6002.81
439.829	5972.81
440.05	6314.81
440.272	6721.81
440.493	6152.81
440.715	5869.81
440.936	5809.81
441.158	5868.81
441.379	6041.81
441.6	6271.81
441.822	6583.81
442.043	6961.81
442.264	7687.81
442.486	7398.81
442.707	6565.81
442.928	6490.81
443.149	6641.81
443.371	6759.81
443.592	7313.81
443.813	8221.81
444.034	8225.81
444.255	7279.81
444.476	7055.81
444.698	7208.81
444.919	7389.81
445.14	7085.81
445.361	7024.81
445.582	7013.81
445.803	7539.81
446.024	8109.81
446.245	7791.81
446.466	6978.81
446.687	6203.81
446.908	5869.81
447.129	5523.81
447.35	5487.81
447.571	5454.81
447.792	5316.81
448.013	5482.81
448.234	5571.81
448.455	6087.81
448.675	7402.81
448.896	7694.81
449.117	6384.81
449.338	6547.81
449.559	7777.81
449.779	8008.81
450	6166.81
450.221	5581.81
450.442	5312.81
450.662	5237.81
450.883	5351.81
451.104	5345.81
451.324	5237.81
451.545	5113.81
451.766	5057.81
451.986	4892.81
452.207	4882.81
452.428	4831.81
452.648	4870.81
452.869	4900.81
453.089	5002.81
453.31	5041.81
453.53	4899.81
453.751	4737.81
453.971	4822.81
454.192	4955.81
454.412	4699.81
454.633	4739.81
454.853	4656.81
455.073	4797.81
455.294	5092.81
455.514	5586.81
455.734	5136.81
455.955	4651.81
456.175	4558.81
456.395	4554.81
456.616	4471.81
456.836	4490.81
457.056	4424.81
457.276	4337.81
457.497	4566.81
457.717	4515.81
457.937	4598.81
458.157	4666.81
458.377	4729.81
458.598	5027.81
458.818	5651.81
459.038	6345.81
459.258	6295.81
459.478	5635.81
459.698	5603.81
459.918	5651.81
460.138	5889.81
460.358	5998.81
460.578	6095.81
460.798	6144.81
461.018	6117.81
461.238	5945.81
461.458	5968.81
461.678	5903.81
461.898	6109.81
462.118	6123.81
462.338	6484.81
462.558	6588.81
462.777	6876.81
462.997	7443.81
463.217	7825.81
463.437	7592.81
463.657	7071.81
463.876	6881.81
464.096	6893.81
464.316	6908.81
464.536	6953.81
464.755	6657.81
464.975	6539.81
465.195	6600.81
465.414	6512.81
465.634	5891.81
465.854	5524.81
466.073	5389.81
466.293	5220.81
466.512	5119.81
466.732	4973.81
466.951	5002.81
467.171	5026.81
467.391	5140.81
467.61	5077.81
467.829	5060.81
468.049	4974.81
468.268	4826.81
468.488	4773.81
468.707	4781.81
468.927	4768.81
469.146	4809.81
469.365	4808.81
469.585	4887.81
469.804	5097.81
470.023	5199.81
470.243	5190.81
470.462	5234.81
470.681	5369.81
470.901	5233.81
471.12	5199.81
471.339	5080.81
471.558	5040.81
471.777	4978.81
471.997	4917.81
472.216	4811.81
472.435	4898.81
472.654	4806.81
472.873	4790.81
473.092	4805.81
473.311	4751.81
473.53	4795.81
473.749	4917.81
473.968	5354.81
474.187	6367.81
474.406	5837.81
474.625	5126.81
474.844	4834.81
475.063	4798.81
475.282	4813.81
475.501	4918.81
475.72	4933.81
475.939	4974.81
476.158	5032.81
476.377	4966.81
476.596	4981.81
476.814	5026.81
477.033	5155.81
477.252	5237.81
477.471	5331.81
477.69	5419.81
477.908	5571.81
478.127	5633.81
478.346	5742.81
478.564	5751.81
478.783	5880.81
479.002	6060.81
479.22	6073.81
479.439	6074.81
479.658	6242.81
479.876	6232.81
480.095	6494.81
480.313	6863.81
480.532	6753.81
480.751	6586.81
480.969	6505.81
481.188	6480.81
481.406	6311.81
481.624	6056.81
481.843	5901.81
482.061	5781.81
482.28	5762.81
482.498	5599.81
482.717	5653.81
482.935	5638.81
483.153	5595.81
483.372	5656.81
483.59	5662.81
483.808	5683.81
484.027	5634.81
484.245	5635.81
484.463	5789.81
484.681	5858.81
484.9	5860.81
485.118	5861.81
485.336	5905.81
485.554	6018.81
485.772	6036.81
485.99	6037.81
486.209	6049.81
486.427	6117.81
486.645	6014.81
486.863	6218.81
487.081	6208.81
487.299	6156.81
487.517	6019.81
487.735	6040.81
487.953	6057.81
