Data from Circ_1985_H10_HRD10591_00062.txt Node
Date: Wed Jan 03 12:19:35 EST 2024
User: Yrep
Spectrometer: HR+D1059
Trigger mode: 1
Integration Time (sec): 1.000000E-1
Scans to average: 1
Electric dark correction enabled: true
Nonlinearity correction enabled: false
Boxcar width: 0
XAxis mode: Wavelengths
Number of Pixels in Spectrum: 2048
>>>>>Begin Spectral Data<<<<<
223.165	-9.75
223.4	-9.75
223.635	-9.75
223.869	-18.75
224.104	-21.75
224.338	-31.75
224.573	-6.75
224.808	-7.75
225.042	-18.75
225.277	-19.75
225.511	-4.75
225.746	4.25
225.98	8.25
226.215	0.25
226.449	23.25
226.683	28.25
226.918	35.25
227.152	40.25
227.387	31.25
227.621	13.25
227.856	40.25
228.09	58.25
228.324	50.25
228.559	57.25
228.793	41.25
229.027	51.25
229.262	67.25
229.496	71.25
229.73	80.25
229.964	78.25
230.199	73.25
230.433	68.25
230.667	74.25
230.901	82.25
231.136	86.25
231.37	82.25
231.604	93.25
231.838	83.25
232.072	76.25
232.306	71.25
232.541	76.25
232.775	95.25
233.009	67.25
233.243	82.25
233.477	81.25
233.711	71.25
233.945	82.25
234.179	81.25
234.413	81.25
234.647	77.25
234.881	90.25
235.115	72.25
235.349	84.25
235.583	90.25
235.817	65.25
236.051	60.25
236.285	81.25
236.519	82.25
236.753	73.25
236.987	84.25
237.221	84.25
237.455	82.25
237.689	75.25
237.922	91.25
238.156	73.25
238.39	80.25
238.624	73.25
238.858	75.25
239.091	78.25
239.325	70.25
239.559	70.25
239.793	78.25
240.027	78.25
240.26	75.25
240.494	82.25
240.728	65.25
240.961	67.25
241.195	78.25
241.429	74.25
241.662	70.25
241.896	80.25
242.13	78.25
242.363	74.25
242.597	76.25
242.83	88.25
243.064	70.25
243.298	75.25
243.531	73.25
243.765	74.25
243.998	80.25
244.232	91.25
244.465	86.25
244.699	101.25
244.932	76.25
245.166	73.25
245.399	74.25
245.633	82.25
245.866	74.25
246.099	82.25
246.333	84.25
246.566	95.25
246.8	82.25
247.033	87.25
247.266	73.25
247.5	71.25
247.733	72.25
247.966	75.25
248.2	73.25
248.433	84.25
248.666	80.25
248.899	82.25
249.133	84.25
249.366	91.25
249.599	76.25
249.832	82.25
250.066	75.25
250.299	86.25
250.532	67.25
250.765	68.25
250.998	72.25
251.231	83.25
251.465	79.25
251.698	69.25
251.931	79.25
252.164	87.25
252.397	74.25
252.63	84.25
252.863	81.25
253.096	71.25
253.329	91.25
253.562	82.25
253.795	83.25
254.028	81.25
254.261	84.25
254.494	95.25
254.727	89.25
254.96	73.25
255.193	78.25
255.426	81.25
255.659	86.25
255.892	80.25
256.124	94.25
256.357	74.25
256.59	80.25
256.823	91.25
257.056	86.25
257.289	74.25
257.521	85.25
257.754	75.25
257.987	76.25
258.22	75.25
258.452	83.25
258.685	82.25
258.918	83.25
259.151	72.25
259.383	68.25
259.616	84.25
259.849	92.25
260.081	77.25
260.314	87.25
260.547	73.25
260.779	75.25
261.012	71.25
261.244	74.25
261.477	91.25
261.71	82.25
261.942	87.25
262.175	91.25
262.407	97.25
262.64	78.25
262.872	82.25
263.105	88.25
263.337	73.25
263.57	86.25
263.802	80.25
264.035	87.25
264.267	78.25
264.499	78.25
264.732	95.25
264.964	73.25
265.197	84.25
265.429	88.25
265.661	100.25
265.894	76.25
266.126	83.25
266.358	87.25
266.591	91.25
266.823	84.25
267.055	89.25
267.287	89.25
267.52	75.25
267.752	76.25
267.984	80.25
268.216	86.25
268.448	94.25
268.681	70.25
268.913	78.25
269.145	85.25
269.377	89.25
269.609	94.25
269.841	70.25
270.073	90.25
270.306	82.25
270.538	77.25
270.77	90.25
271.002	90.25
271.234	86.25
271.466	82.25
271.698	92.25
271.93	91.25
272.162	74.25
272.394	81.25
272.626	78.25
272.858	86.25
273.09	86.25
273.322	86.25
273.553	82.25
273.785	94.25
274.017	85.25
274.249	72.25
274.481	88.25
274.713	74.25
274.945	89.25
275.176	82.25
275.408	83.25
275.64	72.25
275.872	79.25
276.104	92.25
276.335	95.25
276.567	102.25
276.799	89.25
277.031	83.25
277.262	83.25
277.494	85.25
277.726	90.25
277.957	81.25
278.189	87.25
278.421	81.25
278.652	92.25
278.884	99.25
279.115	91.25
279.347	96.25
279.579	90.25
279.81	79.25
280.042	82.25
280.273	87.25
280.505	84.25
280.736	64.25
280.968	87.25
281.199	82.25
281.431	90.25
281.662	82.25
281.894	89.25
282.125	89.25
282.356	122.25
282.588	112.25
282.819	117.25
283.051	101.25
283.282	91.25
283.513	94.25
283.745	78.25
283.976	89.25
284.207	84.25
284.439	65.25
284.67	76.25
284.901	89.25
285.132	91.25
285.364	68.25
285.595	82.25
285.826	81.25
286.057	96.25
286.288	96.25
286.52	92.25
286.751	94.25
286.982	71.25
287.213	79.25
287.444	80.25
287.675	80.25
287.906	99.25
288.138	95.25
288.369	108.25
288.6	83.25
288.831	78.25
289.062	102.25
289.293	84.25
289.524	84.25
289.755	83.25
289.986	90.25
290.217	98.25
290.448	81.25
290.679	86.25
290.91	74.25
291.141	84.25
291.371	80.25
291.602	95.25
291.833	102.25
292.064	82.25
292.295	77.25
292.526	94.25
292.757	85.25
292.987	86.25
293.218	96.25
293.449	86.25
293.68	86.25
293.91	81.25
294.141	84.25
294.372	82.25
294.603	80.25
294.833	87.25
295.064	90.25
295.295	79.25
295.525	86.25
295.756	107.25
295.987	106.25
296.217	125.25
296.448	122.25
296.679	89.25
296.909	86.25
297.14	90.25
297.37	91.25
297.601	82.25
297.831	70.25
298.062	83.25
298.292	67.25
298.523	88.25
298.753	101.25
298.984	93.25
299.214	78.25
299.445	87.25
299.675	78.25
299.905	103.25
300.136	95.25
300.366	102.25
300.597	79.25
300.827	84.25
301.057	97.25
301.288	87.25
301.518	81.25
301.748	79.25
301.979	107.25
302.209	86.25
302.439	95.25
302.669	79.25
302.9	83.25
303.13	94.25
303.36	90.25
303.59	88.25
303.82	95.25
304.051	82.25
304.281	66.25
304.511	91.25
304.741	84.25
304.971	81.25
305.201	90.25
305.431	96.25
305.661	91.25
305.891	82.25
306.121	89.25
306.352	101.25
306.582	92.25
306.812	91.25
307.042	84.25
307.272	86.25
307.502	90.25
307.731	99.25
307.961	90.25
308.191	76.25
308.421	88.25
308.651	84.25
308.881	92.25
309.111	94.25
309.341	94.25
309.571	95.25
309.8	78.25
310.03	86.25
310.26	108.25
310.49	81.25
310.72	91.25
310.949	88.25
311.179	88.25
311.409	94.25
311.639	86.25
311.868	98.25
312.098	96.25
312.328	89.25
312.557	91.25
312.787	98.25
313.017	94.25
313.246	78.25
313.476	86.25
313.706	81.25
313.935	91.25
314.165	76.25
314.394	93.25
314.624	78.25
314.853	96.25
315.083	103.25
315.312	89.25
315.542	98.25
315.771	87.25
316.001	82.25
316.23	83.25
316.46	100.25
316.689	90.25
316.919	78.25
317.148	102.25
317.377	92.25
317.607	90.25
317.836	92.25
318.065	90.25
318.295	80.25
318.524	85.25
318.753	95.25
318.983	100.25
319.212	87.25
319.441	104.25
319.67	90.25
319.9	91.25
320.129	90.25
320.358	91.25
320.587	98.25
320.816	103.25
321.046	98.25
321.275	103.25
321.504	92.25
321.733	103.25
321.962	97.25
322.191	98.25
322.42	91.25
322.649	112.25
322.878	97.25
323.108	106.25
323.337	119.25
323.566	123.25
323.795	129.25
324.024	188.25
324.253	324.25
324.482	654.25
324.71	1345.25
324.939	1794.25
325.168	676.25
325.397	206.25
325.626	144.25
325.855	118.25
326.084	112.25
326.313	104.25
326.542	137.25
326.77	203.25
326.999	401.25
327.228	780.25
327.457	1400.25
327.686	1139.25
327.914	307.25
328.143	188.25
328.372	127.25
328.6	106.25
328.829	101.25
329.058	128.25
329.287	114.25
329.515	115.25
329.744	101.25
329.972	97.25
330.201	112.25
330.43	137.25
330.658	120.25
330.887	122.25
331.115	99.25
331.344	89.25
331.572	101.25
331.801	101.25
332.03	103.25
332.258	101.25
332.486	93.25
332.715	94.25
332.943	83.25
333.172	96.25
333.4	94.25
333.629	110.25
333.857	110.25
334.085	111.25
334.314	112.25
334.542	121.25
334.771	121.25
334.999	92.25
335.227	92.25
335.455	95.25
335.684	93.25
335.912	99.25
336.14	106.25
336.369	105.25
336.597	88.25
336.825	89.25
337.053	94.25
337.281	81.25
337.51	90.25
337.738	90.25
337.966	84.25
338.194	74.25
338.422	73.25
338.65	90.25
338.878	69.25
339.106	74.25
339.334	80.25
339.562	93.25
339.79	94.25
340.018	110.25
340.246	95.25
340.474	88.25
340.702	90.25
340.93	97.25
341.158	84.25
341.386	99.25
341.614	100.25
341.842	98.25
342.07	83.25
342.298	79.25
342.526	91.25
342.754	84.25
342.981	90.25
343.209	82.25
343.437	99.25
343.665	97.25
343.893	85.25
344.12	89.25
344.348	74.25
344.576	63.25
344.804	91.25
345.031	87.25
345.259	89.25
345.487	88.25
345.714	94.25
345.942	80.25
346.17	94.25
346.397	80.25
346.625	91.25
346.853	75.25
347.08	90.25
347.308	94.25
347.535	93.25
347.763	95.25
347.99	94.25
348.218	91.25
348.445	97.25
348.673	94.25
348.9	91.25
349.128	102.25
349.355	95.25
349.583	89.25
349.81	88.25
350.037	94.25
350.265	92.25
350.492	108.25
350.72	96.25
350.947	89.25
351.174	100.25
351.402	104.25
351.629	96.25
351.856	94.25
352.083	75.25
352.311	104.25
352.538	98.25
352.765	112.25
352.992	118.25
353.22	105.25
353.447	105.25
353.674	102.25
353.901	87.25
354.128	97.25
354.355	101.25
354.583	103.25
354.81	95.25
355.037	106.25
355.264	91.25
355.491	91.25
355.718	109.25
355.945	99.25
356.172	92.25
356.399	100.25
356.626	82.25
356.853	98.25
357.08	92.25
357.307	91.25
357.534	90.25
357.761	90.25
357.988	90.25
358.215	80.25
358.441	86.25
358.668	79.25
358.895	72.25
359.122	107.25
359.349	92.25
359.576	94.25
359.802	81.25
360.029	96.25
360.256	88.25
360.483	82.25
360.709	81.25
360.936	89.25
361.163	97.25
361.39	94.25
361.616	86.25
361.843	91.25
362.07	86.25
362.296	95.25
362.523	100.25
362.749	91.25
362.976	78.25
363.203	78.25
363.429	80.25
363.656	89.25
363.882	87.25
364.109	97.25
364.335	70.25
364.562	90.25
364.788	84.25
365.015	104.25
365.241	96.25
365.468	92.25
365.694	82.25
365.92	98.25
366.147	88.25
366.373	73.25
366.599	94.25
366.826	73.25
367.052	81.25
367.278	78.25
367.505	97.25
367.731	90.25
367.957	94.25
368.184	91.25
368.41	99.25
368.636	105.25
368.862	111.25
369.089	104.25
369.315	96.25
369.541	92.25
369.767	85.25
369.993	83.25
370.219	92.25
370.445	86.25
370.672	94.25
370.898	82.25
371.124	76.25
371.35	83.25
371.576	89.25
371.802	92.25
372.028	89.25
372.254	77.25
372.48	100.25
372.706	92.25
372.932	90.25
373.158	86.25
373.384	84.25
373.61	80.25
373.835	78.25
374.061	96.25
374.287	94.25
374.513	90.25
374.739	98.25
374.965	85.25
375.191	88.25
375.416	86.25
375.642	86.25
375.868	78.25
376.094	71.25
376.319	87.25
376.545	91.25
376.771	80.25
376.997	75.25
377.222	83.25
377.448	83.25
377.674	82.25
377.899	94.25
378.125	75.25
378.35	94.25
378.576	80.25
378.802	91.25
379.027	97.25
379.253	91.25
379.478	99.25
379.704	104.25
379.929	99.25
380.155	85.25
380.38	100.25
380.606	91.25
380.831	86.25
381.057	105.25
381.282	89.25
381.507	94.25
381.733	88.25
381.958	108.25
382.184	97.25
382.409	96.25
382.634	105.25
382.86	87.25
383.085	99.25
383.31	115.25
383.535	96.25
383.761	100.25
383.986	99.25
384.211	79.25
384.436	89.25
384.662	95.25
384.887	110.25
385.112	104.25
385.337	106.25
385.562	100.25
385.787	104.25
386.013	104.25
386.238	112.25
386.463	114.25
386.688	104.25
386.913	94.25
387.138	102.25
387.363	113.25
387.588	100.25
387.813	108.25
388.038	92.25
388.263	91.25
388.488	96.25
388.713	91.25
388.938	94.25
389.163	99.25
389.387	97.25
389.612	99.25
389.837	105.25
390.062	90.25
390.287	84.25
390.512	84.25
390.736	94.25
390.961	99.25
391.186	91.25
391.411	92.25
391.636	90.25
391.86	90.25
392.085	90.25
392.31	91.25
392.534	86.25
392.759	80.25
392.984	80.25
393.208	89.25
393.433	94.25
393.658	82.25
393.882	80.25
394.107	76.25
394.331	87.25
394.556	84.25
394.78	80.25
395.005	86.25
395.229	84.25
395.454	91.25
395.678	89.25
395.903	82.25
396.127	94.25
396.352	88.25
396.576	77.25
396.801	88.25
397.025	80.25
397.249	95.25
397.474	104.25
397.698	72.25
397.922	75.25
398.147	82.25
398.371	86.25
398.595	87.25
398.82	95.25
399.044	90.25
399.268	96.25
399.492	101.25
399.717	77.25
399.941	92.25
400.165	80.25
400.389	83.25
400.613	86.25
400.837	82.25
401.062	99.25
401.286	79.25
401.51	89.25
401.734	92.25
401.958	103.25
402.182	107.25
402.406	135.25
402.63	102.25
402.854	86.25
403.078	83.25
403.302	104.25
403.526	80.25
403.75	96.25
403.974	60.25
404.198	91.25
404.422	91.25
404.645	86.25
404.869	83.25
405.093	104.25
405.317	105.25
405.541	95.25
405.765	91.25
405.988	100.25
406.212	151.25
406.436	193.25
406.66	127.25
406.883	90.25
407.107	100.25
407.331	90.25
407.555	88.25
407.778	100.25
408.002	91.25
408.226	78.25
408.449	80.25
408.673	94.25
408.896	84.25
409.12	99.25
409.344	94.25
409.567	93.25
409.791	87.25
410.014	84.25
410.238	96.25
410.461	106.25
410.685	106.25
410.908	88.25
411.132	90.25
411.355	96.25
411.578	89.25
411.802	88.25
412.025	93.25
412.249	92.25
412.472	103.25
412.695	98.25
412.919	104.25
413.142	72.25
413.365	95.25
413.589	87.25
413.812	84.25
414.035	95.25
414.258	72.25
414.482	95.25
414.705	96.25
414.928	91.25
415.151	95.25
415.374	87.25
415.597	87.25
415.821	97.25
416.044	86.25
416.267	91.25
416.49	86.25
416.713	82.25
416.936	98.25
417.159	84.25
417.382	81.25
417.605	74.25
417.828	84.25
418.051	81.25
418.274	86.25
418.497	97.25
418.72	96.25
418.943	91.25
419.166	88.25
419.389	88.25
419.611	82.25
419.834	87.25
420.057	84.25
420.28	90.25
420.503	105.25
420.726	88.25
420.948	94.25
421.171	92.25
421.394	89.25
421.617	92.25
421.839	81.25
422.062	80.25
422.285	83.25
422.507	111.25
422.73	105.25
422.953	86.25
423.175	92.25
423.398	79.25
423.621	88.25
423.843	84.25
424.066	78.25
424.288	80.25
424.511	86.25
424.733	86.25
424.956	90.25
425.178	85.25
425.401	89.25
425.623	80.25
425.846	102.25
426.068	88.25
426.291	94.25
426.513	87.25
426.735	85.25
426.958	81.25
427.18	89.25
427.402	128.25
427.625	146.25
427.847	102.25
428.069	106.25
428.292	94.25
428.514	96.25
428.736	96.25
428.958	83.25
429.181	68.25
429.403	92.25
429.625	84.25
429.847	76.25
430.069	85.25
430.292	76.25
430.514	92.25
430.736	94.25
430.958	86.25
431.18	82.25
431.402	80.25
431.624	90.25
431.846	86.25
432.068	71.25
432.29	84.25
432.512	82.25
432.734	93.25
432.956	107.25
433.178	89.25
433.4	110.25
433.622	102.25
433.844	89.25
434.066	98.25
434.287	92.25
434.509	95.25
434.731	92.25
434.953	84.25
435.175	103.25
435.397	83.25
435.618	93.25
435.84	122.25
436.062	108.25
436.284	90.25
436.505	76.25
436.727	103.25
436.949	75.25
437.17	70.25
437.392	97.25
437.614	84.25
437.835	85.25
438.057	99.25
438.278	93.25
438.5	94.25
438.721	107.25
438.943	84.25
439.165	82.25
439.386	85.25
439.608	75.25
439.829	84.25
440.05	102.25
440.272	115.25
440.493	88.25
440.715	91.25
440.936	84.25
441.158	86.25
441.379	84.25
441.6	89.25
441.822	94.25
442.043	97.25
442.264	88.25
442.486	91.25
442.707	93.25
442.928	95.25
443.149	106.25
443.371	122.25
443.592	87.25
443.813	85.25
444.034	102.25
444.255	82.25
444.476	79.25
444.698	93.25
444.919	103.25
445.14	140.25
445.361	118.25
445.582	97.25
445.803	111.25
446.024	115.25
446.245	112.25
446.466	99.25
446.687	102.25
446.908	74.25
447.129	72.25
447.35	84.25
447.571	88.25
447.792	96.25
448.013	91.25
448.234	110.25
448.455	91.25
448.675	97.25
448.896	100.25
449.117	106.25
449.338	100.25
449.559	116.25
449.779	111.25
450	79.25
450.221	91.25
450.442	87.25
450.662	81.25
450.883	107.25
451.104	96.25
451.324	83.25
451.545	86.25
451.766	83.25
451.986	104.25
452.207	103.25
452.428	89.25
452.648	84.25
452.869	102.25
453.089	99.25
453.31	113.25
453.53	82.25
453.751	82.25
453.971	106.25
454.192	98.25
454.412	85.25
454.633	98.25
454.853	78.25
455.073	81.25
455.294	95.25
455.514	95.25
455.734	84.25
455.955	89.25
456.175	85.25
456.395	91.25
456.616	89.25
456.836	91.25
457.056	79.25
457.276	86.25
457.497	98.25
457.717	94.25
457.937	88.25
458.157	93.25
458.377	91.25
458.598	106.25
458.818	115.25
459.038	122.25
459.258	88.25
459.478	95.25
459.698	92.25
459.918	86.25
460.138	68.25
460.358	72.25
460.578	95.25
460.798	80.25
461.018	82.25
461.238	74.25
461.458	87.25
461.678	86.25
461.898	91.25
462.118	80.25
462.338	75.25
462.558	82.25
462.777	97.25
462.997	85.25
463.217	91.25
463.437	80.25
463.657	80.25
463.876	80.25
464.096	98.25
464.316	78.25
464.536	93.25
464.755	81.25
464.975	94.25
465.195	125.25
465.414	127.25
465.634	83.25
465.854	89.25
466.073	85.25
466.293	76.25
466.512	82.25
466.732	94.25
466.951	90.25
467.171	88.25
467.391	94.25
467.61	95.25
467.829	87.25
468.049	103.25
468.268	102.25
468.488	72.25
468.707	95.25
468.927	75.25
469.146	86.25
469.365	83.25
469.585	86.25
469.804	80.25
470.023	84.25
470.243	92.25
470.462	90.25
470.681	119.25
470.901	91.25
471.12	79.25
471.339	81.25
471.558	88.25
471.777	82.25
471.997	94.25
472.216	105.25
472.435	163.25
472.654	104.25
472.873	95.25
473.092	83.25
473.311	75.25
473.53	86.25
473.749	80.25
473.968	91.25
474.187	95.25
474.406	88.25
474.625	85.25
474.844	82.25
475.063	76.25
475.282	86.25
475.501	99.25
475.72	100.25
475.939	72.25
476.158	72.25
476.377	97.25
476.596	105.25
476.814	87.25
477.033	88.25
477.252	93.25
477.471	84.25
477.69	95.25
477.908	84.25
478.127	69.25
478.346	75.25
478.564	89.25
478.783	87.25
479.002	106.25
479.22	85.25
479.439	86.25
479.658	108.25
479.876	99.25
480.095	83.25
480.313	92.25
480.532	91.25
480.751	99.25
480.969	130.25
481.188	224.25
481.406	166.25
481.624	75.25
481.843	85.25
482.061	84.25
482.28	90.25
482.498	89.25
482.717	84.25
482.935	86.25
483.153	84.25
483.372	62.25
483.59	99.25
483.808	82.25
484.027	86.25
484.245	80.25
484.463	85.25
484.681	107.25
484.9	84.25
485.118	89.25
485.336	96.25
485.554	103.25
485.772	94.25
485.99	101.25
486.209	105.25
486.427	114.25
486.645	105.25
486.863	101.25
487.081	104.25
487.299	92.25
487.517	96.25
487.735	89.25
487.953	98.25
488.171	92.25
488.389	78.25
488.607	86.25
488.825	84.25
489.043	92.25
489.261	91.25
489.479	92.25
489.696	67.25
489.914	82.25
490.132	94.25
490.35	87.25
490.568	94.25
490.786	112.25
491.003	95.25
491.221	92.25
491.439	94.25
491.657	86.25
491.874	90.25
492.092	108.25
492.31	84.25
492.527	95.25
492.745	91.25
492.963	83.25
493.18	92.25
493.398	76.25
493.615	97.25
493.833	95.25
494.05	88.25
494.268	91.25
494.485	97.25
494.703	75.25
494.92	92.25
495.138	84.25
495.355	83.25
495.573	95.25
495.79	100.25
496.008	94.25
496.225	86.25
496.442	101.25
496.66	88.25
496.877	98.25
497.094	98.25
497.312	88.25
497.529	82.25
497.746	86.25
497.963	96.25
498.181	93.25
498.398	98.25
498.615	98.25
498.832	92.25
499.049	83.25
499.267	94.25
499.484	84.25
499.701	100.25
499.918	95.25
500.135	82.25
500.352	81.25
500.569	87.25
500.786	94.25
501.003	92.25
501.22	100.25
501.437	86.25
501.654	102.25
501.871	99.25
502.088	83.25
502.305	94.25
502.522	90.25
502.739	98.25
502.956	88.25
503.172	74.25
503.389	90.25
503.606	94.25
503.823	88.25
504.04	85.25
504.256	86.25
504.473	79.25
504.69	83.25
504.907	78.25
505.123	83.25
505.34	76.25
505.557	91.25
505.773	92.25
505.99	100.25
506.207	98.25
506.423	88.25
506.64	84.25
506.856	82.25
507.073	87.25
507.289	97.25
507.506	86.25
507.722	99.25
507.939	94.25
508.155	92.25
508.372	89.25
508.588	81.25
508.805	98.25
509.021	84.25
509.238	88.25
509.454	90.25
509.67	105.25
509.887	101.25
510.103	120.25
510.319	177.25
510.536	585.25
510.752	1806.25
510.968	510.25
511.184	135.25
511.401	105.25
511.617	77.25
511.833	96.25
512.049	93.25
512.265	94.25
512.481	95.25
512.698	95.25
512.914	81.25
513.13	94.25
513.346	95.25
513.562	86.25
513.778	94.25
513.994	81.25
514.21	92.25
514.426	111.25
514.642	114.25
514.858	104.25
515.074	143.25
515.29	349.25
515.506	1050.25
515.721	408.25
515.937	126.25
516.153	105.25
516.369	95.25
516.585	92.25
516.801	91.25
