Data from Circ_1985_H10_HRD10591_00096.txt Node
Date: Wed Jan 03 12:19:41 EST 2024
User: Yrep
Spectrometer: HR+D1059
Trigger mode: 1
Integration Time (sec): 1.000000E-1
Scans to average: 1
Electric dark correction enabled: true
Nonlinearity correction enabled: false
Boxcar width: 0
XAxis mode: Wavelengths
Number of Pixels in Spectrum: 2048
>>>>>Begin Spectral Data<<<<<
223.165	-14.25
223.4	-14.25
223.635	-14.25
223.869	-23.25
224.104	-19.25
224.338	-23.25
224.573	-8.25
224.808	-9.25
225.042	-18.25
225.277	-8.25
225.511	-6.25
225.746	6.75
225.98	11.75
226.215	14.75
226.449	15.75
226.683	21.75
226.918	25.75
227.152	33.75
227.387	43.75
227.621	35.75
227.856	44.75
228.09	54.75
228.324	50.75
228.559	56.75
228.793	68.75
229.027	64.75
229.262	57.75
229.496	78.75
229.73	82.75
229.964	96.75
230.199	68.75
230.433	82.75
230.667	78.75
230.901	87.75
231.136	68.75
231.37	99.75
231.604	79.75
231.838	97.75
232.072	84.75
232.306	66.75
232.541	84.75
232.775	86.75
233.009	83.75
233.243	70.75
233.477	67.75
233.711	74.75
233.945	80.75
234.179	82.75
234.413	74.75
234.647	87.75
234.881	73.75
235.115	74.75
235.349	63.75
235.583	98.75
235.817	69.75
236.051	86.75
236.285	74.75
236.519	71.75
236.753	72.75
236.987	64.75
237.221	85.75
237.455	63.75
237.689	81.75
237.922	73.75
238.156	86.75
238.39	64.75
238.624	64.75
238.858	77.75
239.091	88.75
239.325	70.75
239.559	82.75
239.793	62.75
240.027	82.75
240.26	77.75
240.494	82.75
240.728	79.75
240.961	82.75
241.195	71.75
241.429	70.75
241.662	79.75
241.896	80.75
242.13	68.75
242.363	68.75
242.597	65.75
242.83	81.75
243.064	80.75
243.298	69.75
243.531	82.75
243.765	71.75
243.998	77.75
244.232	73.75
244.465	84.75
244.699	67.75
244.932	83.75
245.166	66.75
245.399	68.75
245.633	81.75
245.866	74.75
246.099	78.75
246.333	82.75
246.566	86.75
246.8	92.75
247.033	69.75
247.266	82.75
247.5	79.75
247.733	73.75
247.966	86.75
248.2	77.75
248.433	72.75
248.666	91.75
248.899	88.75
249.133	71.75
249.366	85.75
249.599	107.75
249.832	78.75
250.066	92.75
250.299	71.75
250.532	91.75
250.765	89.75
250.998	83.75
251.231	69.75
251.465	88.75
251.698	75.75
251.931	78.75
252.164	62.75
252.397	72.75
252.63	84.75
252.863	80.75
253.096	78.75
253.329	85.75
253.562	82.75
253.795	72.75
254.028	70.75
254.261	95.75
254.494	87.75
254.727	74.75
254.96	89.75
255.193	87.75
255.426	74.75
255.659	94.75
255.892	80.75
256.124	80.75
256.357	89.75
256.59	80.75
256.823	83.75
257.056	74.75
257.289	88.75
257.521	73.75
257.754	73.75
257.987	83.75
258.22	91.75
258.452	86.75
258.685	71.75
258.918	71.75
259.151	78.75
259.383	93.75
259.616	81.75
259.849	91.75
260.081	98.75
260.314	80.75
260.547	86.75
260.779	95.75
261.012	82.75
261.244	78.75
261.477	83.75
261.71	91.75
261.942	103.75
262.175	109.75
262.407	83.75
262.64	98.75
262.872	93.75
263.105	91.75
263.337	78.75
263.57	81.75
263.802	86.75
264.035	84.75
264.267	84.75
264.499	86.75
264.732	82.75
264.964	80.75
265.197	88.75
265.429	105.75
265.661	75.75
265.894	93.75
266.126	80.75
266.358	73.75
266.591	88.75
266.823	94.75
267.055	81.75
267.287	94.75
267.52	88.75
267.752	85.75
267.984	94.75
268.216	74.75
268.448	67.75
268.681	87.75
268.913	84.75
269.145	81.75
269.377	88.75
269.609	76.75
269.841	80.75
270.073	86.75
270.306	90.75
270.538	80.75
270.77	74.75
271.002	82.75
271.234	75.75
271.466	82.75
271.698	78.75
271.93	82.75
272.162	82.75
272.394	87.75
272.626	74.75
272.858	83.75
273.09	73.75
273.322	81.75
273.553	86.75
273.785	95.75
274.017	96.75
274.249	87.75
274.481	90.75
274.713	82.75
274.945	97.75
275.176	80.75
275.408	88.75
275.64	104.75
275.872	84.75
276.104	73.75
276.335	90.75
276.567	97.75
276.799	98.75
277.031	102.75
277.262	83.75
277.494	94.75
277.726	95.75
277.957	78.75
278.189	91.75
278.421	94.75
278.652	85.75
278.884	82.75
279.115	79.75
279.347	91.75
279.579	83.75
279.81	83.75
280.042	86.75
280.273	87.75
280.505	90.75
280.736	80.75
280.968	90.75
281.199	98.75
281.431	87.75
281.662	90.75
281.894	94.75
282.125	92.75
282.356	101.75
282.588	134.75
282.819	112.75
283.051	92.75
283.282	94.75
283.513	92.75
283.745	84.75
283.976	86.75
284.207	75.75
284.439	90.75
284.67	94.75
284.901	88.75
285.132	90.75
285.364	84.75
285.595	81.75
285.826	75.75
286.057	78.75
286.288	84.75
286.52	84.75
286.751	79.75
286.982	104.75
287.213	73.75
287.444	72.75
287.675	110.75
287.906	103.75
288.138	96.75
288.369	96.75
288.6	92.75
288.831	97.75
289.062	81.75
289.293	92.75
289.524	92.75
289.755	89.75
289.986	93.75
290.217	92.75
290.448	84.75
290.679	96.75
290.91	103.75
291.141	91.75
291.371	85.75
291.602	88.75
291.833	87.75
292.064	70.75
292.295	86.75
292.526	83.75
292.757	75.75
292.987	90.75
293.218	82.75
293.449	88.75
293.68	88.75
293.91	94.75
294.141	84.75
294.372	98.75
294.603	83.75
294.833	91.75
295.064	99.75
295.295	107.75
295.525	94.75
295.756	103.75
295.987	109.75
296.217	134.75
296.448	126.75
296.679	96.75
296.909	71.75
297.14	86.75
297.37	78.75
297.601	82.75
297.831	90.75
298.062	96.75
298.292	99.75
298.523	108.75
298.753	102.75
298.984	88.75
299.214	88.75
299.445	96.75
299.675	104.75
299.905	95.75
300.136	97.75
300.366	85.75
300.597	79.75
300.827	99.75
301.057	97.75
301.288	90.75
301.518	103.75
301.748	85.75
301.979	107.75
302.209	89.75
302.439	89.75
302.669	98.75
302.9	94.75
303.13	76.75
303.36	96.75
303.59	89.75
303.82	105.75
304.051	100.75
304.281	95.75
304.511	97.75
304.741	84.75
304.971	85.75
305.201	101.75
305.431	86.75
305.661	81.75
305.891	94.75
306.121	79.75
306.352	95.75
306.582	102.75
306.812	97.75
307.042	107.75
307.272	98.75
307.502	91.75
307.731	98.75
307.961	90.75
308.191	89.75
308.421	88.75
308.651	95.75
308.881	94.75
309.111	82.75
309.341	69.75
309.571	92.75
309.8	106.75
310.03	97.75
310.26	95.75
310.49	98.75
310.72	93.75
310.949	90.75
311.179	84.75
311.409	92.75
311.639	89.75
311.868	101.75
312.098	99.75
312.328	101.75
312.557	93.75
312.787	94.75
313.017	97.75
313.246	95.75
313.476	84.75
313.706	88.75
313.935	100.75
314.165	102.75
314.394	98.75
314.624	82.75
314.853	84.75
315.083	87.75
315.312	91.75
315.542	87.75
315.771	81.75
316.001	88.75
316.23	91.75
316.46	82.75
316.689	78.75
316.919	95.75
317.148	86.75
317.377	94.75
317.607	92.75
317.836	76.75
318.065	83.75
318.295	91.75
318.524	87.75
318.753	82.75
318.983	97.75
319.212	94.75
319.441	103.75
319.67	106.75
319.9	102.75
320.129	96.75
320.358	93.75
320.587	96.75
320.816	104.75
321.046	102.75
321.275	91.75
321.504	99.75
321.733	99.75
321.962	104.75
322.191	91.75
322.42	96.75
322.649	112.75
322.878	106.75
323.108	114.75
323.337	129.75
323.566	136.75
323.795	134.75
324.024	208.75
324.253	414.75
324.482	841.75
324.71	1817.75
324.939	2328.75
325.168	878.75
325.397	243.75
325.626	144.75
325.855	134.75
326.084	135.75
326.313	140.75
326.542	149.75
326.77	247.75
326.999	460.75
327.228	988.75
327.457	1828.75
327.686	1464.75
327.914	394.75
328.143	209.75
328.372	190.75
328.6	130.75
328.829	127.75
329.058	142.75
329.287	134.75
329.515	100.75
329.744	115.75
329.972	117.75
330.201	152.75
330.43	172.75
330.658	148.75
330.887	130.75
331.115	112.75
331.344	102.75
331.572	96.75
331.801	103.75
332.03	90.75
332.258	101.75
332.486	92.75
332.715	99.75
332.943	93.75
333.172	86.75
333.4	99.75
333.629	110.75
333.857	134.75
334.085	130.75
334.314	139.75
334.542	196.75
334.771	212.75
334.999	114.75
335.227	96.75
335.455	104.75
335.684	99.75
335.912	101.75
336.14	100.75
336.369	100.75
336.597	106.75
336.825	105.75
337.053	94.75
337.281	89.75
337.51	107.75
337.738	98.75
337.966	95.75
338.194	106.75
338.422	104.75
338.65	88.75
338.878	88.75
339.106	78.75
339.334	78.75
339.562	86.75
339.79	98.75
340.018	87.75
340.246	92.75
340.474	105.75
340.702	94.75
340.93	99.75
341.158	84.75
341.386	70.75
341.614	86.75
341.842	86.75
342.07	89.75
342.298	98.75
342.526	92.75
342.754	87.75
342.981	80.75
343.209	86.75
343.437	104.75
343.665	88.75
343.893	88.75
344.12	80.75
344.348	84.75
344.576	90.75
344.804	100.75
345.031	94.75
345.259	114.75
345.487	87.75
345.714	97.75
345.942	89.75
346.17	86.75
346.397	112.75
346.625	96.75
346.853	97.75
347.08	88.75
347.308	109.75
347.535	79.75
347.763	107.75
347.99	114.75
348.218	108.75
348.445	102.75
348.673	86.75
348.9	96.75
349.128	92.75
349.355	86.75
349.583	89.75
349.81	79.75
350.037	93.75
350.265	111.75
350.492	118.75
350.72	83.75
350.947	85.75
351.174	99.75
351.402	110.75
351.629	90.75
351.856	84.75
352.083	103.75
352.311	88.75
352.538	108.75
352.765	113.75
352.992	113.75
353.22	101.75
353.447	122.75
353.674	90.75
353.901	100.75
354.128	87.75
354.355	90.75
354.583	91.75
354.81	97.75
355.037	107.75
355.264	103.75
355.491	102.75
355.718	81.75
355.945	96.75
356.172	88.75
356.399	98.75
356.626	75.75
356.853	103.75
357.08	95.75
357.307	91.75
357.534	79.75
357.761	87.75
357.988	98.75
358.215	91.75
358.441	79.75
358.668	104.75
358.895	96.75
359.122	89.75
359.349	66.75
359.576	90.75
359.802	114.75
360.029	106.75
360.256	97.75
360.483	81.75
360.709	83.75
360.936	91.75
361.163	95.75
361.39	85.75
361.616	89.75
361.843	96.75
362.07	94.75
362.296	95.75
362.523	106.75
362.749	95.75
362.976	96.75
363.203	91.75
363.429	91.75
363.656	86.75
363.882	99.75
364.109	92.75
364.335	100.75
364.562	97.75
364.788	83.75
365.015	99.75
365.241	98.75
365.468	97.75
365.694	98.75
365.92	108.75
366.147	102.75
366.373	81.75
366.599	91.75
366.826	78.75
367.052	96.75
367.278	91.75
367.505	99.75
367.731	104.75
367.957	89.75
368.184	85.75
368.41	99.75
368.636	106.75
368.862	103.75
369.089	101.75
369.315	87.75
369.541	92.75
369.767	89.75
369.993	93.75
370.219	98.75
370.445	95.75
370.672	83.75
370.898	94.75
371.124	92.75
371.35	85.75
371.576	72.75
371.802	89.75
372.028	78.75
372.254	108.75
372.48	99.75
372.706	87.75
372.932	80.75
373.158	87.75
373.384	97.75
373.61	106.75
373.835	90.75
374.061	99.75
374.287	102.75
374.513	78.75
374.739	81.75
374.965	95.75
375.191	71.75
375.416	82.75
375.642	93.75
375.868	88.75
376.094	75.75
376.319	90.75
376.545	98.75
376.771	104.75
376.997	96.75
377.222	85.75
377.448	84.75
377.674	82.75
377.899	89.75
378.125	90.75
378.35	86.75
378.576	87.75
378.802	92.75
379.027	92.75
379.253	96.75
379.478	90.75
379.704	102.75
379.929	94.75
380.155	85.75
380.38	83.75
380.606	83.75
380.831	87.75
381.057	82.75
381.282	85.75
381.507	84.75
381.733	94.75
381.958	96.75
382.184	95.75
382.409	103.75
382.634	106.75
382.86	101.75
383.085	96.75
383.31	105.75
383.535	104.75
383.761	108.75
383.986	99.75
384.211	97.75
384.436	106.75
384.662	99.75
384.887	104.75
385.112	105.75
385.337	90.75
385.562	109.75
385.787	112.75
386.013	110.75
386.238	110.75
386.463	99.75
386.688	111.75
386.913	89.75
387.138	98.75
387.363	96.75
387.588	96.75
387.813	99.75
388.038	108.75
388.263	105.75
388.488	104.75
388.713	111.75
388.938	73.75
389.163	96.75
389.387	87.75
389.612	102.75
389.837	93.75
390.062	97.75
390.287	89.75
390.512	88.75
390.736	90.75
390.961	85.75
391.186	80.75
391.411	95.75
391.636	101.75
391.86	79.75
392.085	95.75
392.31	87.75
392.534	83.75
392.759	90.75
392.984	84.75
393.208	78.75
393.433	86.75
393.658	87.75
393.882	94.75
394.107	79.75
394.331	84.75
394.556	91.75
394.78	95.75
395.005	81.75
395.229	86.75
395.454	84.75
395.678	76.75
395.903	80.75
396.127	80.75
396.352	86.75
396.576	85.75
396.801	79.75
397.025	90.75
397.249	90.75
397.474	77.75
397.698	75.75
397.922	95.75
398.147	88.75
398.371	86.75
398.595	85.75
398.82	82.75
399.044	86.75
399.268	85.75
399.492	92.75
399.717	88.75
399.941	85.75
400.165	91.75
400.389	86.75
400.613	89.75
400.837	97.75
401.062	92.75
401.286	83.75
401.51	97.75
401.734	85.75
401.958	89.75
402.182	134.75
402.406	151.75
402.63	116.75
402.854	105.75
403.078	74.75
403.302	91.75
403.526	89.75
403.75	86.75
403.974	104.75
404.198	75.75
404.422	92.75
404.645	87.75
404.869	100.75
405.093	83.75
405.317	103.75
405.541	90.75
405.765	95.75
405.988	115.75
406.212	175.75
406.436	222.75
406.66	142.75
406.883	93.75
407.107	89.75
407.331	96.75
407.555	102.75
407.778	99.75
408.002	85.75
408.226	82.75
408.449	80.75
408.673	88.75
408.896	95.75
409.12	88.75
409.344	87.75
409.567	85.75
409.791	84.75
410.014	90.75
410.238	110.75
410.461	102.75
410.685	101.75
410.908	94.75
411.132	95.75
411.355	89.75
411.578	94.75
411.802	98.75
412.025	96.75
412.249	96.75
412.472	99.75
412.695	107.75
412.919	97.75
413.142	78.75
413.365	78.75
413.589	78.75
413.812	88.75
414.035	95.75
414.258	97.75
414.482	97.75
414.705	100.75
414.928	102.75
415.151	84.75
415.374	100.75
415.597	79.75
415.821	94.75
416.044	88.75
416.267	87.75
416.49	85.75
416.713	89.75
416.936	88.75
417.159	67.75
417.382	78.75
417.605	88.75
417.828	103.75
418.051	86.75
418.274	94.75
418.497	81.75
418.72	75.75
418.943	84.75
419.166	88.75
419.389	86.75
419.611	92.75
419.834	86.75
420.057	84.75
420.28	91.75
420.503	74.75
420.726	87.75
420.948	90.75
421.171	96.75
421.394	91.75
421.617	86.75
421.839	97.75
422.062	76.75
422.285	97.75
422.507	98.75
422.73	96.75
422.953	92.75
423.175	83.75
423.398	73.75
423.621	96.75
423.843	91.75
424.066	87.75
424.288	87.75
424.511	85.75
424.733	78.75
424.956	87.75
425.178	92.75
425.401	102.75
425.623	86.75
425.846	86.75
426.068	83.75
426.291	94.75
426.513	95.75
426.735	90.75
426.958	96.75
427.18	103.75
427.402	125.75
427.625	171.75
427.847	148.75
428.069	126.75
428.292	107.75
428.514	90.75
428.736	66.75
428.958	75.75
429.181	79.75
429.403	102.75
429.625	105.75
429.847	88.75
430.069	100.75
430.292	88.75
430.514	64.75
430.736	88.75
430.958	68.75
431.18	89.75
431.402	82.75
431.624	76.75
431.846	92.75
432.068	89.75
432.29	77.75
432.512	88.75
432.734	80.75
432.956	78.75
433.178	108.75
433.4	86.75
433.622	92.75
433.844	79.75
434.066	82.75
434.287	101.75
434.509	83.75
434.731	80.75
434.953	82.75
435.175	90.75
435.397	97.75
435.618	102.75
435.84	111.75
436.062	121.75
436.284	103.75
436.505	98.75
436.727	91.75
436.949	81.75
437.17	88.75
437.392	94.75
437.614	84.75
437.835	89.75
438.057	98.75
438.278	110.75
438.5	93.75
438.721	105.75
438.943	100.75
439.165	91.75
439.386	79.75
439.608	74.75
439.829	99.75
440.05	105.75
440.272	141.75
440.493	98.75
440.715	76.75
440.936	90.75
441.158	77.75
441.379	97.75
441.6	89.75
441.822	105.75
442.043	108.75
442.264	106.75
442.486	102.75
442.707	92.75
442.928	108.75
443.149	128.75
443.371	129.75
443.592	100.75
443.813	119.75
444.034	93.75
444.255	83.75
444.476	93.75
444.698	82.75
444.919	86.75
445.14	123.75
445.361	124.75
445.582	103.75
445.803	124.75
446.024	116.75
446.245	139.75
446.466	105.75
446.687	83.75
446.908	84.75
447.129	78.75
447.35	95.75
447.571	95.75
447.792	101.75
448.013	96.75
448.234	92.75
448.455	90.75
448.675	123.75
448.896	117.75
449.117	113.75
449.338	118.75
449.559	118.75
449.779	127.75
450	96.75
450.221	83.75
450.442	87.75
450.662	106.75
450.883	116.75
451.104	120.75
451.324	103.75
451.545	96.75
451.766	93.75
451.986	94.75
452.207	95.75
452.428	92.75
452.648	98.75
452.869	107.75
453.089	106.75
453.31	113.75
453.53	95.75
453.751	83.75
453.971	97.75
454.192	98.75
454.412	90.75
454.633	79.75
454.853	86.75
455.073	95.75
455.294	101.75
455.514	109.75
455.734	87.75
455.955	94.75
456.175	74.75
456.395	80.75
456.616	80.75
456.836	96.75
457.056	76.75
457.276	63.75
457.497	81.75
457.717	82.75
457.937	68.75
458.157	79.75
458.377	98.75
458.598	109.75
458.818	139.75
459.038	140.75
459.258	114.75
459.478	81.75
459.698	69.75
459.918	98.75
460.138	82.75
460.358	98.75
460.578	82.75
460.798	80.75
461.018	87.75
461.238	94.75
461.458	72.75
461.678	103.75
461.898	75.75
462.118	82.75
462.338	73.75
462.558	80.75
462.777	74.75
462.997	78.75
463.217	80.75
463.437	83.75
463.657	67.75
463.876	94.75
464.096	92.75
464.316	95.75
464.536	89.75
464.755	88.75
464.975	114.75
465.195	144.75
465.414	158.75
465.634	98.75
465.854	83.75
466.073	106.75
466.293	100.75
466.512	99.75
466.732	84.75
466.951	96.75
467.171	95.75
467.391	100.75
467.61	86.75
467.829	91.75
468.049	125.75
468.268	142.75
468.488	95.75
468.707	84.75
468.927	89.75
469.146	80.75
469.365	89.75
469.585	89.75
469.804	103.75
470.023	100.75
470.243	99.75
470.462	89.75
470.681	108.75
470.901	87.75
471.12	92.75
471.339	90.75
471.558	69.75
471.777	84.75
471.997	94.75
472.216	172.75
472.435	248.75
472.654	123.75
472.873	101.75
473.092	102.75
473.311	74.75
473.53	65.75
473.749	77.75
473.968	93.75
474.187	103.75
474.406	85.75
474.625	92.75
474.844	72.75
475.063	75.75
475.282	99.75
475.501	72.75
475.72	79.75
475.939	87.75
476.158	88.75
476.377	81.75
476.596	85.75
476.814	95.75
477.033	88.75
477.252	92.75
477.471	100.75
477.69	77.75
477.908	80.75
478.127	83.75
478.346	79.75
478.564	73.75
478.783	95.75
479.002	108.75
479.22	76.75
479.439	92.75
479.658	104.75
479.876	79.75
480.095	92.75
480.313	90.75
480.532	83.75
480.751	103.75
480.969	154.75
481.188	408.75
481.406	263.75
481.624	112.75
481.843	94.75
482.061	90.75
482.28	78.75
482.498	89.75
482.717	82.75
482.935	89.75
483.153	98.75
483.372	93.75
483.59	87.75
483.808	78.75
484.027	84.75
484.245	96.75
484.463	100.75
484.681	97.75
484.9	78.75
485.118	94.75
485.336	86.75
485.554	89.75
485.772	107.75
485.99	99.75
486.209	103.75
486.427	91.75
486.645	99.75
486.863	95.75
487.081	100.75
487.299	104.75
487.517	97.75
487.735	96.75
487.953	71.75
488.171	87.75
488.389	89.75
488.607	89.75
488.825	89.75
489.043	98.75
489.261	83.75
489.479	87.75
489.696	103.75
489.914	94.75
490.132	102.75
490.35	91.75
490.568	63.75
490.786	92.75
491.003	90.75
491.221	90.75
491.439	97.75
491.657	83.75
491.874	101.75
492.092	97.75
492.31	98.75
492.527	69.75
492.745	65.75
492.963	87.75
493.18	75.75
493.398	95.75
493.615	96.75
493.833	102.75
494.05	90.75
494.268	84.75
494.485	98.75
494.703	84.75
494.92	82.75
495.138	99.75
495.355	82.75
495.573	67.75
495.79	85.75
496.008	84.75
496.225	80.75
496.442	90.75
496.66	97.75
496.877	92.75
497.094	95.75
497.312	98.75
497.529	91.75
497.746	94.75
497.963	99.75
498.181	94.75
498.398	100.75
498.615	116.75
498.832	91.75
499.049	88.75
499.267	95.75
499.484	78.75
499.701	88.75
499.918	90.75
500.135	89.75
500.352	91.75
500.569	88.75
500.786	94.75
501.003	97.75
501.22	87.75
501.437	85.75
501.654	107.75
501.871	106.75
502.088	82.75
502.305	91.75
502.522	78.75
502.739	88.75
502.956	88.75
503.172	100.75
503.389	89.75
503.606	103.75
503.823	102.75
504.04	97.75
504.256	77.75
504.473	81.75
504.69	83.75
504.907	84.75
505.123	80.75
505.34	86.75
505.557	94.75
505.773	96.75
505.99	89.75
506.207	91.75
506.423	87.75
506.64	102.75
506.856	95.75
507.073	92.75
507.289	103.75
507.506	82.75
507.722	108.75
507.939	106.75
508.155	92.75
508.372	95.75
508.588	97.75
508.805	96.75
509.021	91.75
509.238	96.75
509.454	110.75
509.67	95.75
509.887	110.75
510.103	128.75
510.319	211.75
510.536	764.75
510.752	2419.75
510.968	666.75
511.184	156.75
511.401	100.75
511.617	98.75
511.833	95.75
512.049	90.75
512.265	103.75
512.481	83.75
512.698	96.75
512.914	80.75
513.13	105.75
513.346	92.75
513.562	105.75
513.778	88.75
513.994	99.75
514.21	99.75
514.426	130.75
514.642	125.75
514.858	131.75
515.074	184.75
515.29	440.75
515.506	1452.75
515.721	511.75
