Data from Circ_1985_H10_HRD10591_00003.txt Node
Date: Wed Jan 03 12:19:23 EST 2024
User: Yrep
Spectrometer: HR+D1059
Trigger mode: 1
Integration Time (sec): 1.000000E-1
Scans to average: 1
Electric dark correction enabled: true
Nonlinearity correction enabled: false
Boxcar width: 0
XAxis mode: Wavelengths
Number of Pixels in Spectrum: 2048
>>>>>Begin Spectral Data<<<<<
223.165	-17.44
223.4	-17.44
223.635	-17.44
223.869	-33.44
224.104	-25.44
224.338	-22.44
224.573	-2.44
224.808	-22.44
225.042	-3.44
225.277	-1.44
225.511	-0.44
225.746	-5.44
225.98	5.56
226.215	26.56
226.449	24.56
226.683	22.56
226.918	16.56
227.152	38.56
227.387	29.56
227.621	29.56
227.856	52.56
228.09	46.56
228.324	61.56
228.559	56.56
228.793	56.56
229.027	53.56
229.262	81.56
229.496	84.56
229.73	73.56
229.964	74.56
230.199	68.56
230.433	65.56
230.667	94.56
230.901	73.56
231.136	74.56
231.37	77.56
231.604	79.56
231.838	81.56
232.072	72.56
232.306	80.56
232.541	92.56
232.775	88.56
233.009	76.56
233.243	71.56
233.477	80.56
233.711	85.56
233.945	89.56
234.179	83.56
234.413	85.56
234.647	89.56
234.881	70.56
235.115	82.56
235.349	83.56
235.583	86.56
235.817	71.56
236.051	82.56
236.285	68.56
236.519	84.56
236.753	68.56
236.987	65.56
237.221	80.56
237.455	77.56
237.689	74.56
237.922	72.56
238.156	62.56
238.39	80.56
238.624	64.56
238.858	81.56
239.091	73.56
239.325	64.56
239.559	81.56
239.793	67.56
240.027	66.56
240.26	90.56
240.494	72.56
240.728	66.56
240.961	64.56
241.195	68.56
241.429	80.56
241.662	79.56
241.896	81.56
242.13	76.56
242.363	72.56
242.597	72.56
242.83	79.56
243.064	68.56
243.298	79.56
243.531	78.56
243.765	75.56
243.998	81.56
244.232	85.56
244.465	63.56
244.699	66.56
244.932	77.56
245.166	74.56
245.399	70.56
245.633	75.56
245.866	67.56
246.099	79.56
246.333	67.56
246.566	65.56
246.8	78.56
247.033	65.56
247.266	82.56
247.5	84.56
247.733	94.56
247.966	81.56
248.2	81.56
248.433	72.56
248.666	62.56
248.899	81.56
249.133	78.56
249.366	81.56
249.599	96.56
249.832	82.56
250.066	76.56
250.299	77.56
250.532	88.56
250.765	89.56
250.998	77.56
251.231	86.56
251.465	74.56
251.698	76.56
251.931	65.56
252.164	77.56
252.397	78.56
252.63	90.56
252.863	81.56
253.096	80.56
253.329	68.56
253.562	78.56
253.795	69.56
254.028	96.56
254.261	80.56
254.494	71.56
254.727	84.56
254.96	65.56
255.193	86.56
255.426	78.56
255.659	73.56
255.892	80.56
256.124	59.56
256.357	76.56
256.59	68.56
256.823	69.56
257.056	77.56
257.289	83.56
257.521	83.56
257.754	82.56
257.987	72.56
258.22	76.56
258.452	88.56
258.685	76.56
258.918	81.56
259.151	87.56
259.383	95.56
259.616	73.56
259.849	76.56
260.081	70.56
260.314	74.56
260.547	81.56
260.779	86.56
261.012	76.56
261.244	78.56
261.477	85.56
261.71	92.56
261.942	109.56
262.175	106.56
262.407	80.56
262.64	91.56
262.872	57.56
263.105	88.56
263.337	65.56
263.57	80.56
263.802	67.56
264.035	84.56
264.267	84.56
264.499	78.56
264.732	88.56
264.964	82.56
265.197	82.56
265.429	76.56
265.661	73.56
265.894	76.56
266.126	81.56
266.358	77.56
266.591	78.56
266.823	80.56
267.055	71.56
267.287	88.56
267.52	84.56
267.752	69.56
267.984	89.56
268.216	69.56
268.448	85.56
268.681	87.56
268.913	79.56
269.145	77.56
269.377	85.56
269.609	87.56
269.841	81.56
270.073	72.56
270.306	83.56
270.538	89.56
270.77	84.56
271.002	92.56
271.234	83.56
271.466	95.56
271.698	71.56
271.93	80.56
272.162	73.56
272.394	85.56
272.626	82.56
272.858	92.56
273.09	90.56
273.322	84.56
273.553	87.56
273.785	76.56
274.017	89.56
274.249	76.56
274.481	67.56
274.713	92.56
274.945	91.56
275.176	81.56
275.408	89.56
275.64	69.56
275.872	84.56
276.104	80.56
276.335	86.56
276.567	98.56
276.799	80.56
277.031	89.56
277.262	90.56
277.494	91.56
277.726	83.56
277.957	86.56
278.189	98.56
278.421	80.56
278.652	85.56
278.884	93.56
279.115	86.56
279.347	88.56
279.579	85.56
279.81	86.56
280.042	84.56
280.273	83.56
280.505	77.56
280.736	77.56
280.968	93.56
281.199	73.56
281.431	92.56
281.662	93.56
281.894	95.56
282.125	81.56
282.356	95.56
282.588	113.56
282.819	99.56
283.051	94.56
283.282	81.56
283.513	89.56
283.745	92.56
283.976	76.56
284.207	86.56
284.439	90.56
284.67	73.56
284.901	92.56
285.132	92.56
285.364	79.56
285.595	79.56
285.826	80.56
286.057	74.56
286.288	83.56
286.52	74.56
286.751	72.56
286.982	90.56
287.213	86.56
287.444	93.56
287.675	82.56
287.906	77.56
288.138	81.56
288.369	101.56
288.6	84.56
288.831	78.56
289.062	80.56
289.293	88.56
289.524	69.56
289.755	64.56
289.986	92.56
290.217	100.56
290.448	77.56
290.679	76.56
290.91	78.56
291.141	93.56
291.371	83.56
291.602	83.56
291.833	81.56
292.064	83.56
292.295	98.56
292.526	80.56
292.757	83.56
292.987	85.56
293.218	69.56
293.449	75.56
293.68	90.56
293.91	84.56
294.141	86.56
294.372	87.56
294.603	82.56
294.833	87.56
295.064	80.56
295.295	88.56
295.525	100.56
295.756	97.56
295.987	93.56
296.217	123.56
296.448	108.56
296.679	88.56
296.909	103.56
297.14	90.56
297.37	85.56
297.601	71.56
297.831	88.56
298.062	91.56
298.292	93.56
298.523	72.56
298.753	80.56
298.984	78.56
299.214	89.56
299.445	96.56
299.675	92.56
299.905	89.56
300.136	86.56
300.366	80.56
300.597	88.56
300.827	85.56
301.057	94.56
301.288	106.56
301.518	93.56
301.748	93.56
301.979	100.56
302.209	70.56
302.439	89.56
302.669	80.56
302.9	86.56
303.13	85.56
303.36	92.56
303.59	87.56
303.82	90.56
304.051	83.56
304.281	80.56
304.511	89.56
304.741	84.56
304.971	75.56
305.201	94.56
305.431	97.56
305.661	87.56
305.891	81.56
306.121	92.56
306.352	104.56
306.582	103.56
306.812	91.56
307.042	79.56
307.272	93.56
307.502	91.56
307.731	89.56
307.961	89.56
308.191	81.56
308.421	69.56
308.651	92.56
308.881	89.56
309.111	84.56
309.341	92.56
309.571	101.56
309.8	87.56
310.03	89.56
310.26	95.56
310.49	104.56
310.72	96.56
310.949	103.56
311.179	85.56
311.409	72.56
311.639	84.56
311.868	80.56
312.098	86.56
312.328	89.56
312.557	96.56
312.787	106.56
313.017	94.56
313.246	95.56
313.476	80.56
313.706	82.56
313.935	101.56
314.165	109.56
314.394	103.56
314.624	81.56
314.853	86.56
315.083	86.56
315.312	98.56
315.542	89.56
315.771	96.56
316.001	91.56
316.23	82.56
316.46	87.56
316.689	87.56
316.919	93.56
317.148	95.56
317.377	91.56
317.607	98.56
317.836	115.56
318.065	92.56
318.295	89.56
318.524	97.56
318.753	96.56
318.983	80.56
319.212	90.56
319.441	100.56
319.67	108.56
319.9	103.56
320.129	86.56
320.358	77.56
320.587	83.56
320.816	83.56
321.046	96.56
321.275	95.56
321.504	99.56
321.733	80.56
321.962	101.56
322.191	79.56
322.42	98.56
322.649	105.56
322.878	111.56
323.108	98.56
323.337	142.56
323.566	132.56
323.795	140.56
324.024	198.56
324.253	341.56
324.482	700.56
324.71	1483.56
324.939	2030.56
325.168	739.56
325.397	224.56
325.626	139.56
325.855	114.56
326.084	123.56
326.313	120.56
326.542	142.56
326.77	213.56
326.999	418.56
327.228	844.56
327.457	1552.56
327.686	1222.56
327.914	349.56
328.143	184.56
328.372	140.56
328.6	111.56
328.829	119.56
329.058	110.56
329.287	114.56
329.515	97.56
329.744	96.56
329.972	99.56
330.201	97.56
330.43	91.56
330.658	116.56
330.887	114.56
331.115	98.56
331.344	92.56
331.572	113.56
331.801	97.56
332.03	89.56
332.258	81.56
332.486	94.56
332.715	93.56
332.943	87.56
333.172	86.56
333.4	89.56
333.629	87.56
333.857	92.56
334.085	86.56
334.314	89.56
334.542	106.56
334.771	95.56
334.999	101.56
335.227	98.56
335.455	98.56
335.684	96.56
335.912	94.56
336.14	115.56
336.369	89.56
336.597	95.56
336.825	93.56
337.053	92.56
337.281	95.56
337.51	94.56
337.738	94.56
337.966	86.56
338.194	84.56
338.422	95.56
338.65	81.56
338.878	88.56
339.106	85.56
339.334	98.56
339.562	68.56
339.79	84.56
340.018	95.56
340.246	97.56
340.474	88.56
340.702	101.56
340.93	95.56
341.158	99.56
341.386	90.56
341.614	93.56
341.842	85.56
342.07	73.56
342.298	79.56
342.526	80.56
342.754	84.56
342.981	73.56
343.209	95.56
343.437	92.56
343.665	88.56
343.893	90.56
344.12	86.56
344.348	88.56
344.576	91.56
344.804	92.56
345.031	96.56
345.259	80.56
345.487	82.56
345.714	85.56
345.942	100.56
346.17	92.56
346.397	79.56
346.625	96.56
346.853	97.56
347.08	91.56
347.308	98.56
347.535	88.56
347.763	105.56
347.99	91.56
348.218	86.56
348.445	108.56
348.673	83.56
348.9	95.56
349.128	94.56
349.355	95.56
349.583	102.56
349.81	110.56
350.037	82.56
350.265	78.56
350.492	83.56
350.72	88.56
350.947	98.56
351.174	95.56
351.402	103.56
351.629	96.56
351.856	104.56
352.083	109.56
352.311	104.56
352.538	112.56
352.765	104.56
352.992	102.56
353.22	90.56
353.447	90.56
353.674	105.56
353.901	96.56
354.128	82.56
354.355	94.56
354.583	90.56
354.81	90.56
355.037	87.56
355.264	90.56
355.491	94.56
355.718	86.56
355.945	90.56
356.172	81.56
356.399	105.56
356.626	96.56
356.853	94.56
357.08	85.56
357.307	86.56
357.534	85.56
357.761	88.56
357.988	85.56
358.215	95.56
358.441	107.56
358.668	102.56
358.895	95.56
359.122	92.56
359.349	87.56
359.576	94.56
359.802	92.56
360.029	107.56
360.256	91.56
360.483	96.56
360.709	84.56
360.936	105.56
361.163	99.56
361.39	112.56
361.616	81.56
361.843	91.56
362.07	87.56
362.296	92.56
362.523	82.56
362.749	99.56
362.976	86.56
363.203	84.56
363.429	92.56
363.656	85.56
363.882	87.56
364.109	72.56
364.335	94.56
364.562	88.56
364.788	88.56
365.015	81.56
365.241	102.56
365.468	99.56
365.694	87.56
365.92	96.56
366.147	93.56
366.373	85.56
366.599	82.56
366.826	86.56
367.052	90.56
367.278	88.56
367.505	88.56
367.731	82.56
367.957	98.56
368.184	85.56
368.41	98.56
368.636	110.56
368.862	109.56
369.089	96.56
369.315	85.56
369.541	93.56
369.767	76.56
369.993	73.56
370.219	87.56
370.445	80.56
370.672	86.56
370.898	81.56
371.124	89.56
371.35	85.56
371.576	81.56
371.802	90.56
372.028	91.56
372.254	101.56
372.48	83.56
372.706	96.56
372.932	81.56
373.158	108.56
373.384	98.56
373.61	90.56
373.835	97.56
374.061	88.56
374.287	88.56
374.513	81.56
374.739	100.56
374.965	88.56
375.191	103.56
375.416	95.56
375.642	85.56
375.868	85.56
376.094	102.56
376.319	109.56
376.545	103.56
376.771	83.56
376.997	94.56
377.222	84.56
377.448	88.56
377.674	87.56
377.899	95.56
378.125	85.56
378.35	96.56
378.576	87.56
378.802	90.56
379.027	101.56
379.253	87.56
379.478	105.56
379.704	92.56
379.929	102.56
380.155	114.56
380.38	102.56
380.606	107.56
380.831	94.56
381.057	105.56
381.282	112.56
381.507	103.56
381.733	105.56
381.958	108.56
382.184	111.56
382.409	114.56
382.634	125.56
382.86	115.56
383.085	120.56
383.31	114.56
383.535	125.56
383.761	126.56
383.986	115.56
384.211	122.56
384.436	117.56
384.662	113.56
384.887	127.56
385.112	145.56
385.337	167.56
385.562	143.56
385.787	127.56
386.013	156.56
386.238	148.56
386.463	142.56
386.688	136.56
386.913	145.56
387.138	154.56
387.363	104.56
387.588	117.56
387.813	103.56
388.038	137.56
388.263	148.56
388.488	152.56
388.713	90.56
388.938	103.56
389.163	101.56
389.387	102.56
389.612	95.56
389.837	83.56
390.062	73.56
390.287	97.56
390.512	87.56
390.736	107.56
390.961	99.56
391.186	91.56
391.411	86.56
391.636	81.56
391.86	76.56
392.085	84.56
392.31	73.56
392.534	86.56
392.759	103.56
392.984	92.56
393.208	93.56
393.433	122.56
393.658	94.56
393.882	95.56
394.107	82.56
394.331	84.56
394.556	88.56
394.78	94.56
395.005	73.56
395.229	96.56
395.454	86.56
395.678	87.56
395.903	64.56
396.127	81.56
396.352	77.56
396.576	81.56
396.801	85.56
397.025	99.56
397.249	92.56
397.474	90.56
397.698	96.56
397.922	73.56
398.147	89.56
398.371	79.56
398.595	72.56
398.82	72.56
399.044	81.56
399.268	86.56
399.492	101.56
399.717	96.56
399.941	86.56
400.165	94.56
400.389	82.56
400.613	92.56
400.837	83.56
401.062	91.56
401.286	82.56
401.51	82.56
401.734	96.56
401.958	102.56
402.182	107.56
402.406	125.56
402.63	108.56
402.854	94.56
403.078	86.56
403.302	86.56
403.526	87.56
403.75	89.56
403.974	90.56
404.198	81.56
404.422	93.56
404.645	77.56
404.869	79.56
405.093	101.56
405.317	97.56
405.541	84.56
405.765	93.56
405.988	111.56
406.212	129.56
406.436	181.56
406.66	122.56
406.883	94.56
407.107	84.56
407.331	82.56
407.555	85.56
407.778	82.56
408.002	94.56
408.226	92.56
408.449	95.56
408.673	85.56
408.896	82.56
409.12	85.56
409.344	73.56
409.567	88.56
409.791	74.56
410.014	84.56
410.238	80.56
410.461	92.56
410.685	106.56
410.908	98.56
411.132	103.56
411.355	92.56
411.578	85.56
411.802	88.56
412.025	87.56
412.249	72.56
412.472	106.56
412.695	102.56
412.919	82.56
413.142	74.56
413.365	92.56
413.589	91.56
413.812	91.56
414.035	98.56
414.258	88.56
414.482	91.56
414.705	85.56
414.928	93.56
415.151	88.56
415.374	94.56
415.597	82.56
415.821	88.56
416.044	94.56
416.267	97.56
416.49	85.56
416.713	92.56
416.936	106.56
417.159	91.56
417.382	87.56
417.605	79.56
417.828	92.56
418.051	92.56
418.274	114.56
418.497	74.56
418.72	79.56
418.943	80.56
419.166	75.56
419.389	88.56
419.611	99.56
419.834	91.56
420.057	84.56
420.28	97.56
420.503	80.56
420.726	90.56
420.948	74.56
421.171	83.56
421.394	94.56
421.617	86.56
421.839	92.56
422.062	87.56
422.285	84.56
422.507	88.56
422.73	107.56
422.953	104.56
423.175	88.56
423.398	96.56
423.621	82.56
423.843	89.56
424.066	74.56
424.288	99.56
424.511	111.56
424.733	86.56
424.956	93.56
425.178	86.56
425.401	94.56
425.623	92.56
425.846	81.56
426.068	98.56
426.291	76.56
426.513	84.56
426.735	90.56
426.958	89.56
427.18	93.56
427.402	107.56
427.625	135.56
427.847	115.56
428.069	99.56
428.292	92.56
428.514	83.56
428.736	89.56
428.958	73.56
429.181	91.56
429.403	64.56
429.625	87.56
429.847	92.56
430.069	82.56
430.292	83.56
430.514	89.56
430.736	80.56
430.958	80.56
431.18	76.56
431.402	69.56
431.624	91.56
431.846	90.56
432.068	95.56
432.29	92.56
432.512	88.56
432.734	79.56
432.956	96.56
433.178	101.56
433.4	104.56
433.622	67.56
433.844	97.56
434.066	83.56
434.287	89.56
434.509	93.56
434.731	92.56
434.953	81.56
435.175	91.56
435.397	101.56
435.618	96.56
435.84	94.56
436.062	115.56
436.284	97.56
436.505	93.56
436.727	98.56
436.949	74.56
437.17	100.56
437.392	81.56
437.614	85.56
437.835	90.56
438.057	105.56
438.278	89.56
438.5	98.56
438.721	109.56
438.943	95.56
439.165	73.56
439.386	86.56
439.608	69.56
439.829	86.56
440.05	121.56
440.272	127.56
440.493	82.56
440.715	80.56
440.936	90.56
441.158	91.56
441.379	92.56
441.6	86.56
441.822	86.56
442.043	96.56
442.264	88.56
442.486	87.56
442.707	80.56
442.928	86.56
443.149	104.56
443.371	124.56
443.592	98.56
443.813	105.56
444.034	95.56
444.255	100.56
444.476	83.56
444.698	84.56
444.919	78.56
445.14	118.56
445.361	107.56
445.582	104.56
445.803	115.56
446.024	116.56
446.245	125.56
446.466	108.56
446.687	110.56
446.908	90.56
447.129	82.56
447.35	83.56
447.571	92.56
447.792	91.56
448.013	89.56
448.234	98.56
448.455	92.56
448.675	102.56
448.896	103.56
449.117	86.56
449.338	89.56
449.559	120.56
449.779	130.56
450	82.56
450.221	98.56
450.442	80.56
450.662	84.56
450.883	84.56
451.104	102.56
451.324	81.56
451.545	86.56
451.766	76.56
451.986	79.56
452.207	73.56
452.428	86.56
452.648	88.56
452.869	99.56
453.089	106.56
453.31	109.56
453.53	87.56
453.751	69.56
453.971	86.56
454.192	99.56
454.412	91.56
454.633	70.56
454.853	81.56
455.073	78.56
455.294	83.56
455.514	107.56
455.734	92.56
455.955	84.56
456.175	96.56
456.395	69.56
456.616	79.56
456.836	92.56
457.056	70.56
457.276	68.56
457.497	79.56
457.717	87.56
457.937	79.56
458.157	87.56
458.377	77.56
458.598	86.56
458.818	113.56
459.038	113.56
459.258	91.56
459.478	86.56
459.698	90.56
459.918	82.56
460.138	92.56
460.358	100.56
460.578	72.56
460.798	87.56
461.018	98.56
461.238	80.56
461.458	93.56
461.678	90.56
461.898	80.56
462.118	83.56
462.338	87.56
462.558	65.56
462.777	84.56
462.997	92.56
463.217	78.56
463.437	92.56
463.657	85.56
463.876	88.56
464.096	90.56
464.316	95.56
464.536	73.56
464.755	94.56
464.975	105.56
465.195	120.56
465.414	112.56
465.634	96.56
465.854	83.56
466.073	84.56
466.293	90.56
466.512	83.56
466.732	84.56
466.951	73.56
467.171	100.56
467.391	96.56
467.61	83.56
467.829	97.56
468.049	102.56
468.268	98.56
468.488	92.56
468.707	86.56
468.927	82.56
469.146	75.56
469.365	85.56
469.585	80.56
469.804	88.56
470.023	90.56
470.243	85.56
470.462	78.56
470.681	96.56
470.901	80.56
471.12	85.56
471.339	84.56
471.558	94.56
471.777	94.56
471.997	88.56
472.216	93.56
472.435	87.56
472.654	78.56
472.873	96.56
473.092	84.56
473.311	88.56
473.53	83.56
473.749	85.56
473.968	94.56
474.187	82.56
474.406	74.56
474.625	89.56
474.844	88.56
475.063	86.56
475.282	81.56
475.501	81.56
475.72	77.56
475.939	90.56
476.158	85.56
476.377	76.56
476.596	85.56
476.814	100.56
477.033	84.56
477.252	84.56
477.471	84.56
477.69	103.56
477.908	80.56
478.127	93.56
478.346	93.56
478.564	83.56
478.783	90.56
479.002	90.56
479.22	88.56
479.439	90.56
479.658	91.56
479.876	87.56
480.095	101.56
480.313	90.56
480.532	91.56
480.751	84.56
480.969	82.56
481.188	116.56
481.406	103.56
481.624	89.56
481.843	73.56
482.061	80.56
482.28	88.56
482.498	94.56
482.717	84.56
482.935	83.56
483.153	88.56
483.372	89.56
483.59	85.56
483.808	105.56
484.027	90.56
484.245	95.56
484.463	83.56
484.681	105.56
484.9	94.56
485.118	109.56
485.336	100.56
485.554	104.56
485.772	87.56
485.99	104.56
486.209	97.56
486.427	101.56
486.645	111.56
486.863	112.56
487.081	99.56
487.299	95.56
487.517	90.56
487.735	101.56
487.953	93.56
488.171	110.56
488.389	81.56
488.607	100.56
488.825	82.56
489.043	98.56
489.261	82.56
489.479	70.56
489.696	104.56
489.914	84.56
490.132	82.56
490.35	88.56
490.568	100.56
490.786	112.56
491.003	83.56
491.221	71.56
491.439	80.56
491.657	84.56
491.874	96.56
492.092	73.56
492.31	80.56
492.527	78.56
492.745	92.56
492.963	92.56
493.18	96.56
493.398	106.56
493.615	101.56
493.833	78.56
494.05	84.56
494.268	87.56
494.485	96.56
494.703	100.56
494.92	89.56
495.138	81.56
495.355	103.56
495.573	105.56
495.79	93.56
496.008	96.56
496.225	84.56
496.442	82.56
496.66	81.56
496.877	82.56
497.094	83.56
497.312	89.56
497.529	90.56
497.746	88.56
497.963	74.56
498.181	96.56
498.398	84.56
498.615	98.56
498.832	100.56
499.049	84.56
499.267	95.56
499.484	86.56
499.701	100.56
499.918	80.56
500.135	85.56
500.352	76.56
500.569	85.56
500.786	93.56
501.003	97.56
501.22	95.56
501.437	91.56
501.654	88.56
501.871	94.56
502.088	75.56
502.305	82.56
502.522	89.56
502.739	78.56
502.956	73.56
503.172	73.56
503.389	96.56
503.606	85.56
503.823	105.56
504.04	91.56
504.256	88.56
504.473	82.56
504.69	94.56
504.907	81.56
505.123	90.56
505.34	108.56
505.557	98.56
505.773	85.56
505.99	89.56
506.207	85.56
506.423	78.56
506.64	101.56
506.856	83.56
507.073	84.56
507.289	92.56
507.506	97.56
507.722	102.56
507.939	102.56
508.155	94.56
508.372	100.56
508.588	101.56
508.805	97.56
509.021	82.56
509.238	89.56
509.454	73.56
509.67	90.56
509.887	108.56
510.103	119.56
510.319	188.56
510.536	558.56
510.752	1731.56
510.968	491.56
511.184	125.56
511.401	101.56
511.617	98.56
511.833	86.56
512.049	108.56
512.265	94.56
512.481	78.56
512.698	92.56
512.914	99.56
513.13	92.56
513.346	83.56
513.562	98.56
513.778	102.56
513.994	89.56
514.21	101.56
514.426	103.56
514.642	112.56
514.858	106.56
515.074	120.56
515.29	336.56
515.506	1037.56
515.721	373.56
515.937	130.56
516.153	86.56
516.369	92.56
516.585	92.56
