Data from Circ_1985_H10_HRD10591_00039.txt Node
Date: Wed Jan 03 12:19:30 EST 2024
User: Yrep
Spectrometer: HR+D1059
Trigger mode: 1
Integration Time (sec): 1.000000E-1
Scans to average: 1
Electric dark correction enabled: true
Nonlinearity correction enabled: false
Boxcar width: 0
XAxis mode: Wavelengths
Number of Pixels in Spectrum: 2048
>>>>>Begin Spectral Data<<<<<
223.165	-26.5
223.4	-26.5
223.635	-26.5
223.869	-26.5
224.104	-12.5
224.338	-18.5
224.573	-11.5
224.808	-28.5
225.042	-10.5
225.277	3.5
225.511	-4.5
225.746	-0.5
225.98	9.5
226.215	8.5
226.449	26.5
226.683	22.5
226.918	42.5
227.152	26.5
227.387	34.5
227.621	42.5
227.856	51.5
228.09	47.5
228.324	63.5
228.559	62.5
228.793	59.5
229.027	67.5
229.262	63.5
229.496	83.5
229.73	78.5
229.964	77.5
230.199	93.5
230.433	69.5
230.667	67.5
230.901	82.5
231.136	81.5
231.37	68.5
231.604	83.5
231.838	81.5
232.072	74.5
232.306	92.5
232.541	79.5
232.775	71.5
233.009	91.5
233.243	89.5
233.477	92.5
233.711	83.5
233.945	73.5
234.179	78.5
234.413	93.5
234.647	88.5
234.881	85.5
235.115	90.5
235.349	78.5
235.583	71.5
235.817	88.5
236.051	87.5
236.285	87.5
236.519	69.5
236.753	76.5
236.987	78.5
237.221	74.5
237.455	68.5
237.689	83.5
237.922	81.5
238.156	78.5
238.39	65.5
238.624	73.5
238.858	66.5
239.091	80.5
239.325	68.5
239.559	75.5
239.793	86.5
240.027	96.5
240.26	76.5
240.494	79.5
240.728	79.5
240.961	90.5
241.195	65.5
241.429	87.5
241.662	92.5
241.896	84.5
242.13	99.5
242.363	77.5
242.597	66.5
242.83	85.5
243.064	76.5
243.298	83.5
243.531	76.5
243.765	75.5
243.998	84.5
244.232	95.5
244.465	94.5
244.699	69.5
244.932	84.5
245.166	76.5
245.399	91.5
245.633	75.5
245.866	73.5
246.099	83.5
246.333	77.5
246.566	82.5
246.8	73.5
247.033	85.5
247.266	83.5
247.5	72.5
247.733	89.5
247.966	85.5
248.2	74.5
248.433	83.5
248.666	85.5
248.899	86.5
249.133	70.5
249.366	94.5
249.599	92.5
249.832	75.5
250.066	71.5
250.299	78.5
250.532	87.5
250.765	86.5
250.998	86.5
251.231	87.5
251.465	77.5
251.698	74.5
251.931	77.5
252.164	75.5
252.397	92.5
252.63	69.5
252.863	94.5
253.096	73.5
253.329	84.5
253.562	69.5
253.795	92.5
254.028	75.5
254.261	81.5
254.494	83.5
254.727	75.5
254.96	87.5
255.193	88.5
255.426	68.5
255.659	81.5
255.892	87.5
256.124	82.5
256.357	84.5
256.59	85.5
256.823	82.5
257.056	83.5
257.289	99.5
257.521	89.5
257.754	82.5
257.987	90.5
258.22	88.5
258.452	84.5
258.685	90.5
258.918	91.5
259.151	89.5
259.383	87.5
259.616	94.5
259.849	80.5
260.081	80.5
260.314	87.5
260.547	84.5
260.779	79.5
261.012	95.5
261.244	82.5
261.477	97.5
261.71	93.5
261.942	97.5
262.175	105.5
262.407	91.5
262.64	81.5
262.872	79.5
263.105	88.5
263.337	86.5
263.57	93.5
263.802	61.5
264.035	65.5
264.267	81.5
264.499	75.5
264.732	78.5
264.964	89.5
265.197	84.5
265.429	73.5
265.661	85.5
265.894	76.5
266.126	103.5
266.358	93.5
266.591	94.5
266.823	101.5
267.055	89.5
267.287	77.5
267.52	94.5
267.752	69.5
267.984	97.5
268.216	84.5
268.448	88.5
268.681	92.5
268.913	86.5
269.145	89.5
269.377	90.5
269.609	78.5
269.841	89.5
270.073	81.5
270.306	102.5
270.538	84.5
270.77	98.5
271.002	91.5
271.234	92.5
271.466	81.5
271.698	91.5
271.93	86.5
272.162	85.5
272.394	81.5
272.626	87.5
272.858	84.5
273.09	83.5
273.322	91.5
273.553	86.5
273.785	68.5
274.017	78.5
274.249	89.5
274.481	85.5
274.713	93.5
274.945	83.5
275.176	85.5
275.408	88.5
275.64	83.5
275.872	94.5
276.104	100.5
276.335	89.5
276.567	83.5
276.799	93.5
277.031	95.5
277.262	76.5
277.494	89.5
277.726	80.5
277.957	89.5
278.189	90.5
278.421	81.5
278.652	77.5
278.884	73.5
279.115	94.5
279.347	96.5
279.579	98.5
279.81	94.5
280.042	74.5
280.273	81.5
280.505	99.5
280.736	102.5
280.968	100.5
281.199	97.5
281.431	93.5
281.662	93.5
281.894	106.5
282.125	90.5
282.356	107.5
282.588	121.5
282.819	114.5
283.051	93.5
283.282	93.5
283.513	91.5
283.745	87.5
283.976	84.5
284.207	99.5
284.439	95.5
284.67	93.5
284.901	86.5
285.132	95.5
285.364	77.5
285.595	91.5
285.826	89.5
286.057	96.5
286.288	65.5
286.52	97.5
286.751	81.5
286.982	76.5
287.213	92.5
287.444	102.5
287.675	69.5
287.906	79.5
288.138	95.5
288.369	83.5
288.6	89.5
288.831	88.5
289.062	87.5
289.293	91.5
289.524	83.5
289.755	97.5
289.986	99.5
290.217	96.5
290.448	76.5
290.679	82.5
290.91	106.5
291.141	78.5
291.371	85.5
291.602	90.5
291.833	79.5
292.064	85.5
292.295	94.5
292.526	85.5
292.757	95.5
292.987	87.5
293.218	95.5
293.449	100.5
293.68	78.5
293.91	92.5
294.141	87.5
294.372	100.5
294.603	87.5
294.833	96.5
295.064	91.5
295.295	89.5
295.525	84.5
295.756	101.5
295.987	105.5
296.217	111.5
296.448	119.5
296.679	97.5
296.909	98.5
297.14	103.5
297.37	97.5
297.601	97.5
297.831	83.5
298.062	87.5
298.292	93.5
298.523	87.5
298.753	91.5
298.984	106.5
299.214	95.5
299.445	95.5
299.675	100.5
299.905	97.5
300.136	88.5
300.366	87.5
300.597	109.5
300.827	89.5
301.057	86.5
301.288	110.5
301.518	85.5
301.748	97.5
301.979	118.5
302.209	86.5
302.439	91.5
302.669	92.5
302.9	97.5
303.13	88.5
303.36	102.5
303.59	88.5
303.82	104.5
304.051	111.5
304.281	96.5
304.511	93.5
304.741	85.5
304.971	83.5
305.201	103.5
305.431	93.5
305.661	93.5
305.891	86.5
306.121	83.5
306.352	92.5
306.582	95.5
306.812	87.5
307.042	100.5
307.272	87.5
307.502	99.5
307.731	97.5
307.961	100.5
308.191	91.5
308.421	90.5
308.651	89.5
308.881	88.5
309.111	91.5
309.341	109.5
309.571	107.5
309.8	125.5
310.03	95.5
310.26	96.5
310.49	83.5
310.72	101.5
310.949	108.5
311.179	103.5
311.409	104.5
311.639	101.5
311.868	107.5
312.098	110.5
312.328	98.5
312.557	117.5
312.787	86.5
313.017	97.5
313.246	84.5
313.476	89.5
313.706	103.5
313.935	95.5
314.165	93.5
314.394	99.5
314.624	101.5
314.853	93.5
315.083	92.5
315.312	82.5
315.542	81.5
315.771	100.5
316.001	105.5
316.23	94.5
316.46	83.5
316.689	99.5
316.919	87.5
317.148	101.5
317.377	92.5
317.607	109.5
317.836	100.5
318.065	92.5
318.295	87.5
318.524	86.5
318.753	92.5
318.983	77.5
319.212	96.5
319.441	104.5
319.67	106.5
319.9	92.5
320.129	83.5
320.358	95.5
320.587	96.5
320.816	93.5
321.046	101.5
321.275	111.5
321.504	99.5
321.733	95.5
321.962	98.5
322.191	116.5
322.42	118.5
322.649	115.5
322.878	118.5
323.108	113.5
323.337	113.5
323.566	127.5
323.795	137.5
324.024	185.5
324.253	353.5
324.482	705.5
324.71	1506.5
324.939	2000.5
325.168	724.5
325.397	225.5
325.626	152.5
325.855	132.5
326.084	123.5
326.313	124.5
326.542	143.5
326.77	207.5
326.999	404.5
327.228	834.5
327.457	1550.5
327.686	1208.5
327.914	352.5
328.143	183.5
328.372	124.5
328.6	112.5
328.829	99.5
329.058	109.5
329.287	130.5
329.515	108.5
329.744	110.5
329.972	101.5
330.201	123.5
330.43	133.5
330.658	135.5
330.887	113.5
331.115	111.5
331.344	99.5
331.572	105.5
331.801	91.5
332.03	110.5
332.258	97.5
332.486	107.5
332.715	101.5
332.943	87.5
333.172	107.5
333.4	115.5
333.629	97.5
333.857	106.5
334.085	108.5
334.314	94.5
334.542	133.5
334.771	113.5
334.999	92.5
335.227	101.5
335.455	102.5
335.684	105.5
335.912	106.5
336.14	104.5
336.369	99.5
336.597	98.5
336.825	113.5
337.053	105.5
337.281	99.5
337.51	98.5
337.738	98.5
337.966	95.5
338.194	108.5
338.422	103.5
338.65	78.5
338.878	91.5
339.106	97.5
339.334	92.5
339.562	88.5
339.79	91.5
340.018	96.5
340.246	98.5
340.474	90.5
340.702	92.5
340.93	95.5
341.158	90.5
341.386	102.5
341.614	92.5
341.842	90.5
342.07	100.5
342.298	104.5
342.526	95.5
342.754	103.5
342.981	97.5
343.209	97.5
343.437	94.5
343.665	75.5
343.893	94.5
344.12	97.5
344.348	85.5
344.576	97.5
344.804	96.5
345.031	101.5
345.259	100.5
345.487	88.5
345.714	93.5
345.942	97.5
346.17	87.5
346.397	95.5
346.625	102.5
346.853	98.5
347.08	97.5
347.308	102.5
347.535	84.5
347.763	110.5
347.99	98.5
348.218	91.5
348.445	89.5
348.673	97.5
348.9	89.5
349.128	106.5
349.355	93.5
349.583	101.5
349.81	106.5
350.037	98.5
350.265	101.5
350.492	102.5
350.72	101.5
350.947	106.5
351.174	122.5
351.402	108.5
351.629	114.5
351.856	114.5
352.083	98.5
352.311	99.5
352.538	106.5
352.765	97.5
352.992	97.5
353.22	114.5
353.447	98.5
353.674	105.5
353.901	92.5
354.128	90.5
354.355	90.5
354.583	108.5
354.81	110.5
355.037	87.5
355.264	98.5
355.491	88.5
355.718	96.5
355.945	93.5
356.172	99.5
356.399	113.5
356.626	105.5
356.853	98.5
357.08	76.5
357.307	99.5
357.534	110.5
357.761	91.5
357.988	102.5
358.215	114.5
358.441	103.5
358.668	112.5
358.895	99.5
359.122	96.5
359.349	91.5
359.576	93.5
359.802	104.5
360.029	105.5
360.256	94.5
360.483	81.5
360.709	93.5
360.936	92.5
361.163	98.5
361.39	87.5
361.616	85.5
361.843	93.5
362.07	98.5
362.296	107.5
362.523	91.5
362.749	93.5
362.976	93.5
363.203	99.5
363.429	97.5
363.656	88.5
363.882	107.5
364.109	87.5
364.335	105.5
364.562	107.5
364.788	90.5
365.015	99.5
365.241	93.5
365.468	101.5
365.694	95.5
365.92	90.5
366.147	72.5
366.373	100.5
366.599	95.5
366.826	97.5
367.052	89.5
367.278	90.5
367.505	86.5
367.731	87.5
367.957	91.5
368.184	86.5
368.41	98.5
368.636	118.5
368.862	112.5
369.089	100.5
369.315	89.5
369.541	82.5
369.767	84.5
369.993	81.5
370.219	102.5
370.445	93.5
370.672	93.5
370.898	90.5
371.124	74.5
371.35	89.5
371.576	91.5
371.802	94.5
372.028	92.5
372.254	91.5
372.48	95.5
372.706	100.5
372.932	93.5
373.158	90.5
373.384	89.5
373.61	91.5
373.835	105.5
374.061	92.5
374.287	99.5
374.513	101.5
374.739	95.5
374.965	83.5
375.191	92.5
375.416	97.5
375.642	90.5
375.868	103.5
376.094	88.5
376.319	93.5
376.545	101.5
376.771	99.5
376.997	83.5
377.222	78.5
377.448	92.5
377.674	78.5
377.899	93.5
378.125	102.5
378.35	100.5
378.576	89.5
378.802	83.5
379.027	89.5
379.253	82.5
379.478	91.5
379.704	93.5
379.929	77.5
380.155	95.5
380.38	87.5
380.606	89.5
380.831	86.5
381.057	103.5
381.282	100.5
381.507	95.5
381.733	91.5
381.958	93.5
382.184	104.5
382.409	110.5
382.634	109.5
382.86	116.5
383.085	110.5
383.31	90.5
383.535	102.5
383.761	115.5
383.986	121.5
384.211	103.5
384.436	92.5
384.662	103.5
384.887	109.5
385.112	124.5
385.337	110.5
385.562	104.5
385.787	110.5
386.013	112.5
386.238	104.5
386.463	101.5
386.688	102.5
386.913	112.5
387.138	109.5
387.363	119.5
387.588	102.5
387.813	97.5
388.038	105.5
388.263	114.5
388.488	115.5
388.713	110.5
388.938	102.5
389.163	89.5
389.387	88.5
389.612	94.5
389.837	107.5
390.062	108.5
390.287	103.5
390.512	93.5
390.736	98.5
390.961	85.5
391.186	88.5
391.411	86.5
391.636	109.5
391.86	87.5
392.085	82.5
392.31	93.5
392.534	84.5
392.759	84.5
392.984	89.5
393.208	101.5
393.433	98.5
393.658	91.5
393.882	81.5
394.107	99.5
394.331	92.5
394.556	97.5
394.78	100.5
395.005	102.5
395.229	86.5
395.454	84.5
395.678	95.5
395.903	87.5
396.127	97.5
396.352	101.5
396.576	98.5
396.801	76.5
397.025	95.5
397.249	87.5
397.474	84.5
397.698	95.5
397.922	101.5
398.147	100.5
398.371	89.5
398.595	85.5
398.82	89.5
399.044	90.5
399.268	96.5
399.492	93.5
399.717	88.5
399.941	94.5
400.165	89.5
400.389	99.5
400.613	101.5
400.837	102.5
401.062	104.5
401.286	105.5
401.51	109.5
401.734	94.5
401.958	101.5
402.182	116.5
402.406	138.5
402.63	119.5
402.854	99.5
403.078	96.5
403.302	94.5
403.526	81.5
403.75	100.5
403.974	97.5
404.198	93.5
404.422	102.5
404.645	98.5
404.869	90.5
405.093	83.5
405.317	105.5
405.541	110.5
405.765	97.5
405.988	114.5
406.212	145.5
406.436	187.5
406.66	117.5
406.883	100.5
407.107	95.5
407.331	98.5
407.555	103.5
407.778	106.5
408.002	106.5
408.226	96.5
408.449	95.5
408.673	96.5
408.896	93.5
409.12	85.5
409.344	86.5
409.567	97.5
409.791	88.5
410.014	89.5
410.238	93.5
410.461	89.5
410.685	98.5
410.908	87.5
411.132	119.5
411.355	96.5
411.578	85.5
411.802	85.5
412.025	97.5
412.249	92.5
412.472	97.5
412.695	101.5
412.919	102.5
413.142	102.5
413.365	106.5
413.589	85.5
413.812	95.5
414.035	96.5
414.258	94.5
414.482	83.5
414.705	92.5
414.928	108.5
415.151	99.5
415.374	91.5
415.597	89.5
415.821	94.5
416.044	85.5
416.267	91.5
416.49	93.5
416.713	105.5
416.936	71.5
417.159	95.5
417.382	95.5
417.605	91.5
417.828	95.5
418.051	98.5
418.274	104.5
418.497	87.5
418.72	92.5
418.943	78.5
419.166	96.5
419.389	98.5
419.611	88.5
419.834	82.5
420.057	88.5
420.28	98.5
420.503	90.5
420.726	92.5
420.948	97.5
421.171	99.5
421.394	87.5
421.617	89.5
421.839	99.5
422.062	101.5
422.285	97.5
422.507	104.5
422.73	91.5
422.953	90.5
423.175	106.5
423.398	103.5
423.621	93.5
423.843	73.5
424.066	90.5
424.288	86.5
424.511	91.5
424.733	104.5
424.956	109.5
425.178	88.5
425.401	100.5
425.623	96.5
425.846	84.5
426.068	87.5
426.291	87.5
426.513	95.5
426.735	90.5
426.958	104.5
427.18	103.5
427.402	107.5
427.625	143.5
427.847	118.5
428.069	109.5
428.292	92.5
428.514	96.5
428.736	91.5
428.958	88.5
429.181	81.5
429.403	97.5
429.625	111.5
429.847	87.5
430.069	93.5
430.292	94.5
430.514	82.5
430.736	90.5
430.958	87.5
431.18	80.5
431.402	86.5
431.624	94.5
431.846	86.5
432.068	75.5
432.29	74.5
432.512	87.5
432.734	95.5
432.956	85.5
433.178	109.5
433.4	93.5
433.622	88.5
433.844	98.5
434.066	100.5
434.287	91.5
434.509	93.5
434.731	92.5
434.953	86.5
435.175	87.5
435.397	93.5
435.618	92.5
435.84	85.5
436.062	106.5
436.284	104.5
436.505	96.5
436.727	105.5
436.949	95.5
437.17	94.5
437.392	95.5
437.614	92.5
437.835	103.5
438.057	112.5
438.278	101.5
438.5	97.5
438.721	106.5
438.943	97.5
439.165	89.5
439.386	95.5
439.608	83.5
439.829	95.5
440.05	93.5
440.272	107.5
440.493	83.5
440.715	87.5
440.936	81.5
441.158	86.5
441.379	85.5
441.6	109.5
441.822	97.5
442.043	94.5
442.264	110.5
442.486	92.5
442.707	87.5
442.928	99.5
443.149	107.5
443.371	114.5
443.592	101.5
443.813	121.5
444.034	104.5
444.255	75.5
444.476	78.5
444.698	94.5
444.919	90.5
445.14	139.5
445.361	117.5
445.582	108.5
445.803	126.5
446.024	127.5
446.245	128.5
446.466	102.5
446.687	94.5
446.908	81.5
447.129	95.5
447.35	88.5
447.571	84.5
447.792	83.5
448.013	101.5
448.234	101.5
448.455	106.5
448.675	108.5
448.896	113.5
449.117	96.5
449.338	105.5
449.559	108.5
449.779	108.5
450	89.5
450.221	102.5
450.442	101.5
450.662	95.5
450.883	97.5
451.104	101.5
451.324	87.5
451.545	101.5
451.766	95.5
451.986	83.5
452.207	79.5
452.428	84.5
452.648	90.5
452.869	109.5
453.089	109.5
453.31	107.5
453.53	72.5
453.751	75.5
453.971	97.5
454.192	108.5
454.412	100.5
454.633	83.5
454.853	77.5
455.073	95.5
455.294	83.5
455.514	97.5
455.734	93.5
455.955	97.5
456.175	95.5
456.395	97.5
456.616	81.5
456.836	89.5
457.056	85.5
457.276	78.5
457.497	78.5
457.717	92.5
457.937	97.5
458.157	89.5
458.377	100.5
458.598	101.5
458.818	130.5
459.038	120.5
459.258	95.5
459.478	80.5
459.698	82.5
459.918	97.5
460.138	76.5
460.358	85.5
460.578	82.5
460.798	97.5
461.018	89.5
461.238	96.5
461.458	68.5
461.678	89.5
461.898	89.5
462.118	92.5
462.338	85.5
462.558	85.5
462.777	94.5
462.997	98.5
463.217	91.5
463.437	91.5
463.657	85.5
463.876	91.5
464.096	101.5
464.316	100.5
464.536	76.5
464.755	103.5
464.975	85.5
465.195	127.5
465.414	133.5
465.634	90.5
465.854	95.5
466.073	85.5
466.293	82.5
466.512	86.5
466.732	87.5
466.951	88.5
467.171	97.5
467.391	75.5
467.61	99.5
467.829	108.5
468.049	93.5
468.268	99.5
468.488	99.5
468.707	83.5
468.927	94.5
469.146	102.5
469.365	86.5
469.585	83.5
469.804	97.5
470.023	94.5
470.243	81.5
470.462	108.5
470.681	104.5
470.901	89.5
471.12	78.5
471.339	86.5
471.558	90.5
471.777	87.5
471.997	91.5
472.216	117.5
472.435	119.5
472.654	101.5
472.873	89.5
473.092	98.5
473.311	90.5
473.53	88.5
473.749	81.5
473.968	83.5
474.187	98.5
474.406	93.5
474.625	90.5
474.844	88.5
475.063	84.5
475.282	89.5
475.501	93.5
475.72	76.5
475.939	85.5
476.158	85.5
476.377	96.5
476.596	77.5
476.814	84.5
477.033	91.5
477.252	91.5
477.471	83.5
477.69	86.5
477.908	83.5
478.127	85.5
478.346	94.5
478.564	79.5
478.783	89.5
479.002	84.5
479.22	80.5
479.439	89.5
479.658	102.5
479.876	91.5
480.095	83.5
480.313	86.5
480.532	101.5
480.751	97.5
480.969	106.5
481.188	171.5
481.406	132.5
481.624	95.5
481.843	91.5
482.061	96.5
482.28	113.5
482.498	96.5
482.717	89.5
482.935	88.5
483.153	103.5
483.372	89.5
483.59	94.5
483.808	107.5
484.027	87.5
484.245	88.5
484.463	99.5
484.681	101.5
484.9	93.5
485.118	106.5
485.336	88.5
485.554	98.5
485.772	96.5
485.99	97.5
486.209	89.5
486.427	97.5
486.645	101.5
486.863	117.5
487.081	101.5
487.299	98.5
487.517	96.5
487.735	102.5
487.953	81.5
488.171	98.5
488.389	92.5
488.607	103.5
488.825	100.5
489.043	92.5
489.261	93.5
489.479	88.5
489.696	91.5
489.914	83.5
490.132	83.5
490.35	89.5
490.568	76.5
490.786	93.5
491.003	100.5
491.221	99.5
491.439	105.5
491.657	93.5
491.874	86.5
492.092	93.5
492.31	94.5
492.527	90.5
492.745	91.5
492.963	93.5
493.18	99.5
493.398	87.5
493.615	103.5
493.833	103.5
494.05	97.5
494.268	92.5
494.485	77.5
494.703	86.5
494.92	91.5
495.138	98.5
495.355	110.5
495.573	102.5
495.79	82.5
496.008	92.5
496.225	87.5
496.442	106.5
496.66	89.5
496.877	87.5
497.094	90.5
497.312	101.5
497.529	100.5
497.746	86.5
497.963	92.5
498.181	99.5
498.398	97.5
498.615	99.5
498.832	102.5
499.049	79.5
499.267	94.5
499.484	103.5
499.701	94.5
499.918	101.5
500.135	91.5
500.352	103.5
500.569	91.5
500.786	91.5
501.003	104.5
501.22	81.5
501.437	92.5
501.654	92.5
501.871	116.5
502.088	100.5
502.305	98.5
502.522	76.5
502.739	102.5
502.956	93.5
503.172	85.5
503.389	90.5
503.606	100.5
503.823	88.5
504.04	98.5
504.256	101.5
504.473	92.5
504.69	78.5
504.907	100.5
505.123	83.5
505.34	83.5
505.557	85.5
505.773	106.5
505.99	85.5
506.207	92.5
506.423	102.5
506.64	78.5
506.856	98.5
507.073	89.5
507.289	83.5
507.506	97.5
507.722	105.5
507.939	99.5
508.155	93.5
508.372	92.5
508.588	97.5
508.805	95.5
509.021	101.5
509.238	100.5
509.454	94.5
509.67	86.5
509.887	115.5
510.103	131.5
510.319	189.5
510.536	587.5
510.752	1786.5
510.968	498.5
511.184	135.5
511.401	121.5
511.617	99.5
511.833	104.5
512.049	97.5
512.265	95.5
512.481	76.5
512.698	99.5
512.914	83.5
513.13	82.5
513.346	104.5
513.562	78.5
513.778	99.5
513.994	92.5
514.21	97.5
514.426	101.5
514.642	111.5
514.858	117.5
515.074	146.5
515.29	333.5
515.506	1005.5
515.721	383.5
515.937	125.5
516.153	107.5
516.369	85.5
516.585	85.5
516.801	101.5
517.016	111.5
517.232	88.5
517.448	95.5
517.664	103.5
517.879	102.5
518.095	87.5
518.311	87.5
518.527	78.5
518.742	98.5
518.958	92.5
519.173	88.5
519.389	93.5
519.605	93.5
519.82	98.5
520.036	101.5
520.251	101.5
520.467	109.5
520.682	107.5
520.898	103.5
521.113	111.5
521.329	125.5
521.544	181.5
521.76	439.5
521.975	1653.5
522.19	983.5
522.406	239.5
522.621	113.5
522.836	89.5
523.052	103.5
523.267	94.5
523.482	98.5
523.698	108.5
523.913	102.5
524.128	116.5
524.343	103.5
524.559	76.5
524.774	92.5
524.989	98.5
525.204	92.5
525.419	85.5
525.634	91.5
525.849	85.5
526.064	100.5
526.28	106.5
526.495	97.5
526.71	77.5
526.925	92.5
527.14	92.5
527.355	90.5
527.57	88.5
527.785	96.5
527.999	97.5
528.214	70.5
528.429	71.5
528.644	84.5
528.859	88.5
529.074	90.5
529.289	100.5
529.503	146.5
529.718	99.5
529.933	91.5
530.148	97.5
530.363	78.5
530.577	87.5
530.792	91.5
531.007	81.5
531.221	106.5
531.436	87.5
531.651	88.5
531.865	94.5
532.08	104.5
532.295	104.5
532.509	99.5
532.724	96.5
532.938	98.5
533.153	87.5
533.367	100.5
533.582	84.5
533.796	86.5
534.011	99.5
534.225	96.5
534.44	89.5
