Data from Circ_1985_H10_HRD10591_00094.txt Node
Date: Wed Jan 03 12:19:41 EST 2024
User: Yrep
Spectrometer: HR+D1059
Trigger mode: 1
Integration Time (sec): 1.000000E-1
Scans to average: 1
Electric dark correction enabled: true
Nonlinearity correction enabled: false
Boxcar width: 0
XAxis mode: Wavelengths
Number of Pixels in Spectrum: 2048
>>>>>Begin Spectral Data<<<<<
223.165	-7.5
223.4	-7.5
223.635	-7.5
223.869	-27.5
224.104	-10.5
224.338	-15.5
224.573	-12.5
224.808	-16.5
225.042	-9.5
225.277	-19.5
225.511	-2.5
225.746	9.5
225.98	15.5
226.215	4.5
226.449	14.5
226.683	14.5
226.918	30.5
227.152	32.5
227.387	34.5
227.621	41.5
227.856	55.5
228.09	50.5
228.324	55.5
228.559	68.5
228.793	172.5
229.027	454.5
229.262	506.5
229.496	579.5
229.73	744.5
229.964	773.5
230.199	521.5
230.433	480.5
230.667	464.5
230.901	444.5
231.136	450.5
231.37	445.5
231.604	431.5
231.838	449.5
232.072	455.5
232.306	485.5
232.541	468.5
232.775	462.5
233.009	480.5
233.243	470.5
233.477	484.5
233.711	496.5
233.945	496.5
234.179	486.5
234.413	512.5
234.647	510.5
234.881	515.5
235.115	536.5
235.349	516.5
235.583	562.5
235.817	579.5
236.051	602.5
236.285	583.5
236.519	623.5
236.753	688.5
236.987	869.5
237.221	1312.5
237.455	1401.5
237.689	880.5
237.922	746.5
238.156	728.5
238.39	671.5
238.624	668.5
238.858	662.5
239.091	664.5
239.325	649.5
239.559	679.5
239.793	694.5
240.027	736.5
240.26	871.5
240.494	914.5
240.728	926.5
240.961	882.5
241.195	848.5
241.429	816.5
241.662	783.5
241.896	772.5
242.13	808.5
242.363	784.5
242.597	788.5
242.83	839.5
243.064	851.5
243.298	839.5
243.531	840.5
243.765	808.5
243.998	865.5
244.232	888.5
244.465	893.5
244.699	912.5
244.932	917.5
245.166	917.5
245.399	909.5
245.633	929.5
245.866	924.5
246.099	938.5
246.333	958.5
246.566	995.5
246.8	1030.5
247.033	1028.5
247.266	1054.5
247.5	1121.5
247.733	1151.5
247.966	1142.5
248.2	1169.5
248.433	1180.5
248.666	1205.5
248.899	1370.5
249.133	1428.5
249.366	1437.5
249.599	1349.5
249.832	1268.5
250.066	1305.5
250.299	1512.5
250.532	1761.5
250.765	1852.5
250.998	1860.5
251.231	1724.5
251.465	1543.5
251.698	1500.5
251.931	1472.5
252.164	1417.5
252.397	1444.5
252.63	1510.5
252.863	1568.5
253.096	1651.5
253.329	1722.5
253.562	1653.5
253.795	1568.5
254.028	1574.5
254.261	1625.5
254.494	1809.5
254.727	2100.5
254.96	2192.5
255.193	1993.5
255.426	1886.5
255.659	1930.5
255.892	2245.5
256.124	2584.5
256.357	2436.5
256.59	2034.5
256.823	1814.5
257.056	1717.5
257.289	1672.5
257.521	1688.5
257.754	1649.5
257.987	1632.5
258.22	1638.5
258.452	1596.5
258.685	1582.5
258.918	1603.5
259.151	1697.5
259.383	1664.5
259.616	1741.5
259.849	1728.5
260.081	1945.5
260.314	2066.5
260.547	1986.5
260.779	1849.5
261.012	1780.5
261.244	1744.5
261.477	1673.5
261.71	1713.5
261.942	1699.5
262.175	1808.5
262.407	1721.5
262.64	1634.5
262.872	1666.5
263.105	1627.5
263.337	1630.5
263.57	1650.5
263.802	1683.5
264.035	1695.5
264.267	1727.5
264.499	1694.5
264.732	1734.5
264.964	1715.5
265.197	1703.5
265.429	1678.5
265.661	1716.5
265.894	1733.5
266.126	1758.5
266.358	1751.5
266.591	1809.5
266.823	1888.5
267.055	1886.5
267.287	1860.5
267.52	1850.5
267.752	1854.5
267.984	1891.5
268.216	1911.5
268.448	1957.5
268.681	1990.5
268.913	2073.5
269.145	2277.5
269.377	2318.5
269.609	2239.5
269.841	2217.5
270.073	2295.5
270.306	2557.5
270.538	2679.5
270.77	2639.5
271.002	2494.5
271.234	2346.5
271.466	2517.5
271.698	2641.5
271.93	2645.5
272.162	2657.5
272.394	2610.5
272.626	2482.5
272.858	2321.5
273.09	2283.5
273.322	2276.5
273.553	2225.5
273.785	2251.5
274.017	2254.5
274.249	2293.5
274.481	2261.5
274.713	2254.5
274.945	2312.5
275.176	2311.5
275.408	2275.5
275.64	2288.5
275.872	2292.5
276.104	2305.5
276.335	2314.5
276.567	2400.5
276.799	2574.5
277.031	2761.5
277.262	2802.5
277.494	2804.5
277.726	2643.5
277.957	2498.5
278.189	2434.5
278.421	2393.5
278.652	2349.5
278.884	2423.5
279.115	2399.5
279.347	2414.5
279.579	2435.5
279.81	2437.5
280.042	2434.5
280.273	2491.5
280.505	2487.5
280.736	2490.5
280.968	2492.5
281.199	2453.5
281.431	2499.5
281.662	2520.5
281.894	2488.5
282.125	2549.5
282.356	2630.5
282.588	2759.5
282.819	2671.5
283.051	2542.5
283.282	2530.5
283.513	2549.5
283.745	2607.5
283.976	2624.5
284.207	2654.5
284.439	2612.5
284.67	2678.5
284.901	2566.5
285.132	2626.5
285.364	2624.5
285.595	2610.5
285.826	2625.5
286.057	2666.5
286.288	2656.5
286.52	2692.5
286.751	2703.5
286.982	2714.5
287.213	2724.5
287.444	2758.5
287.675	2796.5
287.906	2866.5
288.138	2877.5
288.369	2900.5
288.6	2837.5
288.831	2868.5
289.062	2893.5
289.293	2850.5
289.524	2804.5
289.755	2755.5
289.986	2776.5
290.217	2823.5
290.448	2792.5
290.679	2817.5
290.91	2794.5
291.141	2827.5
291.371	2748.5
291.602	2795.5
291.833	2824.5
292.064	2824.5
292.295	2771.5
292.526	2798.5
292.757	2804.5
292.987	2809.5
293.218	2801.5
293.449	2875.5
293.68	2808.5
293.91	2844.5
294.141	2838.5
294.372	2832.5
294.603	2815.5
294.833	2878.5
295.064	2858.5
295.295	2830.5
295.525	2844.5
295.756	2914.5
295.987	2962.5
296.217	3110.5
296.448	3058.5
296.679	2962.5
296.909	2959.5
297.14	3027.5
297.37	3028.5
297.601	3014.5
297.831	2996.5
298.062	3030.5
298.292	3064.5
298.523	3087.5
298.753	3096.5
298.984	3075.5
299.214	3127.5
299.445	3080.5
299.675	3094.5
299.905	3133.5
300.136	3114.5
300.366	3126.5
300.597	3160.5
300.827	3231.5
301.057	3256.5
301.288	3299.5
301.518	3283.5
301.748	3286.5
301.979	3378.5
302.209	3343.5
302.439	3400.5
302.669	3294.5
302.9	3303.5
303.13	3248.5
303.36	3292.5
303.59	3309.5
303.82	3434.5
304.051	3328.5
304.281	3307.5
304.511	3244.5
304.741	3221.5
304.971	3251.5
305.201	3284.5
305.431	3220.5
305.661	3293.5
305.891	3268.5
306.121	3286.5
306.352	3257.5
306.582	3277.5
306.812	3198.5
307.042	3257.5
307.272	3274.5
307.502	3306.5
307.731	3313.5
307.961	3242.5
308.191	3268.5
308.421	3271.5
308.651	3306.5
308.881	3256.5
309.111	3306.5
309.341	3282.5
309.571	3349.5
309.8	3442.5
310.03	3538.5
310.26	3528.5
310.49	3520.5
310.72	3593.5
310.949	3692.5
311.179	3690.5
311.409	3600.5
311.639	3566.5
311.868	3558.5
312.098	3641.5
312.328	3750.5
312.557	3802.5
312.787	3797.5
313.017	3718.5
313.246	3754.5
313.476	3626.5
313.706	3670.5
313.935	3776.5
314.165	3811.5
314.394	3866.5
314.624	3831.5
314.853	3753.5
315.083	3765.5
315.312	3675.5
315.542	3671.5
315.771	3634.5
316.001	3634.5
316.23	3606.5
316.46	3620.5
316.689	3689.5
316.919	3715.5
317.148	3732.5
317.377	3662.5
317.607	3614.5
317.836	3680.5
318.065	3610.5
318.295	3640.5
318.524	3663.5
318.753	3613.5
318.983	3627.5
319.212	3617.5
319.441	3676.5
319.67	3689.5
319.9	3660.5
320.129	3703.5
320.358	3644.5
320.587	3651.5
320.816	3792.5
321.046	3880.5
321.275	3796.5
321.504	3789.5
321.733	3818.5
321.962	3854.5
322.191	3984.5
322.42	4049.5
322.649	4086.5
322.878	4099.5
323.108	4236.5
323.337	4418.5
323.566	4545.5
323.795	4770.5
324.024	5267.5
324.253	6739.5
324.482	9875.5
324.71	14443.5
324.939	15628.5
325.168	11399.5
325.397	6222.5
325.626	5119.5
325.855	4727.5
326.084	4726.5
326.313	4696.5
326.542	4767.5
326.77	5314.5
326.999	6676.5
327.228	9594.5
327.457	13601.5
327.686	12774.5
327.914	7084.5
328.143	6024.5
328.372	5804.5
328.6	5375.5
328.829	5290.5
329.058	5387.5
329.287	5363.5
329.515	5227.5
329.744	5175.5
329.972	5584.5
330.201	6127.5
330.43	6626.5
330.658	6038.5
330.887	5944.5
331.115	5422.5
331.344	5080.5
331.572	5004.5
331.801	5075.5
332.03	5079.5
332.258	5036.5
332.486	5135.5
332.715	5164.5
332.943	5331.5
333.172	5489.5
333.4	5709.5
333.629	5971.5
333.857	6175.5
334.085	6562.5
334.314	7066.5
334.542	7833.5
334.771	7459.5
334.999	6261.5
335.227	5666.5
335.455	5390.5
335.684	5193.5
335.912	5113.5
336.14	5098.5
336.369	5023.5
336.597	5007.5
336.825	4921.5
337.053	4872.5
337.281	4820.5
337.51	4744.5
337.738	4716.5
337.966	4747.5
338.194	4641.5
338.422	4575.5
338.65	4473.5
338.878	4527.5
339.106	4549.5
339.334	4528.5
339.562	4460.5
339.79	4362.5
340.018	4403.5
340.246	4352.5
340.474	4380.5
340.702	4350.5
340.93	4336.5
341.158	4336.5
341.386	4352.5
341.614	4355.5
341.842	4324.5
342.07	4345.5
342.298	4258.5
342.526	4202.5
342.754	4233.5
342.981	4216.5
343.209	4402.5
343.437	4640.5
343.665	4851.5
343.893	5088.5
344.12	5135.5
344.348	4869.5
344.576	4744.5
344.804	4669.5
345.031	4528.5
345.259	4488.5
345.487	4411.5
345.714	4246.5
345.942	4227.5
346.17	4152.5
346.397	4172.5
346.625	4121.5
346.853	4171.5
347.08	4048.5
347.308	4136.5
347.535	4147.5
347.763	4259.5
347.99	4147.5
348.218	4228.5
348.445	4218.5
348.673	4196.5
348.9	4131.5
349.128	4074.5
349.355	4008.5
349.583	4001.5
349.81	3950.5
350.037	3985.5
350.265	3970.5
350.492	3991.5
350.72	4011.5
350.947	4005.5
351.174	4105.5
351.402	4136.5
351.629	4072.5
351.856	4102.5
352.083	4152.5
352.311	4118.5
352.538	4155.5
352.765	4117.5
352.992	4050.5
353.22	3994.5
353.447	3987.5
353.674	3940.5
353.901	3926.5
354.128	3908.5
354.355	3918.5
354.583	3908.5
354.81	3911.5
355.037	3922.5
355.264	3831.5
355.491	3882.5
355.718	3862.5
355.945	3900.5
356.172	3888.5
356.399	3918.5
356.626	3938.5
356.853	3896.5
357.08	3881.5
357.307	3867.5
357.534	3904.5
357.761	3907.5
357.988	3890.5
358.215	3874.5
358.441	3958.5
358.668	3928.5
358.895	3980.5
359.122	3998.5
359.349	4061.5
359.576	4166.5
359.802	4321.5
360.029	4437.5
360.256	4398.5
360.483	4223.5
360.709	4093.5
360.936	4117.5
361.163	4115.5
361.39	4140.5
361.616	4103.5
361.843	4033.5
362.07	4103.5
362.296	4113.5
362.523	4062.5
362.749	4133.5
362.976	4036.5
363.203	4058.5
363.429	3950.5
363.656	3963.5
363.882	4000.5
364.109	3948.5
364.335	3963.5
364.562	3910.5
364.788	3923.5
365.015	4005.5
365.241	3935.5
365.468	3969.5
365.694	4059.5
365.92	4065.5
366.147	3936.5
366.373	4028.5
366.599	3991.5
366.826	3968.5
367.052	3934.5
367.278	3984.5
367.505	4023.5
367.731	4023.5
367.957	3979.5
368.184	4063.5
368.41	4075.5
368.636	4165.5
368.862	4191.5
369.089	4086.5
369.315	4034.5
369.541	4095.5
369.767	4134.5
369.993	4130.5
370.219	4129.5
370.445	4165.5
370.672	4135.5
370.898	4174.5
371.124	4151.5
371.35	4230.5
371.576	4193.5
371.802	4237.5
372.028	4192.5
372.254	4274.5
372.48	4223.5
372.706	4354.5
372.932	4400.5
373.158	4378.5
373.384	4329.5
373.61	4256.5
373.835	4320.5
374.061	4313.5
374.287	4361.5
374.513	4425.5
374.739	4512.5
374.965	4643.5
375.191	4664.5
375.416	4606.5
375.642	4419.5
375.868	4387.5
376.094	4334.5
376.319	4293.5
376.545	4294.5
376.771	4326.5
376.997	4197.5
377.222	4252.5
377.448	4152.5
377.674	4222.5
377.899	4181.5
378.125	4223.5
378.35	4153.5
378.576	4149.5
378.802	4134.5
379.027	4169.5
379.253	4185.5
379.478	4168.5
379.704	4182.5
379.929	4279.5
380.155	4212.5
380.38	4220.5
380.606	4225.5
380.831	4238.5
381.057	4239.5
381.282	4282.5
381.507	4251.5
381.733	4340.5
381.958	4282.5
382.184	4400.5
382.409	4436.5
382.634	4489.5
382.86	4498.5
383.085	4562.5
383.31	4636.5
383.535	4690.5
383.761	4662.5
383.986	4750.5
384.211	4830.5
384.436	4957.5
384.662	5008.5
384.887	5106.5
385.112	5008.5
385.337	5119.5
385.562	5128.5
385.787	5153.5
386.013	5235.5
386.238	5221.5
386.463	5161.5
386.688	5167.5
386.913	5081.5
387.138	5019.5
387.363	5065.5
387.588	4979.5
387.813	5064.5
388.038	4998.5
388.263	5030.5
388.488	5070.5
388.713	5051.5
388.938	5081.5
389.163	5042.5
389.387	4973.5
389.612	5000.5
389.837	4956.5
390.062	4948.5
390.287	5044.5
390.512	4962.5
390.736	5047.5
390.961	5202.5
391.186	5268.5
391.411	5368.5
391.636	5512.5
391.86	5630.5
392.085	5718.5
392.31	5589.5
392.534	5424.5
392.759	5355.5
392.984	5332.5
393.208	5316.5
393.433	5294.5
393.658	5302.5
393.882	5190.5
394.107	5314.5
394.331	5333.5
394.556	5278.5
394.78	5350.5
395.005	5361.5
395.229	5478.5
395.454	5596.5
395.678	5721.5
395.903	5703.5
396.127	5864.5
396.352	5598.5
396.576	5427.5
396.801	5375.5
397.025	5470.5
397.249	5528.5
397.474	5719.5
397.698	5696.5
397.922	5884.5
398.147	5932.5
398.371	5992.5
398.595	6167.5
398.82	6531.5
399.044	6985.5
399.268	7654.5
399.492	8732.5
399.717	9459.5
399.941	9174.5
400.165	8505.5
400.389	7774.5
400.613	7085.5
400.837	6681.5
401.062	6492.5
401.286	6442.5
401.51	6391.5
401.734	6478.5
401.958	6530.5
402.182	6615.5
402.406	6755.5
402.63	6726.5
402.854	6921.5
403.078	6922.5
403.302	7102.5
403.526	7176.5
403.75	7316.5
403.974	7301.5
404.198	7354.5
404.422	7502.5
404.645	7544.5
404.869	7497.5
405.093	7943.5
405.317	8338.5
405.541	8278.5
405.765	7589.5
405.988	7228.5
406.212	7360.5
406.436	7506.5
406.66	7684.5
406.883	7536.5
407.107	8143.5
407.331	8620.5
407.555	9094.5
407.778	8903.5
408.002	8149.5
408.226	7764.5
408.449	7640.5
408.673	7506.5
408.896	7650.5
409.12	7793.5
409.344	7302.5
409.567	7072.5
409.791	7016.5
410.014	6944.5
410.238	6919.5
410.461	6875.5
410.685	6954.5
410.908	7038.5
411.132	7206.5
411.355	7225.5
411.578	6903.5
411.802	6751.5
412.025	6783.5
412.249	7224.5
412.472	7538.5
412.695	7978.5
412.919	7299.5
413.142	6920.5
413.365	6723.5
413.589	6636.5
413.812	6395.5
414.035	6326.5
414.258	6396.5
414.482	6470.5
414.705	6478.5
414.928	6366.5
415.151	6311.5
415.374	6364.5
415.597	6228.5
415.821	6197.5
416.044	6224.5
416.267	6207.5
416.49	6134.5
416.713	6121.5
416.936	6247.5
417.159	6219.5
417.382	6295.5
417.605	6295.5
417.828	6371.5
418.051	6571.5
418.274	6440.5
418.497	6361.5
418.72	6486.5
418.943	6369.5
419.166	6776.5
419.389	7245.5
419.611	7134.5
419.834	6984.5
420.057	6986.5
420.28	7096.5
420.503	6859.5
420.726	6728.5
420.948	6724.5
421.171	7113.5
421.394	7017.5
421.617	6468.5
421.839	6424.5
422.062	6556.5
422.285	6687.5
422.507	7290.5
422.73	7771.5
422.953	7179.5
423.175	6868.5
423.398	6798.5
423.621	6868.5
423.843	7127.5
424.066	7082.5
424.288	6905.5
424.511	7198.5
424.733	7638.5
424.956	7942.5
425.178	7536.5
425.401	7674.5
425.623	7538.5
425.846	6654.5
426.068	6532.5
426.291	6390.5
426.513	6397.5
426.735	6535.5
426.958	6932.5
427.18	7657.5
427.402	8792.5
427.625	8981.5
427.847	7912.5
428.069	7414.5
428.292	6562.5
428.514	6105.5
428.736	5941.5
428.958	5963.5
429.181	5716.5
429.403	5666.5
429.625	5871.5
429.847	6141.5
430.069	6688.5
430.292	6247.5
430.514	5761.5
430.736	5776.5
430.958	5655.5
431.18	5602.5
431.402	5537.5
431.624	5566.5
431.846	5623.5
432.068	5629.5
432.29	5751.5
432.512	5634.5
432.734	5768.5
432.956	5692.5
433.178	5740.5
433.4	5707.5
433.622	5716.5
433.844	5716.5
434.066	5731.5
434.287	5801.5
434.509	6020.5
434.731	6233.5
434.953	6401.5
435.175	6483.5
435.397	6602.5
435.618	6458.5
435.84	6834.5
436.062	7585.5
436.284	7579.5
436.505	6361.5
436.727	6126.5
436.949	5797.5
437.17	5702.5
437.392	5630.5
437.614	5816.5
437.835	6139.5
438.057	7087.5
438.278	7671.5
438.5	7651.5
438.721	8395.5
438.943	7355.5
439.165	6246.5
439.386	6048.5
439.608	6087.5
439.829	6171.5
440.05	6525.5
440.272	6787.5
440.493	6271.5
440.715	6067.5
440.936	5970.5
441.158	5999.5
441.379	6143.5
441.6	6430.5
441.822	6668.5
442.043	7080.5
442.264	7782.5
442.486	7534.5
442.707	6739.5
442.928	6550.5
443.149	6814.5
443.371	6911.5
443.592	7421.5
443.813	8398.5
444.034	8296.5
444.255	7346.5
444.476	7214.5
444.698	7317.5
444.919	7510.5
445.14	7273.5
445.361	7091.5
445.582	7130.5
445.803	7742.5
446.024	8260.5
446.245	7987.5
446.466	7140.5
446.687	6320.5
446.908	5903.5
447.129	5693.5
447.35	5590.5
447.571	5442.5
447.792	5417.5
448.013	5489.5
448.234	5716.5
448.455	6293.5
448.675	7400.5
448.896	7803.5
449.117	6544.5
449.338	6682.5
449.559	8012.5
449.779	8152.5
450	6294.5
450.221	5631.5
450.442	5379.5
450.662	5321.5
450.883	5465.5
451.104	5478.5
451.324	5379.5
451.545	5188.5
451.766	5106.5
451.986	5038.5
452.207	4976.5
452.428	4972.5
452.648	5031.5
452.869	4995.5
453.089	5074.5
453.31	5136.5
453.53	4947.5
453.751	4912.5
453.971	5008.5
454.192	5008.5
454.412	4887.5
454.633	4763.5
454.853	4811.5
455.073	4799.5
455.294	5194.5
455.514	5767.5
455.734	5259.5
455.955	4762.5
456.175	4609.5
456.395	4602.5
456.616	4562.5
456.836	4596.5
457.056	4537.5
457.276	4457.5
457.497	4704.5
457.717	4617.5
457.937	4740.5
458.157	4747.5
458.377	4857.5
458.598	5158.5
458.818	5830.5
459.038	6450.5
459.258	6380.5
459.478	5798.5
459.698	5682.5
459.918	5775.5
460.138	5999.5
460.358	6170.5
460.578	6155.5
460.798	6194.5
461.018	6242.5
461.238	6110.5
461.458	6183.5
461.678	6050.5
461.898	6249.5
462.118	6235.5
462.338	6603.5
462.558	6781.5
462.777	7004.5
462.997	7611.5
463.217	8012.5
463.437	7846.5
463.657	7182.5
463.876	7007.5
464.096	7062.5
464.316	7016.5
464.536	7095.5
464.755	6882.5
464.975	6686.5
465.195	6751.5
465.414	6668.5
465.634	5982.5
465.854	5696.5
466.073	5451.5
466.293	5394.5
466.512	5253.5
466.732	5093.5
466.951	5093.5
467.171	5077.5
467.391	5151.5
467.61	5195.5
467.829	5205.5
468.049	5334.5
468.268	5383.5
468.488	5225.5
468.707	5001.5
468.927	5007.5
469.146	4968.5
469.365	5036.5
469.585	4990.5
469.804	5195.5
470.023	5371.5
470.243	5343.5
470.462	5460.5
470.681	5530.5
470.901	5438.5
471.12	5318.5
471.339	5266.5
471.558	5209.5
471.777	5154.5
471.997	5159.5
472.216	5525.5
472.435	6246.5
472.654	5715.5
472.873	5267.5
473.092	5151.5
473.311	5101.5
473.53	5108.5
473.749	5099.5
473.968	5626.5
474.187	6548.5
474.406	6193.5
474.625	5262.5
474.844	5054.5
475.063	5047.5
475.282	5038.5
475.501	5029.5
475.72	5111.5
475.939	5175.5
476.158	5113.5
476.377	5129.5
476.596	5187.5
476.814	5282.5
477.033	5333.5
477.252	5391.5
477.471	5466.5
477.69	5602.5
477.908	5684.5
478.127	5823.5
478.346	5882.5
478.564	6009.5
478.783	6102.5
479.002	6283.5
479.22	6230.5
479.439	6294.5
479.658	6422.5
479.876	6565.5
480.095	6669.5
480.313	7141.5
480.532	7098.5
480.751	6979.5
480.969	7295.5
481.188	8757.5
481.406	8626.5
481.624	7256.5
481.843	6664.5
482.061	6387.5
482.28	6250.5
482.498	6040.5
482.717	6040.5
482.935	5979.5
483.153	5911.5
483.372	5888.5
483.59	5916.5
483.808	5922.5
484.027	5920.5
484.245	5941.5
484.463	5984.5
484.681	6148.5
484.9	6131.5
485.118	6187.5
485.336	6218.5
485.554	6224.5
485.772	6259.5
485.99	6361.5
486.209	6295.5
486.427	6298.5
486.645	6382.5
486.863	6539.5
487.081	6384.5
487.299	6374.5
487.517	6365.5
487.735	6355.5
487.953	6307.5
488.171	6338.5
488.389	6400.5
488.607	6345.5
488.825	6419.5
489.043	6358.5
489.261	6454.5
489.479	6545.5
489.696	6566.5
489.914	6648.5
490.132	6661.5
490.35	6756.5
490.568	6864.5
490.786	7009.5
491.003	7139.5
491.221	7260.5
491.439	7493.5
491.657	7523.5
491.874	7562.5
492.092	7735.5
492.31	7705.5
492.527	7785.5
492.745	7861.5
492.963	7930.5
493.18	7957.5
493.398	7996.5
493.615	7923.5
493.833	7958.5
494.05	7888.5
494.268	7868.5
494.485	7796.5
494.703	7803.5
494.92	7741.5
495.138	7689.5
495.355	7590.5
495.573	7671.5
495.79	7623.5
496.008	7707.5
496.225	7573.5
496.442	7706.5
496.66	7737.5
496.877	7717.5
497.094	7790.5
497.312	7908.5
497.529	8115.5
497.746	8265.5
497.963	8404.5
498.181	8774.5
498.398	9075.5
498.615	9396.5
498.832	9863.5
499.049	10363.5
499.267	10972.5
499.484	11732.5
499.701	12387.5
499.918	13320.5
500.135	14108.5
500.352	14824.5
500.569	14906.5
500.786	14827.5
501.003	14340.5
501.22	13703.5
501.437	12876.5
501.654	12075.5
501.871	11387.5
502.088	10606.5
502.305	10022.5
502.522	9528.5
502.739	9228.5
502.956	8782.5
503.172	8468.5
503.389	8079.5
503.606	8073.5
