Data from Circ_1985_H10_HRD10591_00097.txt Node
Date: Wed Jan 03 12:19:42 EST 2024
User: Yrep
Spectrometer: HR+D1059
Trigger mode: 1
Integration Time (sec): 1.000000E-1
Scans to average: 1
Electric dark correction enabled: true
Nonlinearity correction enabled: false
Boxcar width: 0
XAxis mode: Wavelengths
Number of Pixels in Spectrum: 2048
>>>>>Begin Spectral Data<<<<<
223.165	-8
223.4	-8
223.635	-8
223.869	-22
224.104	-17
224.338	-21
224.573	-19
224.808	-15
225.042	-11
225.277	-5
225.511	-2
225.746	-3
225.98	11
226.215	20
226.449	15
226.683	26
226.918	26
227.152	25
227.387	34
227.621	55
227.856	39
228.09	54
228.324	28
228.559	51
228.793	59
229.027	72
229.262	68
229.496	77
229.73	96
229.964	82
230.199	75
230.433	72
230.667	89
230.901	90
231.136	71
231.37	78
231.604	82
231.838	78
232.072	86
232.306	87
232.541	93
232.775	102
233.009	84
233.243	80
233.477	84
233.711	92
233.945	97
234.179	87
234.413	87
234.647	95
234.881	73
235.115	83
235.349	88
235.583	85
235.817	94
236.051	93
236.285	88
236.519	84
236.753	83
236.987	76
237.221	89
237.455	84
237.689	87
237.922	76
238.156	70
238.39	78
238.624	77
238.858	78
239.091	82
239.325	94
239.559	88
239.793	96
240.027	78
240.26	84
240.494	83
240.728	78
240.961	84
241.195	92
241.429	91
241.662	77
241.896	85
242.13	81
242.363	79
242.597	80
242.83	76
243.064	65
243.298	86
243.531	77
243.765	76
243.998	58
244.232	95
244.465	94
244.699	79
244.932	80
245.166	77
245.399	86
245.633	70
245.866	77
246.099	70
246.333	83
246.566	80
246.8	79
247.033	85
247.266	79
247.5	75
247.733	86
247.966	82
248.2	77
248.433	74
248.666	63
248.899	79
249.133	85
249.366	94
249.599	97
249.832	90
250.066	84
250.299	76
250.532	85
250.765	84
250.998	71
251.231	77
251.465	93
251.698	94
251.931	86
252.164	76
252.397	74
252.63	95
252.863	74
253.096	89
253.329	82
253.562	96
253.795	80
254.028	77
254.261	86
254.494	73
254.727	89
254.96	85
255.193	84
255.426	78
255.659	86
255.892	74
256.124	86
256.357	86
256.59	78
256.823	88
257.056	98
257.289	91
257.521	82
257.754	80
257.987	68
258.22	89
258.452	80
258.685	86
258.918	80
259.151	83
259.383	80
259.616	92
259.849	78
260.081	90
260.314	88
260.547	92
260.779	85
261.012	89
261.244	84
261.477	80
261.71	77
261.942	112
262.175	111
262.407	80
262.64	89
262.872	84
263.105	78
263.337	86
263.57	94
263.802	76
264.035	75
264.267	79
264.499	90
264.732	86
264.964	85
265.197	102
265.429	88
265.661	85
265.894	95
266.126	73
266.358	100
266.591	90
266.823	76
267.055	86
267.287	86
267.52	86
267.752	95
267.984	75
268.216	87
268.448	95
268.681	75
268.913	71
269.145	93
269.377	87
269.609	81
269.841	91
270.073	91
270.306	82
270.538	95
270.77	78
271.002	95
271.234	91
271.466	98
271.698	93
271.93	83
272.162	84
272.394	83
272.626	90
272.858	82
273.09	96
273.322	99
273.553	82
273.785	93
274.017	83
274.249	90
274.481	90
274.713	99
274.945	86
275.176	89
275.408	102
275.64	100
275.872	67
276.104	91
276.335	93
276.567	115
276.799	106
277.031	98
277.262	87
277.494	102
277.726	90
277.957	82
278.189	85
278.421	95
278.652	86
278.884	82
279.115	104
279.347	88
279.579	97
279.81	93
280.042	95
280.273	107
280.505	92
280.736	85
280.968	96
281.199	101
281.431	95
281.662	80
281.894	100
282.125	90
282.356	103
282.588	135
282.819	118
283.051	91
283.282	86
283.513	94
283.745	99
283.976	96
284.207	98
284.439	91
284.67	96
284.901	77
285.132	90
285.364	88
285.595	94
285.826	86
286.057	95
286.288	84
286.52	80
286.751	86
286.982	91
287.213	97
287.444	94
287.675	82
287.906	98
288.138	95
288.369	109
288.6	104
288.831	91
289.062	87
289.293	80
289.524	94
289.755	106
289.986	91
290.217	87
290.448	93
290.679	98
290.91	90
291.141	85
291.371	86
291.602	98
291.833	87
292.064	83
292.295	85
292.526	102
292.757	98
292.987	84
293.218	75
293.449	84
293.68	95
293.91	78
294.141	96
294.372	95
294.603	79
294.833	90
295.064	88
295.295	86
295.525	97
295.756	105
295.987	101
296.217	132
296.448	121
296.679	96
296.909	80
297.14	88
297.37	76
297.601	93
297.831	102
298.062	94
298.292	100
298.523	98
298.753	95
298.984	74
299.214	96
299.445	83
299.675	99
299.905	105
300.136	97
300.366	95
300.597	96
300.827	98
301.057	107
301.288	104
301.518	104
301.748	99
301.979	113
302.209	96
302.439	95
302.669	91
302.9	94
303.13	83
303.36	102
303.59	102
303.82	107
304.051	105
304.281	92
304.511	85
304.741	96
304.971	91
305.201	85
305.431	98
305.661	89
305.891	94
306.121	83
306.352	95
306.582	101
306.812	95
307.042	87
307.272	100
307.502	118
307.731	99
307.961	90
308.191	104
308.421	91
308.651	104
308.881	114
309.111	99
309.341	87
309.571	95
309.8	112
310.03	91
310.26	87
310.49	99
310.72	102
310.949	83
311.179	103
311.409	81
311.639	100
311.868	103
312.098	86
312.328	94
312.557	111
312.787	108
313.017	97
313.246	86
313.476	92
313.706	91
313.935	102
314.165	107
314.394	89
314.624	90
314.853	102
315.083	101
315.312	100
315.542	100
315.771	85
316.001	100
316.23	93
316.46	101
316.689	104
316.919	87
317.148	92
317.377	94
317.607	103
317.836	90
318.065	93
318.295	102
318.524	104
318.753	94
318.983	102
319.212	80
319.441	106
319.67	104
319.9	107
320.129	98
320.358	87
320.587	102
320.816	110
321.046	90
321.275	78
321.504	93
321.733	98
321.962	96
322.191	105
322.42	102
322.649	107
322.878	127
323.108	120
323.337	130
323.566	138
323.795	140
324.024	215
324.253	366
324.482	782
324.71	1613
324.939	2100
325.168	792
325.397	231
325.626	146
325.855	129
326.084	126
326.313	132
326.542	163
326.77	222
326.999	422
327.228	893
327.457	1626
327.686	1336
327.914	380
328.143	190
328.372	164
328.6	132
328.829	112
329.058	118
329.287	121
329.515	104
329.744	106
329.972	119
330.201	156
330.43	184
330.658	127
330.887	126
331.115	124
331.344	87
331.572	92
331.801	102
332.03	95
332.258	101
332.486	95
332.715	97
332.943	107
333.172	93
333.4	104
333.629	110
333.857	112
334.085	132
334.314	142
334.542	212
334.771	186
334.999	112
335.227	106
335.455	102
335.684	112
335.912	101
336.14	102
336.369	98
336.597	105
336.825	88
337.053	97
337.281	97
337.51	92
337.738	108
337.966	98
338.194	110
338.422	98
338.65	80
338.878	93
339.106	86
339.334	103
339.562	97
339.79	88
340.018	94
340.246	91
340.474	101
340.702	106
340.93	101
341.158	95
341.386	102
341.614	106
341.842	107
342.07	97
342.298	91
342.526	100
342.754	102
342.981	109
343.209	84
343.437	107
343.665	96
343.893	89
344.12	93
344.348	87
344.576	95
344.804	108
345.031	91
345.259	101
345.487	102
345.714	110
345.942	101
346.17	90
346.397	101
346.625	92
346.853	100
347.08	97
347.308	84
347.535	100
347.763	107
347.99	98
348.218	107
348.445	105
348.673	102
348.9	101
349.128	105
349.355	77
349.583	97
349.81	86
350.037	101
350.265	102
350.492	100
350.72	100
350.947	112
351.174	117
351.402	108
351.629	109
351.856	102
352.083	113
352.311	111
352.538	106
352.765	123
352.992	120
353.22	106
353.447	113
353.674	104
353.901	92
354.128	102
354.355	99
354.583	83
354.81	104
355.037	100
355.264	87
355.491	97
355.718	86
355.945	94
356.172	117
356.399	78
356.626	95
356.853	95
357.08	101
357.307	90
357.534	106
357.761	93
357.988	108
358.215	97
358.441	101
358.668	89
358.895	98
359.122	86
359.349	89
359.576	85
359.802	97
360.029	109
360.256	123
360.483	110
360.709	75
360.936	104
361.163	112
361.39	108
361.616	99
361.843	96
362.07	92
362.296	94
362.523	96
362.749	84
362.976	88
363.203	102
363.429	92
363.656	94
363.882	98
364.109	90
364.335	110
364.562	97
364.788	107
365.015	84
365.241	101
365.468	92
365.694	107
365.92	102
366.147	88
366.373	100
366.599	86
366.826	86
367.052	99
367.278	102
367.505	78
367.731	94
367.957	105
368.184	87
368.41	93
368.636	101
368.862	121
369.089	106
369.315	91
369.541	84
369.767	96
369.993	77
370.219	101
370.445	94
370.672	90
370.898	96
371.124	96
371.35	99
371.576	88
371.802	82
372.028	99
372.254	94
372.48	79
372.706	90
372.932	94
373.158	108
373.384	97
373.61	86
373.835	83
374.061	89
374.287	95
374.513	102
374.739	82
374.965	86
375.191	91
375.416	90
375.642	103
375.868	93
376.094	102
376.319	92
376.545	102
376.771	94
376.997	87
377.222	85
377.448	88
377.674	92
377.899	92
378.125	87
378.35	108
378.576	94
378.802	88
379.027	99
379.253	90
379.478	89
379.704	95
379.929	76
380.155	104
380.38	90
380.606	85
380.831	94
381.057	92
381.282	87
381.507	103
381.733	87
381.958	86
382.184	102
382.409	101
382.634	103
382.86	111
383.085	89
383.31	96
383.535	94
383.761	91
383.986	109
384.211	100
384.436	102
384.662	89
384.887	103
385.112	115
385.337	118
385.562	114
385.787	100
386.013	105
386.238	109
386.463	97
386.688	109
386.913	95
387.138	102
387.363	110
387.588	110
387.813	113
388.038	95
388.263	127
388.488	105
388.713	97
388.938	94
389.163	106
389.387	104
389.612	93
389.837	109
390.062	110
390.287	90
390.512	117
390.736	104
390.961	95
391.186	90
391.411	94
391.636	104
391.86	88
392.085	92
392.31	97
392.534	92
392.759	85
392.984	107
393.208	93
393.433	98
393.658	99
393.882	90
394.107	92
394.331	91
394.556	87
394.78	105
395.005	104
395.229	86
395.454	82
395.678	83
395.903	78
396.127	87
396.352	90
396.576	104
396.801	88
397.025	94
397.249	94
397.474	98
397.698	94
397.922	86
398.147	96
398.371	91
398.595	107
398.82	101
399.044	88
399.268	69
399.492	92
399.717	88
399.941	80
400.165	94
400.389	87
400.613	106
400.837	86
401.062	90
401.286	96
401.51	80
401.734	77
401.958	100
402.182	112
402.406	131
402.63	110
402.854	78
403.078	84
403.302	91
403.526	95
403.75	91
403.974	88
404.198	86
404.422	91
404.645	103
404.869	94
405.093	107
405.317	92
405.541	100
405.765	87
405.988	115
406.212	146
406.436	196
406.66	131
406.883	102
407.107	99
407.331	95
407.555	87
407.778	107
408.002	90
408.226	108
408.449	86
408.673	103
408.896	109
409.12	94
409.344	93
409.567	101
409.791	93
410.014	97
410.238	100
410.461	99
410.685	108
410.908	99
411.132	108
411.355	109
411.578	103
411.802	83
412.025	109
412.249	100
412.472	93
412.695	103
412.919	108
413.142	87
413.365	86
413.589	93
413.812	90
414.035	88
414.258	100
414.482	92
414.705	92
414.928	97
415.151	89
415.374	86
415.597	90
415.821	95
416.044	90
416.267	96
416.49	86
416.713	84
416.936	87
417.159	92
417.382	91
417.605	95
417.828	93
418.051	97
418.274	84
418.497	83
418.72	95
418.943	92
419.166	99
419.389	94
419.611	103
419.834	94
420.057	84
420.28	91
420.503	77
420.726	86
420.948	103
421.171	91
421.394	111
421.617	75
421.839	98
422.062	92
422.285	102
422.507	100
422.73	100
422.953	88
423.175	82
423.398	91
423.621	110
423.843	82
424.066	92
424.288	98
424.511	92
424.733	100
424.956	92
425.178	106
425.401	112
425.623	92
425.846	93
426.068	98
426.291	96
426.513	98
426.735	82
426.958	98
427.18	100
427.402	119
427.625	154
427.847	128
428.069	137
428.292	113
428.514	102
428.736	85
428.958	91
429.181	91
429.403	101
429.625	90
429.847	91
430.069	108
430.292	103
430.514	104
430.736	88
430.958	90
431.18	95
431.402	83
431.624	93
431.846	99
432.068	90
432.29	82
432.512	84
432.734	90
432.956	102
433.178	107
433.4	100
433.622	95
433.844	89
434.066	105
434.287	105
434.509	105
434.731	88
434.953	91
435.175	77
435.397	88
435.618	90
435.84	95
436.062	114
436.284	123
436.505	100
436.727	103
436.949	91
437.17	92
437.392	97
437.614	94
437.835	105
438.057	112
438.278	114
438.5	100
438.721	116
438.943	102
439.165	86
439.386	104
439.608	93
439.829	110
440.05	115
440.272	131
440.493	99
440.715	84
440.936	78
441.158	97
441.379	95
441.6	99
441.822	109
442.043	111
442.264	87
442.486	102
442.707	98
442.928	108
443.149	134
443.371	135
443.592	100
443.813	125
444.034	112
444.255	106
444.476	80
444.698	86
444.919	98
445.14	139
445.361	119
445.582	120
445.803	141
446.024	141
446.245	118
446.466	115
446.687	86
446.908	86
447.129	83
447.35	86
447.571	100
447.792	95
448.013	99
448.234	92
448.455	111
448.675	106
448.896	123
449.117	94
449.338	104
449.559	124
449.779	132
450	104
450.221	102
450.442	103
450.662	100
450.883	95
451.104	124
451.324	102
451.545	98
451.766	102
451.986	96
452.207	82
452.428	90
452.648	92
452.869	102
453.089	102
453.31	117
453.53	84
453.751	82
453.971	91
454.192	108
454.412	90
454.633	84
454.853	96
455.073	98
455.294	102
455.514	110
455.734	100
455.955	93
456.175	76
456.395	106
456.616	83
456.836	76
457.056	86
457.276	94
457.497	78
457.717	92
457.937	98
458.157	109
458.377	89
458.598	95
458.818	130
459.038	144
459.258	112
459.478	94
459.698	86
459.918	84
460.138	70
460.358	82
460.578	94
460.798	96
461.018	87
461.238	103
461.458	76
461.678	86
461.898	82
462.118	89
462.338	83
462.558	80
462.777	86
462.997	82
463.217	89
463.437	93
463.657	83
463.876	83
464.096	91
464.316	93
464.536	98
464.755	100
464.975	100
465.195	151
465.414	148
465.634	96
465.854	96
466.073	85
466.293	90
466.512	83
466.732	86
466.951	104
467.171	94
467.391	93
467.61	96
467.829	104
468.049	103
468.268	130
468.488	92
468.707	90
468.927	84
469.146	106
469.365	89
469.585	90
469.804	97
470.023	84
470.243	88
470.462	94
470.681	96
470.901	94
471.12	95
471.339	99
471.558	94
471.777	100
471.997	95
472.216	158
472.435	223
472.654	106
472.873	100
473.092	93
473.311	83
473.53	94
473.749	78
473.968	87
474.187	102
474.406	103
474.625	98
474.844	82
475.063	92
475.282	86
475.501	75
475.72	96
475.939	78
476.158	90
476.377	102
476.596	101
476.814	97
477.033	88
477.252	91
477.471	72
477.69	96
477.908	90
478.127	93
478.346	101
478.564	92
478.783	92
479.002	95
479.22	98
479.439	96
479.658	112
479.876	93
480.095	84
480.313	81
480.532	90
480.751	103
480.969	154
481.188	352
481.406	221
481.624	109
481.843	95
482.061	73
482.28	100
482.498	104
482.717	95
482.935	92
483.153	100
483.372	99
483.59	97
483.808	80
484.027	100
484.245	92
484.463	92
484.681	118
484.9	100
485.118	110
485.336	95
485.554	110
485.772	108
485.99	112
486.209	115
486.427	119
486.645	95
486.863	100
487.081	106
487.299	91
487.517	93
487.735	101
487.953	100
488.171	100
488.389	108
488.607	99
488.825	89
489.043	92
489.261	115
489.479	96
489.696	78
489.914	88
490.132	102
490.35	91
490.568	87
490.786	86
491.003	91
491.221	99
491.439	90
491.657	108
491.874	89
492.092	85
492.31	88
492.527	91
492.745	88
492.963	110
493.18	95
493.398	104
493.615	105
493.833	117
494.05	85
494.268	85
494.485	83
494.703	100
494.92	85
495.138	83
495.355	97
495.573	86
495.79	84
496.008	110
496.225	91
496.442	101
496.66	94
496.877	89
497.094	97
497.312	89
497.529	98
497.746	89
497.963	95
498.181	96
498.398	99
498.615	88
498.832	102
499.049	93
499.267	102
499.484	101
499.701	88
499.918	83
500.135	82
500.352	93
500.569	95
500.786	100
501.003	95
501.22	93
501.437	98
501.654	104
501.871	109
502.088	93
502.305	96
502.522	102
502.739	99
502.956	90
503.172	97
503.389	103
503.606	106
503.823	100
504.04	88
504.256	83
504.473	87
504.69	91
504.907	89
505.123	92
505.34	94
505.557	90
505.773	86
505.99	104
506.207	112
506.423	94
506.64	90
506.856	95
507.073	79
507.289	98
507.506	100
507.722	103
507.939	111
508.155	101
508.372	102
508.588	107
508.805	90
509.021	99
509.238	108
509.454	107
509.67	101
509.887	104
510.103	123
510.319	205
510.536	674
510.752	2038
510.968	584
511.184	161
511.401	112
511.617	99
511.833	98
512.049	90
512.265	89
512.481	102
512.698	106
512.914	91
513.13	90
513.346	116
513.562	105
513.778	94
513.994	94
514.21	96
514.426	118
514.642	121
514.858	129
515.074	138
515.29	404
515.506	1214
515.721	460
515.937	141
516.153	102
516.369	111
516.585	87
516.801	87
517.016	97
517.232	104
517.448	108
517.664	100
517.879	90
518.095	102
518.311	96
518.527	101
518.742	89
518.958	93
519.173	96
519.389	95
519.605	73
519.82	99
520.036	116
520.251	110
520.467	120
520.682	100
520.898	108
521.113	104
521.329	125
521.544	154
521.76	478
521.975	2004
522.19	1187
522.406	283
522.621	134
522.836	95
523.052	103
523.267	95
523.482	88
523.698	98
523.913	115
524.128	94
524.343	82
524.559	110
524.774	96
524.989	102
525.204	101
525.419	90
525.634	97
525.849	100
526.064	95
526.28	82
526.495	96
526.71	93
526.925	88
527.14	91
527.355	99
527.57	83
527.785	84
527.999	109
528.214	97
528.429	114
528.644	98
528.859	98
529.074	99
529.289	109
529.503	164
529.718	98
529.933	109
530.148	84
530.363	94
530.577	93
530.792	71
531.007	82
531.221	95
531.436	78
531.651	103
531.865	115
532.08	92
532.295	100
532.509	95
532.724	88
532.938	84
533.153	86
533.367	91
533.582	106
533.796	103
534.011	99
534.225	95
534.44	91
534.654	82
534.868	101
535.083	102
535.297	91
535.511	107
535.726	83
535.94	102
536.154	97
536.369	92
536.583	92
536.797	101
537.011	85
537.225	98
537.44	104
537.654	89
537.868	86
538.082	104
538.296	102
538.51	87
538.724	93
538.938	108
539.153	94
539.367	122
539.581	101
539.795	96
540.009	101
540.222	114
540.436	87
540.65	88
540.864	103
541.078	94
541.292	95
541.506	100
541.72	79
541.934	97
542.147	86
542.361	82
542.575	89
542.789	86
543.002	94
543.216	94
543.43	94
543.644	84
543.857	101
544.071	86
544.285	88
544.498	88
544.712	94
544.925	95
545.139	98
545.352	90
545.566	81
545.779	91
545.993	92
546.206	113
546.42	101
546.633	86
546.847	92
547.06	83
547.274	101
547.487	99
547.7	95
547.914	100
548.127	81
548.34	83
548.554	85
548.767	86
548.98	88
549.193	80
549.407	89
549.62	85
549.833	91
550.046	81
550.259	93
550.473	100
550.686	104
550.899	85
551.112	76
551.325	116
551.538	81
551.751	107
551.964	101
552.177	101
552.39	90
552.603	98
552.816	88
553.029	92
553.242	84
553.455	82
553.667	96
553.88	102
554.093	96
554.306	95
554.519	99
554.732	90
554.944	105
555.157	88
555.37	101
555.583	88
555.795	104
556.008	100
556.221	87
556.433	88
556.646	104
556.859	105
557.071	95
557.284	90
557.496	92
557.709	95
557.921	91
558.134	104
558.346	91
558.559	92
558.771	78
558.984	97
559.196	99
559.409	95
559.621	93
559.833	93
560.046	79
560.258	84
560.47	86
560.683	74
560.895	108
561.107	87
561.32	94
561.532	80
561.744	85
561.956	82
562.168	88
562.381	101
562.593	95
562.805	104
563.017	86
563.229	94
563.441	89
563.653	92
563.865	89
564.077	84
564.289	84
564.501	90
564.713	89
564.925	84
565.137	101
565.349	101
565.561	95
565.773	87
565.985	102
566.197	95
566.408	103
566.62	82
566.832	92
567.044	81
567.255	93
567.467	90
567.679	88
567.891	87
568.102	95
568.314	86
568.526	91
568.737	85
568.949	83
569.161	87
569.372	92
569.584	106
569.795	94
570.007	130
570.218	226
570.43	120
570.641	88
570.853	104
571.064	90
571.276	92
571.487	87
571.698	84
571.91	102
572.121	92
572.333	96
572.544	82
572.755	88
572.966	105
573.178	98
573.389	108
573.6	88
573.811	86
574.023	95
574.234	99
574.445	91
574.656	96
574.867	109
575.078	106
575.289	94
575.501	116
575.712	90
575.923	82
576.134	83
576.345	99
576.556	102
576.767	91
576.978	88
577.188	104
577.399	101
577.61	100
577.821	99
578.032	107
578.243	245
578.454	643
578.665	198
578.875	99
579.086	86
579.297	91
579.508	98
579.718	85
579.929	103
580.14	98
580.35	87
580.561	85
580.772	83
580.982	94
581.193	87
581.403	95
