Data from Circ_1985_H10_HRD10591_00057.txt Node
Date: Wed Jan 03 12:19:34 EST 2024
User: Yrep
Spectrometer: HR+D1059
Trigger mode: 1
Integration Time (sec): 1.000000E-1
Scans to average: 1
Electric dark correction enabled: true
Nonlinearity correction enabled: false
Boxcar width: 0
XAxis mode: Wavelengths
Number of Pixels in Spectrum: 2048
>>>>>Begin Spectral Data<<<<<
223.165	-20.19
223.4	-20.19
223.635	-20.19
223.869	-18.19
224.104	-8.19
224.338	-12.19
224.573	-25.19
224.808	-18.19
225.042	-4.19
225.277	-2.19
225.511	-4.19
225.746	18.81
225.98	7.81
226.215	10.81
226.449	18.81
226.683	10.81
226.918	17.81
227.152	27.81
227.387	47.81
227.621	34.81
227.856	51.81
228.09	44.81
228.324	49.81
228.559	61.81
228.793	165.81
229.027	416.81
229.262	496.81
229.496	568.81
229.73	742.81
229.964	757.81
230.199	508.81
230.433	452.81
230.667	450.81
230.901	439.81
231.136	445.81
231.37	445.81
231.604	455.81
231.838	437.81
232.072	453.81
232.306	438.81
232.541	492.81
232.775	462.81
233.009	477.81
233.243	471.81
233.477	459.81
233.711	499.81
233.945	508.81
234.179	497.81
234.413	489.81
234.647	519.81
234.881	520.81
235.115	510.81
235.349	537.81
235.583	532.81
235.817	577.81
236.051	623.81
236.285	607.81
236.519	616.81
236.753	677.81
236.987	845.81
237.221	1289.81
237.455	1406.81
237.689	865.81
237.922	723.81
238.156	723.81
238.39	667.81
238.624	639.81
238.858	620.81
239.091	668.81
239.325	661.81
239.559	653.81
239.793	693.81
240.027	767.81
240.26	882.81
240.494	917.81
240.728	912.81
240.961	889.81
241.195	819.81
241.429	778.81
241.662	754.81
241.896	789.81
242.13	759.81
242.363	771.81
242.597	805.81
242.83	823.81
243.064	815.81
243.298	822.81
243.531	832.81
243.765	845.81
243.998	880.81
244.232	831.81
244.465	898.81
244.699	906.81
244.932	910.81
245.166	909.81
245.399	887.81
245.633	895.81
245.866	924.81
246.099	930.81
246.333	961.81
246.566	952.81
246.8	967.81
247.033	996.81
247.266	1027.81
247.5	1100.81
247.733	1141.81
247.966	1147.81
248.2	1136.81
248.433	1163.81
248.666	1185.81
248.899	1318.81
249.133	1393.81
249.366	1395.81
249.599	1280.81
249.832	1218.81
250.066	1261.81
250.299	1361.81
250.532	1518.81
250.765	1636.81
250.998	1754.81
251.231	1647.81
251.465	1482.81
251.698	1447.81
251.931	1384.81
252.164	1379.81
252.397	1398.81
252.63	1441.81
252.863	1528.81
253.096	1658.81
253.329	1711.81
253.562	1608.81
253.795	1543.81
254.028	1536.81
254.261	1567.81
254.494	1718.81
254.727	2057.81
254.96	2123.81
255.193	1934.81
255.426	1766.81
255.659	1757.81
255.892	1840.81
256.124	2025.81
256.357	1934.81
256.59	1764.81
256.823	1637.81
257.056	1578.81
257.289	1530.81
257.521	1553.81
257.754	1589.81
257.987	1521.81
258.22	1507.81
258.452	1537.81
258.685	1505.81
258.918	1555.81
259.151	1597.81
259.383	1636.81
259.616	1653.81
259.849	1699.81
260.081	1860.81
260.314	2029.81
260.547	1979.81
260.779	1846.81
261.012	1734.81
261.244	1671.81
261.477	1626.81
261.71	1676.81
261.942	1672.81
262.175	1724.81
262.407	1674.81
262.64	1644.81
262.872	1620.81
263.105	1609.81
263.337	1595.81
263.57	1635.81
263.802	1629.81
264.035	1638.81
264.267	1696.81
264.499	1682.81
264.732	1661.81
264.964	1676.81
265.197	1666.81
265.429	1725.81
265.661	1641.81
265.894	1723.81
266.126	1722.81
266.358	1737.81
266.591	1781.81
266.823	1846.81
267.055	1846.81
267.287	1851.81
267.52	1787.81
267.752	1822.81
267.984	1843.81
268.216	1823.81
268.448	1904.81
268.681	1966.81
268.913	2065.81
269.145	2262.81
269.377	2296.81
269.609	2236.81
269.841	2224.81
270.073	2293.81
270.306	2537.81
270.538	2706.81
270.77	2549.81
271.002	2413.81
271.234	2387.81
271.466	2512.81
271.698	2617.81
271.93	2643.81
272.162	2653.81
272.394	2514.81
272.626	2429.81
272.858	2325.81
273.09	2247.81
273.322	2217.81
273.553	2200.81
273.785	2191.81
274.017	2170.81
274.249	2189.81
274.481	2228.81
274.713	2233.81
274.945	2205.81
275.176	2228.81
275.408	2244.81
275.64	2195.81
275.872	2190.81
276.104	2216.81
276.335	2309.81
276.567	2330.81
276.799	2493.81
277.031	2641.81
277.262	2790.81
277.494	2706.81
277.726	2535.81
277.957	2432.81
278.189	2425.81
278.421	2379.81
278.652	2303.81
278.884	2312.81
279.115	2330.81
279.347	2327.81
279.579	2336.81
279.81	2365.81
280.042	2354.81
280.273	2373.81
280.505	2452.81
280.736	2406.81
280.968	2372.81
281.199	2401.81
281.431	2406.81
281.662	2437.81
281.894	2477.81
282.125	2472.81
282.356	2617.81
282.588	2653.81
282.819	2617.81
283.051	2543.81
283.282	2477.81
283.513	2535.81
283.745	2509.81
283.976	2610.81
284.207	2655.81
284.439	2547.81
284.67	2613.81
284.901	2600.81
285.132	2599.81
285.364	2572.81
285.595	2568.81
285.826	2568.81
286.057	2600.81
286.288	2602.81
286.52	2614.81
286.751	2645.81
286.982	2664.81
287.213	2621.81
287.444	2672.81
287.675	2773.81
287.906	2730.81
288.138	2847.81
288.369	2829.81
288.6	2823.81
288.831	2805.81
289.062	2801.81
289.293	2760.81
289.524	2771.81
289.755	2757.81
289.986	2735.81
290.217	2721.81
290.448	2750.81
290.679	2795.81
290.91	2758.81
291.141	2756.81
291.371	2780.81
291.602	2789.81
291.833	2740.81
292.064	2786.81
292.295	2788.81
292.526	2735.81
292.757	2748.81
292.987	2750.81
293.218	2722.81
293.449	2839.81
293.68	2788.81
293.91	2807.81
294.141	2776.81
294.372	2765.81
294.603	2820.81
294.833	2800.81
295.064	2825.81
295.295	2834.81
295.525	2840.81
295.756	2896.81
295.987	2899.81
296.217	3103.81
296.448	2992.81
296.679	2910.81
296.909	2885.81
297.14	2872.81
297.37	2923.81
297.601	2960.81
297.831	3009.81
298.062	3003.81
298.292	2994.81
298.523	3042.81
298.753	3030.81
298.984	2997.81
299.214	3061.81
299.445	3047.81
299.675	3050.81
299.905	3083.81
300.136	3056.81
300.366	3059.81
300.597	3097.81
300.827	3182.81
301.057	3233.81
301.288	3328.81
301.518	3263.81
301.748	3269.81
301.979	3359.81
302.209	3269.81
302.439	3264.81
302.669	3255.81
302.9	3243.81
303.13	3239.81
303.36	3273.81
303.59	3263.81
303.82	3344.81
304.051	3307.81
304.281	3226.81
304.511	3159.81
304.741	3247.81
304.971	3245.81
305.201	3255.81
305.431	3178.81
305.661	3214.81
305.891	3261.81
306.121	3182.81
306.352	3311.81
306.582	3194.81
306.812	3168.81
307.042	3161.81
307.272	3194.81
307.502	3170.81
307.731	3249.81
307.961	3189.81
308.191	3147.81
308.421	3181.81
308.651	3203.81
308.881	3256.81
309.111	3261.81
309.341	3299.81
309.571	3377.81
309.8	3327.81
310.03	3495.81
310.26	3443.81
310.49	3415.81
310.72	3548.81
310.949	3648.81
311.179	3597.81
311.409	3476.81
311.639	3523.81
311.868	3529.81
312.098	3592.81
312.328	3611.81
312.557	3658.81
312.787	3786.81
313.017	3756.81
313.246	3645.81
313.476	3569.81
313.706	3631.81
313.935	3744.81
314.165	3803.81
314.394	3788.81
314.624	3777.81
314.853	3680.81
315.083	3643.81
315.312	3659.81
315.542	3603.81
315.771	3566.81
316.001	3573.81
316.23	3554.81
316.46	3589.81
316.689	3611.81
316.919	3685.81
317.148	3655.81
317.377	3591.81
317.607	3620.81
317.836	3603.81
318.065	3543.81
318.295	3570.81
318.524	3611.81
318.753	3538.81
318.983	3573.81
319.212	3606.81
319.441	3649.81
319.67	3641.81
319.9	3555.81
320.129	3629.81
320.358	3611.81
320.587	3607.81
320.816	3691.81
321.046	3696.81
321.275	3694.81
321.504	3719.81
321.733	3738.81
321.962	3813.81
322.191	3867.81
322.42	3993.81
322.649	4032.81
322.878	4080.81
323.108	4147.81
323.337	4243.81
323.566	4474.81
323.795	4657.81
324.024	5097.81
324.253	6556.81
324.482	9586.81
324.71	14021.81
324.939	15627.81
325.168	10724.81
325.397	6009.81
325.626	5009.81
325.855	4633.81
326.084	4583.81
326.313	4568.81
326.542	4638.81
326.77	5118.81
326.999	6285.81
327.228	8948.81
327.457	13123.81
327.686	12337.81
327.914	6863.81
328.143	5567.81
328.372	5318.81
328.6	5044.81
328.829	4958.81
329.058	5128.81
329.287	5038.81
329.515	4825.81
329.744	4738.81
329.972	4948.81
330.201	5214.81
330.43	5463.81
330.658	5416.81
330.887	5464.81
331.115	5151.81
331.344	4855.81
331.572	4810.81
331.801	4890.81
332.03	4854.81
332.258	4799.81
332.486	4842.81
332.715	4984.81
332.943	5112.81
333.172	5293.81
333.4	5445.81
333.629	5559.81
333.857	5726.81
334.085	5848.81
334.314	6077.81
334.542	6280.81
334.771	6106.81
334.999	5483.81
335.227	5332.81
335.455	5146.81
335.684	4946.81
335.912	4961.81
336.14	4882.81
336.369	4870.81
336.597	4906.81
336.825	4845.81
337.053	4773.81
337.281	4692.81
337.51	4637.81
337.738	4579.81
337.966	4572.81
338.194	4525.81
338.422	4487.81
338.65	4391.81
338.878	4380.81
339.106	4382.81
339.334	4377.81
339.562	4346.81
339.79	4261.81
340.018	4333.81
340.246	4259.81
340.474	4283.81
340.702	4217.81
340.93	4261.81
341.158	4255.81
341.386	4251.81
341.614	4276.81
341.842	4235.81
342.07	4199.81
342.298	4184.81
342.526	4151.81
342.754	4196.81
342.981	4161.81
343.209	4333.81
343.437	4518.81
343.665	4711.81
343.893	4992.81
344.12	5057.81
344.348	4838.81
344.576	4625.81
344.804	4617.81
345.031	4389.81
345.259	4397.81
345.487	4304.81
345.714	4154.81
345.942	4113.81
346.17	4063.81
346.397	4125.81
346.625	4036.81
346.853	4011.81
347.08	4019.81
347.308	4082.81
347.535	4103.81
347.763	4157.81
347.99	4108.81
348.218	4121.81
348.445	4125.81
348.673	4070.81
348.9	4072.81
349.128	4017.81
349.355	3964.81
349.583	3913.81
349.81	3929.81
350.037	3859.81
350.265	3898.81
350.492	3923.81
350.72	3975.81
350.947	3919.81
351.174	4042.81
351.402	4038.81
351.629	4017.81
351.856	3960.81
352.083	4091.81
352.311	4123.81
352.538	4030.81
352.765	4009.81
352.992	4001.81
353.22	3992.81
353.447	3915.81
353.674	3864.81
353.901	3896.81
354.128	3830.81
354.355	3849.81
354.583	3848.81
354.81	3878.81
355.037	3839.81
355.264	3821.81
355.491	3847.81
355.718	3815.81
355.945	3845.81
356.172	3793.81
356.399	3845.81
356.626	3901.81
356.853	3876.81
357.08	3816.81
357.307	3789.81
357.534	3809.81
357.761	3786.81
357.988	3832.81
358.215	3749.81
358.441	3869.81
358.668	3890.81
358.895	3913.81
359.122	3884.81
359.349	4022.81
359.576	4053.81
359.802	4213.81
360.029	4393.81
360.256	4355.81
360.483	4173.81
360.709	4078.81
360.936	4011.81
361.163	4034.81
361.39	4091.81
361.616	4102.81
361.843	3944.81
362.07	4015.81
362.296	4096.81
362.523	3992.81
362.749	4022.81
362.976	3984.81
363.203	3919.81
363.429	3902.81
363.656	3922.81
363.882	3912.81
364.109	3897.81
364.335	3887.81
364.562	3893.81
364.788	3889.81
365.015	3926.81
365.241	3930.81
365.468	3908.81
365.694	3960.81
365.92	3965.81
366.147	3961.81
366.373	3873.81
366.599	3931.81
366.826	3873.81
367.052	3864.81
367.278	3849.81
367.505	3933.81
367.731	3945.81
367.957	3972.81
368.184	3983.81
368.41	4035.81
368.636	4029.81
368.862	4161.81
369.089	4056.81
369.315	4047.81
369.541	4004.81
369.767	4009.81
369.993	4061.81
370.219	4078.81
370.445	4062.81
370.672	4090.81
370.898	4095.81
371.124	4179.81
371.35	4186.81
371.576	4165.81
371.802	4125.81
372.028	4149.81
372.254	4158.81
372.48	4264.81
372.706	4295.81
372.932	4392.81
373.158	4281.81
373.384	4183.81
373.61	4155.81
373.835	4264.81
374.061	4248.81
374.287	4341.81
374.513	4453.81
374.739	4463.81
374.965	4628.81
375.191	4581.81
375.416	4494.81
375.642	4397.81
375.868	4394.81
376.094	4257.81
376.319	4225.81
376.545	4217.81
376.771	4180.81
376.997	4184.81
377.222	4228.81
377.448	4179.81
377.674	4179.81
377.899	4093.81
378.125	4183.81
378.35	4082.81
378.576	4143.81
378.802	4163.81
379.027	4185.81
379.253	4099.81
379.478	4166.81
379.704	4129.81
379.929	4193.81
380.155	4178.81
380.38	4190.81
380.606	4187.81
380.831	4123.81
381.057	4246.81
381.282	4223.81
381.507	4244.81
381.733	4309.81
381.958	4337.81
382.184	4271.81
382.409	4396.81
382.634	4397.81
382.86	4447.81
383.085	4442.81
383.31	4573.81
383.535	4610.81
383.761	4657.81
383.986	4783.81
384.211	4810.81
384.436	4939.81
384.662	4901.81
384.887	5022.81
385.112	5016.81
385.337	5123.81
385.562	5062.81
385.787	5097.81
386.013	5140.81
386.238	5205.81
386.463	5192.81
386.688	5155.81
386.913	5073.81
387.138	5021.81
387.363	4977.81
387.588	4887.81
387.813	5017.81
388.038	5011.81
388.263	4987.81
388.488	5057.81
388.713	5023.81
388.938	4957.81
389.163	4998.81
389.387	4990.81
389.612	4975.81
389.837	4948.81
390.062	4896.81
390.287	4918.81
390.512	4980.81
390.736	4928.81
390.961	5107.81
391.186	5157.81
391.411	5281.81
391.636	5395.81
391.86	5622.81
392.085	5675.81
392.31	5564.81
392.534	5310.81
392.759	5295.81
392.984	5202.81
393.208	5199.81
393.433	5185.81
393.658	5201.81
393.882	5210.81
394.107	5258.81
394.331	5331.81
394.556	5313.81
394.78	5291.81
395.005	5355.81
395.229	5377.81
395.454	5508.81
395.678	5637.81
395.903	5605.81
396.127	5682.81
396.352	5514.81
396.576	5346.81
396.801	5273.81
397.025	5448.81
397.249	5505.81
397.474	5647.81
397.698	5657.81
397.922	5789.81
398.147	5779.81
398.371	5911.81
398.595	6129.81
398.82	6365.81
399.044	6910.81
399.268	7659.81
399.492	8690.81
399.717	9362.81
399.941	9117.81
400.165	8357.81
400.389	7801.81
400.613	6987.81
400.837	6609.81
401.062	6406.81
401.286	6308.81
401.51	6300.81
401.734	6265.81
401.958	6387.81
402.182	6482.81
402.406	6625.81
402.63	6704.81
402.854	6802.81
403.078	6848.81
403.302	7074.81
403.526	7185.81
403.75	7151.81
403.974	7219.81
404.198	7172.81
404.422	7317.81
404.645	7255.81
404.869	7310.81
405.093	7599.81
405.317	7881.81
405.541	7794.81
405.765	7253.81
405.988	7101.81
406.212	7217.81
406.436	7413.81
406.66	7459.81
406.883	7439.81
407.107	8032.81
407.331	8621.81
407.555	8937.81
407.778	8724.81
408.002	7983.81
408.226	7601.81
408.449	7553.81
408.673	7408.81
408.896	7611.81
409.12	7677.81
409.344	7291.81
409.567	6868.81
409.791	6945.81
410.014	6882.81
410.238	6789.81
410.461	6787.81
410.685	6817.81
410.908	6942.81
411.132	7112.81
411.355	7075.81
411.578	6786.81
411.802	6665.81
412.025	6680.81
412.249	6889.81
412.472	6986.81
412.695	7324.81
412.919	6881.81
413.142	6523.81
413.365	6500.81
413.589	6396.81
413.812	6262.81
414.035	6141.81
414.258	6208.81
414.482	6246.81
414.705	6275.81
414.928	6256.81
415.151	6256.81
415.374	6306.81
415.597	6097.81
415.821	6056.81
416.044	6131.81
416.267	6093.81
416.49	6031.81
416.713	5999.81
416.936	6132.81
417.159	6130.81
417.382	6187.81
417.605	6189.81
417.828	6355.81
418.051	6381.81
418.274	6330.81
418.497	6186.81
418.72	6380.81
418.943	6317.81
419.166	6802.81
419.389	7137.81
419.611	6995.81
419.834	6847.81
420.057	6762.81
420.28	6655.81
420.503	6493.81
420.726	6447.81
420.948	6516.81
421.171	6862.81
421.394	6884.81
421.617	6332.81
421.839	6335.81
422.062	6420.81
422.285	6614.81
422.507	7186.81
422.73	7626.81
422.953	7061.81
423.175	6763.81
423.398	6769.81
423.621	6743.81
423.843	6965.81
424.066	6948.81
424.288	6906.81
424.511	7077.81
424.733	7485.81
424.956	7921.81
425.178	7430.81
425.401	7638.81
425.623	7385.81
425.846	6549.81
426.068	6426.81
426.291	6379.81
426.513	6394.81
426.735	6403.81
426.958	6835.81
427.18	7513.81
427.402	8599.81
427.625	8644.81
427.847	7451.81
428.069	6899.81
428.292	6297.81
428.514	5962.81
428.736	5817.81
428.958	5786.81
429.181	5615.81
429.403	5625.81
429.625	5842.81
429.847	6089.81
430.069	6622.81
430.292	6169.81
430.514	5639.81
430.736	5661.81
430.958	5653.81
431.18	5396.81
431.402	5507.81
431.624	5477.81
431.846	5607.81
432.068	5549.81
432.29	5666.81
432.512	5520.81
432.734	5669.81
432.956	5570.81
433.178	5631.81
433.4	5609.81
433.622	5566.81
433.844	5633.81
434.066	5669.81
434.287	5756.81
434.509	5975.81
434.731	6114.81
434.953	6336.81
435.175	6360.81
435.397	6490.81
435.618	6334.81
435.84	6656.81
436.062	7484.81
436.284	7375.81
436.505	6266.81
436.727	5964.81
436.949	5793.81
437.17	5634.81
437.392	5544.81
437.614	5770.81
437.835	6033.81
438.057	6855.81
438.278	7474.81
438.5	7499.81
438.721	8241.81
438.943	7249.81
439.165	6149.81
439.386	6087.81
439.608	5986.81
439.829	6098.81
440.05	6365.81
440.272	6619.81
440.493	6152.81
440.715	5961.81
440.936	5870.81
441.158	5969.81
441.379	6010.81
441.6	6326.81
441.822	6606.81
442.043	6989.81
442.264	7698.81
442.486	7387.81
442.707	6658.81
442.928	6465.81
443.149	6662.81
443.371	6807.81
443.592	7315.81
443.813	8305.81
444.034	8200.81
444.255	7210.81
444.476	7099.81
444.698	7236.81
444.919	7401.81
445.14	7090.81
445.361	7011.81
445.582	7081.81
445.803	7533.81
446.024	8109.81
446.245	7853.81
446.466	7077.81
446.687	6254.81
446.908	5925.81
447.129	5604.81
447.35	5507.81
447.571	5389.81
447.792	5320.81
448.013	5549.81
448.234	5622.81
448.455	6203.81
448.675	7340.81
448.896	7723.81
449.117	6434.81
449.338	6705.81
449.559	7865.81
449.779	7942.81
450	6138.81
450.221	5591.81
450.442	5310.81
450.662	5268.81
450.883	5331.81
451.104	5419.81
451.324	5253.81
451.545	5144.81
451.766	5031.81
451.986	4927.81
452.207	4908.81
452.428	4947.81
452.648	4938.81
452.869	4943.81
453.089	4987.81
453.31	5096.81
453.53	4955.81
453.751	4822.81
453.971	4907.81
454.192	4955.81
454.412	4755.81
454.633	4816.81
454.853	4728.81
455.073	4776.81
455.294	5104.81
455.514	5632.81
455.734	5097.81
455.955	4577.81
456.175	4600.81
456.395	4513.81
456.616	4477.81
456.836	4521.81
457.056	4467.81
457.276	4422.81
457.497	4616.81
457.717	4573.81
457.937	4578.81
458.157	4682.81
458.377	4834.81
458.598	5105.81
458.818	5620.81
459.038	6357.81
459.258	6317.81
459.478	5690.81
459.698	5629.81
459.918	5708.81
460.138	5903.81
460.358	6137.81
460.578	6102.81
460.798	6086.81
461.018	6223.81
461.238	6046.81
461.458	6056.81
461.678	6005.81
461.898	6179.81
462.118	6187.81
462.338	6494.81
462.558	6711.81
462.777	6987.81
462.997	7431.81
463.217	7882.81
463.437	7799.81
463.657	7172.81
463.876	6896.81
464.096	6966.81
464.316	7046.81
464.536	7079.81
464.755	6678.81
464.975	6625.81
465.195	6701.81
465.414	6683.81
465.634	5910.81
465.854	5638.81
466.073	5456.81
466.293	5263.81
466.512	5213.81
466.732	5073.81
466.951	5042.81
467.171	5035.81
467.391	5062.81
467.61	5154.81
467.829	5056.81
468.049	5097.81
468.268	5023.81
468.488	4877.81
468.707	4869.81
468.927	4841.81
469.146	4813.81
469.365	4961.81
469.585	4951.81
469.804	5086.81
470.023	5253.81
470.243	5247.81
470.462	5298.81
470.681	5439.81
470.901	5275.81
471.12	5228.81
471.339	5095.81
471.558	5141.81
471.777	5043.81
471.997	5003.81
472.216	5194.81
472.435	5446.81
472.654	5119.81
472.873	4996.81
473.092	4974.81
473.311	4856.81
473.53	4919.81
473.749	5083.81
473.968	5471.81
474.187	6395.81
474.406	5976.81
474.625	5195.81
474.844	4953.81
475.063	4915.81
475.282	4926.81
475.501	4989.81
475.72	5011.81
475.939	5048.81
476.158	5016.81
476.377	5081.81
476.596	4968.81
476.814	5202.81
477.033	5211.81
477.252	5271.81
477.471	5443.81
477.69	5520.81
477.908	5593.81
478.127	5746.81
478.346	5850.81
478.564	5898.81
478.783	5951.81
479.002	6107.81
479.22	6229.81
479.439	6241.81
479.658	6275.81
479.876	6380.81
480.095	6565.81
480.313	6972.81
480.532	6815.81
480.751	6735.81
480.969	6820.81
481.188	7384.81
481.406	7214.81
481.624	6424.81
481.843	6193.81
482.061	6049.81
482.28	5896.81
482.498	5879.81
482.717	5771.81
482.935	5792.81
483.153	5733.81
483.372	5758.81
483.59	5822.81
483.808	5711.81
484.027	5842.81
484.245	5855.81
484.463	5812.81
484.681	5914.81
484.9	5917.81
485.118	5981.81
485.336	5982.81
485.554	6122.81
485.772	6086.81
485.99	6120.81
486.209	6254.81
486.427	6199.81
486.645	6220.81
486.863	6280.81
487.081	6274.81
487.299	6182.81
487.517	6239.81
487.735	6246.81
487.953	6203.81
