Data from Circ_1985_H10_HRD10591_00087.txt Node
Date: Wed Jan 03 12:19:40 EST 2024
User: Yrep
Spectrometer: HR+D1059
Trigger mode: 1
Integration Time (sec): 1.000000E-1
Scans to average: 1
Electric dark correction enabled: true
Nonlinearity correction enabled: false
Boxcar width: 0
XAxis mode: Wavelengths
Number of Pixels in Spectrum: 2048
>>>>>Begin Spectral Data<<<<<
223.165	-16.88
223.4	-16.88
223.635	-16.88
223.869	-16.88
224.104	-10.88
224.338	-26.88
224.573	-24.88
224.808	-3.88
225.042	-5.88
225.277	3.12
225.511	5.12
225.746	19.12
225.98	-1.88
226.215	9.12
226.449	24.12
226.683	10.12
226.918	14.12
227.152	23.12
227.387	34.12
227.621	52.12
227.856	51.12
228.09	47.12
228.324	50.12
228.559	64.12
228.793	56.12
229.027	83.12
229.262	74.12
229.496	78.12
229.73	74.12
229.964	84.12
230.199	80.12
230.433	68.12
230.667	94.12
230.901	73.12
231.136	82.12
231.37	78.12
231.604	83.12
231.838	80.12
232.072	92.12
232.306	78.12
232.541	78.12
232.775	72.12
233.009	89.12
233.243	68.12
233.477	70.12
233.711	84.12
233.945	70.12
234.179	66.12
234.413	91.12
234.647	80.12
234.881	73.12
235.115	80.12
235.349	73.12
235.583	68.12
235.817	81.12
236.051	82.12
236.285	88.12
236.519	78.12
236.753	84.12
236.987	82.12
237.221	87.12
237.455	91.12
237.689	79.12
237.922	82.12
238.156	82.12
238.39	89.12
238.624	67.12
238.858	84.12
239.091	86.12
239.325	83.12
239.559	78.12
239.793	82.12
240.027	79.12
240.26	76.12
240.494	80.12
240.728	82.12
240.961	90.12
241.195	82.12
241.429	89.12
241.662	66.12
241.896	80.12
242.13	71.12
242.363	95.12
242.597	81.12
242.83	87.12
243.064	83.12
243.298	70.12
243.531	84.12
243.765	81.12
243.998	79.12
244.232	78.12
244.465	75.12
244.699	83.12
244.932	93.12
245.166	68.12
245.399	85.12
245.633	78.12
245.866	78.12
246.099	72.12
246.333	81.12
246.566	68.12
246.8	66.12
247.033	83.12
247.266	88.12
247.5	84.12
247.733	84.12
247.966	83.12
248.2	79.12
248.433	85.12
248.666	88.12
248.899	80.12
249.133	87.12
249.366	98.12
249.599	95.12
249.832	75.12
250.066	71.12
250.299	73.12
250.532	78.12
250.765	73.12
250.998	78.12
251.231	88.12
251.465	91.12
251.698	81.12
251.931	88.12
252.164	72.12
252.397	67.12
252.63	79.12
252.863	87.12
253.096	85.12
253.329	82.12
253.562	71.12
253.795	79.12
254.028	93.12
254.261	79.12
254.494	75.12
254.727	84.12
254.96	98.12
255.193	75.12
255.426	88.12
255.659	71.12
255.892	90.12
256.124	84.12
256.357	74.12
256.59	76.12
256.823	89.12
257.056	78.12
257.289	98.12
257.521	90.12
257.754	90.12
257.987	86.12
258.22	88.12
258.452	75.12
258.685	88.12
258.918	88.12
259.151	81.12
259.383	91.12
259.616	76.12
259.849	88.12
260.081	91.12
260.314	82.12
260.547	80.12
260.779	78.12
261.012	63.12
261.244	73.12
261.477	78.12
261.71	98.12
261.942	105.12
262.175	109.12
262.407	94.12
262.64	88.12
262.872	100.12
263.105	94.12
263.337	87.12
263.57	92.12
263.802	89.12
264.035	88.12
264.267	89.12
264.499	89.12
264.732	72.12
264.964	82.12
265.197	88.12
265.429	85.12
265.661	87.12
265.894	83.12
266.126	86.12
266.358	102.12
266.591	87.12
266.823	89.12
267.055	88.12
267.287	84.12
267.52	83.12
267.752	80.12
267.984	89.12
268.216	88.12
268.448	96.12
268.681	84.12
268.913	74.12
269.145	84.12
269.377	86.12
269.609	87.12
269.841	99.12
270.073	91.12
270.306	84.12
270.538	64.12
270.77	82.12
271.002	84.12
271.234	73.12
271.466	80.12
271.698	87.12
271.93	78.12
272.162	66.12
272.394	94.12
272.626	78.12
272.858	86.12
273.09	84.12
273.322	86.12
273.553	81.12
273.785	91.12
274.017	81.12
274.249	85.12
274.481	94.12
274.713	80.12
274.945	82.12
275.176	90.12
275.408	82.12
275.64	83.12
275.872	88.12
276.104	86.12
276.335	80.12
276.567	94.12
276.799	91.12
277.031	86.12
277.262	87.12
277.494	94.12
277.726	79.12
277.957	87.12
278.189	100.12
278.421	94.12
278.652	87.12
278.884	97.12
279.115	82.12
279.347	90.12
279.579	93.12
279.81	81.12
280.042	81.12
280.273	92.12
280.505	90.12
280.736	97.12
280.968	87.12
281.199	78.12
281.431	78.12
281.662	71.12
281.894	89.12
282.125	98.12
282.356	96.12
282.588	114.12
282.819	117.12
283.051	92.12
283.282	90.12
283.513	85.12
283.745	86.12
283.976	92.12
284.207	89.12
284.439	81.12
284.67	96.12
284.901	86.12
285.132	80.12
285.364	86.12
285.595	100.12
285.826	87.12
286.057	88.12
286.288	83.12
286.52	91.12
286.751	98.12
286.982	78.12
287.213	86.12
287.444	97.12
287.675	84.12
287.906	88.12
288.138	80.12
288.369	94.12
288.6	96.12
288.831	95.12
289.062	93.12
289.293	91.12
289.524	82.12
289.755	82.12
289.986	100.12
290.217	96.12
290.448	83.12
290.679	94.12
290.91	104.12
291.141	94.12
291.371	94.12
291.602	87.12
291.833	88.12
292.064	84.12
292.295	100.12
292.526	87.12
292.757	91.12
292.987	86.12
293.218	74.12
293.449	94.12
293.68	84.12
293.91	80.12
294.141	86.12
294.372	88.12
294.603	98.12
294.833	87.12
295.064	86.12
295.295	75.12
295.525	86.12
295.756	94.12
295.987	109.12
296.217	106.12
296.448	116.12
296.679	96.12
296.909	91.12
297.14	87.12
297.37	73.12
297.601	88.12
297.831	80.12
298.062	88.12
298.292	89.12
298.523	99.12
298.753	91.12
298.984	81.12
299.214	84.12
299.445	86.12
299.675	76.12
299.905	93.12
300.136	87.12
300.366	91.12
300.597	94.12
300.827	87.12
301.057	104.12
301.288	101.12
301.518	81.12
301.748	93.12
301.979	83.12
302.209	92.12
302.439	104.12
302.669	95.12
302.9	94.12
303.13	95.12
303.36	83.12
303.59	102.12
303.82	103.12
304.051	90.12
304.281	92.12
304.511	85.12
304.741	79.12
304.971	67.12
305.201	82.12
305.431	96.12
305.661	75.12
305.891	84.12
306.121	99.12
306.352	104.12
306.582	97.12
306.812	105.12
307.042	84.12
307.272	82.12
307.502	96.12
307.731	99.12
307.961	88.12
308.191	91.12
308.421	88.12
308.651	93.12
308.881	88.12
309.111	98.12
309.341	85.12
309.571	87.12
309.8	90.12
310.03	85.12
310.26	94.12
310.49	85.12
310.72	78.12
310.949	96.12
311.179	100.12
311.409	100.12
311.639	100.12
311.868	81.12
312.098	95.12
312.328	87.12
312.557	92.12
312.787	79.12
313.017	109.12
313.246	98.12
313.476	90.12
313.706	89.12
313.935	84.12
314.165	94.12
314.394	105.12
314.624	98.12
314.853	87.12
315.083	95.12
315.312	95.12
315.542	95.12
315.771	113.12
316.001	81.12
316.23	94.12
316.46	88.12
316.689	90.12
316.919	88.12
317.148	88.12
317.377	83.12
317.607	96.12
317.836	90.12
318.065	103.12
318.295	83.12
318.524	81.12
318.753	84.12
318.983	99.12
319.212	98.12
319.441	106.12
319.67	118.12
319.9	87.12
320.129	84.12
320.358	88.12
320.587	90.12
320.816	97.12
321.046	95.12
321.275	98.12
321.504	108.12
321.733	104.12
321.962	92.12
322.191	108.12
322.42	105.12
322.649	102.12
322.878	107.12
323.108	112.12
323.337	104.12
323.566	118.12
323.795	132.12
324.024	174.12
324.253	346.12
324.482	738.12
324.71	1574.12
324.939	2035.12
325.168	754.12
325.397	242.12
325.626	151.12
325.855	116.12
326.084	128.12
326.313	122.12
326.542	132.12
326.77	207.12
326.999	428.12
327.228	895.12
327.457	1605.12
327.686	1267.12
327.914	340.12
328.143	185.12
328.372	164.12
328.6	120.12
328.829	122.12
329.058	105.12
329.287	112.12
329.515	101.12
329.744	102.12
329.972	116.12
330.201	126.12
330.43	152.12
330.658	124.12
330.887	118.12
331.115	94.12
331.344	96.12
331.572	96.12
331.801	104.12
332.03	98.12
332.258	99.12
332.486	88.12
332.715	95.12
332.943	93.12
333.172	99.12
333.4	97.12
333.629	104.12
333.857	108.12
334.085	118.12
334.314	142.12
334.542	169.12
334.771	145.12
334.999	103.12
335.227	88.12
335.455	95.12
335.684	97.12
335.912	107.12
336.14	104.12
336.369	81.12
336.597	90.12
336.825	101.12
337.053	100.12
337.281	96.12
337.51	104.12
337.738	98.12
337.966	105.12
338.194	80.12
338.422	105.12
338.65	107.12
338.878	99.12
339.106	95.12
339.334	90.12
339.562	97.12
339.79	91.12
340.018	96.12
340.246	85.12
340.474	88.12
340.702	91.12
340.93	83.12
341.158	89.12
341.386	89.12
341.614	91.12
341.842	81.12
342.07	97.12
342.298	101.12
342.526	96.12
342.754	85.12
342.981	96.12
343.209	96.12
343.437	82.12
343.665	91.12
343.893	85.12
344.12	96.12
344.348	95.12
344.576	98.12
344.804	99.12
345.031	100.12
345.259	89.12
345.487	88.12
345.714	93.12
345.942	84.12
346.17	91.12
346.397	101.12
346.625	86.12
346.853	100.12
347.08	107.12
347.308	84.12
347.535	84.12
347.763	97.12
347.99	90.12
348.218	107.12
348.445	99.12
348.673	103.12
348.9	92.12
349.128	107.12
349.355	109.12
349.583	99.12
349.81	95.12
350.037	104.12
350.265	92.12
350.492	103.12
350.72	108.12
350.947	87.12
351.174	111.12
351.402	115.12
351.629	96.12
351.856	100.12
352.083	90.12
352.311	98.12
352.538	109.12
352.765	99.12
352.992	114.12
353.22	112.12
353.447	106.12
353.674	111.12
353.901	99.12
354.128	105.12
354.355	96.12
354.583	107.12
354.81	108.12
355.037	96.12
355.264	107.12
355.491	101.12
355.718	86.12
355.945	95.12
356.172	105.12
356.399	89.12
356.626	91.12
356.853	96.12
357.08	96.12
357.307	95.12
357.534	94.12
357.761	89.12
357.988	103.12
358.215	98.12
358.441	106.12
358.668	96.12
358.895	90.12
359.122	92.12
359.349	90.12
359.576	72.12
359.802	88.12
360.029	105.12
360.256	108.12
360.483	94.12
360.709	82.12
360.936	97.12
361.163	98.12
361.39	87.12
361.616	92.12
361.843	100.12
362.07	106.12
362.296	95.12
362.523	86.12
362.749	84.12
362.976	80.12
363.203	96.12
363.429	84.12
363.656	84.12
363.882	78.12
364.109	83.12
364.335	78.12
364.562	78.12
364.788	94.12
365.015	86.12
365.241	88.12
365.468	114.12
365.694	99.12
365.92	94.12
366.147	92.12
366.373	89.12
366.599	93.12
366.826	88.12
367.052	84.12
367.278	86.12
367.505	88.12
367.731	76.12
367.957	79.12
368.184	86.12
368.41	93.12
368.636	96.12
368.862	105.12
369.089	100.12
369.315	72.12
369.541	98.12
369.767	100.12
369.993	83.12
370.219	99.12
370.445	85.12
370.672	86.12
370.898	83.12
371.124	102.12
371.35	86.12
371.576	87.12
371.802	90.12
372.028	81.12
372.254	95.12
372.48	87.12
372.706	92.12
372.932	84.12
373.158	97.12
373.384	84.12
373.61	93.12
373.835	80.12
374.061	93.12
374.287	90.12
374.513	90.12
374.739	83.12
374.965	86.12
375.191	98.12
375.416	102.12
375.642	91.12
375.868	90.12
376.094	85.12
376.319	87.12
376.545	80.12
376.771	95.12
376.997	94.12
377.222	91.12
377.448	102.12
377.674	66.12
377.899	87.12
378.125	84.12
378.35	82.12
378.576	89.12
378.802	89.12
379.027	91.12
379.253	88.12
379.478	87.12
379.704	92.12
379.929	93.12
380.155	74.12
380.38	95.12
380.606	105.12
380.831	96.12
381.057	85.12
381.282	104.12
381.507	95.12
381.733	82.12
381.958	103.12
382.184	112.12
382.409	94.12
382.634	102.12
382.86	101.12
383.085	95.12
383.31	107.12
383.535	98.12
383.761	111.12
383.986	98.12
384.211	89.12
384.436	78.12
384.662	94.12
384.887	94.12
385.112	89.12
385.337	111.12
385.562	105.12
385.787	100.12
386.013	110.12
386.238	106.12
386.463	94.12
386.688	101.12
386.913	104.12
387.138	106.12
387.363	97.12
387.588	81.12
387.813	85.12
388.038	86.12
388.263	106.12
388.488	105.12
388.713	99.12
388.938	100.12
389.163	105.12
389.387	98.12
389.612	89.12
389.837	103.12
390.062	90.12
390.287	90.12
390.512	95.12
390.736	96.12
390.961	92.12
391.186	107.12
391.411	95.12
391.636	92.12
391.86	86.12
392.085	80.12
392.31	81.12
392.534	87.12
392.759	97.12
392.984	91.12
393.208	100.12
393.433	89.12
393.658	89.12
393.882	82.12
394.107	71.12
394.331	78.12
394.556	86.12
394.78	102.12
395.005	87.12
395.229	88.12
395.454	73.12
395.678	87.12
395.903	89.12
396.127	83.12
396.352	89.12
396.576	88.12
396.801	80.12
397.025	97.12
397.249	92.12
397.474	86.12
397.698	95.12
397.922	91.12
398.147	85.12
398.371	96.12
398.595	87.12
398.82	99.12
399.044	96.12
399.268	86.12
399.492	76.12
399.717	94.12
399.941	78.12
400.165	84.12
400.389	94.12
400.613	85.12
400.837	85.12
401.062	88.12
401.286	89.12
401.51	85.12
401.734	97.12
401.958	91.12
402.182	111.12
402.406	134.12
402.63	106.12
402.854	91.12
403.078	82.12
403.302	94.12
403.526	83.12
403.75	85.12
403.974	96.12
404.198	79.12
404.422	87.12
404.645	82.12
404.869	88.12
405.093	98.12
405.317	100.12
405.541	95.12
405.765	92.12
405.988	114.12
406.212	150.12
406.436	183.12
406.66	120.12
406.883	89.12
407.107	97.12
407.331	103.12
407.555	92.12
407.778	80.12
408.002	88.12
408.226	90.12
408.449	91.12
408.673	83.12
408.896	86.12
409.12	92.12
409.344	77.12
409.567	95.12
409.791	98.12
410.014	87.12
410.238	82.12
410.461	99.12
410.685	100.12
410.908	108.12
411.132	92.12
411.355	103.12
411.578	90.12
411.802	94.12
412.025	91.12
412.249	96.12
412.472	95.12
412.695	96.12
412.919	91.12
413.142	82.12
413.365	104.12
413.589	82.12
413.812	88.12
414.035	86.12
414.258	91.12
414.482	84.12
414.705	106.12
414.928	95.12
415.151	89.12
415.374	100.12
415.597	81.12
415.821	85.12
416.044	78.12
416.267	92.12
416.49	79.12
416.713	84.12
416.936	74.12
417.159	87.12
417.382	92.12
417.605	86.12
417.828	88.12
418.051	95.12
418.274	79.12
418.497	86.12
418.72	89.12
418.943	90.12
419.166	95.12
419.389	80.12
419.611	80.12
419.834	84.12
420.057	102.12
420.28	78.12
420.503	81.12
420.726	76.12
420.948	97.12
421.171	77.12
421.394	95.12
421.617	85.12
421.839	90.12
422.062	91.12
422.285	92.12
422.507	85.12
422.73	99.12
422.953	88.12
423.175	86.12
423.398	68.12
423.621	94.12
423.843	95.12
424.066	90.12
424.288	90.12
424.511	99.12
424.733	88.12
424.956	103.12
425.178	80.12
425.401	101.12
425.623	99.12
425.846	92.12
426.068	92.12
426.291	95.12
426.513	90.12
426.735	97.12
426.958	93.12
427.18	97.12
427.402	129.12
427.625	154.12
427.847	110.12
428.069	127.12
428.292	82.12
428.514	70.12
428.736	89.12
428.958	88.12
429.181	74.12
429.403	94.12
429.625	79.12
429.847	90.12
430.069	94.12
430.292	84.12
430.514	102.12
430.736	84.12
430.958	89.12
431.18	97.12
431.402	97.12
431.624	89.12
431.846	80.12
432.068	83.12
432.29	99.12
432.512	89.12
432.734	91.12
432.956	86.12
433.178	97.12
433.4	88.12
433.622	93.12
433.844	84.12
434.066	77.12
434.287	102.12
434.509	83.12
434.731	96.12
434.953	94.12
435.175	79.12
435.397	88.12
435.618	98.12
435.84	88.12
436.062	105.12
436.284	106.12
436.505	101.12
436.727	100.12
436.949	80.12
437.17	99.12
437.392	87.12
437.614	92.12
437.835	112.12
438.057	114.12
438.278	120.12
438.5	90.12
438.721	91.12
438.943	108.12
439.165	98.12
439.386	83.12
439.608	98.12
439.829	90.12
440.05	100.12
440.272	135.12
440.493	88.12
440.715	85.12
440.936	78.12
441.158	88.12
441.379	85.12
441.6	90.12
441.822	87.12
442.043	103.12
442.264	95.12
442.486	89.12
442.707	78.12
442.928	85.12
443.149	112.12
443.371	114.12
443.592	98.12
443.813	113.12
444.034	106.12
444.255	89.12
444.476	80.12
444.698	97.12
444.919	101.12
445.14	131.12
445.361	110.12
445.582	110.12
445.803	126.12
446.024	130.12
446.245	110.12
446.466	99.12
446.687	78.12
446.908	89.12
447.129	96.12
447.35	97.12
447.571	95.12
447.792	85.12
448.013	95.12
448.234	90.12
448.455	98.12
448.675	97.12
448.896	77.12
449.117	103.12
449.338	102.12
449.559	107.12
449.779	132.12
450	91.12
450.221	81.12
450.442	92.12
450.662	96.12
450.883	103.12
451.104	91.12
451.324	90.12
451.545	89.12
451.766	91.12
451.986	75.12
452.207	87.12
452.428	99.12
452.648	96.12
452.869	95.12
453.089	92.12
453.31	102.12
453.53	96.12
453.751	79.12
453.971	103.12
454.192	100.12
454.412	94.12
454.633	82.12
454.853	82.12
455.073	95.12
455.294	88.12
455.514	94.12
455.734	99.12
455.955	88.12
456.175	79.12
456.395	86.12
456.616	70.12
456.836	89.12
457.056	97.12
457.276	106.12
457.497	78.12
457.717	73.12
457.937	89.12
458.157	82.12
458.377	84.12
458.598	98.12
458.818	128.12
459.038	126.12
459.258	102.12
459.478	90.12
459.698	83.12
459.918	101.12
460.138	84.12
460.358	82.12
460.578	101.12
460.798	85.12
461.018	91.12
461.238	84.12
461.458	83.12
461.678	80.12
461.898	84.12
462.118	89.12
462.338	91.12
462.558	90.12
462.777	103.12
462.997	96.12
463.217	84.12
463.437	75.12
463.657	89.12
463.876	94.12
464.096	89.12
464.316	85.12
464.536	95.12
464.755	102.12
464.975	91.12
465.195	130.12
465.414	122.12
465.634	90.12
465.854	99.12
466.073	76.12
466.293	82.12
466.512	86.12
466.732	84.12
466.951	66.12
467.171	82.12
467.391	98.12
467.61	98.12
467.829	98.12
468.049	103.12
468.268	105.12
468.488	98.12
468.707	103.12
468.927	92.12
469.146	76.12
469.365	102.12
469.585	94.12
469.804	86.12
470.023	87.12
470.243	92.12
470.462	103.12
470.681	105.12
470.901	79.12
471.12	94.12
471.339	87.12
471.558	85.12
471.777	90.12
471.997	84.12
472.216	147.12
472.435	173.12
472.654	97.12
472.873	89.12
473.092	93.12
473.311	83.12
473.53	83.12
473.749	84.12
473.968	100.12
474.187	87.12
474.406	102.12
474.625	94.12
474.844	98.12
475.063	82.12
475.282	94.12
475.501	87.12
475.72	80.12
475.939	81.12
476.158	77.12
476.377	75.12
476.596	98.12
476.814	76.12
477.033	87.12
477.252	88.12
477.471	85.12
477.69	92.12
477.908	81.12
478.127	88.12
478.346	81.12
478.564	99.12
478.783	83.12
479.002	86.12
479.22	84.12
479.439	103.12
479.658	84.12
479.876	86.12
480.095	102.12
480.313	88.12
480.532	108.12
480.751	95.12
480.969	137.12
481.188	290.12
481.406	204.12
481.624	102.12
481.843	82.12
482.061	91.12
482.28	96.12
482.498	101.12
482.717	85.12
482.935	93.12
483.153	88.12
483.372	95.12
483.59	70.12
483.808	86.12
484.027	85.12
484.245	96.12
484.463	110.12
484.681	90.12
484.9	107.12
485.118	84.12
485.336	92.12
485.554	106.12
485.772	84.12
485.99	98.12
486.209	99.12
486.427	113.12
486.645	105.12
486.863	110.12
487.081	101.12
487.299	92.12
487.517	101.12
487.735	95.12
487.953	103.12
488.171	108.12
488.389	96.12
488.607	91.12
488.825	78.12
489.043	93.12
489.261	96.12
489.479	85.12
489.696	98.12
489.914	103.12
490.132	70.12
490.35	90.12
490.568	78.12
490.786	96.12
491.003	91.12
491.221	88.12
491.439	93.12
491.657	96.12
491.874	98.12
492.092	90.12
492.31	91.12
492.527	95.12
492.745	91.12
492.963	91.12
493.18	99.12
493.398	94.12
493.615	96.12
493.833	94.12
494.05	89.12
494.268	100.12
494.485	114.12
494.703	89.12
494.92	82.12
495.138	92.12
495.355	91.12
495.573	87.12
495.79	83.12
496.008	88.12
496.225	101.12
496.442	105.12
496.66	95.12
496.877	95.12
497.094	96.12
497.312	92.12
497.529	98.12
497.746	88.12
497.963	78.12
498.181	73.12
498.398	88.12
498.615	94.12
498.832	101.12
499.049	88.12
499.267	88.12
499.484	82.12
499.701	92.12
499.918	85.12
500.135	96.12
500.352	107.12
500.569	83.12
500.786	76.12
501.003	79.12
501.22	85.12
501.437	91.12
501.654	93.12
501.871	112.12
502.088	99.12
502.305	94.12
502.522	71.12
502.739	80.12
502.956	97.12
503.172	82.12
503.389	94.12
503.606	95.12
503.823	94.12
504.04	94.12
504.256	99.12
504.473	77.12
504.69	91.12
504.907	86.12
505.123	88.12
505.34	91.12
505.557	101.12
505.773	91.12
505.99	86.12
506.207	89.12
506.423	80.12
506.64	80.12
506.856	94.12
507.073	78.12
507.289	87.12
507.506	100.12
507.722	105.12
507.939	103.12
508.155	97.12
508.372	82.12
508.588	85.12
508.805	106.12
509.021	86.12
509.238	100.12
509.454	109.12
509.67	101.12
509.887	96.12
510.103	125.12
510.319	179.12
510.536	594.12
510.752	1882.12
510.968	523.12
511.184	147.12
511.401	100.12
511.617	97.12
511.833	84.12
512.049	88.12
512.265	91.12
512.481	78.12
512.698	100.12
512.914	90.12
513.13	96.12
513.346	94.12
513.562	100.12
513.778	95.12
513.994	97.12
514.21	93.12
514.426	113.12
514.642	128.12
514.858	114.12
515.074	137.12
515.29	355.12
515.506	1098.12
515.721	414.12
515.937	130.12
516.153	101.12
