Data from Circ_1985_H10_HRD10591_00072.txt Node
Date: Wed Jan 03 12:19:37 EST 2024
User: Yrep
Spectrometer: HR+D1059
Trigger mode: 1
Integration Time (sec): 1.000000E-1
Scans to average: 1
Electric dark correction enabled: true
Nonlinearity correction enabled: false
Boxcar width: 0
XAxis mode: Wavelengths
Number of Pixels in Spectrum: 2048
>>>>>Begin Spectral Data<<<<<
223.165	-4.88
223.4	-4.88
223.635	-4.88
223.869	-26.88
224.104	-19.88
224.338	-13.88
224.573	-11.88
224.808	-21.88
225.042	-24.88
225.277	-0.88
225.511	-2.88
225.746	6.12
225.98	19.12
226.215	16.12
226.449	16.12
226.683	16.12
226.918	21.12
227.152	33.12
227.387	23.12
227.621	41.12
227.856	55.12
228.09	38.12
228.324	51.12
228.559	52.12
228.793	46.12
229.027	64.12
229.262	67.12
229.496	73.12
229.73	78.12
229.964	85.12
230.199	76.12
230.433	68.12
230.667	76.12
230.901	75.12
231.136	72.12
231.37	83.12
231.604	74.12
231.838	67.12
232.072	68.12
232.306	72.12
232.541	72.12
232.775	84.12
233.009	69.12
233.243	88.12
233.477	92.12
233.711	82.12
233.945	79.12
234.179	74.12
234.413	68.12
234.647	83.12
234.881	84.12
235.115	86.12
235.349	64.12
235.583	80.12
235.817	77.12
236.051	71.12
236.285	78.12
236.519	87.12
236.753	74.12
236.987	80.12
237.221	78.12
237.455	78.12
237.689	84.12
237.922	80.12
238.156	86.12
238.39	64.12
238.624	71.12
238.858	70.12
239.091	79.12
239.325	68.12
239.559	71.12
239.793	78.12
240.027	84.12
240.26	68.12
240.494	80.12
240.728	74.12
240.961	82.12
241.195	86.12
241.429	73.12
241.662	80.12
241.896	85.12
242.13	71.12
242.363	81.12
242.597	68.12
242.83	66.12
243.064	71.12
243.298	68.12
243.531	73.12
243.765	76.12
243.998	80.12
244.232	66.12
244.465	65.12
244.699	70.12
244.932	87.12
245.166	65.12
245.399	63.12
245.633	80.12
245.866	90.12
246.099	81.12
246.333	80.12
246.566	69.12
246.8	81.12
247.033	98.12
247.266	83.12
247.5	70.12
247.733	70.12
247.966	72.12
248.2	81.12
248.433	77.12
248.666	72.12
248.899	79.12
249.133	82.12
249.366	86.12
249.599	93.12
249.832	94.12
250.066	90.12
250.299	88.12
250.532	93.12
250.765	80.12
250.998	70.12
251.231	77.12
251.465	67.12
251.698	82.12
251.931	71.12
252.164	70.12
252.397	79.12
252.63	78.12
252.863	78.12
253.096	85.12
253.329	77.12
253.562	93.12
253.795	86.12
254.028	84.12
254.261	71.12
254.494	82.12
254.727	78.12
254.96	74.12
255.193	78.12
255.426	68.12
255.659	80.12
255.892	84.12
256.124	72.12
256.357	77.12
256.59	89.12
256.823	85.12
257.056	75.12
257.289	84.12
257.521	83.12
257.754	68.12
257.987	81.12
258.22	68.12
258.452	71.12
258.685	82.12
258.918	73.12
259.151	75.12
259.383	61.12
259.616	84.12
259.849	68.12
260.081	82.12
260.314	90.12
260.547	75.12
260.779	81.12
261.012	76.12
261.244	80.12
261.477	81.12
261.71	89.12
261.942	93.12
262.175	96.12
262.407	94.12
262.64	77.12
262.872	90.12
263.105	83.12
263.337	74.12
263.57	64.12
263.802	72.12
264.035	83.12
264.267	80.12
264.499	86.12
264.732	82.12
264.964	84.12
265.197	92.12
265.429	74.12
265.661	84.12
265.894	80.12
266.126	87.12
266.358	87.12
266.591	86.12
266.823	82.12
267.055	86.12
267.287	81.12
267.52	78.12
267.752	95.12
267.984	75.12
268.216	89.12
268.448	75.12
268.681	89.12
268.913	92.12
269.145	80.12
269.377	84.12
269.609	93.12
269.841	87.12
270.073	86.12
270.306	97.12
270.538	85.12
270.77	78.12
271.002	79.12
271.234	80.12
271.466	67.12
271.698	78.12
271.93	84.12
272.162	87.12
272.394	80.12
272.626	83.12
272.858	66.12
273.09	97.12
273.322	92.12
273.553	86.12
273.785	93.12
274.017	65.12
274.249	79.12
274.481	94.12
274.713	73.12
274.945	76.12
275.176	91.12
275.408	84.12
275.64	88.12
275.872	76.12
276.104	84.12
276.335	69.12
276.567	89.12
276.799	106.12
277.031	95.12
277.262	101.12
277.494	86.12
277.726	91.12
277.957	87.12
278.189	92.12
278.421	74.12
278.652	67.12
278.884	84.12
279.115	80.12
279.347	80.12
279.579	82.12
279.81	84.12
280.042	92.12
280.273	86.12
280.505	97.12
280.736	82.12
280.968	73.12
281.199	78.12
281.431	87.12
281.662	86.12
281.894	93.12
282.125	95.12
282.356	91.12
282.588	111.12
282.819	101.12
283.051	86.12
283.282	84.12
283.513	89.12
283.745	91.12
283.976	90.12
284.207	96.12
284.439	100.12
284.67	89.12
284.901	92.12
285.132	71.12
285.364	89.12
285.595	83.12
285.826	94.12
286.057	100.12
286.288	88.12
286.52	81.12
286.751	80.12
286.982	74.12
287.213	85.12
287.444	96.12
287.675	68.12
287.906	79.12
288.138	105.12
288.369	76.12
288.6	89.12
288.831	79.12
289.062	93.12
289.293	76.12
289.524	95.12
289.755	79.12
289.986	92.12
290.217	91.12
290.448	87.12
290.679	96.12
290.91	89.12
291.141	83.12
291.371	80.12
291.602	78.12
291.833	80.12
292.064	88.12
292.295	67.12
292.526	86.12
292.757	86.12
292.987	72.12
293.218	78.12
293.449	78.12
293.68	90.12
293.91	85.12
294.141	89.12
294.372	88.12
294.603	84.12
294.833	84.12
295.064	82.12
295.295	100.12
295.525	96.12
295.756	85.12
295.987	101.12
296.217	124.12
296.448	121.12
296.679	92.12
296.909	83.12
297.14	95.12
297.37	87.12
297.601	79.12
297.831	86.12
298.062	95.12
298.292	96.12
298.523	92.12
298.753	76.12
298.984	95.12
299.214	84.12
299.445	72.12
299.675	100.12
299.905	88.12
300.136	81.12
300.366	86.12
300.597	85.12
300.827	92.12
301.057	93.12
301.288	94.12
301.518	81.12
301.748	86.12
301.979	80.12
302.209	90.12
302.439	88.12
302.669	88.12
302.9	85.12
303.13	90.12
303.36	92.12
303.59	87.12
303.82	89.12
304.051	97.12
304.281	100.12
304.511	79.12
304.741	91.12
304.971	89.12
305.201	83.12
305.431	97.12
305.661	111.12
305.891	98.12
306.121	81.12
306.352	92.12
306.582	92.12
306.812	96.12
307.042	99.12
307.272	86.12
307.502	88.12
307.731	90.12
307.961	96.12
308.191	97.12
308.421	85.12
308.651	109.12
308.881	97.12
309.111	100.12
309.341	80.12
309.571	89.12
309.8	73.12
310.03	92.12
310.26	94.12
310.49	101.12
310.72	87.12
310.949	95.12
311.179	78.12
311.409	83.12
311.639	96.12
311.868	99.12
312.098	92.12
312.328	96.12
312.557	88.12
312.787	93.12
313.017	83.12
313.246	89.12
313.476	84.12
313.706	109.12
313.935	86.12
314.165	82.12
314.394	80.12
314.624	86.12
314.853	100.12
315.083	89.12
315.312	84.12
315.542	84.12
315.771	99.12
316.001	92.12
316.23	85.12
316.46	73.12
316.689	97.12
316.919	79.12
317.148	92.12
317.377	93.12
317.607	87.12
317.836	85.12
318.065	72.12
318.295	98.12
318.524	91.12
318.753	87.12
318.983	94.12
319.212	97.12
319.441	105.12
319.67	98.12
319.9	96.12
320.129	77.12
320.358	99.12
320.587	104.12
320.816	86.12
321.046	109.12
321.275	90.12
321.504	83.12
321.733	82.12
321.962	100.12
322.191	87.12
322.42	94.12
322.649	108.12
322.878	112.12
323.108	121.12
323.337	106.12
323.566	118.12
323.795	119.12
324.024	201.12
324.253	354.12
324.482	773.12
324.71	1553.12
324.939	1999.12
325.168	730.12
325.397	221.12
325.626	137.12
325.855	123.12
326.084	125.12
326.313	124.12
326.542	129.12
326.77	208.12
326.999	419.12
327.228	888.12
327.457	1592.12
327.686	1277.12
327.914	332.12
328.143	172.12
328.372	141.12
328.6	124.12
328.829	100.12
329.058	103.12
329.287	115.12
329.515	97.12
329.744	92.12
329.972	105.12
330.201	130.12
330.43	131.12
330.658	118.12
330.887	116.12
331.115	93.12
331.344	111.12
331.572	99.12
331.801	94.12
332.03	94.12
332.258	87.12
332.486	83.12
332.715	94.12
332.943	105.12
333.172	107.12
333.4	89.12
333.629	117.12
333.857	95.12
334.085	118.12
334.314	119.12
334.542	142.12
334.771	134.12
334.999	106.12
335.227	91.12
335.455	92.12
335.684	96.12
335.912	93.12
336.14	90.12
336.369	95.12
336.597	98.12
336.825	103.12
337.053	89.12
337.281	80.12
337.51	90.12
337.738	93.12
337.966	99.12
338.194	82.12
338.422	82.12
338.65	90.12
338.878	86.12
339.106	86.12
339.334	103.12
339.562	81.12
339.79	97.12
340.018	90.12
340.246	84.12
340.474	95.12
340.702	103.12
340.93	102.12
341.158	77.12
341.386	96.12
341.614	106.12
341.842	92.12
342.07	95.12
342.298	98.12
342.526	103.12
342.754	78.12
342.981	84.12
343.209	91.12
343.437	86.12
343.665	76.12
343.893	79.12
344.12	99.12
344.348	85.12
344.576	92.12
344.804	101.12
345.031	86.12
345.259	85.12
345.487	98.12
345.714	91.12
345.942	104.12
346.17	96.12
346.397	85.12
346.625	86.12
346.853	79.12
347.08	93.12
347.308	87.12
347.535	95.12
347.763	106.12
347.99	99.12
348.218	104.12
348.445	97.12
348.673	98.12
348.9	99.12
349.128	89.12
349.355	106.12
349.583	99.12
349.81	95.12
350.037	88.12
350.265	97.12
350.492	89.12
350.72	89.12
350.947	104.12
351.174	100.12
351.402	116.12
351.629	84.12
351.856	112.12
352.083	99.12
352.311	102.12
352.538	105.12
352.765	90.12
352.992	125.12
353.22	116.12
353.447	112.12
353.674	106.12
353.901	82.12
354.128	77.12
354.355	89.12
354.583	86.12
354.81	88.12
355.037	89.12
355.264	107.12
355.491	73.12
355.718	84.12
355.945	108.12
356.172	87.12
356.399	96.12
356.626	89.12
356.853	83.12
357.08	94.12
357.307	102.12
357.534	94.12
357.761	94.12
357.988	90.12
358.215	83.12
358.441	84.12
358.668	83.12
358.895	103.12
359.122	102.12
359.349	87.12
359.576	94.12
359.802	102.12
360.029	90.12
360.256	87.12
360.483	88.12
360.709	89.12
360.936	99.12
361.163	105.12
361.39	89.12
361.616	83.12
361.843	97.12
362.07	84.12
362.296	82.12
362.523	98.12
362.749	85.12
362.976	92.12
363.203	89.12
363.429	94.12
363.656	89.12
363.882	80.12
364.109	93.12
364.335	92.12
364.562	81.12
364.788	105.12
365.015	92.12
365.241	93.12
365.468	105.12
365.694	93.12
365.92	95.12
366.147	78.12
366.373	79.12
366.599	88.12
366.826	85.12
367.052	85.12
367.278	79.12
367.505	95.12
367.731	82.12
367.957	74.12
368.184	98.12
368.41	95.12
368.636	87.12
368.862	114.12
369.089	94.12
369.315	92.12
369.541	106.12
369.767	94.12
369.993	79.12
370.219	90.12
370.445	82.12
370.672	67.12
370.898	88.12
371.124	78.12
371.35	103.12
371.576	86.12
371.802	86.12
372.028	74.12
372.254	86.12
372.48	92.12
372.706	92.12
372.932	81.12
373.158	72.12
373.384	100.12
373.61	97.12
373.835	96.12
374.061	103.12
374.287	82.12
374.513	84.12
374.739	86.12
374.965	77.12
375.191	84.12
375.416	73.12
375.642	87.12
375.868	84.12
376.094	77.12
376.319	99.12
376.545	71.12
376.771	85.12
376.997	82.12
377.222	95.12
377.448	81.12
377.674	89.12
377.899	90.12
378.125	91.12
378.35	100.12
378.576	93.12
378.802	98.12
379.027	103.12
379.253	95.12
379.478	97.12
379.704	87.12
379.929	99.12
380.155	81.12
380.38	93.12
380.606	101.12
380.831	101.12
381.057	108.12
381.282	91.12
381.507	86.12
381.733	94.12
381.958	110.12
382.184	92.12
382.409	101.12
382.634	100.12
382.86	86.12
383.085	85.12
383.31	99.12
383.535	95.12
383.761	94.12
383.986	95.12
384.211	91.12
384.436	96.12
384.662	97.12
384.887	80.12
385.112	101.12
385.337	99.12
385.562	101.12
385.787	100.12
386.013	101.12
386.238	106.12
386.463	101.12
386.688	116.12
386.913	92.12
387.138	103.12
387.363	113.12
387.588	90.12
387.813	93.12
388.038	94.12
388.263	98.12
388.488	106.12
388.713	101.12
388.938	92.12
389.163	94.12
389.387	92.12
389.612	92.12
389.837	87.12
390.062	93.12
390.287	98.12
390.512	99.12
390.736	87.12
390.961	81.12
391.186	83.12
391.411	84.12
391.636	89.12
391.86	78.12
392.085	97.12
392.31	88.12
392.534	80.12
392.759	87.12
392.984	92.12
393.208	82.12
393.433	96.12
393.658	88.12
393.882	93.12
394.107	84.12
394.331	83.12
394.556	82.12
394.78	87.12
395.005	86.12
395.229	82.12
395.454	89.12
395.678	79.12
395.903	90.12
396.127	93.12
396.352	80.12
396.576	92.12
396.801	92.12
397.025	101.12
397.249	73.12
397.474	90.12
397.698	85.12
397.922	91.12
398.147	100.12
398.371	81.12
398.595	89.12
398.82	99.12
399.044	81.12
399.268	72.12
399.492	86.12
399.717	103.12
399.941	87.12
400.165	93.12
400.389	80.12
400.613	84.12
400.837	82.12
401.062	95.12
401.286	91.12
401.51	100.12
401.734	88.12
401.958	108.12
402.182	115.12
402.406	122.12
402.63	104.12
402.854	79.12
403.078	71.12
403.302	89.12
403.526	98.12
403.75	72.12
403.974	90.12
404.198	96.12
404.422	80.12
404.645	73.12
404.869	100.12
405.093	99.12
405.317	108.12
405.541	93.12
405.765	102.12
405.988	96.12
406.212	144.12
406.436	167.12
406.66	120.12
406.883	94.12
407.107	88.12
407.331	91.12
407.555	96.12
407.778	90.12
408.002	92.12
408.226	94.12
408.449	80.12
408.673	92.12
408.896	86.12
409.12	87.12
409.344	96.12
409.567	77.12
409.791	104.12
410.014	95.12
410.238	88.12
410.461	80.12
410.685	82.12
410.908	80.12
411.132	101.12
411.355	96.12
411.578	99.12
411.802	84.12
412.025	78.12
412.249	78.12
412.472	92.12
412.695	98.12
412.919	75.12
413.142	98.12
413.365	89.12
413.589	87.12
413.812	94.12
414.035	95.12
414.258	84.12
414.482	92.12
414.705	83.12
414.928	78.12
415.151	104.12
415.374	89.12
415.597	92.12
415.821	84.12
416.044	84.12
416.267	80.12
416.49	93.12
416.713	74.12
416.936	80.12
417.159	83.12
417.382	70.12
417.605	79.12
417.828	94.12
418.051	98.12
418.274	96.12
418.497	93.12
418.72	81.12
418.943	96.12
419.166	89.12
419.389	89.12
419.611	93.12
419.834	91.12
420.057	82.12
420.28	80.12
420.503	95.12
420.726	81.12
420.948	73.12
421.171	80.12
421.394	91.12
421.617	82.12
421.839	94.12
422.062	75.12
422.285	102.12
422.507	86.12
422.73	86.12
422.953	90.12
423.175	96.12
423.398	102.12
423.621	60.12
423.843	88.12
424.066	84.12
424.288	86.12
424.511	71.12
424.733	98.12
424.956	97.12
425.178	106.12
425.401	92.12
425.623	102.12
425.846	77.12
426.068	98.12
426.291	81.12
426.513	69.12
426.735	82.12
426.958	84.12
427.18	92.12
427.402	130.12
427.625	134.12
427.847	122.12
428.069	109.12
428.292	76.12
428.514	91.12
428.736	69.12
428.958	77.12
429.181	92.12
429.403	93.12
429.625	96.12
429.847	90.12
430.069	110.12
430.292	89.12
430.514	87.12
430.736	94.12
430.958	83.12
431.18	81.12
431.402	92.12
431.624	81.12
431.846	102.12
432.068	85.12
432.29	84.12
432.512	86.12
432.734	83.12
432.956	82.12
433.178	74.12
433.4	92.12
433.622	88.12
433.844	86.12
434.066	89.12
434.287	93.12
434.509	90.12
434.731	99.12
434.953	81.12
435.175	71.12
435.397	84.12
435.618	72.12
435.84	96.12
436.062	113.12
436.284	93.12
436.505	104.12
436.727	95.12
436.949	89.12
437.17	74.12
437.392	78.12
437.614	86.12
437.835	100.12
438.057	96.12
438.278	104.12
438.5	93.12
438.721	116.12
438.943	80.12
439.165	79.12
439.386	83.12
439.608	64.12
439.829	81.12
440.05	104.12
440.272	130.12
440.493	95.12
440.715	82.12
440.936	88.12
441.158	73.12
441.379	87.12
441.6	80.12
441.822	96.12
442.043	87.12
442.264	87.12
442.486	93.12
442.707	82.12
442.928	102.12
443.149	126.12
443.371	121.12
443.592	109.12
443.813	106.12
444.034	110.12
444.255	98.12
444.476	88.12
444.698	81.12
444.919	76.12
445.14	127.12
445.361	109.12
445.582	106.12
445.803	120.12
446.024	108.12
446.245	110.12
446.466	100.12
446.687	94.12
446.908	90.12
447.129	69.12
447.35	88.12
447.571	98.12
447.792	86.12
448.013	96.12
448.234	105.12
448.455	84.12
448.675	104.12
448.896	96.12
449.117	88.12
449.338	88.12
449.559	106.12
449.779	120.12
450	101.12
450.221	83.12
450.442	81.12
450.662	87.12
450.883	92.12
451.104	93.12
451.324	90.12
451.545	76.12
451.766	82.12
451.986	84.12
452.207	79.12
452.428	96.12
452.648	91.12
452.869	100.12
453.089	98.12
453.31	95.12
453.53	86.12
453.751	86.12
453.971	89.12
454.192	97.12
454.412	86.12
454.633	80.12
454.853	98.12
455.073	67.12
455.294	90.12
455.514	104.12
455.734	80.12
455.955	95.12
456.175	86.12
456.395	85.12
456.616	95.12
456.836	77.12
457.056	82.12
457.276	83.12
457.497	90.12
457.717	81.12
457.937	85.12
458.157	85.12
458.377	88.12
458.598	80.12
458.818	123.12
459.038	133.12
459.258	117.12
459.478	96.12
459.698	88.12
459.918	79.12
460.138	69.12
460.358	75.12
460.578	85.12
460.798	101.12
461.018	87.12
461.238	80.12
461.458	81.12
461.678	100.12
461.898	84.12
462.118	76.12
462.338	87.12
462.558	72.12
462.777	70.12
462.997	69.12
463.217	82.12
463.437	71.12
463.657	87.12
463.876	86.12
464.096	83.12
464.316	92.12
464.536	86.12
464.755	77.12
464.975	84.12
465.195	140.12
465.414	126.12
465.634	92.12
465.854	94.12
466.073	92.12
466.293	88.12
466.512	71.12
466.732	84.12
466.951	89.12
467.171	87.12
467.391	89.12
467.61	100.12
467.829	89.12
468.049	104.12
468.268	94.12
468.488	92.12
468.707	87.12
468.927	90.12
469.146	79.12
469.365	84.12
469.585	93.12
469.804	82.12
470.023	89.12
470.243	78.12
470.462	80.12
470.681	105.12
470.901	78.12
471.12	85.12
471.339	94.12
471.558	85.12
471.777	81.12
471.997	84.12
472.216	123.12
472.435	168.12
472.654	104.12
472.873	84.12
473.092	73.12
473.311	86.12
473.53	72.12
473.749	87.12
473.968	84.12
474.187	77.12
474.406	94.12
474.625	84.12
474.844	84.12
475.063	73.12
475.282	81.12
475.501	76.12
475.72	92.12
475.939	71.12
476.158	78.12
476.377	96.12
476.596	87.12
476.814	85.12
477.033	76.12
477.252	80.12
477.471	81.12
477.69	87.12
477.908	81.12
478.127	86.12
478.346	84.12
478.564	80.12
478.783	95.12
479.002	93.12
479.22	92.12
479.439	102.12
479.658	86.12
479.876	99.12
480.095	97.12
480.313	92.12
480.532	88.12
480.751	92.12
480.969	113.12
481.188	245.12
481.406	160.12
481.624	104.12
481.843	88.12
482.061	78.12
482.28	87.12
482.498	88.12
482.717	100.12
482.935	88.12
483.153	79.12
483.372	83.12
483.59	93.12
483.808	87.12
484.027	77.12
484.245	89.12
484.463	95.12
484.681	104.12
484.9	84.12
485.118	74.12
485.336	81.12
485.554	86.12
485.772	89.12
485.99	86.12
486.209	113.12
486.427	103.12
486.645	109.12
486.863	100.12
487.081	84.12
487.299	90.12
487.517	99.12
487.735	81.12
487.953	80.12
488.171	90.12
488.389	93.12
488.607	81.12
488.825	94.12
489.043	89.12
489.261	102.12
489.479	80.12
489.696	91.12
489.914	88.12
490.132	82.12
490.35	82.12
490.568	83.12
490.786	69.12
491.003	88.12
491.221	91.12
491.439	86.12
491.657	69.12
491.874	70.12
492.092	85.12
492.31	85.12
492.527	85.12
492.745	106.12
492.963	90.12
493.18	89.12
493.398	89.12
493.615	85.12
493.833	67.12
494.05	94.12
494.268	58.12
494.485	81.12
494.703	84.12
494.92	80.12
495.138	78.12
495.355	83.12
495.573	104.12
495.79	91.12
496.008	93.12
496.225	101.12
496.442	89.12
496.66	98.12
496.877	94.12
497.094	76.12
497.312	80.12
497.529	87.12
497.746	90.12
497.963	88.12
498.181	87.12
498.398	90.12
498.615	104.12
498.832	88.12
499.049	78.12
499.267	89.12
499.484	82.12
499.701	85.12
499.918	95.12
500.135	85.12
500.352	100.12
500.569	102.12
500.786	95.12
501.003	77.12
501.22	88.12
501.437	81.12
501.654	95.12
501.871	90.12
502.088	92.12
502.305	72.12
502.522	98.12
502.739	80.12
502.956	90.12
503.172	76.12
503.389	80.12
503.606	88.12
503.823	97.12
504.04	100.12
504.256	96.12
504.473	82.12
504.69	96.12
504.907	82.12
505.123	85.12
505.34	90.12
505.557	73.12
505.773	70.12
505.99	102.12
506.207	80.12
506.423	92.12
506.64	83.12
506.856	85.12
507.073	84.12
507.289	89.12
507.506	86.12
507.722	101.12
507.939	121.12
508.155	90.12
508.372	81.12
508.588	101.12
508.805	83.12
509.021	79.12
509.238	108.12
509.454	96.12
509.67	87.12
509.887	80.12
510.103	118.12
510.319	186.12
510.536	635.12
510.752	1859.12
510.968	512.12
511.184	144.12
511.401	94.12
511.617	84.12
511.833	84.12
512.049	90.12
512.265	86.12
512.481	93.12
512.698	71.12
512.914	82.12
513.13	81.12
513.346	84.12
513.562	96.12
513.778	106.12
513.994	77.12
514.21	94.12
514.426	114.12
514.642	110.12
514.858	112.12
515.074	145.12
515.29	344.12
515.506	1074.12
515.721	412.12
515.937	137.12
516.153	88.12
516.369	98.12
516.585	92.12
516.801	102.12
