Data from Circ_1998_H10_HRD10591_00067.txt Node
Date: Wed Jan 03 11:27:02 EST 2024
User: Yrep
Spectrometer: HR+D1059
Trigger mode: 1
Integration Time (sec): 1.000000E-1
Scans to average: 1
Electric dark correction enabled: true
Nonlinearity correction enabled: false
Boxcar width: 0
XAxis mode: Wavelengths
Number of Pixels in Spectrum: 2048
>>>>>Begin Spectral Data<<<<<
223.165	-21.06
223.4	-21.06
223.635	-21.06
223.869	-31.06
224.104	-18.06
224.338	-18.06
224.573	-5.06
224.808	-9.06
225.042	-17.06
225.277	6.94
225.511	-1.06
225.746	7.94
225.98	15.94
226.215	8.94
226.449	9.94
226.683	21.94
226.918	24.94
227.152	23.94
227.387	42.94
227.621	48.94
227.856	41.94
228.09	47.94
228.324	35.94
228.559	51.94
228.793	56.94
229.027	52.94
229.262	62.94
229.496	73.94
229.73	91.94
229.964	94.94
230.199	85.94
230.433	79.94
230.667	74.94
230.901	96.94
231.136	77.94
231.37	76.94
231.604	81.94
231.838	82.94
232.072	85.94
232.306	89.94
232.541	78.94
232.775	78.94
233.009	74.94
233.243	71.94
233.477	81.94
233.711	71.94
233.945	72.94
234.179	84.94
234.413	74.94
234.647	87.94
234.881	72.94
235.115	83.94
235.349	77.94
235.583	86.94
235.817	79.94
236.051	78.94
236.285	80.94
236.519	77.94
236.753	79.94
236.987	87.94
237.221	84.94
237.455	90.94
237.689	90.94
237.922	82.94
238.156	80.94
238.39	58.94
238.624	78.94
238.858	64.94
239.091	84.94
239.325	71.94
239.559	96.94
239.793	84.94
240.027	87.94
240.26	83.94
240.494	65.94
240.728	80.94
240.961	84.94
241.195	96.94
241.429	76.94
241.662	76.94
241.896	85.94
242.13	74.94
242.363	84.94
242.597	87.94
242.83	88.94
243.064	87.94
243.298	76.94
243.531	64.94
243.765	89.94
243.998	80.94
244.232	79.94
244.465	88.94
244.699	77.94
244.932	65.94
245.166	70.94
245.399	68.94
245.633	100.94
245.866	67.94
246.099	80.94
246.333	72.94
246.566	78.94
246.8	69.94
247.033	82.94
247.266	72.94
247.5	72.94
247.733	79.94
247.966	76.94
248.2	80.94
248.433	84.94
248.666	80.94
248.899	90.94
249.133	95.94
249.366	122.94
249.599	120.94
249.832	98.94
250.066	97.94
250.299	82.94
250.532	97.94
250.765	71.94
250.998	95.94
251.231	89.94
251.465	79.94
251.698	76.94
251.931	92.94
252.164	85.94
252.397	77.94
252.63	79.94
252.863	71.94
253.096	86.94
253.329	86.94
253.562	80.94
253.795	85.94
254.028	85.94
254.261	72.94
254.494	89.94
254.727	87.94
254.96	66.94
255.193	84.94
255.426	88.94
255.659	89.94
255.892	99.94
256.124	102.94
256.357	97.94
256.59	86.94
256.823	85.94
257.056	102.94
257.289	91.94
257.521	102.94
257.754	96.94
257.987	79.94
258.22	92.94
258.452	102.94
258.685	96.94
258.918	74.94
259.151	64.94
259.383	96.94
259.616	78.94
259.849	85.94
260.081	88.94
260.314	98.94
260.547	92.94
260.779	95.94
261.012	113.94
261.244	126.94
261.477	130.94
261.71	118.94
261.942	159.94
262.175	170.94
262.407	128.94
262.64	79.94
262.872	88.94
263.105	90.94
263.337	88.94
263.57	93.94
263.802	79.94
264.035	81.94
264.267	89.94
264.499	94.94
264.732	90.94
264.964	81.94
265.197	69.94
265.429	94.94
265.661	70.94
265.894	73.94
266.126	84.94
266.358	76.94
266.591	95.94
266.823	88.94
267.055	90.94
267.287	80.94
267.52	75.94
267.752	88.94
267.984	80.94
268.216	94.94
268.448	90.94
268.681	89.94
268.913	93.94
269.145	81.94
269.377	92.94
269.609	87.94
269.841	84.94
270.073	103.94
270.306	87.94
270.538	89.94
270.77	84.94
271.002	78.94
271.234	98.94
271.466	111.94
271.698	96.94
271.93	96.94
272.162	91.94
272.394	107.94
272.626	101.94
272.858	102.94
273.09	97.94
273.322	80.94
273.553	89.94
273.785	100.94
274.017	89.94
274.249	84.94
274.481	84.94
274.713	100.94
274.945	102.94
275.176	110.94
275.408	120.94
275.64	126.94
275.872	157.94
276.104	123.94
276.335	131.94
276.567	142.94
276.799	173.94
277.031	233.94
277.262	270.94
277.494	186.94
277.726	116.94
277.957	102.94
278.189	99.94
278.421	92.94
278.652	75.94
278.884	80.94
279.115	99.94
279.347	93.94
279.579	117.94
279.81	177.94
280.042	275.94
280.273	401.94
280.505	253.94
280.736	134.94
280.968	102.94
281.199	104.94
281.431	108.94
281.662	96.94
281.894	93.94
282.125	103.94
282.356	158.94
282.588	197.94
282.819	150.94
283.051	90.94
283.282	92.94
283.513	89.94
283.745	80.94
283.976	80.94
284.207	97.94
284.439	73.94
284.67	96.94
284.901	88.94
285.132	89.94
285.364	99.94
285.595	74.94
285.826	97.94
286.057	95.94
286.288	90.94
286.52	91.94
286.751	86.94
286.982	90.94
287.213	80.94
287.444	86.94
287.675	79.94
287.906	94.94
288.138	104.94
288.369	100.94
288.6	108.94
288.831	100.94
289.062	90.94
289.293	100.94
289.524	87.94
289.755	79.94
289.986	81.94
290.217	84.94
290.448	73.94
290.679	90.94
290.91	103.94
291.141	85.94
291.371	97.94
291.602	92.94
291.833	102.94
292.064	78.94
292.295	84.94
292.526	104.94
292.757	106.94
292.987	98.94
293.218	92.94
293.449	81.94
293.68	93.94
293.91	96.94
294.141	85.94
294.372	87.94
294.603	85.94
294.833	100.94
295.064	100.94
295.295	94.94
295.525	88.94
295.756	107.94
295.987	142.94
296.217	199.94
296.448	187.94
296.679	110.94
296.909	105.94
297.14	97.94
297.37	93.94
297.601	100.94
297.831	103.94
298.062	99.94
298.292	97.94
298.523	97.94
298.753	78.94
298.984	80.94
299.214	99.94
299.445	106.94
299.675	95.94
299.905	96.94
300.136	95.94
300.366	79.94
300.597	101.94
300.827	96.94
301.057	118.94
301.288	121.94
301.518	97.94
301.748	104.94
301.979	113.94
302.209	113.94
302.439	98.94
302.669	97.94
302.9	90.94
303.13	103.94
303.36	109.94
303.59	176.94
303.82	183.94
304.051	101.94
304.281	103.94
304.511	84.94
304.741	97.94
304.971	94.94
305.201	101.94
305.431	92.94
305.661	91.94
305.891	105.94
306.121	108.94
306.352	120.94
306.582	125.94
306.812	116.94
307.042	136.94
307.272	239.94
307.502	247.94
307.731	227.94
307.961	168.94
308.191	94.94
308.421	86.94
308.651	92.94
308.881	111.94
309.111	96.94
309.341	105.94
309.571	120.94
309.8	89.94
310.03	118.94
310.26	124.94
310.49	117.94
310.72	112.94
310.949	123.94
311.179	121.94
311.409	107.94
311.639	118.94
311.868	116.94
312.098	98.94
312.328	114.94
312.557	117.94
312.787	137.94
313.017	139.94
313.246	100.94
313.476	96.94
313.706	104.94
313.935	108.94
314.165	123.94
314.394	140.94
314.624	113.94
314.853	94.94
315.083	98.94
315.312	89.94
315.542	98.94
315.771	90.94
316.001	94.94
316.23	100.94
316.46	89.94
316.689	94.94
316.919	79.94
317.148	107.94
317.377	104.94
317.607	93.94
317.836	105.94
318.065	101.94
318.295	96.94
318.524	90.94
318.753	84.94
318.983	89.94
319.212	114.94
319.441	122.94
319.67	126.94
319.9	110.94
320.129	94.94
320.358	97.94
320.587	99.94
320.816	104.94
321.046	121.94
321.275	111.94
321.504	100.94
321.733	108.94
321.962	113.94
322.191	116.94
322.42	127.94
322.649	150.94
322.878	136.94
323.108	162.94
323.337	170.94
323.566	171.94
323.795	229.94
324.024	320.94
324.253	649.94
324.482	1406.94
324.71	3001.94
324.939	4048.94
325.168	1422.94
325.397	366.94
325.626	193.94
325.855	164.94
326.084	160.94
326.313	170.94
326.542	216.94
326.77	343.94
326.999	682.94
327.228	1498.94
327.457	2861.94
327.686	2294.94
327.914	802.94
328.143	862.94
328.372	1151.94
328.6	591.94
328.829	255.94
329.058	245.94
329.287	265.94
329.515	249.94
329.744	397.94
329.972	822.94
330.201	1821.94
330.43	2636.94
330.658	1096.94
330.887	438.94
331.115	249.94
331.344	178.94
331.572	126.94
331.801	143.94
332.03	125.94
332.258	131.94
332.486	118.94
332.715	118.94
332.943	133.94
333.172	134.94
333.4	167.94
333.629	199.94
333.857	341.94
334.085	712.94
334.314	1629.94
334.542	3297.94
334.771	3014.94
334.999	718.94
335.227	251.94
335.455	160.94
335.684	130.94
335.912	106.94
336.14	121.94
336.369	113.94
336.597	123.94
336.825	132.94
337.053	114.94
337.281	105.94
337.51	115.94
337.738	112.94
337.966	126.94
338.194	116.94
338.422	125.94
338.65	108.94
338.878	106.94
339.106	96.94
339.334	111.94
339.562	91.94
339.79	95.94
340.018	105.94
340.246	102.94
340.474	106.94
340.702	86.94
340.93	107.94
341.158	88.94
341.386	111.94
341.614	114.94
341.842	111.94
342.07	107.94
342.298	100.94
342.526	87.94
342.754	92.94
342.981	92.94
343.209	81.94
343.437	88.94
343.665	100.94
343.893	97.94
344.12	96.94
344.348	78.94
344.576	84.94
344.804	105.94
345.031	98.94
345.259	119.94
345.487	117.94
345.714	107.94
345.942	96.94
346.17	112.94
346.397	104.94
346.625	103.94
346.853	98.94
347.08	107.94
347.308	102.94
347.535	92.94
347.763	107.94
347.99	92.94
348.218	115.94
348.445	125.94
348.673	117.94
348.9	103.94
349.128	92.94
349.355	96.94
349.583	87.94
349.81	94.94
350.037	95.94
350.265	87.94
350.492	90.94
350.72	99.94
350.947	104.94
351.174	126.94
351.402	118.94
351.629	96.94
351.856	128.94
352.083	121.94
352.311	116.94
352.538	141.94
352.765	138.94
352.992	146.94
353.22	110.94
353.447	100.94
353.674	98.94
353.901	82.94
354.128	91.94
354.355	96.94
354.583	116.94
354.81	96.94
355.037	90.94
355.264	86.94
355.491	96.94
355.718	79.94
355.945	96.94
356.172	94.94
356.399	77.94
356.626	85.94
356.853	112.94
357.08	101.94
357.307	89.94
357.534	86.94
357.761	90.94
357.988	95.94
358.215	94.94
358.441	98.94
358.668	105.94
358.895	78.94
359.122	90.94
359.349	94.94
359.576	101.94
359.802	136.94
360.029	157.94
360.256	161.94
360.483	154.94
360.709	97.94
360.936	95.94
361.163	116.94
361.39	93.94
361.616	113.94
361.843	88.94
362.07	102.94
362.296	112.94
362.523	118.94
362.749	97.94
362.976	95.94
363.203	98.94
363.429	106.94
363.656	83.94
363.882	108.94
364.109	95.94
364.335	102.94
364.562	100.94
364.788	88.94
365.015	109.94
365.241	114.94
365.468	140.94
365.694	132.94
365.92	117.94
366.147	102.94
366.373	105.94
366.599	107.94
366.826	96.94
367.052	75.94
367.278	109.94
367.505	95.94
367.731	106.94
367.957	111.94
368.184	97.94
368.41	106.94
368.636	140.94
368.862	146.94
369.089	138.94
369.315	111.94
369.541	95.94
369.767	107.94
369.993	102.94
370.219	103.94
370.445	93.94
370.672	103.94
370.898	92.94
371.124	88.94
371.35	79.94
371.576	86.94
371.802	95.94
372.028	78.94
372.254	86.94
372.48	80.94
372.706	109.94
372.932	90.94
373.158	84.94
373.384	96.94
373.61	100.94
373.835	97.94
374.061	110.94
374.287	106.94
374.513	98.94
374.739	97.94
374.965	95.94
375.191	95.94
375.416	80.94
375.642	87.94
375.868	79.94
376.094	99.94
376.319	87.94
376.545	93.94
376.771	86.94
376.997	84.94
377.222	92.94
377.448	95.94
377.674	95.94
377.899	95.94
378.125	78.94
378.35	84.94
378.576	78.94
378.802	88.94
379.027	86.94
379.253	87.94
379.478	104.94
379.704	102.94
379.929	94.94
380.155	93.94
380.38	93.94
380.606	91.94
380.831	106.94
381.057	99.94
381.282	97.94
381.507	83.94
381.733	98.94
381.958	88.94
382.184	107.94
382.409	102.94
382.634	86.94
382.86	94.94
383.085	92.94
383.31	102.94
383.535	111.94
383.761	102.94
383.986	102.94
384.211	97.94
384.436	94.94
384.662	99.94
384.887	93.94
385.112	102.94
385.337	91.94
385.562	98.94
385.787	101.94
386.013	114.94
386.238	122.94
386.463	111.94
386.688	109.94
386.913	103.94
387.138	113.94
387.363	100.94
387.588	98.94
387.813	100.94
388.038	97.94
388.263	112.94
388.488	99.94
388.713	106.94
388.938	75.94
389.163	97.94
389.387	92.94
389.612	95.94
389.837	89.94
390.062	94.94
390.287	86.94
390.512	87.94
390.736	94.94
390.961	87.94
391.186	90.94
391.411	89.94
391.636	96.94
391.86	103.94
392.085	79.94
392.31	93.94
392.534	91.94
392.759	104.94
392.984	75.94
393.208	89.94
393.433	95.94
393.658	97.94
393.882	79.94
394.107	76.94
394.331	87.94
394.556	92.94
394.78	88.94
395.005	81.94
395.229	84.94
395.454	98.94
395.678	80.94
395.903	86.94
396.127	91.94
396.352	84.94
396.576	95.94
396.801	94.94
397.025	87.94
397.249	92.94
397.474	98.94
397.698	98.94
397.922	101.94
398.147	98.94
398.371	90.94
398.595	92.94
398.82	78.94
399.044	83.94
399.268	98.94
399.492	85.94
399.717	80.94
399.941	99.94
400.165	102.94
400.389	103.94
400.613	86.94
400.837	98.94
401.062	95.94
401.286	90.94
401.51	92.94
401.734	92.94
401.958	116.94
402.182	177.94
402.406	244.94
402.63	179.94
402.854	120.94
403.078	94.94
403.302	93.94
403.526	102.94
403.75	88.94
403.974	96.94
404.198	103.94
404.422	97.94
404.645	100.94
404.869	118.94
405.093	137.94
405.317	169.94
405.541	172.94
405.765	142.94
405.988	177.94
406.212	276.94
406.436	376.94
406.66	235.94
406.883	146.94
407.107	105.94
407.331	112.94
407.555	129.94
407.778	123.94
408.002	90.94
408.226	104.94
408.449	89.94
408.673	94.94
408.896	107.94
409.12	99.94
409.344	77.94
409.567	90.94
409.791	94.94
410.014	95.94
410.238	89.94
410.461	79.94
410.685	97.94
410.908	103.94
411.132	101.94
411.355	115.94
411.578	102.94
411.802	94.94
412.025	111.94
412.249	106.94
412.472	140.94
412.695	167.94
412.919	124.94
413.142	102.94
413.365	104.94
413.589	86.94
413.812	98.94
414.035	97.94
414.258	103.94
414.482	91.94
414.705	92.94
414.928	98.94
415.151	86.94
415.374	90.94
415.597	92.94
415.821	81.94
416.044	90.94
416.267	101.94
416.49	85.94
416.713	87.94
416.936	103.94
417.159	110.94
417.382	109.94
417.605	125.94
417.828	115.94
418.051	113.94
418.274	94.94
418.497	87.94
418.72	82.94
418.943	101.94
419.166	86.94
419.389	86.94
419.611	101.94
419.834	89.94
420.057	97.94
420.28	93.94
420.503	101.94
420.726	77.94
420.948	102.94
421.171	111.94
421.394	109.94
421.617	95.94
421.839	94.94
422.062	101.94
422.285	89.94
422.507	103.94
422.73	124.94
422.953	108.94
423.175	85.94
423.398	85.94
423.621	91.94
423.843	95.94
424.066	97.94
424.288	78.94
424.511	95.94
424.733	117.94
424.956	130.94
425.178	105.94
425.401	138.94
425.623	106.94
425.846	109.94
426.068	116.94
426.291	92.94
426.513	91.94
426.735	105.94
426.958	122.94
427.18	132.94
427.402	212.94
427.625	345.94
427.847	330.94
428.069	314.94
428.292	154.94
428.514	110.94
428.736	104.94
428.958	96.94
429.181	85.94
429.403	102.94
429.625	92.94
429.847	96.94
430.069	119.94
430.292	99.94
430.514	88.94
430.736	92.94
430.958	96.94
431.18	90.94
431.402	81.94
431.624	88.94
431.846	96.94
432.068	79.94
432.29	80.94
432.512	89.94
432.734	99.94
432.956	100.94
433.178	101.94
433.4	109.94
433.622	90.94
433.844	78.94
434.066	97.94
434.287	96.94
434.509	90.94
434.731	93.94
434.953	93.94
435.175	97.94
435.397	86.94
435.618	122.94
435.84	102.94
436.062	156.94
436.284	152.94
436.505	110.94
436.727	121.94
436.949	101.94
437.17	97.94
437.392	88.94
437.614	105.94
437.835	129.94
438.057	176.94
438.278	141.94
438.5	125.94
438.721	164.94
438.943	125.94
439.165	100.94
439.386	91.94
439.608	102.94
439.829	117.94
440.05	192.94
440.272	237.94
440.493	120.94
440.715	99.94
440.936	96.94
441.158	95.94
441.379	110.94
441.6	108.94
441.822	119.94
442.043	107.94
442.264	133.94
442.486	130.94
442.707	107.94
442.928	146.94
443.149	216.94
443.371	221.94
443.592	148.94
443.813	140.94
444.034	128.94
444.255	104.94
444.476	108.94
444.698	93.94
444.919	92.94
445.14	140.94
445.361	155.94
445.582	181.94
445.803	233.94
446.024	220.94
446.245	210.94
446.466	136.94
446.687	112.94
446.908	97.94
447.129	97.94
447.35	95.94
447.571	106.94
447.792	100.94
448.013	116.94
448.234	132.94
448.455	135.94
448.675	151.94
448.896	160.94
449.117	116.94
449.338	115.94
449.559	155.94
449.779	168.94
450	111.94
450.221	99.94
450.442	101.94
450.662	109.94
450.883	148.94
451.104	156.94
451.324	106.94
451.545	112.94
451.766	105.94
451.986	90.94
452.207	90.94
452.428	104.94
452.648	114.94
452.869	130.94
453.089	163.94
453.31	160.94
453.53	108.94
453.751	104.94
453.971	137.94
454.192	166.94
454.412	108.94
454.633	87.94
454.853	94.94
455.073	86.94
455.294	115.94
455.514	133.94
455.734	92.94
455.955	84.94
456.175	89.94
456.395	87.94
456.616	94.94
456.836	77.94
457.056	69.94
457.276	83.94
457.497	98.94
457.717	94.94
457.937	82.94
458.157	92.94
458.377	115.94
458.598	142.94
458.818	253.94
459.038	293.94
459.258	180.94
459.478	100.94
459.698	96.94
459.918	93.94
460.138	94.94
460.358	104.94
460.578	95.94
460.798	99.94
461.018	98.94
461.238	82.94
461.458	82.94
461.678	89.94
461.898	98.94
462.118	86.94
462.338	103.94
462.558	98.94
462.777	106.94
462.997	112.94
463.217	142.94
463.437	113.94
463.657	108.94
463.876	108.94
464.096	104.94
464.316	116.94
464.536	116.94
464.755	105.94
464.975	164.94
465.195	283.94
465.414	281.94
465.634	130.94
465.854	97.94
466.073	81.94
466.293	101.94
466.512	89.94
466.732	98.94
466.951	101.94
467.171	101.94
467.391	117.94
467.61	182.94
467.829	328.94
468.049	987.94
468.268	1554.94
468.488	352.94
468.707	138.94
468.927	103.94
469.146	100.94
469.365	94.94
469.585	107.94
469.804	116.94
470.023	121.94
470.243	117.94
470.462	149.94
470.681	181.94
470.901	127.94
471.12	116.94
471.339	126.94
471.558	130.94
471.777	217.94
471.997	464.94
472.216	1994.94
472.435	4677.94
472.654	991.94
472.873	220.94
473.092	138.94
473.311	108.94
473.53	107.94
473.749	115.94
473.968	97.94
474.187	130.94
474.406	110.94
474.625	86.94
474.844	86.94
475.063	87.94
475.282	103.94
475.501	98.94
475.72	92.94
475.939	85.94
476.158	92.94
476.377	105.94
476.596	101.94
476.814	104.94
477.033	121.94
477.252	105.94
477.471	102.94
477.69	101.94
477.908	112.94
478.127	85.94
478.346	104.94
478.564	111.94
478.783	117.94
479.002	118.94
479.22	128.94
479.439	152.94
479.658	171.94
479.876	138.94
480.095	138.94
480.313	171.94
480.532	235.94
480.751	437.94
480.969	1735.94
481.188	7807.94
481.406	4368.94
481.624	579.94
481.843	186.94
482.061	121.94
482.28	107.94
482.498	109.94
482.717	107.94
482.935	118.94
483.153	92.94
483.372	104.94
483.59	104.94
483.808	97.94
484.027	87.94
484.245	103.94
484.463	117.94
484.681	107.94
484.9	89.94
485.118	101.94
485.336	104.94
485.554	96.94
485.772	109.94
485.99	105.94
486.209	118.94
486.427	98.94
486.645	143.94
486.863	145.94
487.081	131.94
487.299	112.94
487.517	90.94
487.735	103.94
487.953	100.94
488.171	92.94
488.389	100.94
488.607	120.94
488.825	100.94
489.043	97.94
489.261	90.94
489.479	93.94
489.696	87.94
489.914	96.94
490.132	94.94
490.35	95.94
490.568	93.94
490.786	96.94
491.003	90.94
491.221	95.94
491.439	105.94
491.657	94.94
491.874	103.94
492.092	96.94
492.31	113.94
492.527	122.94
492.745	111.94
492.963	95.94
493.18	93.94
493.398	92.94
493.615	98.94
493.833	113.94
494.05	83.94
494.268	90.94
494.485	92.94
494.703	90.94
494.92	73.94
495.138	102.94
495.355	89.94
495.573	80.94
495.79	80.94
496.008	95.94
496.225	92.94
496.442	95.94
496.66	103.94
496.877	92.94
497.094	103.94
497.312	96.94
497.529	110.94
497.746	97.94
497.963	95.94
498.181	103.94
498.398	120.94
498.615	119.94
498.832	135.94
499.049	106.94
499.267	89.94
499.484	91.94
499.701	86.94
499.918	101.94
500.135	96.94
500.352	89.94
500.569	105.94
500.786	108.94
501.003	94.94
501.22	98.94
501.437	111.94
501.654	113.94
501.871	152.94
502.088	102.94
502.305	102.94
502.522	92.94
502.739	107.94
502.956	99.94
503.172	113.94
503.389	110.94
503.606	139.94
503.823	113.94
504.04	104.94
504.256	108.94
504.473	92.94
504.69	85.94
504.907	90.94
505.123	87.94
505.34	93.94
505.557	102.94
505.773	88.94
505.99	86.94
506.207	95.94
506.423	92.94
506.64	91.94
506.856	91.94
507.073	96.94
507.289	89.94
507.506	108.94
507.722	159.94
507.939	166.94
508.155	104.94
508.372	95.94
508.588	109.94
508.805	100.94
509.021	95.94
509.238	103.94
509.454	102.94
509.67	121.94
509.887	114.94
510.103	170.94
510.319	284.94
510.536	1193.94
510.752	4268.94
510.968	1098.94
511.184	213.94
