Data from Circ_1998_H10_HRD10591_00019.txt Node
Date: Wed Jan 03 11:26:52 EST 2024
User: Yrep
Spectrometer: HR+D1059
Trigger mode: 1
Integration Time (sec): 1.000000E-1
Scans to average: 1
Electric dark correction enabled: true
Nonlinearity correction enabled: false
Boxcar width: 0
XAxis mode: Wavelengths
Number of Pixels in Spectrum: 2048
>>>>>Begin Spectral Data<<<<<
223.165	-35.5
223.4	-35.5
223.635	-35.5
223.869	-20.5
224.104	-10.5
224.338	-22.5
224.573	-8.5
224.808	-8.5
225.042	-4.5
225.277	-3.5
225.511	-9.5
225.746	13.5
225.98	8.5
226.215	12.5
226.449	21.5
226.683	29.5
226.918	9.5
227.152	28.5
227.387	36.5
227.621	26.5
227.856	39.5
228.09	29.5
228.324	39.5
228.559	47.5
228.793	57.5
229.027	61.5
229.262	53.5
229.496	70.5
229.73	86.5
229.964	90.5
230.199	78.5
230.433	74.5
230.667	73.5
230.901	75.5
231.136	52.5
231.37	76.5
231.604	79.5
231.838	78.5
232.072	69.5
232.306	82.5
232.541	72.5
232.775	64.5
233.009	76.5
233.243	69.5
233.477	68.5
233.711	82.5
233.945	76.5
234.179	75.5
234.413	75.5
234.647	78.5
234.881	68.5
235.115	66.5
235.349	68.5
235.583	76.5
235.817	71.5
236.051	77.5
236.285	76.5
236.519	70.5
236.753	74.5
236.987	62.5
237.221	80.5
237.455	83.5
237.689	76.5
237.922	75.5
238.156	75.5
238.39	70.5
238.624	62.5
238.858	73.5
239.091	74.5
239.325	71.5
239.559	73.5
239.793	85.5
240.027	79.5
240.26	61.5
240.494	73.5
240.728	84.5
240.961	76.5
241.195	68.5
241.429	76.5
241.662	56.5
241.896	64.5
242.13	75.5
242.363	73.5
242.597	65.5
242.83	79.5
243.064	77.5
243.298	56.5
243.531	80.5
243.765	76.5
243.998	85.5
244.232	71.5
244.465	78.5
244.699	69.5
244.932	79.5
245.166	72.5
245.399	58.5
245.633	72.5
245.866	79.5
246.099	74.5
246.333	82.5
246.566	84.5
246.8	75.5
247.033	81.5
247.266	82.5
247.5	78.5
247.733	82.5
247.966	77.5
248.2	83.5
248.433	69.5
248.666	67.5
248.899	96.5
249.133	82.5
249.366	99.5
249.599	101.5
249.832	88.5
250.066	61.5
250.299	70.5
250.532	86.5
250.765	83.5
250.998	73.5
251.231	74.5
251.465	84.5
251.698	76.5
251.931	86.5
252.164	75.5
252.397	81.5
252.63	69.5
252.863	76.5
253.096	82.5
253.329	83.5
253.562	76.5
253.795	79.5
254.028	85.5
254.261	70.5
254.494	87.5
254.727	89.5
254.96	70.5
255.193	94.5
255.426	77.5
255.659	71.5
255.892	84.5
256.124	92.5
256.357	82.5
256.59	75.5
256.823	91.5
257.056	90.5
257.289	87.5
257.521	86.5
257.754	90.5
257.987	93.5
258.22	81.5
258.452	97.5
258.685	74.5
258.918	90.5
259.151	92.5
259.383	88.5
259.616	60.5
259.849	82.5
260.081	67.5
260.314	84.5
260.547	77.5
260.779	82.5
261.012	89.5
261.244	97.5
261.477	94.5
261.71	103.5
261.942	125.5
262.175	135.5
262.407	93.5
262.64	64.5
262.872	89.5
263.105	81.5
263.337	72.5
263.57	69.5
263.802	75.5
264.035	61.5
264.267	78.5
264.499	70.5
264.732	90.5
264.964	73.5
265.197	71.5
265.429	81.5
265.661	85.5
265.894	76.5
266.126	83.5
266.358	71.5
266.591	86.5
266.823	80.5
267.055	87.5
267.287	92.5
267.52	78.5
267.752	65.5
267.984	70.5
268.216	85.5
268.448	89.5
268.681	87.5
268.913	92.5
269.145	78.5
269.377	75.5
269.609	80.5
269.841	72.5
270.073	76.5
270.306	85.5
270.538	75.5
270.77	73.5
271.002	76.5
271.234	87.5
271.466	82.5
271.698	81.5
271.93	88.5
272.162	64.5
272.394	87.5
272.626	87.5
272.858	80.5
273.09	85.5
273.322	81.5
273.553	77.5
273.785	81.5
274.017	84.5
274.249	76.5
274.481	80.5
274.713	73.5
274.945	89.5
275.176	99.5
275.408	86.5
275.64	105.5
275.872	114.5
276.104	102.5
276.335	101.5
276.567	124.5
276.799	139.5
277.031	165.5
277.262	168.5
277.494	125.5
277.726	91.5
277.957	103.5
278.189	71.5
278.421	85.5
278.652	93.5
278.884	76.5
279.115	86.5
279.347	93.5
279.579	103.5
279.81	113.5
280.042	185.5
280.273	243.5
280.505	165.5
280.736	110.5
280.968	83.5
281.199	93.5
281.431	83.5
281.662	93.5
281.894	89.5
282.125	96.5
282.356	133.5
282.588	183.5
282.819	118.5
283.051	90.5
283.282	95.5
283.513	77.5
283.745	82.5
283.976	80.5
284.207	86.5
284.439	73.5
284.67	86.5
284.901	83.5
285.132	78.5
285.364	82.5
285.595	97.5
285.826	87.5
286.057	99.5
286.288	77.5
286.52	76.5
286.751	77.5
286.982	89.5
287.213	97.5
287.444	92.5
287.675	80.5
287.906	80.5
288.138	73.5
288.369	83.5
288.6	98.5
288.831	76.5
289.062	102.5
289.293	73.5
289.524	77.5
289.755	95.5
289.986	83.5
290.217	86.5
290.448	83.5
290.679	76.5
290.91	91.5
291.141	81.5
291.371	86.5
291.602	81.5
291.833	81.5
292.064	82.5
292.295	87.5
292.526	88.5
292.757	85.5
292.987	77.5
293.218	76.5
293.449	96.5
293.68	77.5
293.91	87.5
294.141	85.5
294.372	82.5
294.603	87.5
294.833	76.5
295.064	75.5
295.295	79.5
295.525	95.5
295.756	96.5
295.987	117.5
296.217	168.5
296.448	136.5
296.679	100.5
296.909	88.5
297.14	83.5
297.37	90.5
297.601	91.5
297.831	80.5
298.062	93.5
298.292	89.5
298.523	107.5
298.753	82.5
298.984	84.5
299.214	92.5
299.445	96.5
299.675	79.5
299.905	94.5
300.136	85.5
300.366	89.5
300.597	74.5
300.827	82.5
301.057	105.5
301.288	117.5
301.518	95.5
301.748	92.5
301.979	114.5
302.209	90.5
302.439	90.5
302.669	89.5
302.9	88.5
303.13	103.5
303.36	101.5
303.59	122.5
303.82	133.5
304.051	99.5
304.281	87.5
304.511	78.5
304.741	95.5
304.971	80.5
305.201	93.5
305.431	97.5
305.661	91.5
305.891	96.5
306.121	96.5
306.352	103.5
306.582	108.5
306.812	115.5
307.042	107.5
307.272	151.5
307.502	164.5
307.731	171.5
307.961	145.5
308.191	94.5
308.421	93.5
308.651	101.5
308.881	74.5
309.111	86.5
309.341	93.5
309.571	100.5
309.8	112.5
310.03	100.5
310.26	111.5
310.49	83.5
310.72	95.5
310.949	103.5
311.179	108.5
311.409	97.5
311.639	101.5
311.868	93.5
312.098	99.5
312.328	100.5
312.557	116.5
312.787	112.5
313.017	109.5
313.246	86.5
313.476	110.5
313.706	86.5
313.935	76.5
314.165	116.5
314.394	101.5
314.624	100.5
314.853	115.5
315.083	98.5
315.312	89.5
315.542	79.5
315.771	76.5
316.001	72.5
316.23	84.5
316.46	73.5
316.689	85.5
316.919	77.5
317.148	89.5
317.377	91.5
317.607	97.5
317.836	101.5
318.065	70.5
318.295	82.5
318.524	88.5
318.753	89.5
318.983	97.5
319.212	107.5
319.441	105.5
319.67	113.5
319.9	99.5
320.129	78.5
320.358	89.5
320.587	92.5
320.816	99.5
321.046	105.5
321.275	102.5
321.504	90.5
321.733	84.5
321.962	111.5
322.191	93.5
322.42	107.5
322.649	116.5
322.878	115.5
323.108	120.5
323.337	132.5
323.566	147.5
323.795	178.5
324.024	232.5
324.253	455.5
324.482	1030.5
324.71	2128.5
324.939	2781.5
325.168	1005.5
325.397	304.5
325.626	163.5
325.855	137.5
326.084	125.5
326.313	142.5
326.542	173.5
326.77	256.5
326.999	521.5
327.228	1115.5
327.457	2053.5
327.686	1614.5
327.914	540.5
328.143	520.5
328.372	640.5
328.6	330.5
328.829	177.5
329.058	168.5
329.287	180.5
329.515	167.5
329.744	245.5
329.972	460.5
330.201	946.5
330.43	1374.5
330.658	587.5
330.887	291.5
331.115	195.5
331.344	124.5
331.572	116.5
331.801	117.5
332.03	122.5
332.258	90.5
332.486	109.5
332.715	100.5
332.943	117.5
333.172	108.5
333.4	119.5
333.629	158.5
333.857	212.5
334.085	412.5
334.314	859.5
334.542	1731.5
334.771	1605.5
334.999	437.5
335.227	173.5
335.455	122.5
335.684	110.5
335.912	96.5
336.14	100.5
336.369	94.5
336.597	103.5
336.825	94.5
337.053	83.5
337.281	74.5
337.51	90.5
337.738	105.5
337.966	92.5
338.194	88.5
338.422	106.5
338.65	90.5
338.878	77.5
339.106	95.5
339.334	94.5
339.562	98.5
339.79	92.5
340.018	84.5
340.246	88.5
340.474	84.5
340.702	83.5
340.93	94.5
341.158	88.5
341.386	91.5
341.614	97.5
341.842	104.5
342.07	91.5
342.298	78.5
342.526	90.5
342.754	84.5
342.981	96.5
343.209	76.5
343.437	99.5
343.665	81.5
343.893	82.5
344.12	94.5
344.348	82.5
344.576	86.5
344.804	91.5
345.031	77.5
345.259	89.5
345.487	109.5
345.714	90.5
345.942	90.5
346.17	80.5
346.397	88.5
346.625	87.5
346.853	96.5
347.08	84.5
347.308	106.5
347.535	108.5
347.763	95.5
347.99	102.5
348.218	117.5
348.445	99.5
348.673	119.5
348.9	78.5
349.128	107.5
349.355	87.5
349.583	90.5
349.81	78.5
350.037	96.5
350.265	98.5
350.492	93.5
350.72	106.5
350.947	112.5
351.174	116.5
351.402	120.5
351.629	121.5
351.856	91.5
352.083	89.5
352.311	105.5
352.538	112.5
352.765	118.5
352.992	116.5
353.22	115.5
353.447	105.5
353.674	92.5
353.901	102.5
354.128	88.5
354.355	99.5
354.583	86.5
354.81	92.5
355.037	88.5
355.264	87.5
355.491	95.5
355.718	74.5
355.945	98.5
356.172	90.5
356.399	83.5
356.626	82.5
356.853	81.5
357.08	94.5
357.307	78.5
357.534	74.5
357.761	77.5
357.988	93.5
358.215	92.5
358.441	94.5
358.668	85.5
358.895	86.5
359.122	98.5
359.349	80.5
359.576	85.5
359.802	106.5
360.029	128.5
360.256	119.5
360.483	96.5
360.709	92.5
360.936	93.5
361.163	97.5
361.39	102.5
361.616	99.5
361.843	88.5
362.07	83.5
362.296	108.5
362.523	89.5
362.749	78.5
362.976	92.5
363.203	82.5
363.429	78.5
363.656	82.5
363.882	92.5
364.109	100.5
364.335	96.5
364.562	90.5
364.788	99.5
365.015	88.5
365.241	106.5
365.468	113.5
365.694	108.5
365.92	105.5
366.147	98.5
366.373	94.5
366.599	92.5
366.826	87.5
367.052	76.5
367.278	85.5
367.505	72.5
367.731	88.5
367.957	85.5
368.184	100.5
368.41	101.5
368.636	120.5
368.862	119.5
369.089	115.5
369.315	78.5
369.541	89.5
369.767	92.5
369.993	98.5
370.219	87.5
370.445	88.5
370.672	87.5
370.898	86.5
371.124	84.5
371.35	82.5
371.576	80.5
371.802	92.5
372.028	88.5
372.254	94.5
372.48	82.5
372.706	76.5
372.932	82.5
373.158	85.5
373.384	85.5
373.61	82.5
373.835	97.5
374.061	84.5
374.287	80.5
374.513	89.5
374.739	100.5
374.965	88.5
375.191	80.5
375.416	64.5
375.642	91.5
375.868	100.5
376.094	75.5
376.319	78.5
376.545	94.5
376.771	86.5
376.997	82.5
377.222	96.5
377.448	100.5
377.674	88.5
377.899	86.5
378.125	102.5
378.35	90.5
378.576	92.5
378.802	81.5
379.027	83.5
379.253	92.5
379.478	89.5
379.704	101.5
379.929	97.5
380.155	92.5
380.38	91.5
380.606	81.5
380.831	97.5
381.057	102.5
381.282	86.5
381.507	89.5
381.733	86.5
381.958	93.5
382.184	109.5
382.409	100.5
382.634	93.5
382.86	96.5
383.085	109.5
383.31	90.5
383.535	106.5
383.761	106.5
383.986	87.5
384.211	93.5
384.436	100.5
384.662	96.5
384.887	102.5
385.112	91.5
385.337	105.5
385.562	97.5
385.787	94.5
386.013	125.5
386.238	134.5
386.463	102.5
386.688	123.5
386.913	108.5
387.138	119.5
387.363	104.5
387.588	76.5
387.813	84.5
388.038	110.5
388.263	124.5
388.488	125.5
388.713	92.5
388.938	83.5
389.163	90.5
389.387	91.5
389.612	88.5
389.837	89.5
390.062	84.5
390.287	83.5
390.512	83.5
390.736	91.5
390.961	84.5
391.186	83.5
391.411	80.5
391.636	88.5
391.86	77.5
392.085	81.5
392.31	86.5
392.534	100.5
392.759	87.5
392.984	83.5
393.208	84.5
393.433	81.5
393.658	92.5
393.882	84.5
394.107	82.5
394.331	76.5
394.556	88.5
394.78	84.5
395.005	80.5
395.229	73.5
395.454	93.5
395.678	87.5
395.903	98.5
396.127	80.5
396.352	90.5
396.576	93.5
396.801	91.5
397.025	90.5
397.249	89.5
397.474	77.5
397.698	78.5
397.922	73.5
398.147	89.5
398.371	82.5
398.595	78.5
398.82	68.5
399.044	73.5
399.268	94.5
399.492	61.5
399.717	74.5
399.941	80.5
400.165	92.5
400.389	85.5
400.613	88.5
400.837	96.5
401.062	88.5
401.286	85.5
401.51	93.5
401.734	98.5
401.958	98.5
402.182	136.5
402.406	207.5
402.63	152.5
402.854	101.5
403.078	80.5
403.302	88.5
403.526	73.5
403.75	92.5
403.974	76.5
404.198	89.5
404.422	75.5
404.645	95.5
404.869	92.5
405.093	105.5
405.317	121.5
405.541	118.5
405.765	106.5
405.988	132.5
406.212	211.5
406.436	307.5
406.66	196.5
406.883	113.5
407.107	84.5
407.331	103.5
407.555	109.5
407.778	105.5
408.002	75.5
408.226	74.5
408.449	76.5
408.673	91.5
408.896	100.5
409.12	76.5
409.344	77.5
409.567	88.5
409.791	84.5
410.014	81.5
410.238	98.5
410.461	91.5
410.685	96.5
410.908	84.5
411.132	89.5
411.355	88.5
411.578	87.5
411.802	86.5
412.025	95.5
412.249	101.5
412.472	119.5
412.695	144.5
412.919	90.5
413.142	98.5
413.365	86.5
413.589	85.5
413.812	87.5
414.035	101.5
414.258	84.5
414.482	97.5
414.705	92.5
414.928	93.5
415.151	92.5
415.374	96.5
415.597	87.5
415.821	83.5
416.044	85.5
416.267	80.5
416.49	87.5
416.713	101.5
416.936	80.5
417.159	80.5
417.382	84.5
417.605	104.5
417.828	93.5
418.051	96.5
418.274	81.5
418.497	89.5
418.72	78.5
418.943	85.5
419.166	78.5
419.389	91.5
419.611	86.5
419.834	91.5
420.057	100.5
420.28	90.5
420.503	83.5
420.726	83.5
420.948	99.5
421.171	94.5
421.394	109.5
421.617	91.5
421.839	94.5
422.062	102.5
422.285	89.5
422.507	94.5
422.73	107.5
422.953	98.5
423.175	97.5
423.398	70.5
423.621	78.5
423.843	80.5
424.066	96.5
424.288	91.5
424.511	82.5
424.733	82.5
424.956	102.5
425.178	112.5
425.401	96.5
425.623	108.5
425.846	83.5
426.068	90.5
426.291	81.5
426.513	72.5
426.735	90.5
426.958	85.5
427.18	112.5
427.402	164.5
427.625	236.5
427.847	245.5
428.069	204.5
428.292	125.5
428.514	94.5
428.736	94.5
428.958	81.5
429.181	93.5
429.403	76.5
429.625	86.5
429.847	97.5
430.069	109.5
430.292	85.5
430.514	78.5
430.736	74.5
430.958	79.5
431.18	66.5
431.402	82.5
431.624	73.5
431.846	70.5
432.068	85.5
432.29	83.5
432.512	85.5
432.734	95.5
432.956	87.5
433.178	91.5
433.4	91.5
433.622	81.5
433.844	101.5
434.066	82.5
434.287	78.5
434.509	88.5
434.731	91.5
434.953	84.5
435.175	93.5
435.397	86.5
435.618	100.5
435.84	104.5
436.062	124.5
436.284	126.5
436.505	106.5
436.727	109.5
436.949	94.5
437.17	81.5
437.392	99.5
437.614	84.5
437.835	107.5
438.057	144.5
438.278	112.5
438.5	116.5
438.721	125.5
438.943	106.5
439.165	88.5
439.386	73.5
439.608	98.5
439.829	99.5
440.05	136.5
440.272	172.5
440.493	98.5
440.715	93.5
440.936	84.5
441.158	92.5
441.379	91.5
441.6	84.5
441.822	104.5
442.043	94.5
442.264	88.5
442.486	104.5
442.707	83.5
442.928	127.5
443.149	165.5
443.371	176.5
443.592	130.5
443.813	106.5
444.034	114.5
444.255	94.5
444.476	78.5
444.698	79.5
444.919	72.5
445.14	125.5
445.361	142.5
445.582	126.5
445.803	166.5
446.024	162.5
446.245	138.5
446.466	106.5
446.687	86.5
446.908	92.5
447.129	88.5
447.35	90.5
447.571	85.5
447.792	96.5
448.013	111.5
448.234	109.5
448.455	108.5
448.675	126.5
448.896	132.5
449.117	101.5
449.338	94.5
449.559	125.5
449.779	148.5
450	104.5
450.221	93.5
450.442	78.5
450.662	91.5
450.883	115.5
451.104	142.5
451.324	110.5
451.545	79.5
451.766	82.5
451.986	106.5
452.207	101.5
452.428	101.5
452.648	95.5
452.869	120.5
453.089	121.5
453.31	139.5
453.53	115.5
453.751	105.5
453.971	105.5
454.192	135.5
454.412	98.5
454.633	89.5
454.853	81.5
455.073	78.5
455.294	70.5
455.514	107.5
455.734	87.5
455.955	80.5
456.175	73.5
456.395	80.5
456.616	80.5
456.836	93.5
457.056	76.5
457.276	77.5
457.497	100.5
457.717	93.5
457.937	92.5
458.157	82.5
458.377	86.5
458.598	132.5
458.818	171.5
459.038	220.5
459.258	131.5
459.478	86.5
459.698	89.5
459.918	80.5
460.138	86.5
460.358	86.5
460.578	83.5
460.798	81.5
461.018	79.5
461.238	75.5
461.458	84.5
461.678	67.5
461.898	74.5
462.118	75.5
462.338	93.5
462.558	99.5
462.777	86.5
462.997	99.5
463.217	106.5
463.437	108.5
463.657	89.5
463.876	74.5
464.096	89.5
464.316	91.5
464.536	101.5
464.755	99.5
464.975	123.5
465.195	230.5
465.414	217.5
465.634	107.5
465.854	86.5
466.073	78.5
466.293	94.5
466.512	88.5
466.732	78.5
466.951	84.5
467.171	102.5
467.391	107.5
467.61	144.5
467.829	218.5
468.049	552.5
468.268	829.5
468.488	198.5
468.707	100.5
468.927	98.5
469.146	75.5
469.365	81.5
469.585	94.5
469.804	103.5
470.023	118.5
470.243	109.5
470.462	116.5
470.681	133.5
470.901	102.5
471.12	72.5
471.339	100.5
471.558	118.5
471.777	151.5
471.997	296.5
472.216	1123.5
472.435	2540.5
472.654	566.5
472.873	150.5
473.092	97.5
473.311	88.5
473.53	88.5
473.749	84.5
473.968	85.5
474.187	129.5
474.406	119.5
474.625	101.5
474.844	92.5
475.063	91.5
475.282	85.5
475.501	76.5
475.72	88.5
475.939	92.5
476.158	76.5
476.377	68.5
476.596	92.5
476.814	96.5
477.033	101.5
477.252	72.5
477.471	90.5
477.69	92.5
477.908	90.5
478.127	102.5
478.346	94.5
478.564	89.5
478.783	90.5
479.002	93.5
479.22	104.5
479.439	126.5
479.658	132.5
479.876	124.5
480.095	116.5
480.313	134.5
480.532	157.5
480.751	290.5
480.969	1034.5
481.188	4461.5
481.406	2471.5
481.624	352.5
481.843	125.5
482.061	106.5
482.28	90.5
482.498	77.5
482.717	92.5
482.935	100.5
483.153	97.5
483.372	77.5
483.59	79.5
483.808	81.5
484.027	76.5
484.245	84.5
484.463	93.5
484.681	98.5
484.9	98.5
485.118	112.5
485.336	102.5
485.554	102.5
485.772	103.5
485.99	112.5
486.209	99.5
486.427	131.5
486.645	126.5
486.863	122.5
487.081	112.5
487.299	100.5
487.517	89.5
487.735	101.5
487.953	99.5
488.171	94.5
488.389	99.5
488.607	106.5
488.825	80.5
489.043	95.5
489.261	79.5
489.479	80.5
489.696	88.5
489.914	75.5
490.132	94.5
490.35	98.5
490.568	76.5
490.786	90.5
491.003	75.5
491.221	91.5
491.439	91.5
491.657	89.5
491.874	86.5
492.092	81.5
492.31	89.5
492.527	97.5
492.745	101.5
492.963	91.5
493.18	97.5
493.398	94.5
493.615	92.5
493.833	105.5
494.05	73.5
494.268	88.5
494.485	73.5
494.703	88.5
494.92	78.5
495.138	91.5
495.355	88.5
495.573	88.5
495.79	67.5
496.008	91.5
496.225	95.5
496.442	83.5
496.66	91.5
496.877	98.5
497.094	90.5
497.312	82.5
497.529	94.5
497.746	83.5
497.963	95.5
498.181	92.5
498.398	87.5
498.615	97.5
498.832	112.5
499.049	92.5
499.267	70.5
499.484	92.5
499.701	82.5
499.918	80.5
500.135	76.5
500.352	94.5
500.569	91.5
500.786	93.5
501.003	83.5
501.22	96.5
501.437	90.5
501.654	99.5
501.871	116.5
502.088	85.5
502.305	101.5
502.522	77.5
502.739	92.5
502.956	84.5
503.172	89.5
503.389	98.5
503.606	126.5
503.823	92.5
504.04	92.5
504.256	84.5
504.473	82.5
504.69	80.5
504.907	92.5
505.123	92.5
505.34	100.5
505.557	82.5
505.773	91.5
505.99	99.5
506.207	81.5
506.423	90.5
506.64	87.5
506.856	88.5
507.073	90.5
507.289	91.5
507.506	93.5
507.722	127.5
507.939	117.5
508.155	94.5
508.372	96.5
508.588	96.5
508.805	88.5
509.021	81.5
509.238	90.5
509.454	100.5
509.67	102.5
509.887	113.5
510.103	147.5
510.319	255.5
510.536	983.5
510.752	3492.5
510.968	936.5
511.184	192.5
511.401	140.5
511.617	101.5
511.833	97.5
512.049	100.5
512.265	81.5
512.481	89.5
512.698	91.5
512.914	88.5
513.13	85.5
513.346	82.5
513.562	89.5
513.778	93.5
513.994	106.5
514.21	100.5
514.426	146.5
514.642	174.5
514.858	125.5
515.074	216.5
515.29	713.5
515.506	2549.5
515.721	873.5
515.937	217.5
516.153	124.5
516.369	97.5
516.585	112.5
516.801	105.5
517.016	100.5
517.232	92.5
517.448	89.5
517.664	97.5
517.879	106.5
518.095	107.5
518.311	109.5
518.527	99.5
518.742	83.5
518.958	85.5
519.173	98.5
519.389	91.5
519.605	100.5
519.82	99.5
520.036	119.5
520.251	175.5
520.467	128.5
520.682	109.5
520.898	114.5
521.113	142.5
521.329	185.5
521.544	286.5
521.76	914.5
521.975	4293.5
522.19	2500.5
522.406	467.5
522.621	153.5
522.836	107.5
523.052	101.5
523.267	100.5
523.482	107.5
523.698	104.5
523.913	129.5
524.128	97.5
524.343	84.5
524.559	102.5
524.774	95.5
524.989	104.5
525.204	123.5
525.419	105.5
525.634	93.5
525.849	79.5
526.064	76.5
526.28	91.5
526.495	96.5
526.71	91.5
526.925	83.5
527.14	72.5
527.355	84.5
527.57	96.5
527.785	94.5
527.999	90.5
528.214	90.5
528.429	82.5
528.644	87.5
528.859	90.5
529.074	94.5
529.289	137.5
529.503	258.5
529.718	124.5
529.933	89.5
530.148	82.5
530.363	72.5
530.577	73.5
530.792	87.5
531.007	82.5
531.221	92.5
531.436	94.5
531.651	86.5
531.865	92.5
532.08	84.5
532.295	96.5
532.509	88.5
532.724	98.5
532.938	100.5
533.153	90.5
533.367	74.5
533.582	101.5
533.796	82.5
534.011	72.5
