Data from Circ_1998_H10_HRD10591_00073.txt Node
Date: Wed Jan 03 11:27:03 EST 2024
User: Yrep
Spectrometer: HR+D1059
Trigger mode: 1
Integration Time (sec): 1.000000E-1
Scans to average: 1
Electric dark correction enabled: true
Nonlinearity correction enabled: false
Boxcar width: 0
XAxis mode: Wavelengths
Number of Pixels in Spectrum: 2048
>>>>>Begin Spectral Data<<<<<
223.165	-10.19
223.4	-10.19
223.635	-10.19
223.869	-19.19
224.104	-20.19
224.338	-0.19
224.573	-15.19
224.808	-27.19
225.042	-3.19
225.277	3.81
225.511	-1.19
225.746	14.81
225.98	-4.19
226.215	3.81
226.449	5.81
226.683	26.81
226.918	24.81
227.152	20.81
227.387	44.81
227.621	54.81
227.856	45.81
228.09	45.81
228.324	44.81
228.559	67.81
228.793	54.81
229.027	55.81
229.262	64.81
229.496	93.81
229.73	96.81
229.964	88.81
230.199	75.81
230.433	77.81
230.667	83.81
230.901	80.81
231.136	84.81
231.37	84.81
231.604	76.81
231.838	86.81
232.072	83.81
232.306	87.81
232.541	83.81
232.775	85.81
233.009	82.81
233.243	79.81
233.477	78.81
233.711	84.81
233.945	89.81
234.179	78.81
234.413	76.81
234.647	80.81
234.881	72.81
235.115	87.81
235.349	83.81
235.583	76.81
235.817	79.81
236.051	76.81
236.285	77.81
236.519	71.81
236.753	71.81
236.987	90.81
237.221	85.81
237.455	92.81
237.689	61.81
237.922	82.81
238.156	74.81
238.39	71.81
238.624	85.81
238.858	80.81
239.091	61.81
239.325	74.81
239.559	66.81
239.793	74.81
240.027	78.81
240.26	73.81
240.494	79.81
240.728	64.81
240.961	75.81
241.195	77.81
241.429	66.81
241.662	75.81
241.896	72.81
242.13	80.81
242.363	71.81
242.597	70.81
242.83	78.81
243.064	89.81
243.298	72.81
243.531	73.81
243.765	70.81
243.998	82.81
244.232	72.81
244.465	81.81
244.699	62.81
244.932	67.81
245.166	86.81
245.399	79.81
245.633	84.81
245.866	71.81
246.099	75.81
246.333	101.81
246.566	75.81
246.8	73.81
247.033	79.81
247.266	72.81
247.5	87.81
247.733	73.81
247.966	83.81
248.2	80.81
248.433	81.81
248.666	76.81
248.899	97.81
249.133	79.81
249.366	96.81
249.599	96.81
249.832	88.81
250.066	84.81
250.299	62.81
250.532	91.81
250.765	65.81
250.998	77.81
251.231	81.81
251.465	76.81
251.698	80.81
251.931	76.81
252.164	68.81
252.397	80.81
252.63	68.81
252.863	84.81
253.096	89.81
253.329	85.81
253.562	71.81
253.795	83.81
254.028	76.81
254.261	83.81
254.494	72.81
254.727	85.81
254.96	77.81
255.193	83.81
255.426	78.81
255.659	76.81
255.892	106.81
256.124	92.81
256.357	79.81
256.59	82.81
256.823	81.81
257.056	85.81
257.289	103.81
257.521	84.81
257.754	83.81
257.987	93.81
258.22	96.81
258.452	103.81
258.685	85.81
258.918	70.81
259.151	88.81
259.383	91.81
259.616	86.81
259.849	87.81
260.081	80.81
260.314	69.81
260.547	87.81
260.779	99.81
261.012	123.81
261.244	109.81
261.477	98.81
261.71	94.81
261.942	115.81
262.175	133.81
262.407	93.81
262.64	86.81
262.872	80.81
263.105	85.81
263.337	79.81
263.57	94.81
263.802	93.81
264.035	82.81
264.267	81.81
264.499	78.81
264.732	71.81
264.964	75.81
265.197	81.81
265.429	78.81
265.661	91.81
265.894	73.81
266.126	89.81
266.358	82.81
266.591	67.81
266.823	77.81
267.055	88.81
267.287	87.81
267.52	80.81
267.752	86.81
267.984	92.81
268.216	75.81
268.448	91.81
268.681	61.81
268.913	78.81
269.145	75.81
269.377	75.81
269.609	96.81
269.841	91.81
270.073	88.81
270.306	85.81
270.538	77.81
270.77	67.81
271.002	88.81
271.234	90.81
271.466	97.81
271.698	74.81
271.93	95.81
272.162	84.81
272.394	80.81
272.626	78.81
272.858	74.81
273.09	90.81
273.322	73.81
273.553	101.81
273.785	90.81
274.017	97.81
274.249	83.81
274.481	80.81
274.713	71.81
274.945	101.81
275.176	80.81
275.408	99.81
275.64	107.81
275.872	121.81
276.104	120.81
276.335	101.81
276.567	115.81
276.799	141.81
277.031	179.81
277.262	206.81
277.494	144.81
277.726	103.81
277.957	95.81
278.189	83.81
278.421	83.81
278.652	83.81
278.884	79.81
279.115	79.81
279.347	90.81
279.579	117.81
279.81	138.81
280.042	211.81
280.273	282.81
280.505	200.81
280.736	118.81
280.968	109.81
281.199	97.81
281.431	75.81
281.662	90.81
281.894	102.81
282.125	85.81
282.356	126.81
282.588	158.81
282.819	119.81
283.051	94.81
283.282	85.81
283.513	93.81
283.745	81.81
283.976	79.81
284.207	85.81
284.439	87.81
284.67	80.81
284.901	97.81
285.132	85.81
285.364	83.81
285.595	88.81
285.826	98.81
286.057	93.81
286.288	84.81
286.52	77.81
286.751	75.81
286.982	74.81
287.213	76.81
287.444	86.81
287.675	98.81
287.906	96.81
288.138	97.81
288.369	87.81
288.6	76.81
288.831	84.81
289.062	68.81
289.293	87.81
289.524	91.81
289.755	78.81
289.986	68.81
290.217	89.81
290.448	88.81
290.679	94.81
290.91	83.81
291.141	87.81
291.371	80.81
291.602	95.81
291.833	79.81
292.064	82.81
292.295	97.81
292.526	86.81
292.757	85.81
292.987	82.81
293.218	81.81
293.449	97.81
293.68	87.81
293.91	85.81
294.141	89.81
294.372	84.81
294.603	78.81
294.833	81.81
295.064	101.81
295.295	100.81
295.525	95.81
295.756	103.81
295.987	136.81
296.217	175.81
296.448	139.81
296.679	98.81
296.909	85.81
297.14	86.81
297.37	90.81
297.601	90.81
297.831	104.81
298.062	102.81
298.292	71.81
298.523	96.81
298.753	90.81
298.984	89.81
299.214	85.81
299.445	86.81
299.675	103.81
299.905	98.81
300.136	95.81
300.366	91.81
300.597	97.81
300.827	90.81
301.057	100.81
301.288	113.81
301.518	86.81
301.748	101.81
301.979	112.81
302.209	111.81
302.439	90.81
302.669	104.81
302.9	89.81
303.13	75.81
303.36	110.81
303.59	137.81
303.82	152.81
304.051	102.81
304.281	97.81
304.511	93.81
304.741	85.81
304.971	91.81
305.201	103.81
305.431	97.81
305.661	102.81
305.891	91.81
306.121	87.81
306.352	106.81
306.582	118.81
306.812	96.81
307.042	120.81
307.272	181.81
307.502	196.81
307.731	185.81
307.961	138.81
308.191	92.81
308.421	86.81
308.651	95.81
308.881	85.81
309.111	85.81
309.341	88.81
309.571	90.81
309.8	109.81
310.03	89.81
310.26	95.81
310.49	100.81
310.72	103.81
310.949	109.81
311.179	106.81
311.409	94.81
311.639	99.81
311.868	99.81
312.098	100.81
312.328	92.81
312.557	108.81
312.787	128.81
313.017	109.81
313.246	98.81
313.476	83.81
313.706	76.81
313.935	97.81
314.165	110.81
314.394	93.81
314.624	89.81
314.853	94.81
315.083	93.81
315.312	89.81
315.542	86.81
315.771	84.81
316.001	90.81
316.23	100.81
316.46	89.81
316.689	91.81
316.919	104.81
317.148	89.81
317.377	99.81
317.607	90.81
317.836	85.81
318.065	92.81
318.295	90.81
318.524	96.81
318.753	105.81
318.983	91.81
319.212	112.81
319.441	128.81
319.67	102.81
319.9	84.81
320.129	92.81
320.358	93.81
320.587	79.81
320.816	102.81
321.046	109.81
321.275	94.81
321.504	103.81
321.733	89.81
321.962	100.81
322.191	118.81
322.42	114.81
322.649	109.81
322.878	114.81
323.108	110.81
323.337	131.81
323.566	136.81
323.795	167.81
324.024	230.81
324.253	438.81
324.482	945.81
324.71	1996.81
324.939	2607.81
325.168	965.81
325.397	290.81
325.626	154.81
325.855	119.81
326.084	134.81
326.313	149.81
326.542	180.81
326.77	247.81
326.999	504.81
327.228	1017.81
327.457	1863.81
327.686	1528.81
327.914	569.81
328.143	586.81
328.372	763.81
328.6	427.81
328.829	187.81
329.058	161.81
329.287	185.81
329.515	182.81
329.744	281.81
329.972	546.81
330.201	1221.81
330.43	1721.81
330.658	750.81
330.887	306.81
331.115	187.81
331.344	126.81
331.572	126.81
331.801	127.81
332.03	124.81
332.258	115.81
332.486	98.81
332.715	101.81
332.943	126.81
333.172	115.81
333.4	128.81
333.629	170.81
333.857	252.81
334.085	511.81
334.314	1095.81
334.542	2180.81
334.771	1971.81
334.999	492.81
335.227	201.81
335.455	125.81
335.684	105.81
335.912	107.81
336.14	101.81
336.369	126.81
336.597	113.81
336.825	98.81
337.053	94.81
337.281	93.81
337.51	86.81
337.738	105.81
337.966	99.81
338.194	92.81
338.422	97.81
338.65	87.81
338.878	105.81
339.106	85.81
339.334	88.81
339.562	77.81
339.79	97.81
340.018	94.81
340.246	86.81
340.474	102.81
340.702	93.81
340.93	87.81
341.158	92.81
341.386	99.81
341.614	106.81
341.842	94.81
342.07	107.81
342.298	97.81
342.526	84.81
342.754	90.81
342.981	87.81
343.209	84.81
343.437	92.81
343.665	88.81
343.893	92.81
344.12	97.81
344.348	90.81
344.576	89.81
344.804	87.81
345.031	105.81
345.259	101.81
345.487	104.81
345.714	98.81
345.942	99.81
346.17	72.81
346.397	84.81
346.625	98.81
346.853	96.81
347.08	85.81
347.308	92.81
347.535	98.81
347.763	94.81
347.99	96.81
348.218	97.81
348.445	111.81
348.673	94.81
348.9	100.81
349.128	86.81
349.355	96.81
349.583	96.81
349.81	93.81
350.037	91.81
350.265	88.81
350.492	88.81
350.72	93.81
350.947	79.81
351.174	115.81
351.402	119.81
351.629	104.81
351.856	86.81
352.083	116.81
352.311	100.81
352.538	98.81
352.765	118.81
352.992	113.81
353.22	100.81
353.447	98.81
353.674	96.81
353.901	96.81
354.128	89.81
354.355	113.81
354.583	91.81
354.81	99.81
355.037	73.81
355.264	93.81
355.491	91.81
355.718	100.81
355.945	101.81
356.172	89.81
356.399	86.81
356.626	95.81
356.853	77.81
357.08	92.81
357.307	75.81
357.534	93.81
357.761	89.81
357.988	92.81
358.215	101.81
358.441	96.81
358.668	92.81
358.895	79.81
359.122	75.81
359.349	82.81
359.576	83.81
359.802	95.81
360.029	141.81
360.256	121.81
360.483	109.81
360.709	88.81
360.936	100.81
361.163	88.81
361.39	99.81
361.616	89.81
361.843	104.81
362.07	99.81
362.296	94.81
362.523	85.81
362.749	94.81
362.976	113.81
363.203	96.81
363.429	91.81
363.656	100.81
363.882	83.81
364.109	79.81
364.335	88.81
364.562	96.81
364.788	88.81
365.015	91.81
365.241	113.81
365.468	107.81
365.694	126.81
365.92	112.81
366.147	95.81
366.373	80.81
366.599	96.81
366.826	79.81
367.052	73.81
367.278	91.81
367.505	101.81
367.731	95.81
367.957	87.81
368.184	97.81
368.41	87.81
368.636	111.81
368.862	124.81
369.089	108.81
369.315	95.81
369.541	102.81
369.767	101.81
369.993	87.81
370.219	95.81
370.445	98.81
370.672	83.81
370.898	87.81
371.124	92.81
371.35	71.81
371.576	100.81
371.802	81.81
372.028	83.81
372.254	91.81
372.48	84.81
372.706	75.81
372.932	93.81
373.158	74.81
373.384	88.81
373.61	100.81
373.835	88.81
374.061	102.81
374.287	96.81
374.513	79.81
374.739	86.81
374.965	93.81
375.191	82.81
375.416	94.81
375.642	93.81
375.868	99.81
376.094	98.81
376.319	89.81
376.545	91.81
376.771	82.81
376.997	86.81
377.222	93.81
377.448	89.81
377.674	75.81
377.899	96.81
378.125	113.81
378.35	79.81
378.576	87.81
378.802	90.81
379.027	80.81
379.253	100.81
379.478	82.81
379.704	92.81
379.929	106.81
380.155	83.81
380.38	84.81
380.606	84.81
380.831	103.81
381.057	94.81
381.282	102.81
381.507	83.81
381.733	85.81
381.958	91.81
382.184	112.81
382.409	105.81
382.634	102.81
382.86	89.81
383.085	95.81
383.31	92.81
383.535	86.81
383.761	103.81
383.986	108.81
384.211	89.81
384.436	75.81
384.662	94.81
384.887	93.81
385.112	91.81
385.337	95.81
385.562	87.81
385.787	104.81
386.013	107.81
386.238	108.81
386.463	104.81
386.688	107.81
386.913	103.81
387.138	86.81
387.363	101.81
387.588	88.81
387.813	101.81
388.038	99.81
388.263	92.81
388.488	93.81
388.713	97.81
388.938	85.81
389.163	90.81
389.387	90.81
389.612	88.81
389.837	84.81
390.062	96.81
390.287	84.81
390.512	96.81
390.736	93.81
390.961	93.81
391.186	88.81
391.411	86.81
391.636	82.81
391.86	71.81
392.085	85.81
392.31	91.81
392.534	79.81
392.759	73.81
392.984	75.81
393.208	99.81
393.433	93.81
393.658	88.81
393.882	83.81
394.107	82.81
394.331	84.81
394.556	105.81
394.78	89.81
395.005	94.81
395.229	98.81
395.454	89.81
395.678	94.81
395.903	81.81
396.127	75.81
396.352	78.81
396.576	91.81
396.801	92.81
397.025	80.81
397.249	73.81
397.474	79.81
397.698	113.81
397.922	95.81
398.147	87.81
398.371	70.81
398.595	83.81
398.82	83.81
399.044	80.81
399.268	82.81
399.492	90.81
399.717	91.81
399.941	82.81
400.165	93.81
400.389	94.81
400.613	77.81
400.837	85.81
401.062	94.81
401.286	92.81
401.51	89.81
401.734	97.81
401.958	115.81
402.182	138.81
402.406	171.81
402.63	136.81
402.854	102.81
403.078	97.81
403.302	99.81
403.526	85.81
403.75	77.81
403.974	80.81
404.198	92.81
404.422	83.81
404.645	90.81
404.869	97.81
405.093	109.81
405.317	130.81
405.541	132.81
405.765	116.81
405.988	143.81
406.212	196.81
406.436	309.81
406.66	179.81
406.883	116.81
407.107	102.81
407.331	114.81
407.555	107.81
407.778	102.81
408.002	85.81
408.226	87.81
408.449	82.81
408.673	89.81
408.896	99.81
409.12	110.81
409.344	91.81
409.567	83.81
409.791	100.81
410.014	98.81
410.238	83.81
410.461	99.81
410.685	86.81
410.908	109.81
411.132	110.81
411.355	108.81
411.578	87.81
411.802	86.81
412.025	100.81
412.249	100.81
412.472	108.81
412.695	139.81
412.919	113.81
413.142	87.81
413.365	83.81
413.589	84.81
413.812	73.81
414.035	97.81
414.258	98.81
414.482	83.81
414.705	97.81
414.928	93.81
415.151	76.81
415.374	92.81
415.597	72.81
415.821	76.81
416.044	103.81
416.267	86.81
416.49	87.81
416.713	92.81
416.936	92.81
417.159	112.81
417.382	103.81
417.605	91.81
417.828	104.81
418.051	96.81
418.274	89.81
418.497	96.81
418.72	86.81
418.943	91.81
419.166	97.81
419.389	95.81
419.611	100.81
419.834	85.81
420.057	80.81
420.28	89.81
420.503	79.81
420.726	95.81
420.948	97.81
421.171	92.81
421.394	89.81
421.617	76.81
421.839	80.81
422.062	81.81
422.285	104.81
422.507	101.81
422.73	109.81
422.953	96.81
423.175	80.81
423.398	87.81
423.621	89.81
423.843	84.81
424.066	97.81
424.288	84.81
424.511	88.81
424.733	103.81
424.956	122.81
425.178	109.81
425.401	107.81
425.623	102.81
425.846	93.81
426.068	104.81
426.291	93.81
426.513	84.81
426.735	91.81
426.958	104.81
427.18	130.81
427.402	169.81
427.625	232.81
427.847	232.81
428.069	218.81
428.292	121.81
428.514	93.81
428.736	96.81
428.958	102.81
429.181	85.81
429.403	85.81
429.625	84.81
429.847	77.81
430.069	109.81
430.292	81.81
430.514	93.81
430.736	83.81
430.958	76.81
431.18	86.81
431.402	84.81
431.624	84.81
431.846	84.81
432.068	92.81
432.29	77.81
432.512	95.81
432.734	102.81
432.956	96.81
433.178	102.81
433.4	102.81
433.622	81.81
433.844	90.81
434.066	77.81
434.287	95.81
434.509	88.81
434.731	93.81
434.953	87.81
435.175	84.81
435.397	102.81
435.618	87.81
435.84	102.81
436.062	145.81
436.284	125.81
436.505	105.81
436.727	100.81
436.949	87.81
437.17	77.81
437.392	88.81
437.614	97.81
437.835	128.81
438.057	144.81
438.278	129.81
438.5	112.81
438.721	139.81
438.943	110.81
439.165	85.81
439.386	85.81
439.608	91.81
439.829	103.81
440.05	155.81
440.272	162.81
440.493	116.81
440.715	80.81
440.936	83.81
441.158	78.81
441.379	75.81
441.6	105.81
441.822	101.81
442.043	98.81
442.264	116.81
442.486	116.81
442.707	97.81
442.928	101.81
443.149	165.81
443.371	175.81
443.592	121.81
443.813	128.81
444.034	119.81
444.255	96.81
444.476	96.81
444.698	90.81
444.919	100.81
445.14	148.81
445.361	147.81
445.582	118.81
445.803	169.81
446.024	168.81
446.245	154.81
446.466	119.81
446.687	86.81
446.908	68.81
447.129	91.81
447.35	93.81
447.571	94.81
447.792	100.81
448.013	111.81
448.234	114.81
448.455	109.81
448.675	125.81
448.896	130.81
449.117	110.81
449.338	109.81
449.559	140.81
449.779	145.81
450	95.81
450.221	102.81
450.442	78.81
450.662	104.81
450.883	108.81
451.104	123.81
451.324	109.81
451.545	88.81
451.766	87.81
451.986	104.81
452.207	107.81
452.428	95.81
452.648	96.81
452.869	117.81
453.089	133.81
453.31	141.81
453.53	103.81
453.751	79.81
453.971	123.81
454.192	133.81
454.412	110.81
454.633	100.81
454.853	91.81
455.073	87.81
455.294	90.81
455.514	101.81
455.734	91.81
455.955	88.81
456.175	64.81
456.395	79.81
456.616	75.81
456.836	72.81
457.056	95.81
457.276	94.81
457.497	77.81
457.717	77.81
457.937	90.81
458.157	96.81
458.377	94.81
458.598	132.81
458.818	175.81
459.038	210.81
459.258	145.81
459.478	85.81
459.698	88.81
459.918	84.81
460.138	80.81
460.358	83.81
460.578	93.81
460.798	95.81
461.018	90.81
461.238	78.81
461.458	90.81
461.678	90.81
461.898	88.81
462.118	88.81
462.338	83.81
462.558	79.81
462.777	104.81
462.997	100.81
463.217	108.81
463.437	105.81
463.657	109.81
463.876	86.81
464.096	107.81
464.316	93.81
464.536	86.81
464.755	103.81
464.975	128.81
465.195	232.81
465.414	206.81
465.634	114.81
465.854	100.81
466.073	89.81
466.293	86.81
466.512	93.81
466.732	104.81
466.951	106.81
467.171	105.81
467.391	115.81
467.61	159.81
467.829	250.81
468.049	727.81
468.268	1086.81
468.488	271.81
468.707	112.81
468.927	79.81
469.146	81.81
469.365	102.81
469.585	105.81
469.804	113.81
470.023	105.81
470.243	107.81
470.462	132.81
470.681	141.81
470.901	109.81
471.12	119.81
471.339	126.81
471.558	133.81
471.777	156.81
471.997	383.81
472.216	1457.81
472.435	3287.81
472.654	728.81
472.873	179.81
473.092	125.81
473.311	100.81
473.53	89.81
473.749	90.81
473.968	104.81
474.187	113.81
474.406	102.81
474.625	100.81
474.844	79.81
475.063	85.81
475.282	92.81
475.501	93.81
475.72	89.81
475.939	89.81
476.158	78.81
476.377	90.81
476.596	95.81
476.814	95.81
477.033	96.81
477.252	97.81
477.471	90.81
477.69	103.81
477.908	102.81
478.127	89.81
478.346	100.81
478.564	99.81
478.783	116.81
479.002	98.81
479.22	101.81
479.439	128.81
479.658	139.81
479.876	123.81
480.095	126.81
480.313	143.81
480.532	169.81
480.751	325.81
480.969	1281.81
481.188	5525.81
481.406	3105.81
481.624	416.81
481.843	164.81
482.061	105.81
482.28	93.81
482.498	92.81
482.717	102.81
482.935	89.81
483.153	97.81
483.372	108.81
483.59	81.81
483.808	93.81
484.027	99.81
484.245	77.81
484.463	91.81
484.681	107.81
484.9	90.81
485.118	80.81
485.336	110.81
485.554	106.81
485.772	92.81
485.99	120.81
486.209	103.81
486.427	112.81
486.645	110.81
486.863	116.81
487.081	99.81
487.299	97.81
487.517	87.81
487.735	91.81
487.953	90.81
488.171	101.81
488.389	101.81
488.607	96.81
488.825	86.81
489.043	100.81
489.261	96.81
489.479	95.81
489.696	78.81
489.914	96.81
490.132	80.81
490.35	84.81
490.568	80.81
490.786	91.81
491.003	93.81
491.221	93.81
491.439	94.81
491.657	95.81
491.874	90.81
492.092	98.81
492.31	93.81
492.527	106.81
492.745	97.81
492.963	80.81
493.18	92.81
493.398	96.81
493.615	101.81
493.833	92.81
494.05	99.81
494.268	96.81
494.485	97.81
494.703	91.81
494.92	96.81
495.138	89.81
495.355	111.81
495.573	92.81
495.79	99.81
496.008	92.81
496.225	91.81
496.442	88.81
496.66	80.81
496.877	77.81
497.094	97.81
497.312	99.81
497.529	86.81
497.746	95.81
497.963	87.81
498.181	94.81
498.398	97.81
498.615	120.81
498.832	106.81
499.049	87.81
499.267	103.81
499.484	92.81
499.701	99.81
499.918	96.81
500.135	101.81
500.352	97.81
500.569	91.81
500.786	106.81
501.003	88.81
501.22	96.81
501.437	85.81
501.654	94.81
501.871	109.81
502.088	97.81
502.305	91.81
502.522	91.81
502.739	81.81
502.956	83.81
503.172	81.81
503.389	105.81
503.606	133.81
503.823	108.81
504.04	98.81
504.256	84.81
504.473	79.81
504.69	88.81
504.907	88.81
505.123	102.81
505.34	97.81
505.557	78.81
505.773	92.81
505.99	94.81
506.207	76.81
506.423	80.81
506.64	90.81
506.856	93.81
507.073	88.81
507.289	86.81
507.506	123.81
507.722	124.81
507.939	116.81
508.155	108.81
508.372	93.81
508.588	92.81
508.805	84.81
509.021	100.81
509.238	99.81
509.454	89.81
509.67	102.81
509.887	117.81
510.103	139.81
510.319	239.81
510.536	895.81
510.752	3205.81
510.968	873.81
511.184	189.81
511.401	132.81
511.617	91.81
511.833	107.81
512.049	102.81
512.265	88.81
512.481	97.81
512.698	94.81
512.914	105.81
513.13	84.81
513.346	91.81
513.562	99.81
513.778	90.81
