Data from Circ_1998_H10_HRD10591_00069.txt Node
Date: Wed Jan 03 11:27:02 EST 2024
User: Yrep
Spectrometer: HR+D1059
Trigger mode: 1
Integration Time (sec): 1.000000E-1
Scans to average: 1
Electric dark correction enabled: true
Nonlinearity correction enabled: false
Boxcar width: 0
XAxis mode: Wavelengths
Number of Pixels in Spectrum: 2048
>>>>>Begin Spectral Data<<<<<
223.165	-19.12
223.4	-19.12
223.635	-19.12
223.869	-18.12
224.104	-34.12
224.338	-11.12
224.573	-13.12
224.808	-10.12
225.042	-0.12
225.277	-9.12
225.511	-4.12
225.746	6.88
225.98	-3.12
226.215	6.88
226.449	26.88
226.683	21.88
226.918	28.88
227.152	30.88
227.387	33.88
227.621	35.88
227.856	46.88
228.09	46.88
228.324	57.88
228.559	41.88
228.793	54.88
229.027	64.88
229.262	84.88
229.496	77.88
229.73	107.88
229.964	115.88
230.199	64.88
230.433	79.88
230.667	92.88
230.901	66.88
231.136	71.88
231.37	56.88
231.604	77.88
231.838	91.88
232.072	81.88
232.306	81.88
232.541	81.88
232.775	81.88
233.009	87.88
233.243	80.88
233.477	80.88
233.711	78.88
233.945	76.88
234.179	68.88
234.413	77.88
234.647	76.88
234.881	82.88
235.115	81.88
235.349	95.88
235.583	88.88
235.817	73.88
236.051	66.88
236.285	75.88
236.519	84.88
236.753	74.88
236.987	72.88
237.221	93.88
237.455	100.88
237.689	73.88
237.922	62.88
238.156	95.88
238.39	81.88
238.624	75.88
238.858	77.88
239.091	79.88
239.325	80.88
239.559	80.88
239.793	93.88
240.027	80.88
240.26	91.88
240.494	90.88
240.728	70.88
240.961	72.88
241.195	85.88
241.429	76.88
241.662	79.88
241.896	86.88
242.13	65.88
242.363	64.88
242.597	61.88
242.83	82.88
243.064	62.88
243.298	73.88
243.531	72.88
243.765	83.88
243.998	97.88
244.232	65.88
244.465	76.88
244.699	80.88
244.932	79.88
245.166	81.88
245.399	79.88
245.633	77.88
245.866	87.88
246.099	89.88
246.333	82.88
246.566	78.88
246.8	79.88
247.033	87.88
247.266	72.88
247.5	90.88
247.733	90.88
247.966	81.88
248.2	79.88
248.433	77.88
248.666	81.88
248.899	77.88
249.133	94.88
249.366	115.88
249.599	116.88
249.832	85.88
250.066	84.88
250.299	97.88
250.532	85.88
250.765	85.88
250.998	83.88
251.231	88.88
251.465	96.88
251.698	77.88
251.931	98.88
252.164	90.88
252.397	87.88
252.63	56.88
252.863	90.88
253.096	79.88
253.329	77.88
253.562	80.88
253.795	75.88
254.028	79.88
254.261	80.88
254.494	85.88
254.727	81.88
254.96	72.88
255.193	74.88
255.426	90.88
255.659	85.88
255.892	115.88
256.124	123.88
256.357	94.88
256.59	89.88
256.823	93.88
257.056	97.88
257.289	103.88
257.521	96.88
257.754	84.88
257.987	101.88
258.22	89.88
258.452	116.88
258.685	95.88
258.918	96.88
259.151	91.88
259.383	86.88
259.616	79.88
259.849	84.88
260.081	81.88
260.314	92.88
260.547	88.88
260.779	114.88
261.012	130.88
261.244	108.88
261.477	126.88
261.71	102.88
261.942	152.88
262.175	158.88
262.407	97.88
262.64	90.88
262.872	77.88
263.105	101.88
263.337	98.88
263.57	98.88
263.802	89.88
264.035	85.88
264.267	81.88
264.499	76.88
264.732	88.88
264.964	86.88
265.197	95.88
265.429	94.88
265.661	81.88
265.894	85.88
266.126	90.88
266.358	76.88
266.591	89.88
266.823	88.88
267.055	79.88
267.287	85.88
267.52	92.88
267.752	92.88
267.984	81.88
268.216	89.88
268.448	92.88
268.681	97.88
268.913	88.88
269.145	76.88
269.377	84.88
269.609	84.88
269.841	97.88
270.073	108.88
270.306	79.88
270.538	92.88
270.77	87.88
271.002	94.88
271.234	92.88
271.466	102.88
271.698	97.88
271.93	91.88
272.162	83.88
272.394	94.88
272.626	87.88
272.858	107.88
273.09	102.88
273.322	101.88
273.553	74.88
273.785	85.88
274.017	89.88
274.249	92.88
274.481	95.88
274.713	94.88
274.945	96.88
275.176	85.88
275.408	116.88
275.64	133.88
275.872	175.88
276.104	131.88
276.335	111.88
276.567	142.88
276.799	180.88
277.031	227.88
277.262	287.88
277.494	196.88
277.726	104.88
277.957	112.88
278.189	89.88
278.421	90.88
278.652	111.88
278.884	89.88
279.115	86.88
279.347	103.88
279.579	104.88
279.81	159.88
280.042	287.88
280.273	396.88
280.505	266.88
280.736	112.88
280.968	95.88
281.199	85.88
281.431	96.88
281.662	92.88
281.894	90.88
282.125	108.88
282.356	163.88
282.588	193.88
282.819	160.88
283.051	94.88
283.282	93.88
283.513	98.88
283.745	96.88
283.976	99.88
284.207	98.88
284.439	92.88
284.67	85.88
284.901	101.88
285.132	84.88
285.364	90.88
285.595	92.88
285.826	94.88
286.057	94.88
286.288	88.88
286.52	97.88
286.751	88.88
286.982	78.88
287.213	84.88
287.444	85.88
287.675	97.88
287.906	78.88
288.138	94.88
288.369	105.88
288.6	87.88
288.831	85.88
289.062	103.88
289.293	93.88
289.524	87.88
289.755	86.88
289.986	90.88
290.217	100.88
290.448	94.88
290.679	78.88
290.91	81.88
291.141	89.88
291.371	80.88
291.602	99.88
291.833	81.88
292.064	81.88
292.295	93.88
292.526	81.88
292.757	101.88
292.987	97.88
293.218	92.88
293.449	76.88
293.68	89.88
293.91	86.88
294.141	88.88
294.372	97.88
294.603	102.88
294.833	95.88
295.064	90.88
295.295	88.88
295.525	96.88
295.756	111.88
295.987	140.88
296.217	188.88
296.448	169.88
296.679	102.88
296.909	101.88
297.14	90.88
297.37	93.88
297.601	92.88
297.831	85.88
298.062	101.88
298.292	98.88
298.523	97.88
298.753	85.88
298.984	95.88
299.214	87.88
299.445	93.88
299.675	103.88
299.905	116.88
300.136	105.88
300.366	101.88
300.597	95.88
300.827	97.88
301.057	113.88
301.288	120.88
301.518	107.88
301.748	108.88
301.979	129.88
302.209	102.88
302.439	103.88
302.669	113.88
302.9	100.88
303.13	115.88
303.36	124.88
303.59	148.88
303.82	183.88
304.051	120.88
304.281	102.88
304.511	119.88
304.741	111.88
304.971	86.88
305.201	96.88
305.431	100.88
305.661	89.88
305.891	86.88
306.121	94.88
306.352	122.88
306.582	132.88
306.812	125.88
307.042	160.88
307.272	215.88
307.502	240.88
307.731	220.88
307.961	141.88
308.191	113.88
308.421	96.88
308.651	94.88
308.881	81.88
309.111	105.88
309.341	99.88
309.571	115.88
309.8	108.88
310.03	134.88
310.26	102.88
310.49	118.88
310.72	127.88
310.949	136.88
311.179	129.88
311.409	106.88
311.639	112.88
311.868	91.88
312.098	102.88
312.328	111.88
312.557	128.88
312.787	142.88
313.017	132.88
313.246	85.88
313.476	95.88
313.706	101.88
313.935	93.88
314.165	117.88
314.394	122.88
314.624	118.88
314.853	113.88
315.083	116.88
315.312	86.88
315.542	100.88
315.771	103.88
316.001	105.88
316.23	86.88
316.46	90.88
316.689	95.88
316.919	91.88
317.148	119.88
317.377	109.88
317.607	105.88
317.836	99.88
318.065	95.88
318.295	103.88
318.524	109.88
318.753	93.88
318.983	95.88
319.212	104.88
319.441	119.88
319.67	122.88
319.9	104.88
320.129	107.88
320.358	98.88
320.587	98.88
320.816	109.88
321.046	125.88
321.275	107.88
321.504	89.88
321.733	96.88
321.962	103.88
322.191	122.88
322.42	134.88
322.649	118.88
322.878	137.88
323.108	127.88
323.337	157.88
323.566	186.88
323.795	204.88
324.024	296.88
324.253	638.88
324.482	1419.88
324.71	3070.88
324.939	4084.88
325.168	1402.88
325.397	383.88
325.626	197.88
325.855	154.88
326.084	159.88
326.313	180.88
326.542	216.88
326.77	347.88
326.999	693.88
327.228	1588.88
327.457	2860.88
327.686	2272.88
327.914	830.88
328.143	864.88
328.372	1113.88
328.6	596.88
328.829	252.88
329.058	240.88
329.287	268.88
329.515	233.88
329.744	373.88
329.972	810.88
330.201	1762.88
330.43	2615.88
330.658	1046.88
330.887	426.88
331.115	240.88
331.344	158.88
331.572	142.88
331.801	157.88
332.03	151.88
332.258	154.88
332.486	120.88
332.715	124.88
332.943	137.88
333.172	157.88
333.4	141.88
333.629	231.88
333.857	324.88
334.085	734.88
334.314	1602.88
334.542	3297.88
334.771	2937.88
334.999	705.88
335.227	236.88
335.455	150.88
335.684	151.88
335.912	121.88
336.14	129.88
336.369	120.88
336.597	134.88
336.825	125.88
337.053	106.88
337.281	93.88
337.51	100.88
337.738	94.88
337.966	117.88
338.194	132.88
338.422	119.88
338.65	109.88
338.878	98.88
339.106	101.88
339.334	94.88
339.562	85.88
339.79	96.88
340.018	95.88
340.246	100.88
340.474	114.88
340.702	118.88
340.93	103.88
341.158	102.88
341.386	100.88
341.614	117.88
341.842	108.88
342.07	92.88
342.298	107.88
342.526	91.88
342.754	89.88
342.981	103.88
343.209	92.88
343.437	104.88
343.665	95.88
343.893	90.88
344.12	98.88
344.348	101.88
344.576	93.88
344.804	98.88
345.031	118.88
345.259	95.88
345.487	104.88
345.714	93.88
345.942	93.88
346.17	97.88
346.397	98.88
346.625	107.88
346.853	96.88
347.08	97.88
347.308	110.88
347.535	108.88
347.763	116.88
347.99	105.88
348.218	116.88
348.445	138.88
348.673	112.88
348.9	103.88
349.128	88.88
349.355	93.88
349.583	81.88
349.81	88.88
350.037	120.88
350.265	89.88
350.492	98.88
350.72	102.88
350.947	108.88
351.174	128.88
351.402	132.88
351.629	116.88
351.856	107.88
352.083	121.88
352.311	127.88
352.538	127.88
352.765	124.88
352.992	131.88
353.22	126.88
353.447	111.88
353.674	108.88
353.901	107.88
354.128	100.88
354.355	84.88
354.583	89.88
354.81	100.88
355.037	88.88
355.264	92.88
355.491	77.88
355.718	89.88
355.945	87.88
356.172	109.88
356.399	87.88
356.626	90.88
356.853	80.88
357.08	78.88
357.307	85.88
357.534	90.88
357.761	94.88
357.988	96.88
358.215	93.88
358.441	96.88
358.668	106.88
358.895	80.88
359.122	89.88
359.349	95.88
359.576	108.88
359.802	118.88
360.029	168.88
360.256	152.88
360.483	138.88
360.709	105.88
360.936	98.88
361.163	100.88
361.39	109.88
361.616	124.88
361.843	113.88
362.07	98.88
362.296	112.88
362.523	110.88
362.749	98.88
362.976	93.88
363.203	99.88
363.429	89.88
363.656	97.88
363.882	89.88
364.109	92.88
364.335	113.88
364.562	98.88
364.788	101.88
365.015	98.88
365.241	121.88
365.468	118.88
365.694	132.88
365.92	111.88
366.147	95.88
366.373	102.88
366.599	89.88
366.826	100.88
367.052	88.88
367.278	112.88
367.505	93.88
367.731	116.88
367.957	110.88
368.184	101.88
368.41	121.88
368.636	145.88
368.862	142.88
369.089	138.88
369.315	116.88
369.541	106.88
369.767	99.88
369.993	111.88
370.219	92.88
370.445	97.88
370.672	94.88
370.898	96.88
371.124	81.88
371.35	104.88
371.576	82.88
371.802	92.88
372.028	88.88
372.254	88.88
372.48	86.88
372.706	88.88
372.932	73.88
373.158	93.88
373.384	100.88
373.61	86.88
373.835	87.88
374.061	96.88
374.287	87.88
374.513	82.88
374.739	84.88
374.965	84.88
375.191	90.88
375.416	84.88
375.642	96.88
375.868	103.88
376.094	82.88
376.319	84.88
376.545	95.88
376.771	89.88
376.997	99.88
377.222	87.88
377.448	86.88
377.674	82.88
377.899	85.88
378.125	106.88
378.35	91.88
378.576	95.88
378.802	105.88
379.027	84.88
379.253	84.88
379.478	98.88
379.704	86.88
379.929	94.88
380.155	97.88
380.38	96.88
380.606	84.88
380.831	99.88
381.057	97.88
381.282	82.88
381.507	94.88
381.733	94.88
381.958	89.88
382.184	94.88
382.409	108.88
382.634	105.88
382.86	96.88
383.085	108.88
383.31	90.88
383.535	97.88
383.761	103.88
383.986	82.88
384.211	102.88
384.436	87.88
384.662	95.88
384.887	85.88
385.112	118.88
385.337	103.88
385.562	84.88
385.787	97.88
386.013	109.88
386.238	111.88
386.463	109.88
386.688	108.88
386.913	97.88
387.138	97.88
387.363	102.88
387.588	101.88
387.813	94.88
388.038	90.88
388.263	111.88
388.488	100.88
388.713	78.88
388.938	108.88
389.163	96.88
389.387	79.88
389.612	90.88
389.837	92.88
390.062	91.88
390.287	91.88
390.512	80.88
390.736	82.88
390.961	84.88
391.186	91.88
391.411	88.88
391.636	92.88
391.86	91.88
392.085	89.88
392.31	85.88
392.534	95.88
392.759	79.88
392.984	70.88
393.208	105.88
393.433	103.88
393.658	80.88
393.882	77.88
394.107	76.88
394.331	96.88
394.556	92.88
394.78	98.88
395.005	86.88
395.229	86.88
395.454	96.88
395.678	89.88
395.903	86.88
396.127	106.88
396.352	87.88
396.576	88.88
396.801	89.88
397.025	91.88
397.249	80.88
397.474	86.88
397.698	83.88
397.922	89.88
398.147	86.88
398.371	90.88
398.595	98.88
398.82	90.88
399.044	80.88
399.268	89.88
399.492	91.88
399.717	87.88
399.941	98.88
400.165	101.88
400.389	91.88
400.613	96.88
400.837	96.88
401.062	77.88
401.286	92.88
401.51	97.88
401.734	107.88
401.958	118.88
402.182	162.88
402.406	222.88
402.63	151.88
402.854	120.88
403.078	96.88
403.302	99.88
403.526	109.88
403.75	85.88
403.974	92.88
404.198	101.88
404.422	101.88
404.645	91.88
404.869	107.88
405.093	130.88
405.317	166.88
405.541	170.88
405.765	144.88
405.988	155.88
406.212	238.88
406.436	396.88
406.66	245.88
406.883	132.88
407.107	117.88
407.331	113.88
407.555	128.88
407.778	112.88
408.002	87.88
408.226	88.88
408.449	95.88
408.673	74.88
408.896	90.88
409.12	98.88
409.344	89.88
409.567	91.88
409.791	91.88
410.014	83.88
410.238	98.88
410.461	93.88
410.685	108.88
410.908	102.88
411.132	106.88
411.355	107.88
411.578	97.88
411.802	89.88
412.025	96.88
412.249	106.88
412.472	126.88
412.695	163.88
412.919	123.88
413.142	120.88
413.365	97.88
413.589	91.88
413.812	100.88
414.035	94.88
414.258	84.88
414.482	91.88
414.705	104.88
414.928	78.88
415.151	102.88
415.374	92.88
415.597	95.88
415.821	96.88
416.044	82.88
416.267	93.88
416.49	103.88
416.713	78.88
416.936	97.88
417.159	87.88
417.382	105.88
417.605	113.88
417.828	135.88
418.051	103.88
418.274	76.88
418.497	90.88
418.72	104.88
418.943	94.88
419.166	74.88
419.389	91.88
419.611	95.88
419.834	102.88
420.057	104.88
420.28	99.88
420.503	92.88
420.726	93.88
420.948	96.88
421.171	128.88
421.394	94.88
421.617	83.88
421.839	98.88
422.062	109.88
422.285	91.88
422.507	119.88
422.73	112.88
422.953	100.88
423.175	93.88
423.398	89.88
423.621	93.88
423.843	72.88
424.066	95.88
424.288	95.88
424.511	94.88
424.733	97.88
424.956	137.88
425.178	113.88
425.401	114.88
425.623	126.88
425.846	103.88
426.068	91.88
426.291	96.88
426.513	106.88
426.735	94.88
426.958	103.88
427.18	141.88
427.402	222.88
427.625	356.88
427.847	330.88
428.069	300.88
428.292	162.88
428.514	106.88
428.736	75.88
428.958	87.88
429.181	81.88
429.403	95.88
429.625	110.88
429.847	107.88
430.069	129.88
430.292	94.88
430.514	90.88
430.736	93.88
430.958	98.88
431.18	93.88
431.402	76.88
431.624	88.88
431.846	93.88
432.068	97.88
432.29	89.88
432.512	93.88
432.734	92.88
432.956	101.88
433.178	116.88
433.4	122.88
433.622	104.88
433.844	88.88
434.066	83.88
434.287	101.88
434.509	84.88
434.731	79.88
434.953	92.88
435.175	99.88
435.397	96.88
435.618	111.88
435.84	109.88
436.062	163.88
436.284	161.88
436.505	132.88
436.727	115.88
436.949	106.88
437.17	90.88
437.392	99.88
437.614	100.88
437.835	150.88
438.057	172.88
438.278	163.88
438.5	122.88
438.721	168.88
438.943	120.88
439.165	96.88
439.386	92.88
439.608	103.88
439.829	135.88
440.05	201.88
440.272	237.88
440.493	129.88
440.715	101.88
440.936	91.88
441.158	86.88
441.379	104.88
441.6	110.88
441.822	112.88
442.043	112.88
442.264	138.88
442.486	128.88
442.707	102.88
442.928	128.88
443.149	207.88
443.371	220.88
443.592	151.88
443.813	140.88
444.034	132.88
444.255	107.88
444.476	93.88
444.698	98.88
444.919	84.88
445.14	133.88
445.361	151.88
445.582	181.88
445.803	236.88
446.024	230.88
446.245	196.88
446.466	150.88
446.687	94.88
446.908	95.88
447.129	84.88
447.35	107.88
447.571	98.88
447.792	104.88
448.013	117.88
448.234	142.88
448.455	125.88
448.675	156.88
448.896	175.88
449.117	128.88
449.338	112.88
449.559	180.88
449.779	178.88
450	115.88
450.221	110.88
450.442	102.88
450.662	114.88
450.883	142.88
451.104	165.88
451.324	117.88
451.545	100.88
451.766	102.88
451.986	101.88
452.207	93.88
452.428	101.88
452.648	118.88
452.869	137.88
453.089	150.88
453.31	152.88
453.53	110.88
453.751	107.88
453.971	136.88
454.192	147.88
454.412	108.88
454.633	85.88
454.853	89.88
455.073	85.88
455.294	97.88
455.514	129.88
455.734	116.88
455.955	85.88
456.175	95.88
456.395	93.88
456.616	85.88
456.836	80.88
457.056	90.88
457.276	70.88
457.497	93.88
457.717	89.88
457.937	104.88
458.157	117.88
458.377	107.88
458.598	139.88
458.818	241.88
459.038	278.88
459.258	180.88
459.478	115.88
459.698	86.88
459.918	95.88
460.138	96.88
460.358	85.88
460.578	97.88
460.798	92.88
461.018	93.88
461.238	97.88
461.458	94.88
461.678	98.88
461.898	85.88
462.118	79.88
462.338	93.88
462.558	90.88
462.777	85.88
462.997	99.88
463.217	124.88
463.437	105.88
463.657	111.88
463.876	105.88
464.096	107.88
464.316	102.88
464.536	107.88
464.755	100.88
464.975	132.88
465.195	295.88
465.414	299.88
465.634	128.88
465.854	116.88
466.073	108.88
466.293	100.88
466.512	102.88
466.732	82.88
466.951	84.88
467.171	117.88
467.391	138.88
467.61	191.88
467.829	313.88
468.049	976.88
468.268	1502.88
468.488	338.88
468.707	129.88
468.927	110.88
469.146	108.88
469.365	90.88
469.585	98.88
469.804	121.88
470.023	122.88
470.243	127.88
470.462	147.88
470.681	158.88
470.901	126.88
471.12	104.88
471.339	113.88
471.558	143.88
471.777	214.88
471.997	450.88
472.216	1931.88
472.435	4548.88
472.654	970.88
472.873	223.88
473.092	126.88
473.311	118.88
473.53	93.88
473.749	111.88
473.968	123.88
474.187	155.88
474.406	123.88
474.625	91.88
474.844	97.88
475.063	90.88
475.282	103.88
475.501	86.88
475.72	105.88
475.939	97.88
476.158	91.88
476.377	103.88
476.596	92.88
476.814	108.88
477.033	117.88
477.252	95.88
477.471	96.88
477.69	109.88
477.908	118.88
478.127	98.88
478.346	104.88
478.564	109.88
478.783	117.88
479.002	124.88
479.22	124.88
479.439	152.88
479.658	170.88
479.876	145.88
480.095	135.88
480.313	180.88
480.532	226.88
480.751	454.88
480.969	1751.88
481.188	7794.88
481.406	4284.88
481.624	567.88
481.843	192.88
482.061	132.88
482.28	104.88
482.498	104.88
482.717	109.88
482.935	95.88
483.153	104.88
483.372	85.88
483.59	92.88
483.808	88.88
484.027	95.88
484.245	95.88
484.463	103.88
484.681	113.88
484.9	90.88
485.118	84.88
485.336	95.88
485.554	93.88
485.772	108.88
485.99	107.88
486.209	115.88
486.427	105.88
486.645	140.88
486.863	153.88
487.081	120.88
487.299	121.88
487.517	105.88
487.735	93.88
487.953	81.88
488.171	88.88
488.389	106.88
488.607	104.88
488.825	120.88
489.043	98.88
489.261	84.88
489.479	98.88
489.696	94.88
489.914	83.88
490.132	92.88
490.35	100.88
490.568	82.88
490.786	95.88
491.003	79.88
491.221	96.88
491.439	116.88
491.657	104.88
491.874	89.88
492.092	93.88
492.31	90.88
492.527	97.88
492.745	100.88
492.963	108.88
493.18	85.88
493.398	96.88
493.615	93.88
493.833	95.88
494.05	86.88
494.268	102.88
494.485	98.88
494.703	94.88
494.92	98.88
495.138	96.88
495.355	89.88
495.573	92.88
495.79	95.88
496.008	74.88
496.225	93.88
496.442	86.88
496.66	109.88
496.877	93.88
497.094	97.88
497.312	93.88
497.529	90.88
497.746	98.88
497.963	98.88
498.181	91.88
498.398	111.88
498.615	118.88
498.832	114.88
499.049	103.88
499.267	89.88
499.484	100.88
499.701	85.88
499.918	84.88
500.135	88.88
500.352	97.88
500.569	80.88
500.786	107.88
501.003	97.88
501.22	88.88
501.437	100.88
501.654	102.88
501.871	146.88
502.088	103.88
502.305	79.88
502.522	109.88
502.739	78.88
502.956	96.88
503.172	92.88
503.389	108.88
503.606	110.88
503.823	110.88
504.04	97.88
504.256	89.88
504.473	86.88
504.69	95.88
504.907	98.88
505.123	78.88
505.34	101.88
505.557	88.88
505.773	96.88
505.99	82.88
506.207	102.88
506.423	92.88
506.64	91.88
506.856	89.88
507.073	108.88
507.289	78.88
507.506	89.88
507.722	137.88
507.939	136.88
508.155	115.88
508.372	105.88
508.588	103.88
508.805	109.88
509.021	115.88
509.238	113.88
509.454	85.88
509.67	98.88
509.887	118.88
510.103	154.88
510.319	274.88
510.536	1121.88
510.752	4156.88
510.968	1073.88
511.184	216.88
511.401	157.88
