Data from Circ_1998_H10_HRD10591_00022.txt Node
Date: Wed Jan 03 11:26:53 EST 2024
User: Yrep
Spectrometer: HR+D1059
Trigger mode: 1
Integration Time (sec): 1.000000E-1
Scans to average: 1
Electric dark correction enabled: true
Nonlinearity correction enabled: false
Boxcar width: 0
XAxis mode: Wavelengths
Number of Pixels in Spectrum: 2048
>>>>>Begin Spectral Data<<<<<
223.165	-12
223.4	-12
223.635	-12
223.869	-7
224.104	-21
224.338	-12
224.573	-15
224.808	-8
225.042	-10
225.277	-9
225.511	-13
225.746	-6
225.98	-4
226.215	17
226.449	15
226.683	29
226.918	32
227.152	24
227.387	32
227.621	34
227.856	39
228.09	50
228.324	48
228.559	56
228.793	54
229.027	58
229.262	72
229.496	78
229.73	108
229.964	103
230.199	77
230.433	79
230.667	71
230.901	69
231.136	74
231.37	76
231.604	77
231.838	84
232.072	85
232.306	85
232.541	86
232.775	84
233.009	78
233.243	72
233.477	82
233.711	87
233.945	79
234.179	91
234.413	71
234.647	79
234.881	86
235.115	87
235.349	87
235.583	74
235.817	73
236.051	80
236.285	97
236.519	73
236.753	80
236.987	86
237.221	95
237.455	88
237.689	76
237.922	76
238.156	83
238.39	66
238.624	78
238.858	78
239.091	71
239.325	89
239.559	88
239.793	81
240.027	84
240.26	80
240.494	81
240.728	85
240.961	73
241.195	89
241.429	68
241.662	76
241.896	76
242.13	83
242.363	90
242.597	63
242.83	72
243.064	63
243.298	76
243.531	79
243.765	82
243.998	79
244.232	84
244.465	70
244.699	77
244.932	96
245.166	89
245.399	76
245.633	82
245.866	69
246.099	93
246.333	85
246.566	80
246.8	77
247.033	66
247.266	85
247.5	79
247.733	80
247.966	79
248.2	84
248.433	82
248.666	68
248.899	82
249.133	90
249.366	94
249.599	104
249.832	74
250.066	77
250.299	84
250.532	95
250.765	75
250.998	86
251.231	83
251.465	65
251.698	72
251.931	88
252.164	81
252.397	90
252.63	89
252.863	89
253.096	86
253.329	87
253.562	85
253.795	87
254.028	92
254.261	92
254.494	82
254.727	88
254.96	96
255.193	83
255.426	80
255.659	84
255.892	95
256.124	102
256.357	100
256.59	85
256.823	79
257.056	90
257.289	99
257.521	84
257.754	76
257.987	95
258.22	96
258.452	102
258.685	86
258.918	101
259.151	81
259.383	72
259.616	88
259.849	88
260.081	94
260.314	97
260.547	102
260.779	97
261.012	94
261.244	108
261.477	98
261.71	106
261.942	148
262.175	156
262.407	105
262.64	85
262.872	79
263.105	98
263.337	93
263.57	82
263.802	83
264.035	88
264.267	80
264.499	94
264.732	93
264.964	90
265.197	80
265.429	86
265.661	76
265.894	81
266.126	80
266.358	72
266.591	98
266.823	86
267.055	82
267.287	85
267.52	89
267.752	81
267.984	89
268.216	72
268.448	80
268.681	87
268.913	93
269.145	78
269.377	84
269.609	79
269.841	77
270.073	88
270.306	90
270.538	100
270.77	90
271.002	94
271.234	87
271.466	96
271.698	104
271.93	105
272.162	92
272.394	97
272.626	85
272.858	92
273.09	86
273.322	90
273.553	91
273.785	81
274.017	79
274.249	87
274.481	82
274.713	90
274.945	93
275.176	105
275.408	112
275.64	113
275.872	137
276.104	117
276.335	103
276.567	128
276.799	170
277.031	214
277.262	235
277.494	183
277.726	101
277.957	97
278.189	87
278.421	99
278.652	84
278.884	96
279.115	105
279.347	109
279.579	116
279.81	146
280.042	229
280.273	326
280.505	208
280.736	121
280.968	95
281.199	85
281.431	88
281.662	89
281.894	98
282.125	113
282.356	134
282.588	188
282.819	144
283.051	91
283.282	98
283.513	90
283.745	85
283.976	84
284.207	80
284.439	98
284.67	73
284.901	90
285.132	74
285.364	84
285.595	75
285.826	78
286.057	82
286.288	85
286.52	98
286.751	90
286.982	67
287.213	88
287.444	76
287.675	86
287.906	94
288.138	110
288.369	101
288.6	97
288.831	103
289.062	97
289.293	88
289.524	76
289.755	78
289.986	88
290.217	96
290.448	89
290.679	85
290.91	75
291.141	66
291.371	91
291.602	88
291.833	92
292.064	93
292.295	97
292.526	88
292.757	97
292.987	89
293.218	90
293.449	87
293.68	93
293.91	80
294.141	84
294.372	108
294.603	92
294.833	102
295.064	102
295.295	92
295.525	96
295.756	113
295.987	129
296.217	186
296.448	159
296.679	103
296.909	94
297.14	96
297.37	87
297.601	96
297.831	94
298.062	80
298.292	90
298.523	96
298.753	101
298.984	90
299.214	96
299.445	89
299.675	111
299.905	97
300.136	100
300.366	92
300.597	99
300.827	98
301.057	116
301.288	118
301.518	118
301.748	92
301.979	113
302.209	118
302.439	89
302.669	93
302.9	93
303.13	113
303.36	119
303.59	156
303.82	156
304.051	104
304.281	92
304.511	100
304.741	104
304.971	95
305.201	98
305.431	97
305.661	95
305.891	98
306.121	96
306.352	106
306.582	116
306.812	105
307.042	144
307.272	189
307.502	212
307.731	190
307.961	149
308.191	94
308.421	104
308.651	88
308.881	109
309.111	98
309.341	97
309.571	108
309.8	108
310.03	118
310.26	119
310.49	117
310.72	101
310.949	120
311.179	111
311.409	106
311.639	99
311.868	98
312.098	89
312.328	105
312.557	124
312.787	124
313.017	133
313.246	104
313.476	106
313.706	97
313.935	107
314.165	116
314.394	112
314.624	111
314.853	95
315.083	104
315.312	91
315.542	102
315.771	89
316.001	92
316.23	93
316.46	81
316.689	98
316.919	102
317.148	112
317.377	112
317.607	99
317.836	100
318.065	96
318.295	97
318.524	95
318.753	104
318.983	100
319.212	111
319.441	123
319.67	130
319.9	100
320.129	102
320.358	76
320.587	97
320.816	104
321.046	110
321.275	109
321.504	97
321.733	98
321.962	89
322.191	114
322.42	107
322.649	128
322.878	128
323.108	142
323.337	161
323.566	200
323.795	212
324.024	286
324.253	624
324.482	1389
324.71	2976
324.939	4028
325.168	1433
325.397	373
325.626	183
325.855	161
326.084	145
326.313	167
326.542	201
326.77	334
326.999	702
327.228	1543
327.457	2924
327.686	2305
327.914	748
328.143	721
328.372	926
328.6	494
328.829	224
329.058	222
329.287	257
329.515	214
329.744	333
329.972	682
330.201	1412
330.43	2049
330.658	887
330.887	364
331.115	235
331.344	148
331.572	137
331.801	148
332.03	135
332.258	117
332.486	113
332.715	116
332.943	126
333.172	140
333.4	146
333.629	192
333.857	296
334.085	591
334.314	1287
334.542	2656
334.771	2359
334.999	582
335.227	201
335.455	140
335.684	133
335.912	120
336.14	95
336.369	108
336.597	109
336.825	105
337.053	97
337.281	84
337.51	108
337.738	103
337.966	111
338.194	113
338.422	109
338.65	97
338.878	91
339.106	87
339.334	105
339.562	96
339.79	103
340.018	108
340.246	96
340.474	98
340.702	108
340.93	90
341.158	95
341.386	105
341.614	106
341.842	100
342.07	92
342.298	100
342.526	109
342.754	87
342.981	95
343.209	103
343.437	94
343.665	78
343.893	97
344.12	86
344.348	89
344.576	89
344.804	109
345.031	105
345.259	127
345.487	116
345.714	96
345.942	100
346.17	101
346.397	88
346.625	102
346.853	102
347.08	99
347.308	102
347.535	104
347.763	117
347.99	104
348.218	103
348.445	124
348.673	114
348.9	101
349.128	106
349.355	101
349.583	88
349.81	82
350.037	98
350.265	104
350.492	96
350.72	99
350.947	112
351.174	129
351.402	138
351.629	117
351.856	110
352.083	120
352.311	118
352.538	143
352.765	140
352.992	138
353.22	122
353.447	114
353.674	98
353.901	96
354.128	91
354.355	103
354.583	112
354.81	99
355.037	105
355.264	84
355.491	101
355.718	89
355.945	95
356.172	100
356.399	89
356.626	77
356.853	96
357.08	94
357.307	92
357.534	86
357.761	95
357.988	74
358.215	88
358.441	99
358.668	99
358.895	93
359.122	91
359.349	87
359.576	85
359.802	117
360.029	152
360.256	159
360.483	117
360.709	98
360.936	91
361.163	108
361.39	91
361.616	99
361.843	88
362.07	107
362.296	114
362.523	90
362.749	100
362.976	93
363.203	92
363.429	89
363.656	90
363.882	95
364.109	90
364.335	95
364.562	92
364.788	94
365.015	109
365.241	124
365.468	110
365.694	120
365.92	105
366.147	99
366.373	95
366.599	106
366.826	88
367.052	97
367.278	92
367.505	102
367.731	94
367.957	95
368.184	105
368.41	110
368.636	135
368.862	140
369.089	116
369.315	102
369.541	103
369.767	71
369.993	102
370.219	92
370.445	87
370.672	86
370.898	82
371.124	81
371.35	84
371.576	97
371.802	82
372.028	71
372.254	81
372.48	78
372.706	91
372.932	90
373.158	86
373.384	98
373.61	90
373.835	85
374.061	87
374.287	91
374.513	88
374.739	96
374.965	85
375.191	90
375.416	101
375.642	89
375.868	95
376.094	89
376.319	93
376.545	91
376.771	96
376.997	94
377.222	85
377.448	86
377.674	87
377.899	80
378.125	92
378.35	93
378.576	101
378.802	96
379.027	90
379.253	93
379.478	94
379.704	97
379.929	91
380.155	102
380.38	92
380.606	100
380.831	97
381.057	95
381.282	90
381.507	106
381.733	98
381.958	96
382.184	100
382.409	109
382.634	102
382.86	93
383.085	105
383.31	104
383.535	90
383.761	100
383.986	105
384.211	109
384.436	105
384.662	111
384.887	108
385.112	115
385.337	104
385.562	103
385.787	127
386.013	105
386.238	109
386.463	119
386.688	117
386.913	109
387.138	118
387.363	105
387.588	105
387.813	117
388.038	117
388.263	119
388.488	124
388.713	87
388.938	94
389.163	87
389.387	87
389.612	77
389.837	85
390.062	92
390.287	93
390.512	93
390.736	89
390.961	89
391.186	81
391.411	90
391.636	81
391.86	92
392.085	104
392.31	87
392.534	89
392.759	92
392.984	88
393.208	101
393.433	104
393.658	80
393.882	91
394.107	89
394.331	85
394.556	99
394.78	89
395.005	80
395.229	86
395.454	86
395.678	82
395.903	77
396.127	101
396.352	95
396.576	94
396.801	104
397.025	100
397.249	87
397.474	79
397.698	92
397.922	77
398.147	95
398.371	86
398.595	81
398.82	92
399.044	86
399.268	78
399.492	86
399.717	76
399.941	97
400.165	104
400.389	98
400.613	75
400.837	96
401.062	81
401.286	94
401.51	96
401.734	110
401.958	101
402.182	175
402.406	222
402.63	163
402.854	113
403.078	98
403.302	94
403.526	92
403.75	92
403.974	81
404.198	93
404.422	94
404.645	81
404.869	112
405.093	121
405.317	158
405.541	154
405.765	135
405.988	159
406.212	249
406.436	351
406.66	245
406.883	121
407.107	105
407.331	118
407.555	118
407.778	115
408.002	104
408.226	104
408.449	95
408.673	101
408.896	84
409.12	98
409.344	80
409.567	88
409.791	96
410.014	105
410.238	86
410.461	107
410.685	98
410.908	88
411.132	119
411.355	112
411.578	99
411.802	92
412.025	92
412.249	108
412.472	132
412.695	154
412.919	102
413.142	104
413.365	103
413.589	100
413.812	107
414.035	90
414.258	90
414.482	108
414.705	88
414.928	89
415.151	78
415.374	97
415.597	94
415.821	88
416.044	98
416.267	101
416.49	82
416.713	89
416.936	99
417.159	92
417.382	90
417.605	103
417.828	108
418.051	118
418.274	102
418.497	87
418.72	81
418.943	96
419.166	92
419.389	94
419.611	87
419.834	98
420.057	99
420.28	105
420.503	82
420.726	90
420.948	85
421.171	110
421.394	108
421.617	96
421.839	96
422.062	92
422.285	97
422.507	110
422.73	130
422.953	99
423.175	84
423.398	93
423.621	110
423.843	82
424.066	85
424.288	94
424.511	95
424.733	117
424.956	132
425.178	125
425.401	126
425.623	114
425.846	98
426.068	102
426.291	97
426.513	82
426.735	96
426.958	109
427.18	124
427.402	200
427.625	299
427.847	324
428.069	284
428.292	148
428.514	109
428.736	100
428.958	89
429.181	81
429.403	85
429.625	86
429.847	100
430.069	127
430.292	101
430.514	96
430.736	80
430.958	85
431.18	69
431.402	91
431.624	99
431.846	84
432.068	98
432.29	97
432.512	101
432.734	96
432.956	97
433.178	114
433.4	117
433.622	78
433.844	91
434.066	93
434.287	82
434.509	85
434.731	90
434.953	96
435.175	86
435.397	104
435.618	94
435.84	130
436.062	177
436.284	151
436.505	116
436.727	129
436.949	84
437.17	93
437.392	82
437.614	105
437.835	140
438.057	160
438.278	143
438.5	119
438.721	172
438.943	132
439.165	96
439.386	100
439.608	106
439.829	121
440.05	197
440.272	229
440.493	109
440.715	89
440.936	96
441.158	95
441.379	98
441.6	115
441.822	113
442.043	109
442.264	120
442.486	135
442.707	110
442.928	142
443.149	212
443.371	196
443.592	166
443.813	151
444.034	130
444.255	108
444.476	80
444.698	91
444.919	89
445.14	144
445.361	158
445.582	158
445.803	222
446.024	207
446.245	191
446.466	137
446.687	99
446.908	98
447.129	101
447.35	93
447.571	108
447.792	96
448.013	117
448.234	137
448.455	110
448.675	159
448.896	148
449.117	122
449.338	121
449.559	150
449.779	155
450	106
450.221	86
450.442	84
450.662	108
450.883	145
451.104	152
451.324	113
451.545	105
451.766	93
451.986	89
452.207	85
452.428	111
452.648	116
452.869	142
453.089	151
453.31	152
453.53	126
453.751	103
453.971	136
454.192	171
454.412	103
454.633	92
454.853	92
455.073	91
455.294	93
455.514	128
455.734	111
455.955	93
456.175	86
456.395	93
456.616	90
456.836	86
457.056	89
457.276	89
457.497	78
457.717	89
457.937	97
458.157	81
458.377	96
458.598	135
458.818	240
459.038	262
459.258	168
459.478	98
459.698	82
459.918	91
460.138	85
460.358	104
460.578	98
460.798	95
461.018	89
461.238	93
461.458	102
461.678	75
461.898	86
462.118	90
462.338	96
462.558	97
462.777	94
462.997	99
463.217	112
463.437	98
463.657	96
463.876	95
464.096	97
464.316	104
464.536	106
464.755	115
464.975	148
465.195	278
465.414	276
465.634	125
465.854	100
466.073	108
466.293	98
466.512	91
466.732	104
466.951	91
467.171	106
467.391	123
467.61	160
467.829	261
468.049	774
468.268	1180
468.488	282
468.707	116
468.927	81
469.146	96
469.365	99
469.585	91
469.804	117
470.023	132
470.243	112
470.462	123
470.681	155
470.901	97
471.12	107
471.339	114
471.558	119
471.777	176
471.997	382
472.216	1522
472.435	3582
472.654	810
472.873	194
473.092	118
473.311	95
473.53	94
473.749	101
473.968	107
474.187	151
474.406	110
474.625	103
474.844	89
475.063	82
475.282	90
475.501	97
475.72	88
475.939	96
476.158	92
476.377	102
476.596	96
476.814	104
477.033	100
477.252	107
477.471	98
477.69	96
477.908	88
478.127	105
478.346	93
478.564	104
478.783	113
479.002	114
479.22	125
479.439	143
479.658	150
479.876	153
480.095	124
480.313	161
480.532	190
480.751	362
480.969	1378
481.188	6252
481.406	3448
481.624	468
481.843	176
482.061	120
482.28	106
482.498	104
482.717	119
482.935	88
483.153	102
483.372	106
483.59	95
483.808	88
484.027	95
484.245	94
484.463	91
484.681	106
484.9	118
485.118	99
485.336	90
485.554	110
485.772	117
485.99	101
486.209	105
486.427	112
486.645	120
486.863	122
487.081	120
487.299	97
487.517	98
487.735	107
487.953	98
488.171	98
488.389	106
488.607	108
488.825	92
489.043	78
489.261	94
489.479	88
489.696	93
489.914	94
490.132	108
490.35	90
490.568	88
490.786	88
491.003	90
491.221	101
491.439	110
491.657	114
491.874	103
492.092	101
492.31	104
492.527	116
492.745	97
492.963	109
493.18	109
493.398	92
493.615	88
493.833	84
494.05	84
494.268	101
494.485	94
494.703	95
494.92	80
495.138	90
495.355	86
495.573	89
495.79	78
496.008	103
496.225	112
496.442	107
496.66	99
496.877	101
497.094	96
497.312	97
497.529	107
497.746	86
497.963	87
498.181	97
498.398	109
498.615	126
498.832	123
499.049	98
499.267	103
499.484	85
499.701	86
499.918	109
500.135	97
500.352	91
500.569	101
500.786	104
501.003	100
501.22	96
501.437	104
501.654	100
501.871	135
502.088	111
502.305	102
502.522	80
502.739	106
502.956	91
503.172	101
503.389	109
503.606	145
503.823	127
504.04	95
504.256	87
504.473	88
504.69	94
504.907	96
505.123	92
505.34	94
505.557	91
505.773	80
505.99	101
506.207	93
506.423	89
506.64	96
506.856	99
507.073	106
507.289	92
507.506	119
507.722	147
507.939	149
508.155	116
508.372	109
508.588	100
508.805	108
509.021	95
509.238	104
509.454	92
509.67	127
509.887	127
510.103	149
510.319	272
510.536	1125
510.752	3998
510.968	1017
511.184	198
511.401	146
511.617	102
511.833	114
512.049	97
512.265	102
512.481	97
512.698	101
512.914	84
513.13	109
513.346	107
513.562	112
513.778	115
513.994	114
514.21	125
514.426	156
514.642	207
514.858	193
515.074	272
515.29	906
515.506	3191
515.721	1092
515.937	250
516.153	141
516.369	117
516.585	110
516.801	109
517.016	103
517.232	101
517.448	106
517.664	108
517.879	112
518.095	94
518.311	120
518.527	108
518.742	101
518.958	110
519.173	92
519.389	100
519.605	95
519.82	107
520.036	137
520.251	166
520.467	145
520.682	107
520.898	134
521.113	144
521.329	203
521.544	365
521.76	1190
521.975	5421
522.19	3204
522.406	598
522.621	186
522.836	124
523.052	104
523.267	108
523.482	109
523.698	120
523.913	167
524.128	126
524.343	91
524.559	101
524.774	105
524.989	112
525.204	138
525.419	118
525.634	100
525.849	84
526.064	81
526.28	106
526.495	103
526.71	91
526.925	84
527.14	93
527.355	91
527.57	97
527.785	76
527.999	105
528.214	91
528.429	103
528.644	101
528.859	83
529.074	96
529.289	165
529.503	345
529.718	142
529.933	109
530.148	90
530.363	80
530.577	97
530.792	93
531.007	89
531.221	90
531.436	98
531.651	95
531.865	102
532.08	80
532.295	91
532.509	82
532.724	95
532.938	92
533.153	108
533.367	86
533.582	95
533.796	92
534.011	81
534.225	93
534.44	103
534.654	99
534.868	106
535.083	99
535.297	102
535.511	98
535.726	126
535.94	113
536.154	90
536.369	97
536.583	92
536.797	88
537.011	101
537.225	97
537.44	82
537.654	97
537.868	93
538.082	93
538.296	79
538.51	82
538.724	92
538.938	91
539.153	121
539.367	122
539.581	100
539.795	98
540.009	94
540.222	88
540.436	100
540.65	86
540.864	97
541.078	94
541.292	98
541.506	90
541.72	99
541.934	85
542.147	96
542.361	93
542.575	91
542.789	82
543.002	94
543.216	102
543.43	107
543.644	87
543.857	88
544.071	103
544.285	88
544.498	93
544.712	95
544.925	88
545.139	89
545.352	97
545.566	100
545.779	104
545.993	80
546.206	90
546.42	92
546.633	98
546.847	91
547.06	95
547.274	87
547.487	98
547.7	96
547.914	87
548.127	92
548.34	74
548.554	86
548.767	85
548.98	95
549.193	84
549.407	89
549.62	106
549.833	96
550.046	87
550.259	72
550.473	80
550.686	83
550.899	89
551.112	90
551.325	88
551.538	89
551.751	99
551.964	87
552.177	87
552.39	85
552.603	82
552.816	99
553.029	94
553.242	92
553.455	112
553.667	130
553.88	113
554.093	103
554.306	124
554.519	148
554.732	94
554.944	92
555.157	91
555.37	87
555.583	109
555.795	107
556.008	93
556.221	98
556.433	84
556.646	88
556.859	105
557.071	94
557.284	96
557.496	93
557.709	70
557.921	76
558.134	81
558.346	106
558.559	94
558.771	84
558.984	84
559.196	94
559.409	79
559.621	102
559.833	93
560.046	93
560.258	110
560.47	153
560.683	132
560.895	89
561.107	85
561.32	91
561.532	89
561.744	93
561.956	94
562.168	91
562.381	108
562.593	100
562.805	94
563.017	86
563.229	95
563.441	87
563.653	85
563.865	86
564.077	94
564.289	92
564.501	92
564.713	100
564.925	91
565.137	117
565.349	111
565.561	80
565.773	98
565.985	100
566.197	92
566.408	86
566.62	84
566.832	83
567.044	86
567.255	68
567.467	91
567.679	89
567.891	82
568.102	80
568.314	83
568.526	90
568.737	70
568.949	81
569.161	97
569.372	97
569.584	98
569.795	98
570.007	144
570.218	336
570.43	146
570.641	87
570.853	80
571.064	101
571.276	96
571.487	94
571.698	78
571.91	71
572.121	81
572.333	79
572.544	91
572.755	81
572.966	99
573.178	97
573.389	88
573.6	96
573.811	83
574.023	89
574.234	84
574.445	78
574.656	80
574.867	86
575.078	86
575.289	94
575.501	90
575.712	89
575.923	84
576.134	92
576.345	83
576.556	86
576.767	96
576.978	102
577.188	89
577.399	108
577.61	100
577.821	102
578.032	125
578.243	345
578.454	1194
