Data from Circ_1998_H10_HRD10591_00005.txt Node
Date: Wed Jan 03 11:26:49 EST 2024
User: Yrep
Spectrometer: HR+D1059
Trigger mode: 1
Integration Time (sec): 1.000000E-1
Scans to average: 1
Electric dark correction enabled: true
Nonlinearity correction enabled: false
Boxcar width: 0
XAxis mode: Wavelengths
Number of Pixels in Spectrum: 2048
>>>>>Begin Spectral Data<<<<<
223.165	-14.69
223.4	-14.69
223.635	-14.69
223.869	-19.69
224.104	-5.69
224.338	-21.69
224.573	-23.69
224.808	-7.69
225.042	-1.69
225.277	-17.69
225.511	7.31
225.746	2.31
225.98	15.31
226.215	10.31
226.449	2.31
226.683	18.31
226.918	24.31
227.152	32.31
227.387	33.31
227.621	44.31
227.856	50.31
228.09	37.31
228.324	40.31
228.559	58.31
228.793	73.31
229.027	60.31
229.262	60.31
229.496	70.31
229.73	86.31
229.964	93.31
230.199	76.31
230.433	74.31
230.667	86.31
230.901	79.31
231.136	65.31
231.37	79.31
231.604	86.31
231.838	79.31
232.072	70.31
232.306	78.31
232.541	69.31
232.775	78.31
233.009	77.31
233.243	88.31
233.477	74.31
233.711	86.31
233.945	80.31
234.179	80.31
234.413	91.31
234.647	78.31
234.881	75.31
235.115	74.31
235.349	67.31
235.583	74.31
235.817	67.31
236.051	75.31
236.285	82.31
236.519	89.31
236.753	80.31
236.987	83.31
237.221	87.31
237.455	90.31
237.689	89.31
237.922	88.31
238.156	72.31
238.39	78.31
238.624	76.31
238.858	80.31
239.091	66.31
239.325	68.31
239.559	81.31
239.793	78.31
240.027	78.31
240.26	88.31
240.494	76.31
240.728	79.31
240.961	76.31
241.195	92.31
241.429	77.31
241.662	72.31
241.896	81.31
242.13	73.31
242.363	87.31
242.597	73.31
242.83	89.31
243.064	71.31
243.298	78.31
243.531	70.31
243.765	67.31
243.998	75.31
244.232	87.31
244.465	96.31
244.699	102.31
244.932	82.31
245.166	76.31
245.399	73.31
245.633	75.31
245.866	67.31
246.099	72.31
246.333	72.31
246.566	90.31
246.8	81.31
247.033	72.31
247.266	84.31
247.5	82.31
247.733	87.31
247.966	81.31
248.2	79.31
248.433	88.31
248.666	88.31
248.899	80.31
249.133	74.31
249.366	114.31
249.599	112.31
249.832	93.31
250.066	83.31
250.299	82.31
250.532	77.31
250.765	86.31
250.998	72.31
251.231	76.31
251.465	83.31
251.698	82.31
251.931	88.31
252.164	79.31
252.397	76.31
252.63	86.31
252.863	92.31
253.096	90.31
253.329	88.31
253.562	88.31
253.795	62.31
254.028	72.31
254.261	90.31
254.494	90.31
254.727	87.31
254.96	73.31
255.193	75.31
255.426	74.31
255.659	85.31
255.892	82.31
256.124	97.31
256.357	95.31
256.59	90.31
256.823	88.31
257.056	80.31
257.289	76.31
257.521	63.31
257.754	91.31
257.987	76.31
258.22	94.31
258.452	106.31
258.685	105.31
258.918	83.31
259.151	90.31
259.383	85.31
259.616	79.31
259.849	90.31
260.081	82.31
260.314	81.31
260.547	99.31
260.779	97.31
261.012	100.31
261.244	98.31
261.477	99.31
261.71	90.31
261.942	130.31
262.175	132.31
262.407	93.31
262.64	96.31
262.872	83.31
263.105	82.31
263.337	92.31
263.57	94.31
263.802	94.31
264.035	82.31
264.267	85.31
264.499	78.31
264.732	79.31
264.964	93.31
265.197	81.31
265.429	96.31
265.661	82.31
265.894	82.31
266.126	92.31
266.358	78.31
266.591	88.31
266.823	91.31
267.055	84.31
267.287	83.31
267.52	89.31
267.752	92.31
267.984	90.31
268.216	100.31
268.448	78.31
268.681	95.31
268.913	77.31
269.145	82.31
269.377	90.31
269.609	86.31
269.841	73.31
270.073	84.31
270.306	76.31
270.538	92.31
270.77	84.31
271.002	82.31
271.234	89.31
271.466	91.31
271.698	69.31
271.93	82.31
272.162	87.31
272.394	80.31
272.626	89.31
272.858	91.31
273.09	66.31
273.322	81.31
273.553	75.31
273.785	64.31
274.017	79.31
274.249	74.31
274.481	95.31
274.713	90.31
274.945	86.31
275.176	90.31
275.408	105.31
275.64	99.31
275.872	100.31
276.104	95.31
276.335	79.31
276.567	114.31
276.799	127.31
277.031	158.31
277.262	162.31
277.494	135.31
277.726	97.31
277.957	83.31
278.189	82.31
278.421	82.31
278.652	83.31
278.884	90.31
279.115	88.31
279.347	91.31
279.579	98.31
279.81	107.31
280.042	163.31
280.273	214.31
280.505	140.31
280.736	98.31
280.968	97.31
281.199	89.31
281.431	88.31
281.662	84.31
281.894	95.31
282.125	108.31
282.356	121.31
282.588	176.31
282.819	137.31
283.051	88.31
283.282	88.31
283.513	83.31
283.745	84.31
283.976	92.31
284.207	82.31
284.439	97.31
284.67	101.31
284.901	84.31
285.132	89.31
285.364	102.31
285.595	94.31
285.826	98.31
286.057	99.31
286.288	86.31
286.52	83.31
286.751	95.31
286.982	84.31
287.213	86.31
287.444	91.31
287.675	80.31
287.906	79.31
288.138	100.31
288.369	112.31
288.6	86.31
288.831	84.31
289.062	96.31
289.293	89.31
289.524	93.31
289.755	81.31
289.986	81.31
290.217	65.31
290.448	80.31
290.679	94.31
290.91	82.31
291.141	99.31
291.371	96.31
291.602	96.31
291.833	82.31
292.064	88.31
292.295	81.31
292.526	96.31
292.757	83.31
292.987	94.31
293.218	99.31
293.449	88.31
293.68	73.31
293.91	97.31
294.141	96.31
294.372	78.31
294.603	105.31
294.833	80.31
295.064	92.31
295.295	94.31
295.525	85.31
295.756	86.31
295.987	119.31
296.217	136.31
296.448	138.31
296.679	91.31
296.909	105.31
297.14	83.31
297.37	98.31
297.601	93.31
297.831	103.31
298.062	99.31
298.292	90.31
298.523	93.31
298.753	90.31
298.984	95.31
299.214	90.31
299.445	100.31
299.675	109.31
299.905	102.31
300.136	99.31
300.366	78.31
300.597	93.31
300.827	89.31
301.057	100.31
301.288	99.31
301.518	97.31
301.748	98.31
301.979	113.31
302.209	96.31
302.439	102.31
302.669	98.31
302.9	104.31
303.13	99.31
303.36	101.31
303.59	101.31
303.82	134.31
304.051	90.31
304.281	99.31
304.511	91.31
304.741	95.31
304.971	88.31
305.201	98.31
305.431	99.31
305.661	104.31
305.891	96.31
306.121	94.31
306.352	104.31
306.582	115.31
306.812	96.31
307.042	128.31
307.272	142.31
307.502	152.31
307.731	134.31
307.961	114.31
308.191	91.31
308.421	93.31
308.651	103.31
308.881	100.31
309.111	98.31
309.341	107.31
309.571	114.31
309.8	100.31
310.03	104.31
310.26	94.31
310.49	111.31
310.72	109.31
310.949	106.31
311.179	97.31
311.409	110.31
311.639	96.31
311.868	87.31
312.098	100.31
312.328	95.31
312.557	117.31
312.787	122.31
313.017	116.31
313.246	93.31
313.476	100.31
313.706	98.31
313.935	96.31
314.165	110.31
314.394	121.31
314.624	110.31
314.853	98.31
315.083	84.31
315.312	79.31
315.542	96.31
315.771	95.31
316.001	98.31
316.23	95.31
316.46	93.31
316.689	85.31
316.919	103.31
317.148	103.31
317.377	84.31
317.607	100.31
317.836	95.31
318.065	81.31
318.295	79.31
318.524	92.31
318.753	88.31
318.983	105.31
319.212	99.31
319.441	107.31
319.67	105.31
319.9	105.31
320.129	91.31
320.358	109.31
320.587	94.31
320.816	92.31
321.046	93.31
321.275	104.31
321.504	95.31
321.733	111.31
321.962	100.31
322.191	100.31
322.42	107.31
322.649	135.31
322.878	120.31
323.108	125.31
323.337	156.31
323.566	147.31
323.795	188.31
324.024	240.31
324.253	533.31
324.482	1178.31
324.71	2590.31
324.939	3518.31
325.168	1210.31
325.397	322.31
325.626	189.31
325.855	164.31
326.084	141.31
326.313	166.31
326.542	192.31
326.77	300.31
326.999	616.31
327.228	1389.31
327.457	2651.31
327.686	2094.31
327.914	598.31
328.143	486.31
328.372	559.31
328.6	328.31
328.829	182.31
329.058	165.31
329.287	178.31
329.515	166.31
329.744	225.31
329.972	399.31
330.201	799.31
330.43	1184.31
330.658	537.31
330.887	280.31
331.115	174.31
331.344	127.31
331.572	127.31
331.801	119.31
332.03	118.31
332.258	112.31
332.486	107.31
332.715	102.31
332.943	108.31
333.172	120.31
333.4	124.31
333.629	152.31
333.857	199.31
334.085	374.31
334.314	788.31
334.542	1495.31
334.771	1386.31
334.999	391.31
335.227	169.31
335.455	116.31
335.684	122.31
335.912	108.31
336.14	103.31
336.369	111.31
336.597	107.31
336.825	108.31
337.053	98.31
337.281	98.31
337.51	95.31
337.738	98.31
337.966	114.31
338.194	108.31
338.422	106.31
338.65	105.31
338.878	83.31
339.106	105.31
339.334	105.31
339.562	104.31
339.79	104.31
340.018	102.31
340.246	112.31
340.474	110.31
340.702	99.31
340.93	106.31
341.158	97.31
341.386	104.31
341.614	112.31
341.842	90.31
342.07	99.31
342.298	90.31
342.526	93.31
342.754	83.31
342.981	88.31
343.209	86.31
343.437	100.31
343.665	94.31
343.893	103.31
344.12	84.31
344.348	82.31
344.576	89.31
344.804	89.31
345.031	109.31
345.259	111.31
345.487	97.31
345.714	96.31
345.942	90.31
346.17	94.31
346.397	87.31
346.625	98.31
346.853	107.31
347.08	110.31
347.308	88.31
347.535	113.31
347.763	114.31
347.99	89.31
348.218	116.31
348.445	102.31
348.673	100.31
348.9	94.31
349.128	106.31
349.355	102.31
349.583	93.31
349.81	84.31
350.037	78.31
350.265	96.31
350.492	101.31
350.72	90.31
350.947	94.31
351.174	110.31
351.402	125.31
351.629	101.31
351.856	103.31
352.083	106.31
352.311	110.31
352.538	108.31
352.765	116.31
352.992	117.31
353.22	127.31
353.447	108.31
353.674	98.31
353.901	102.31
354.128	90.31
354.355	91.31
354.583	99.31
354.81	103.31
355.037	107.31
355.264	92.31
355.491	99.31
355.718	99.31
355.945	99.31
356.172	84.31
356.399	93.31
356.626	99.31
356.853	97.31
357.08	74.31
357.307	100.31
357.534	102.31
357.761	82.31
357.988	103.31
358.215	103.31
358.441	84.31
358.668	95.31
358.895	90.31
359.122	114.31
359.349	103.31
359.576	89.31
359.802	96.31
360.029	132.31
360.256	114.31
360.483	108.31
360.709	86.31
360.936	105.31
361.163	120.31
361.39	102.31
361.616	91.31
361.843	93.31
362.07	116.31
362.296	98.31
362.523	105.31
362.749	98.31
362.976	77.31
363.203	99.31
363.429	107.31
363.656	102.31
363.882	88.31
364.109	97.31
364.335	88.31
364.562	116.31
364.788	100.31
365.015	94.31
365.241	106.31
365.468	120.31
365.694	118.31
365.92	101.31
366.147	97.31
366.373	94.31
366.599	92.31
366.826	94.31
367.052	91.31
367.278	96.31
367.505	93.31
367.731	79.31
367.957	98.31
368.184	104.31
368.41	111.31
368.636	98.31
368.862	121.31
369.089	125.31
369.315	91.31
369.541	89.31
369.767	87.31
369.993	92.31
370.219	90.31
370.445	93.31
370.672	93.31
370.898	89.31
371.124	88.31
371.35	87.31
371.576	95.31
371.802	93.31
372.028	79.31
372.254	95.31
372.48	88.31
372.706	86.31
372.932	105.31
373.158	91.31
373.384	78.31
373.61	96.31
373.835	107.31
374.061	88.31
374.287	94.31
374.513	110.31
374.739	88.31
374.965	80.31
375.191	95.31
375.416	99.31
375.642	92.31
375.868	90.31
376.094	84.31
376.319	94.31
376.545	95.31
376.771	95.31
376.997	108.31
377.222	105.31
377.448	94.31
377.674	99.31
377.899	90.31
378.125	94.31
378.35	97.31
378.576	116.31
378.802	102.31
379.027	109.31
379.253	100.31
379.478	94.31
379.704	74.31
379.929	97.31
380.155	97.31
380.38	97.31
380.606	99.31
380.831	106.31
381.057	113.31
381.282	116.31
381.507	98.31
381.733	113.31
381.958	105.31
382.184	115.31
382.409	115.31
382.634	122.31
382.86	104.31
383.085	102.31
383.31	106.31
383.535	116.31
383.761	130.31
383.986	116.31
384.211	118.31
384.436	115.31
384.662	124.31
384.887	119.31
385.112	134.31
385.337	128.31
385.562	116.31
385.787	139.31
386.013	138.31
386.238	153.31
386.463	126.31
386.688	116.31
386.913	144.31
387.138	152.31
387.363	113.31
387.588	113.31
387.813	132.31
388.038	150.31
388.263	147.31
388.488	157.31
388.713	109.31
388.938	110.31
389.163	94.31
389.387	92.31
389.612	91.31
389.837	94.31
390.062	91.31
390.287	85.31
390.512	89.31
390.736	94.31
390.961	94.31
391.186	78.31
391.411	88.31
391.636	94.31
391.86	82.31
392.085	96.31
392.31	93.31
392.534	88.31
392.759	97.31
392.984	99.31
393.208	101.31
393.433	92.31
393.658	102.31
393.882	109.31
394.107	110.31
394.331	75.31
394.556	80.31
394.78	80.31
395.005	88.31
395.229	80.31
395.454	85.31
395.678	87.31
395.903	94.31
396.127	85.31
396.352	97.31
396.576	82.31
396.801	74.31
397.025	87.31
397.249	92.31
397.474	99.31
397.698	92.31
397.922	86.31
398.147	93.31
398.371	83.31
398.595	88.31
398.82	89.31
399.044	96.31
399.268	88.31
399.492	76.31
399.717	94.31
399.941	80.31
400.165	94.31
400.389	110.31
400.613	89.31
400.837	86.31
401.062	100.31
401.286	92.31
401.51	96.31
401.734	88.31
401.958	97.31
402.182	137.31
402.406	177.31
402.63	146.31
402.854	106.31
403.078	106.31
403.302	87.31
403.526	92.31
403.75	82.31
403.974	91.31
404.198	91.31
404.422	98.31
404.645	97.31
404.869	107.31
405.093	108.31
405.317	147.31
405.541	147.31
405.765	107.31
405.988	125.31
406.212	202.31
406.436	261.31
406.66	185.31
406.883	124.31
407.107	106.31
407.331	101.31
407.555	111.31
407.778	107.31
408.002	104.31
408.226	99.31
408.449	96.31
408.673	80.31
408.896	90.31
409.12	94.31
409.344	86.31
409.567	81.31
409.791	95.31
410.014	94.31
410.238	87.31
410.461	98.31
410.685	101.31
410.908	104.31
411.132	94.31
411.355	102.31
411.578	107.31
411.802	92.31
412.025	94.31
412.249	115.31
412.472	112.31
412.695	145.31
412.919	123.31
413.142	94.31
413.365	93.31
413.589	95.31
413.812	99.31
414.035	102.31
414.258	98.31
414.482	86.31
414.705	87.31
414.928	95.31
415.151	99.31
415.374	88.31
415.597	98.31
415.821	82.31
416.044	99.31
416.267	81.31
416.49	102.31
416.713	101.31
416.936	99.31
417.159	94.31
417.382	91.31
417.605	107.31
417.828	99.31
418.051	99.31
418.274	95.31
418.497	80.31
418.72	97.31
418.943	97.31
419.166	83.31
419.389	93.31
419.611	88.31
419.834	99.31
420.057	90.31
420.28	100.31
420.503	95.31
420.726	97.31
420.948	90.31
421.171	106.31
421.394	89.31
421.617	102.31
421.839	94.31
422.062	83.31
422.285	98.31
422.507	98.31
422.73	126.31
422.953	106.31
423.175	94.31
423.398	82.31
423.621	77.31
423.843	89.31
424.066	79.31
424.288	97.31
424.511	94.31
424.733	105.31
424.956	124.31
425.178	96.31
425.401	112.31
425.623	112.31
425.846	97.31
426.068	105.31
426.291	96.31
426.513	88.31
426.735	88.31
426.958	91.31
427.18	129.31
427.402	184.31
427.625	239.31
427.847	241.31
428.069	239.31
428.292	124.31
428.514	97.31
428.736	76.31
428.958	93.31
429.181	84.31
429.403	86.31
429.625	81.31
429.847	88.31
430.069	115.31
430.292	114.31
430.514	103.31
430.736	84.31
430.958	78.31
431.18	81.31
431.402	87.31
431.624	81.31
431.846	91.31
432.068	82.31
432.29	74.31
432.512	92.31
432.734	89.31
432.956	104.31
433.178	102.31
433.4	126.31
433.622	83.31
433.844	85.31
434.066	97.31
434.287	94.31
434.509	91.31
434.731	96.31
434.953	80.31
435.175	100.31
435.397	91.31
435.618	108.31
435.84	120.31
436.062	157.31
436.284	129.31
436.505	111.31
436.727	112.31
436.949	92.31
437.17	86.31
437.392	98.31
437.614	104.31
437.835	122.31
438.057	143.31
438.278	136.31
438.5	121.31
438.721	152.31
438.943	119.31
439.165	104.31
439.386	88.31
439.608	92.31
439.829	106.31
440.05	167.31
440.272	190.31
440.493	122.31
440.715	92.31
440.936	88.31
441.158	94.31
441.379	106.31
441.6	97.31
441.822	92.31
442.043	94.31
442.264	125.31
442.486	106.31
442.707	107.31
442.928	111.31
443.149	156.31
443.371	166.31
443.592	121.31
443.813	138.31
444.034	123.31
444.255	93.31
444.476	83.31
444.698	106.31
444.919	83.31
445.14	135.31
445.361	137.31
445.582	134.31
445.803	180.31
446.024	186.31
446.245	158.31
446.466	135.31
446.687	99.31
446.908	87.31
447.129	100.31
447.35	88.31
447.571	99.31
447.792	80.31
448.013	114.31
448.234	102.31
448.455	112.31
448.675	120.31
448.896	146.31
449.117	116.31
449.338	116.31
449.559	147.31
449.779	152.31
450	96.31
450.221	87.31
450.442	93.31
450.662	103.31
450.883	125.31
451.104	115.31
451.324	104.31
451.545	89.31
451.766	98.31
451.986	80.31
452.207	89.31
452.428	98.31
452.648	102.31
452.869	114.31
453.089	129.31
453.31	132.31
453.53	91.31
453.751	83.31
453.971	113.31
454.192	127.31
454.412	93.31
454.633	95.31
454.853	97.31
455.073	91.31
455.294	116.31
455.514	107.31
455.734	94.31
455.955	92.31
456.175	84.31
456.395	86.31
456.616	99.31
456.836	86.31
457.056	92.31
457.276	80.31
457.497	76.31
457.717	85.31
457.937	89.31
458.157	84.31
458.377	88.31
458.598	98.31
458.818	189.31
459.038	215.31
459.258	135.31
459.478	95.31
459.698	111.31
459.918	92.31
460.138	80.31
460.358	92.31
460.578	96.31
460.798	94.31
461.018	99.31
461.238	96.31
461.458	79.31
461.678	75.31
461.898	87.31
462.118	83.31
462.338	94.31
462.558	96.31
462.777	89.31
462.997	98.31
463.217	92.31
463.437	95.31
463.657	75.31
463.876	83.31
464.096	87.31
464.316	87.31
464.536	98.31
464.755	94.31
464.975	111.31
465.195	216.31
465.414	207.31
465.634	104.31
465.854	90.31
466.073	89.31
466.293	90.31
466.512	82.31
466.732	98.31
466.951	93.31
467.171	78.31
467.391	108.31
467.61	153.31
467.829	182.31
468.049	447.31
468.268	700.31
468.488	195.31
468.707	112.31
468.927	107.31
469.146	91.31
469.365	87.31
469.585	87.31
469.804	107.31
470.023	115.31
470.243	95.31
470.462	124.31
470.681	140.31
470.901	101.31
471.12	98.31
471.339	102.31
471.558	110.31
471.777	144.31
471.997	269.31
472.216	950.31
472.435	2060.31
472.654	496.31
472.873	150.31
473.092	109.31
473.311	97.31
473.53	88.31
473.749	86.31
473.968	100.31
474.187	123.31
474.406	119.31
474.625	94.31
474.844	92.31
475.063	102.31
475.282	94.31
475.501	86.31
475.72	84.31
475.939	83.31
476.158	98.31
476.377	88.31
476.596	97.31
476.814	92.31
477.033	94.31
477.252	101.31
477.471	87.31
477.69	97.31
477.908	98.31
478.127	104.31
478.346	78.31
478.564	98.31
478.783	101.31
479.002	111.31
479.22	112.31
479.439	132.31
479.658	123.31
479.876	136.31
480.095	114.31
480.313	126.31
480.532	156.31
480.751	255.31
480.969	846.31
481.188	3693.31
481.406	2060.31
481.624	300.31
481.843	133.31
482.061	100.31
482.28	96.31
482.498	99.31
482.717	102.31
482.935	88.31
483.153	93.31
483.372	93.31
483.59	102.31
483.808	97.31
484.027	89.31
484.245	106.31
484.463	90.31
484.681	100.31
484.9	95.31
485.118	112.31
485.336	91.31
485.554	98.31
485.772	106.31
485.99	111.31
486.209	124.31
486.427	118.31
486.645	122.31
486.863	134.31
487.081	100.31
487.299	114.31
487.517	113.31
487.735	88.31
487.953	102.31
488.171	103.31
488.389	100.31
488.607	93.31
488.825	100.31
489.043	92.31
489.261	92.31
489.479	96.31
489.696	85.31
489.914	80.31
490.132	77.31
490.35	93.31
490.568	75.31
490.786	88.31
491.003	95.31
491.221	107.31
491.439	103.31
491.657	85.31
491.874	104.31
492.092	85.31
492.31	97.31
492.527	110.31
492.745	82.31
492.963	95.31
493.18	96.31
493.398	100.31
493.615	102.31
493.833	102.31
494.05	83.31
494.268	90.31
494.485	106.31
494.703	107.31
494.92	104.31
495.138	83.31
495.355	86.31
495.573	103.31
495.79	97.31
496.008	102.31
496.225	84.31
496.442	94.31
496.66	86.31
496.877	88.31
497.094	105.31
497.312	97.31
497.529	81.31
497.746	84.31
497.963	88.31
498.181	89.31
498.398	96.31
498.615	116.31
498.832	117.31
499.049	99.31
499.267	91.31
499.484	90.31
499.701	88.31
499.918	96.31
500.135	94.31
500.352	84.31
500.569	94.31
500.786	105.31
501.003	88.31
501.22	97.31
501.437	106.31
501.654	105.31
501.871	122.31
502.088	93.31
502.305	106.31
502.522	93.31
502.739	90.31
502.956	79.31
503.172	95.31
503.389	98.31
503.606	101.31
503.823	96.31
504.04	93.31
504.256	74.31
504.473	87.31
504.69	90.31
504.907	86.31
505.123	105.31
505.34	100.31
505.557	92.31
505.773	95.31
505.99	112.31
506.207	92.31
506.423	91.31
506.64	89.31
506.856	92.31
507.073	94.31
507.289	82.31
507.506	100.31
507.722	134.31
507.939	115.31
508.155	98.31
508.372	102.31
508.588	116.31
508.805	98.31
509.021	100.31
509.238	101.31
509.454	96.31
509.67	101.31
509.887	107.31
510.103	138.31
510.319	225.31
510.536	846.31
510.752	2924.31
510.968	777.31
511.184	171.31
511.401	120.31
511.617	113.31
511.833	94.31
512.049	96.31
512.265	100.31
512.481	98.31
512.698	91.31
512.914	112.31
