Data from Circ_1998_H10_HRD10591_00094.txt Node
Date: Wed Jan 03 11:27:07 EST 2024
User: Yrep
Spectrometer: HR+D1059
Trigger mode: 1
Integration Time (sec): 1.000000E-1
Scans to average: 1
Electric dark correction enabled: true
Nonlinearity correction enabled: false
Boxcar width: 0
XAxis mode: Wavelengths
Number of Pixels in Spectrum: 2048
>>>>>Begin Spectral Data<<<<<
223.165	-15.25
223.4	-15.25
223.635	-15.25
223.869	-38.25
224.104	-13.25
224.338	-14.25
224.573	-20.25
224.808	-15.25
225.042	-14.25
225.277	-11.25
225.511	9.75
225.746	7.75
225.98	1.75
226.215	19.75
226.449	17.75
226.683	14.75
226.918	34.75
227.152	35.75
227.387	51.75
227.621	41.75
227.856	41.75
228.09	40.75
228.324	55.75
228.559	54.75
228.793	57.75
229.027	64.75
229.262	75.75
229.496	93.75
229.73	121.75
229.964	101.75
230.199	74.75
230.433	73.75
230.667	70.75
230.901	88.75
231.136	86.75
231.37	82.75
231.604	77.75
231.838	86.75
232.072	81.75
232.306	77.75
232.541	82.75
232.775	87.75
233.009	77.75
233.243	81.75
233.477	82.75
233.711	86.75
233.945	76.75
234.179	75.75
234.413	83.75
234.647	66.75
234.881	84.75
235.115	79.75
235.349	93.75
235.583	101.75
235.817	75.75
236.051	82.75
236.285	79.75
236.519	71.75
236.753	88.75
236.987	95.75
237.221	104.75
237.455	88.75
237.689	81.75
237.922	74.75
238.156	84.75
238.39	70.75
238.624	73.75
238.858	85.75
239.091	77.75
239.325	88.75
239.559	90.75
239.793	98.75
240.027	79.75
240.26	71.75
240.494	80.75
240.728	77.75
240.961	79.75
241.195	95.75
241.429	68.75
241.662	85.75
241.896	75.75
242.13	78.75
242.363	75.75
242.597	82.75
242.83	79.75
243.064	77.75
243.298	91.75
243.531	73.75
243.765	75.75
243.998	83.75
244.232	88.75
244.465	87.75
244.699	91.75
244.932	72.75
245.166	97.75
245.399	77.75
245.633	79.75
245.866	79.75
246.099	91.75
246.333	82.75
246.566	83.75
246.8	90.75
247.033	93.75
247.266	87.75
247.5	78.75
247.733	79.75
247.966	83.75
248.2	77.75
248.433	81.75
248.666	62.75
248.899	81.75
249.133	105.75
249.366	124.75
249.599	125.75
249.832	90.75
250.066	91.75
250.299	102.75
250.532	101.75
250.765	101.75
250.998	91.75
251.231	82.75
251.465	97.75
251.698	98.75
251.931	105.75
252.164	89.75
252.397	75.75
252.63	81.75
252.863	82.75
253.096	97.75
253.329	74.75
253.562	91.75
253.795	86.75
254.028	91.75
254.261	100.75
254.494	98.75
254.727	104.75
254.96	89.75
255.193	75.75
255.426	92.75
255.659	88.75
255.892	95.75
256.124	119.75
256.357	90.75
256.59	96.75
256.823	90.75
257.056	97.75
257.289	99.75
257.521	100.75
257.754	86.75
257.987	87.75
258.22	107.75
258.452	123.75
258.685	111.75
258.918	91.75
259.151	92.75
259.383	85.75
259.616	92.75
259.849	89.75
260.081	92.75
260.314	97.75
260.547	100.75
260.779	113.75
261.012	136.75
261.244	137.75
261.477	111.75
261.71	124.75
261.942	156.75
262.175	178.75
262.407	119.75
262.64	98.75
262.872	82.75
263.105	89.75
263.337	95.75
263.57	87.75
263.802	100.75
264.035	98.75
264.267	93.75
264.499	78.75
264.732	82.75
264.964	92.75
265.197	88.75
265.429	87.75
265.661	81.75
265.894	81.75
266.126	87.75
266.358	88.75
266.591	88.75
266.823	89.75
267.055	88.75
267.287	93.75
267.52	83.75
267.752	89.75
267.984	74.75
268.216	86.75
268.448	84.75
268.681	96.75
268.913	92.75
269.145	80.75
269.377	95.75
269.609	90.75
269.841	94.75
270.073	89.75
270.306	105.75
270.538	87.75
270.77	90.75
271.002	88.75
271.234	99.75
271.466	103.75
271.698	106.75
271.93	96.75
272.162	92.75
272.394	84.75
272.626	80.75
272.858	98.75
273.09	102.75
273.322	86.75
273.553	80.75
273.785	79.75
274.017	81.75
274.249	87.75
274.481	103.75
274.713	105.75
274.945	108.75
275.176	111.75
275.408	106.75
275.64	151.75
275.872	174.75
276.104	139.75
276.335	112.75
276.567	147.75
276.799	201.75
277.031	258.75
277.262	311.75
277.494	226.75
277.726	132.75
277.957	118.75
278.189	98.75
278.421	93.75
278.652	94.75
278.884	92.75
279.115	109.75
279.347	106.75
279.579	126.75
279.81	176.75
280.042	327.75
280.273	469.75
280.505	298.75
280.736	143.75
280.968	111.75
281.199	104.75
281.431	99.75
281.662	102.75
281.894	97.75
282.125	116.75
282.356	151.75
282.588	222.75
282.819	179.75
283.051	105.75
283.282	102.75
283.513	97.75
283.745	94.75
283.976	93.75
284.207	87.75
284.439	94.75
284.67	97.75
284.901	83.75
285.132	91.75
285.364	90.75
285.595	85.75
285.826	86.75
286.057	97.75
286.288	95.75
286.52	105.75
286.751	105.75
286.982	89.75
287.213	98.75
287.444	88.75
287.675	95.75
287.906	96.75
288.138	99.75
288.369	102.75
288.6	109.75
288.831	104.75
289.062	91.75
289.293	98.75
289.524	95.75
289.755	92.75
289.986	93.75
290.217	98.75
290.448	109.75
290.679	93.75
290.91	89.75
291.141	75.75
291.371	98.75
291.602	95.75
291.833	91.75
292.064	90.75
292.295	98.75
292.526	84.75
292.757	85.75
292.987	90.75
293.218	89.75
293.449	91.75
293.68	102.75
293.91	88.75
294.141	89.75
294.372	108.75
294.603	93.75
294.833	94.75
295.064	100.75
295.295	105.75
295.525	88.75
295.756	123.75
295.987	154.75
296.217	224.75
296.448	190.75
296.679	120.75
296.909	106.75
297.14	101.75
297.37	96.75
297.601	93.75
297.831	106.75
298.062	106.75
298.292	96.75
298.523	98.75
298.753	91.75
298.984	94.75
299.214	88.75
299.445	87.75
299.675	102.75
299.905	104.75
300.136	105.75
300.366	97.75
300.597	103.75
300.827	104.75
301.057	117.75
301.288	129.75
301.518	114.75
301.748	98.75
301.979	143.75
302.209	120.75
302.439	107.75
302.669	105.75
302.9	91.75
303.13	113.75
303.36	121.75
303.59	175.75
303.82	203.75
304.051	123.75
304.281	100.75
304.511	106.75
304.741	99.75
304.971	99.75
305.201	94.75
305.431	100.75
305.661	106.75
305.891	98.75
306.121	115.75
306.352	133.75
306.582	123.75
306.812	122.75
307.042	162.75
307.272	249.75
307.502	269.75
307.731	248.75
307.961	159.75
308.191	107.75
308.421	119.75
308.651	98.75
308.881	106.75
309.111	122.75
309.341	106.75
309.571	117.75
309.8	119.75
310.03	121.75
310.26	120.75
310.49	117.75
310.72	121.75
310.949	157.75
311.179	120.75
311.409	111.75
311.639	106.75
311.868	109.75
312.098	106.75
312.328	109.75
312.557	131.75
312.787	145.75
313.017	118.75
313.246	119.75
313.476	111.75
313.706	104.75
313.935	120.75
314.165	118.75
314.394	120.75
314.624	117.75
314.853	123.75
315.083	107.75
315.312	115.75
315.542	100.75
315.771	104.75
316.001	93.75
316.23	98.75
316.46	103.75
316.689	99.75
316.919	95.75
317.148	109.75
317.377	107.75
317.607	112.75
317.836	121.75
318.065	99.75
318.295	97.75
318.524	92.75
318.753	100.75
318.983	105.75
319.212	120.75
319.441	142.75
319.67	130.75
319.9	120.75
320.129	96.75
320.358	105.75
320.587	93.75
320.816	126.75
321.046	133.75
321.275	130.75
321.504	105.75
321.733	107.75
321.962	112.75
322.191	118.75
322.42	144.75
322.649	133.75
322.878	127.75
323.108	157.75
323.337	170.75
323.566	187.75
323.795	220.75
324.024	323.75
324.253	693.75
324.482	1531.75
324.71	3328.75
324.939	4328.75
325.168	1485.75
325.397	403.75
325.626	218.75
325.855	188.75
326.084	163.75
326.313	181.75
326.542	217.75
326.77	368.75
326.999	755.75
327.228	1638.75
327.457	3065.75
327.686	2477.75
327.914	889.75
328.143	953.75
328.372	1311.75
328.6	664.75
328.829	287.75
329.058	251.75
329.287	271.75
329.515	267.75
329.744	445.75
329.972	938.75
330.201	2050.75
330.43	3008.75
330.658	1208.75
330.887	467.75
331.115	272.75
331.344	171.75
331.572	137.75
331.801	153.75
332.03	158.75
332.258	134.75
332.486	126.75
332.715	112.75
332.943	142.75
333.172	136.75
333.4	170.75
333.629	235.75
333.857	395.75
334.085	829.75
334.314	1854.75
334.542	3742.75
334.771	3483.75
334.999	813.75
335.227	272.75
335.455	166.75
335.684	136.75
335.912	126.75
336.14	129.75
336.369	134.75
336.597	128.75
336.825	115.75
337.053	101.75
337.281	101.75
337.51	114.75
337.738	101.75
337.966	110.75
338.194	121.75
338.422	121.75
338.65	122.75
338.878	96.75
339.106	103.75
339.334	96.75
339.562	89.75
339.79	110.75
340.018	95.75
340.246	102.75
340.474	118.75
340.702	91.75
340.93	96.75
341.158	101.75
341.386	115.75
341.614	109.75
341.842	110.75
342.07	105.75
342.298	99.75
342.526	96.75
342.754	101.75
342.981	82.75
343.209	81.75
343.437	98.75
343.665	98.75
343.893	97.75
344.12	97.75
344.348	85.75
344.576	101.75
344.804	95.75
345.031	121.75
345.259	119.75
345.487	108.75
345.714	112.75
345.942	111.75
346.17	90.75
346.397	118.75
346.625	112.75
346.853	100.75
347.08	95.75
347.308	116.75
347.535	117.75
347.763	126.75
347.99	104.75
348.218	116.75
348.445	150.75
348.673	136.75
348.9	105.75
349.128	98.75
349.355	95.75
349.583	112.75
349.81	101.75
350.037	97.75
350.265	115.75
350.492	108.75
350.72	99.75
350.947	114.75
351.174	102.75
351.402	151.75
351.629	117.75
351.856	109.75
352.083	108.75
352.311	130.75
352.538	148.75
352.765	134.75
352.992	143.75
353.22	122.75
353.447	118.75
353.674	103.75
353.901	93.75
354.128	94.75
354.355	98.75
354.583	106.75
354.81	104.75
355.037	94.75
355.264	81.75
355.491	98.75
355.718	95.75
355.945	96.75
356.172	95.75
356.399	92.75
356.626	90.75
356.853	105.75
357.08	94.75
357.307	107.75
357.534	93.75
357.761	90.75
357.988	98.75
358.215	95.75
358.441	96.75
358.668	87.75
358.895	95.75
359.122	81.75
359.349	99.75
359.576	102.75
359.802	126.75
360.029	188.75
360.256	167.75
360.483	135.75
360.709	103.75
360.936	91.75
361.163	113.75
361.39	116.75
361.616	119.75
361.843	114.75
362.07	103.75
362.296	115.75
362.523	118.75
362.749	105.75
362.976	96.75
363.203	106.75
363.429	104.75
363.656	106.75
363.882	105.75
364.109	90.75
364.335	103.75
364.562	107.75
364.788	102.75
365.015	96.75
365.241	103.75
365.468	128.75
365.694	134.75
365.92	138.75
366.147	106.75
366.373	97.75
366.599	92.75
366.826	113.75
367.052	89.75
367.278	111.75
367.505	96.75
367.731	116.75
367.957	108.75
368.184	97.75
368.41	109.75
368.636	141.75
368.862	162.75
369.089	128.75
369.315	111.75
369.541	116.75
369.767	95.75
369.993	96.75
370.219	102.75
370.445	83.75
370.672	87.75
370.898	98.75
371.124	83.75
371.35	95.75
371.576	89.75
371.802	92.75
372.028	91.75
372.254	86.75
372.48	79.75
372.706	100.75
372.932	89.75
373.158	87.75
373.384	90.75
373.61	89.75
373.835	82.75
374.061	99.75
374.287	94.75
374.513	83.75
374.739	90.75
374.965	85.75
375.191	89.75
375.416	89.75
375.642	102.75
375.868	88.75
376.094	104.75
376.319	99.75
376.545	102.75
376.771	100.75
376.997	98.75
377.222	103.75
377.448	91.75
377.674	100.75
377.899	98.75
378.125	92.75
378.35	85.75
378.576	98.75
378.802	81.75
379.027	93.75
379.253	91.75
379.478	97.75
379.704	105.75
379.929	96.75
380.155	99.75
380.38	110.75
380.606	99.75
380.831	94.75
381.057	106.75
381.282	106.75
381.507	85.75
381.733	111.75
381.958	97.75
382.184	110.75
382.409	112.75
382.634	106.75
382.86	90.75
383.085	86.75
383.31	101.75
383.535	110.75
383.761	106.75
383.986	104.75
384.211	103.75
384.436	86.75
384.662	103.75
384.887	104.75
385.112	98.75
385.337	101.75
385.562	104.75
385.787	112.75
386.013	119.75
386.238	129.75
386.463	107.75
386.688	107.75
386.913	98.75
387.138	103.75
387.363	100.75
387.588	94.75
387.813	92.75
388.038	103.75
388.263	107.75
388.488	104.75
388.713	110.75
388.938	98.75
389.163	92.75
389.387	95.75
389.612	96.75
389.837	98.75
390.062	108.75
390.287	88.75
390.512	89.75
390.736	102.75
390.961	97.75
391.186	81.75
391.411	97.75
391.636	95.75
391.86	82.75
392.085	98.75
392.31	80.75
392.534	81.75
392.759	87.75
392.984	69.75
393.208	90.75
393.433	88.75
393.658	89.75
393.882	89.75
394.107	110.75
394.331	82.75
394.556	79.75
394.78	84.75
395.005	90.75
395.229	95.75
395.454	85.75
395.678	91.75
395.903	113.75
396.127	90.75
396.352	83.75
396.576	99.75
396.801	82.75
397.025	85.75
397.249	86.75
397.474	91.75
397.698	82.75
397.922	88.75
398.147	97.75
398.371	90.75
398.595	91.75
398.82	93.75
399.044	98.75
399.268	80.75
399.492	82.75
399.717	106.75
399.941	97.75
400.165	111.75
400.389	109.75
400.613	91.75
400.837	106.75
401.062	96.75
401.286	98.75
401.51	109.75
401.734	113.75
401.958	115.75
402.182	187.75
402.406	253.75
402.63	158.75
402.854	122.75
403.078	101.75
403.302	98.75
403.526	105.75
403.75	106.75
403.974	77.75
404.198	84.75
404.422	98.75
404.645	99.75
404.869	121.75
405.093	144.75
405.317	201.75
405.541	181.75
405.765	142.75
405.988	172.75
406.212	272.75
406.436	406.75
406.66	274.75
406.883	157.75
407.107	124.75
407.331	129.75
407.555	134.75
407.778	117.75
408.002	96.75
408.226	82.75
408.449	98.75
408.673	93.75
408.896	90.75
409.12	115.75
409.344	98.75
409.567	96.75
409.791	89.75
410.014	102.75
410.238	92.75
410.461	99.75
410.685	88.75
410.908	83.75
411.132	112.75
411.355	103.75
411.578	99.75
411.802	96.75
412.025	91.75
412.249	118.75
412.472	154.75
412.695	179.75
412.919	141.75
413.142	91.75
413.365	96.75
413.589	107.75
413.812	95.75
414.035	102.75
414.258	99.75
414.482	99.75
414.705	92.75
414.928	98.75
415.151	99.75
415.374	99.75
415.597	91.75
415.821	90.75
416.044	98.75
416.267	88.75
416.49	97.75
416.713	90.75
416.936	96.75
417.159	100.75
417.382	113.75
417.605	138.75
417.828	135.75
418.051	120.75
418.274	93.75
418.497	86.75
418.72	99.75
418.943	101.75
419.166	94.75
419.389	93.75
419.611	108.75
419.834	113.75
420.057	110.75
420.28	94.75
420.503	106.75
420.726	81.75
420.948	111.75
421.171	105.75
421.394	98.75
421.617	91.75
421.839	95.75
422.062	107.75
422.285	93.75
422.507	99.75
422.73	127.75
422.953	122.75
423.175	98.75
423.398	79.75
423.621	92.75
423.843	105.75
424.066	93.75
424.288	78.75
424.511	111.75
424.733	116.75
424.956	140.75
425.178	120.75
425.401	136.75
425.623	112.75
425.846	111.75
426.068	112.75
426.291	102.75
426.513	87.75
426.735	109.75
426.958	123.75
427.18	144.75
427.402	243.75
427.625	368.75
427.847	370.75
428.069	349.75
428.292	165.75
428.514	108.75
428.736	107.75
428.958	102.75
429.181	103.75
429.403	92.75
429.625	93.75
429.847	113.75
430.069	121.75
430.292	106.75
430.514	82.75
430.736	89.75
430.958	95.75
431.18	97.75
431.402	88.75
431.624	86.75
431.846	82.75
432.068	88.75
432.29	95.75
432.512	92.75
432.734	92.75
432.956	98.75
433.178	107.75
433.4	110.75
433.622	103.75
433.844	105.75
434.066	89.75
434.287	93.75
434.509	89.75
434.731	101.75
434.953	92.75
435.175	88.75
435.397	90.75
435.618	110.75
435.84	133.75
436.062	169.75
436.284	158.75
436.505	129.75
436.727	128.75
436.949	98.75
437.17	85.75
437.392	99.75
437.614	111.75
437.835	148.75
438.057	188.75
438.278	157.75
438.5	130.75
438.721	168.75
438.943	124.75
439.165	107.75
439.386	107.75
439.608	109.75
439.829	140.75
440.05	184.75
440.272	223.75
440.493	119.75
440.715	109.75
440.936	109.75
441.158	108.75
441.379	86.75
441.6	118.75
441.822	129.75
442.043	111.75
442.264	139.75
442.486	126.75
442.707	124.75
442.928	152.75
443.149	240.75
443.371	233.75
443.592	142.75
443.813	155.75
444.034	143.75
444.255	102.75
444.476	104.75
444.698	112.75
444.919	102.75
445.14	144.75
445.361	147.75
445.582	175.75
445.803	258.75
446.024	232.75
446.245	226.75
446.466	171.75
446.687	98.75
446.908	110.75
447.129	104.75
447.35	103.75
447.571	118.75
447.792	100.75
448.013	119.75
448.234	133.75
448.455	115.75
448.675	155.75
448.896	171.75
449.117	122.75
449.338	141.75
449.559	179.75
449.779	182.75
450	108.75
450.221	94.75
450.442	78.75
450.662	100.75
450.883	141.75
451.104	166.75
451.324	110.75
451.545	92.75
451.766	87.75
451.986	86.75
452.207	96.75
452.428	103.75
452.648	138.75
452.869	148.75
453.089	158.75
453.31	169.75
453.53	125.75
453.751	115.75
453.971	150.75
454.192	166.75
454.412	121.75
454.633	102.75
454.853	72.75
455.073	102.75
455.294	91.75
455.514	119.75
455.734	100.75
455.955	83.75
456.175	96.75
456.395	82.75
456.616	82.75
456.836	79.75
457.056	76.75
457.276	82.75
457.497	92.75
457.717	90.75
457.937	90.75
458.157	85.75
458.377	97.75
458.598	160.75
458.818	294.75
459.038	309.75
459.258	190.75
459.478	110.75
459.698	95.75
459.918	78.75
460.138	88.75
460.358	93.75
460.578	106.75
460.798	106.75
461.018	91.75
461.238	86.75
461.458	76.75
461.678	84.75
461.898	102.75
462.118	80.75
462.338	85.75
462.558	89.75
462.777	84.75
462.997	104.75
463.217	153.75
463.437	99.75
463.657	107.75
463.876	99.75
464.096	96.75
464.316	110.75
464.536	106.75
464.755	107.75
464.975	152.75
465.195	313.75
465.414	316.75
465.634	116.75
465.854	109.75
466.073	102.75
466.293	83.75
466.512	113.75
466.732	109.75
466.951	86.75
467.171	109.75
467.391	116.75
467.61	206.75
467.829	345.75
468.049	1143.75
468.268	1734.75
468.488	383.75
468.707	138.75
468.927	107.75
469.146	103.75
469.365	109.75
469.585	95.75
469.804	125.75
470.023	114.75
470.243	114.75
470.462	143.75
470.681	165.75
470.901	122.75
471.12	119.75
471.339	138.75
471.558	156.75
471.777	235.75
471.997	527.75
472.216	2256.75
472.435	5305.75
472.654	1101.75
472.873	242.75
473.092	117.75
473.311	113.75
473.53	104.75
473.749	105.75
473.968	119.75
474.187	150.75
474.406	118.75
474.625	110.75
474.844	94.75
475.063	96.75
475.282	103.75
475.501	88.75
475.72	83.75
475.939	90.75
476.158	97.75
476.377	104.75
476.596	96.75
476.814	115.75
477.033	118.75
477.252	124.75
477.471	100.75
477.69	99.75
477.908	96.75
478.127	90.75
478.346	117.75
478.564	106.75
478.783	124.75
479.002	120.75
479.22	135.75
479.439	149.75
479.658	181.75
479.876	157.75
480.095	150.75
480.313	197.75
480.532	240.75
480.751	494.75
480.969	2013.75
481.188	8911.75
481.406	5039.75
481.624	611.75
481.843	202.75
482.061	157.75
482.28	118.75
482.498	117.75
482.717	113.75
482.935	105.75
483.153	102.75
483.372	98.75
483.59	98.75
483.808	92.75
484.027	99.75
484.245	106.75
484.463	102.75
484.681	103.75
484.9	99.75
485.118	93.75
485.336	113.75
485.554	96.75
485.772	118.75
485.99	108.75
486.209	100.75
486.427	110.75
486.645	133.75
486.863	154.75
487.081	129.75
487.299	110.75
487.517	101.75
487.735	102.75
487.953	107.75
488.171	105.75
488.389	100.75
488.607	110.75
488.825	87.75
489.043	81.75
489.261	95.75
489.479	102.75
489.696	91.75
489.914	79.75
490.132	93.75
490.35	109.75
490.568	109.75
490.786	85.75
491.003	90.75
491.221	89.75
491.439	117.75
491.657	103.75
491.874	95.75
492.092	98.75
492.31	100.75
492.527	112.75
492.745	113.75
492.963	98.75
493.18	97.75
493.398	96.75
493.615	97.75
493.833	92.75
494.05	110.75
494.268	87.75
494.485	105.75
494.703	87.75
494.92	85.75
495.138	91.75
495.355	92.75
495.573	99.75
495.79	99.75
496.008	85.75
496.225	97.75
496.442	93.75
496.66	91.75
496.877	105.75
497.094	103.75
497.312	92.75
497.529	94.75
497.746	104.75
497.963	106.75
498.181	101.75
498.398	106.75
498.615	146.75
498.832	123.75
499.049	108.75
499.267	89.75
499.484	103.75
499.701	98.75
499.918	81.75
500.135	110.75
500.352	95.75
500.569	96.75
500.786	104.75
501.003	102.75
501.22	86.75
501.437	87.75
501.654	113.75
501.871	139.75
502.088	117.75
502.305	111.75
502.522	84.75
502.739	98.75
502.956	94.75
503.172	102.75
503.389	119.75
503.606	149.75
503.823	122.75
504.04	99.75
504.256	98.75
504.473	98.75
504.69	87.75
504.907	99.75
505.123	91.75
505.34	94.75
505.557	99.75
505.773	90.75
505.99	96.75
506.207	83.75
506.423	104.75
506.64	92.75
506.856	106.75
507.073	104.75
507.289	104.75
507.506	127.75
507.722	157.75
507.939	155.75
508.155	116.75
508.372	93.75
508.588	93.75
508.805	111.75
509.021	107.75
509.238	107.75
509.454	111.75
509.67	108.75
509.887	129.75
510.103	181.75
