Data from Circ_1998_H10_HRD10591_00026.txt Node
Date: Wed Jan 03 11:26:54 EST 2024
User: Yrep
Spectrometer: HR+D1059
Trigger mode: 1
Integration Time (sec): 1.000000E-1
Scans to average: 1
Electric dark correction enabled: true
Nonlinearity correction enabled: false
Boxcar width: 0
XAxis mode: Wavelengths
Number of Pixels in Spectrum: 2048
>>>>>Begin Spectral Data<<<<<
223.165	6.81
223.4	6.81
223.635	6.81
223.869	-14.19
224.104	-23.19
224.338	-27.19
224.573	-24.19
224.808	-1.19
225.042	0.81
225.277	-15.19
225.511	-4.19
225.746	6.81
225.98	3.81
226.215	14.81
226.449	7.81
226.683	5.81
226.918	14.81
227.152	47.81
227.387	33.81
227.621	28.81
227.856	48.81
228.09	32.81
228.324	48.81
228.559	60.81
228.793	63.81
229.027	56.81
229.262	87.81
229.496	65.81
229.73	100.81
229.964	91.81
230.199	75.81
230.433	76.81
230.667	88.81
230.901	79.81
231.136	81.81
231.37	86.81
231.604	86.81
231.838	78.81
232.072	70.81
232.306	67.81
232.541	70.81
232.775	84.81
233.009	92.81
233.243	84.81
233.477	73.81
233.711	75.81
233.945	62.81
234.179	75.81
234.413	71.81
234.647	77.81
234.881	76.81
235.115	73.81
235.349	82.81
235.583	81.81
235.817	82.81
236.051	72.81
236.285	92.81
236.519	93.81
236.753	68.81
236.987	81.81
237.221	93.81
237.455	104.81
237.689	90.81
237.922	75.81
238.156	67.81
238.39	68.81
238.624	89.81
238.858	78.81
239.091	75.81
239.325	84.81
239.559	72.81
239.793	79.81
240.027	83.81
240.26	78.81
240.494	71.81
240.728	75.81
240.961	65.81
241.195	96.81
241.429	73.81
241.662	77.81
241.896	64.81
242.13	73.81
242.363	64.81
242.597	75.81
242.83	63.81
243.064	81.81
243.298	71.81
243.531	72.81
243.765	81.81
243.998	69.81
244.232	78.81
244.465	91.81
244.699	74.81
244.932	92.81
245.166	88.81
245.399	62.81
245.633	83.81
245.866	97.81
246.099	74.81
246.333	87.81
246.566	77.81
246.8	81.81
247.033	77.81
247.266	78.81
247.5	86.81
247.733	79.81
247.966	85.81
248.2	64.81
248.433	81.81
248.666	77.81
248.899	81.81
249.133	89.81
249.366	94.81
249.599	109.81
249.832	84.81
250.066	92.81
250.299	84.81
250.532	79.81
250.765	90.81
250.998	71.81
251.231	78.81
251.465	80.81
251.698	87.81
251.931	91.81
252.164	79.81
252.397	79.81
252.63	103.81
252.863	89.81
253.096	91.81
253.329	91.81
253.562	73.81
253.795	82.81
254.028	73.81
254.261	74.81
254.494	87.81
254.727	83.81
254.96	94.81
255.193	82.81
255.426	73.81
255.659	76.81
255.892	95.81
256.124	91.81
256.357	80.81
256.59	92.81
256.823	76.81
257.056	89.81
257.289	97.81
257.521	73.81
257.754	77.81
257.987	68.81
258.22	83.81
258.452	103.81
258.685	95.81
258.918	97.81
259.151	81.81
259.383	95.81
259.616	78.81
259.849	75.81
260.081	92.81
260.314	79.81
260.547	89.81
260.779	96.81
261.012	101.81
261.244	119.81
261.477	100.81
261.71	101.81
261.942	132.81
262.175	148.81
262.407	84.81
262.64	83.81
262.872	92.81
263.105	76.81
263.337	90.81
263.57	84.81
263.802	82.81
264.035	75.81
264.267	84.81
264.499	83.81
264.732	79.81
264.964	78.81
265.197	79.81
265.429	94.81
265.661	80.81
265.894	79.81
266.126	93.81
266.358	86.81
266.591	79.81
266.823	74.81
267.055	67.81
267.287	63.81
267.52	85.81
267.752	85.81
267.984	87.81
268.216	87.81
268.448	91.81
268.681	79.81
268.913	72.81
269.145	80.81
269.377	80.81
269.609	81.81
269.841	85.81
270.073	81.81
270.306	97.81
270.538	87.81
270.77	70.81
271.002	76.81
271.234	87.81
271.466	79.81
271.698	102.81
271.93	89.81
272.162	87.81
272.394	84.81
272.626	105.81
272.858	93.81
273.09	91.81
273.322	90.81
273.553	82.81
273.785	77.81
274.017	81.81
274.249	79.81
274.481	92.81
274.713	77.81
274.945	96.81
275.176	88.81
275.408	105.81
275.64	120.81
275.872	126.81
276.104	101.81
276.335	100.81
276.567	120.81
276.799	143.81
277.031	177.81
277.262	211.81
277.494	142.81
277.726	107.81
277.957	91.81
278.189	88.81
278.421	93.81
278.652	77.81
278.884	86.81
279.115	100.81
279.347	104.81
279.579	97.81
279.81	131.81
280.042	193.81
280.273	296.81
280.505	181.81
280.736	104.81
280.968	104.81
281.199	86.81
281.431	93.81
281.662	92.81
281.894	101.81
282.125	105.81
282.356	143.81
282.588	167.81
282.819	126.81
283.051	91.81
283.282	84.81
283.513	78.81
283.745	83.81
283.976	83.81
284.207	81.81
284.439	96.81
284.67	80.81
284.901	83.81
285.132	95.81
285.364	70.81
285.595	86.81
285.826	89.81
286.057	90.81
286.288	105.81
286.52	89.81
286.751	92.81
286.982	84.81
287.213	81.81
287.444	79.81
287.675	93.81
287.906	95.81
288.138	101.81
288.369	110.81
288.6	99.81
288.831	90.81
289.062	94.81
289.293	90.81
289.524	89.81
289.755	83.81
289.986	100.81
290.217	88.81
290.448	79.81
290.679	86.81
290.91	85.81
291.141	105.81
291.371	93.81
291.602	96.81
291.833	90.81
292.064	90.81
292.295	86.81
292.526	86.81
292.757	85.81
292.987	93.81
293.218	80.81
293.449	65.81
293.68	92.81
293.91	79.81
294.141	85.81
294.372	99.81
294.603	84.81
294.833	89.81
295.064	92.81
295.295	86.81
295.525	87.81
295.756	111.81
295.987	133.81
296.217	164.81
296.448	141.81
296.679	109.81
296.909	93.81
297.14	90.81
297.37	93.81
297.601	86.81
297.831	85.81
298.062	96.81
298.292	97.81
298.523	83.81
298.753	100.81
298.984	87.81
299.214	93.81
299.445	81.81
299.675	97.81
299.905	97.81
300.136	75.81
300.366	92.81
300.597	104.81
300.827	96.81
301.057	100.81
301.288	119.81
301.518	107.81
301.748	101.81
301.979	111.81
302.209	105.81
302.439	90.81
302.669	93.81
302.9	112.81
303.13	104.81
303.36	97.81
303.59	139.81
303.82	135.81
304.051	97.81
304.281	88.81
304.511	81.81
304.741	95.81
304.971	105.81
305.201	90.81
305.431	87.81
305.661	96.81
305.891	88.81
306.121	99.81
306.352	106.81
306.582	114.81
306.812	124.81
307.042	141.81
307.272	168.81
307.502	178.81
307.731	188.81
307.961	135.81
308.191	94.81
308.421	72.81
308.651	98.81
308.881	100.81
309.111	97.81
309.341	92.81
309.571	107.81
309.8	94.81
310.03	106.81
310.26	109.81
310.49	108.81
310.72	112.81
310.949	111.81
311.179	115.81
311.409	87.81
311.639	110.81
311.868	123.81
312.098	119.81
312.328	107.81
312.557	121.81
312.787	124.81
313.017	103.81
313.246	85.81
313.476	96.81
313.706	83.81
313.935	112.81
314.165	103.81
314.394	129.81
314.624	115.81
314.853	104.81
315.083	111.81
315.312	104.81
315.542	101.81
315.771	80.81
316.001	96.81
316.23	106.81
316.46	87.81
316.689	76.81
316.919	108.81
317.148	95.81
317.377	94.81
317.607	89.81
317.836	101.81
318.065	92.81
318.295	97.81
318.524	79.81
318.753	87.81
318.983	102.81
319.212	100.81
319.441	122.81
319.67	115.81
319.9	94.81
320.129	97.81
320.358	93.81
320.587	108.81
320.816	118.81
321.046	112.81
321.275	103.81
321.504	84.81
321.733	96.81
321.962	117.81
322.191	120.81
322.42	111.81
322.649	122.81
322.878	124.81
323.108	138.81
323.337	162.81
323.566	154.81
323.795	219.81
324.024	273.81
324.253	539.81
324.482	1183.81
324.71	2576.81
324.939	3428.81
325.168	1182.81
325.397	325.81
325.626	183.81
325.855	157.81
326.084	147.81
326.313	162.81
326.542	184.81
326.77	302.81
326.999	622.81
327.228	1315.81
327.457	2503.81
327.686	1973.81
327.914	648.81
328.143	607.81
328.372	779.81
328.6	417.81
328.829	196.81
329.058	197.81
329.287	214.81
329.515	196.81
329.744	276.81
329.972	540.81
330.201	1176.81
330.43	1676.81
330.658	759.81
330.887	317.81
331.115	206.81
331.344	121.81
331.572	110.81
331.801	114.81
332.03	124.81
332.258	126.81
332.486	107.81
332.715	111.81
332.943	113.81
333.172	110.81
333.4	149.81
333.629	179.81
333.857	265.81
334.085	523.81
334.314	1086.81
334.542	2139.81
334.771	1963.81
334.999	474.81
335.227	190.81
335.455	127.81
335.684	119.81
335.912	113.81
336.14	115.81
336.369	110.81
336.597	115.81
336.825	94.81
337.053	99.81
337.281	102.81
337.51	96.81
337.738	102.81
337.966	91.81
338.194	112.81
338.422	99.81
338.65	94.81
338.878	103.81
339.106	99.81
339.334	85.81
339.562	85.81
339.79	102.81
340.018	101.81
340.246	112.81
340.474	97.81
340.702	96.81
340.93	83.81
341.158	107.81
341.386	109.81
341.614	109.81
341.842	93.81
342.07	94.81
342.298	83.81
342.526	87.81
342.754	80.81
342.981	99.81
343.209	97.81
343.437	105.81
343.665	71.81
343.893	83.81
344.12	104.81
344.348	91.81
344.576	86.81
344.804	101.81
345.031	117.81
345.259	115.81
345.487	86.81
345.714	109.81
345.942	88.81
346.17	98.81
346.397	88.81
346.625	97.81
346.853	104.81
347.08	104.81
347.308	104.81
347.535	104.81
347.763	119.81
347.99	93.81
348.218	102.81
348.445	115.81
348.673	106.81
348.9	96.81
349.128	83.81
349.355	77.81
349.583	77.81
349.81	88.81
350.037	106.81
350.265	103.81
350.492	94.81
350.72	95.81
350.947	100.81
351.174	115.81
351.402	104.81
351.629	105.81
351.856	101.81
352.083	104.81
352.311	108.81
352.538	125.81
352.765	128.81
352.992	119.81
353.22	126.81
353.447	112.81
353.674	91.81
353.901	96.81
354.128	103.81
354.355	96.81
354.583	97.81
354.81	85.81
355.037	108.81
355.264	90.81
355.491	88.81
355.718	84.81
355.945	102.81
356.172	101.81
356.399	114.81
356.626	92.81
356.853	85.81
357.08	102.81
357.307	97.81
357.534	85.81
357.761	79.81
357.988	89.81
358.215	100.81
358.441	98.81
358.668	104.81
358.895	85.81
359.122	97.81
359.349	95.81
359.576	89.81
359.802	116.81
360.029	137.81
360.256	147.81
360.483	109.81
360.709	73.81
360.936	94.81
361.163	103.81
361.39	88.81
361.616	98.81
361.843	94.81
362.07	106.81
362.296	107.81
362.523	81.81
362.749	79.81
362.976	93.81
363.203	104.81
363.429	97.81
363.656	102.81
363.882	104.81
364.109	90.81
364.335	100.81
364.562	78.81
364.788	85.81
365.015	96.81
365.241	91.81
365.468	130.81
365.694	110.81
365.92	110.81
366.147	87.81
366.373	81.81
366.599	99.81
366.826	84.81
367.052	85.81
367.278	87.81
367.505	96.81
367.731	101.81
367.957	89.81
368.184	91.81
368.41	103.81
368.636	127.81
368.862	144.81
369.089	128.81
369.315	113.81
369.541	93.81
369.767	88.81
369.993	107.81
370.219	102.81
370.445	90.81
370.672	61.81
370.898	89.81
371.124	97.81
371.35	93.81
371.576	89.81
371.802	90.81
372.028	85.81
372.254	88.81
372.48	85.81
372.706	88.81
372.932	84.81
373.158	100.81
373.384	94.81
373.61	95.81
373.835	92.81
374.061	89.81
374.287	114.81
374.513	103.81
374.739	83.81
374.965	96.81
375.191	84.81
375.416	73.81
375.642	84.81
375.868	87.81
376.094	101.81
376.319	83.81
376.545	89.81
376.771	70.81
376.997	71.81
377.222	83.81
377.448	92.81
377.674	88.81
377.899	83.81
378.125	71.81
378.35	92.81
378.576	101.81
378.802	83.81
379.027	90.81
379.253	87.81
379.478	86.81
379.704	78.81
379.929	97.81
380.155	94.81
380.38	79.81
380.606	94.81
380.831	97.81
381.057	97.81
381.282	108.81
381.507	103.81
381.733	80.81
381.958	95.81
382.184	109.81
382.409	101.81
382.634	115.81
382.86	101.81
383.085	102.81
383.31	91.81
383.535	93.81
383.761	111.81
383.986	108.81
384.211	88.81
384.436	94.81
384.662	117.81
384.887	102.81
385.112	113.81
385.337	111.81
385.562	114.81
385.787	112.81
386.013	129.81
386.238	140.81
386.463	117.81
386.688	102.81
386.913	115.81
387.138	95.81
387.363	101.81
387.588	117.81
387.813	102.81
388.038	104.81
388.263	123.81
388.488	123.81
388.713	99.81
388.938	93.81
389.163	94.81
389.387	98.81
389.612	89.81
389.837	91.81
390.062	90.81
390.287	97.81
390.512	95.81
390.736	85.81
390.961	84.81
391.186	92.81
391.411	77.81
391.636	78.81
391.86	95.81
392.085	89.81
392.31	85.81
392.534	86.81
392.759	94.81
392.984	95.81
393.208	87.81
393.433	106.81
393.658	107.81
393.882	64.81
394.107	84.81
394.331	83.81
394.556	94.81
394.78	89.81
395.005	80.81
395.229	88.81
395.454	86.81
395.678	90.81
395.903	81.81
396.127	91.81
396.352	93.81
396.576	89.81
396.801	92.81
397.025	93.81
397.249	94.81
397.474	80.81
397.698	81.81
397.922	89.81
398.147	99.81
398.371	100.81
398.595	99.81
398.82	78.81
399.044	100.81
399.268	85.81
399.492	85.81
399.717	103.81
399.941	93.81
400.165	91.81
400.389	97.81
400.613	92.81
400.837	94.81
401.062	86.81
401.286	78.81
401.51	84.81
401.734	103.81
401.958	113.81
402.182	151.81
402.406	212.81
402.63	149.81
402.854	102.81
403.078	95.81
403.302	83.81
403.526	84.81
403.75	91.81
403.974	91.81
404.198	76.81
404.422	74.81
404.645	87.81
404.869	108.81
405.093	121.81
405.317	128.81
405.541	149.81
405.765	127.81
405.988	130.81
406.212	231.81
406.436	322.81
406.66	212.81
406.883	115.81
407.107	94.81
407.331	115.81
407.555	106.81
407.778	94.81
408.002	98.81
408.226	103.81
408.449	107.81
408.673	97.81
408.896	92.81
409.12	97.81
409.344	107.81
409.567	81.81
409.791	93.81
410.014	100.81
410.238	92.81
410.461	89.81
410.685	90.81
410.908	87.81
411.132	98.81
411.355	97.81
411.578	103.81
411.802	96.81
412.025	98.81
412.249	103.81
412.472	131.81
412.695	147.81
412.919	107.81
413.142	93.81
413.365	84.81
413.589	97.81
413.812	81.81
414.035	108.81
414.258	92.81
414.482	88.81
414.705	87.81
414.928	86.81
415.151	74.81
415.374	98.81
415.597	93.81
415.821	91.81
416.044	89.81
416.267	75.81
416.49	89.81
416.713	96.81
416.936	91.81
417.159	100.81
417.382	94.81
417.605	111.81
417.828	107.81
418.051	110.81
418.274	100.81
418.497	82.81
418.72	74.81
418.943	101.81
419.166	87.81
419.389	89.81
419.611	93.81
419.834	100.81
420.057	100.81
420.28	87.81
420.503	92.81
420.726	99.81
420.948	96.81
421.171	102.81
421.394	101.81
421.617	89.81
421.839	88.81
422.062	93.81
422.285	96.81
422.507	118.81
422.73	123.81
422.953	108.81
423.175	100.81
423.398	77.81
423.621	82.81
423.843	104.81
424.066	89.81
424.288	92.81
424.511	86.81
424.733	94.81
424.956	128.81
425.178	121.81
425.401	103.81
425.623	110.81
425.846	91.81
426.068	98.81
426.291	96.81
426.513	97.81
426.735	101.81
426.958	108.81
427.18	129.81
427.402	189.81
427.625	288.81
427.847	271.81
428.069	247.81
428.292	143.81
428.514	93.81
428.736	92.81
428.958	94.81
429.181	72.81
429.403	100.81
429.625	103.81
429.847	110.81
430.069	101.81
430.292	95.81
430.514	88.81
430.736	86.81
430.958	77.81
431.18	87.81
431.402	68.81
431.624	86.81
431.846	76.81
432.068	93.81
432.29	102.81
432.512	99.81
432.734	97.81
432.956	80.81
433.178	96.81
433.4	102.81
433.622	93.81
433.844	90.81
434.066	92.81
434.287	96.81
434.509	65.81
434.731	100.81
434.953	103.81
435.175	84.81
435.397	97.81
435.618	104.81
435.84	125.81
436.062	156.81
436.284	136.81
436.505	107.81
436.727	111.81
436.949	85.81
437.17	99.81
437.392	80.81
437.614	84.81
437.835	144.81
438.057	169.81
438.278	149.81
438.5	125.81
438.721	165.81
438.943	114.81
439.165	91.81
439.386	73.81
439.608	101.81
439.829	119.81
440.05	149.81
440.272	196.81
440.493	109.81
440.715	97.81
440.936	96.81
441.158	97.81
441.379	106.81
441.6	96.81
441.822	97.81
442.043	96.81
442.264	109.81
442.486	118.81
442.707	109.81
442.928	136.81
443.149	192.81
443.371	169.81
443.592	135.81
443.813	142.81
444.034	126.81
444.255	107.81
444.476	98.81
444.698	102.81
444.919	85.81
445.14	136.81
445.361	155.81
445.582	136.81
445.803	214.81
446.024	185.81
446.245	182.81
446.466	141.81
446.687	101.81
446.908	86.81
447.129	95.81
447.35	96.81
447.571	81.81
447.792	100.81
448.013	96.81
448.234	131.81
448.455	117.81
448.675	136.81
448.896	148.81
449.117	118.81
449.338	115.81
449.559	156.81
449.779	182.81
450	105.81
450.221	103.81
450.442	87.81
450.662	127.81
450.883	128.81
451.104	151.81
451.324	106.81
451.545	94.81
451.766	93.81
451.986	91.81
452.207	90.81
452.428	93.81
452.648	101.81
452.869	131.81
453.089	127.81
453.31	161.81
453.53	97.81
453.751	104.81
453.971	113.81
454.192	148.81
454.412	101.81
454.633	80.81
454.853	95.81
455.073	87.81
455.294	97.81
455.514	105.81
455.734	92.81
455.955	83.81
456.175	76.81
456.395	91.81
456.616	107.81
456.836	77.81
457.056	91.81
457.276	69.81
457.497	88.81
457.717	79.81
457.937	88.81
458.157	91.81
458.377	97.81
458.598	124.81
458.818	219.81
459.038	267.81
459.258	179.81
459.478	97.81
459.698	88.81
459.918	94.81
460.138	98.81
460.358	78.81
460.578	83.81
460.798	99.81
461.018	85.81
461.238	100.81
461.458	85.81
461.678	71.81
461.898	86.81
462.118	89.81
462.338	80.81
462.558	93.81
462.777	85.81
462.997	96.81
463.217	126.81
463.437	94.81
463.657	78.81
463.876	85.81
464.096	97.81
464.316	99.81
464.536	93.81
464.755	110.81
464.975	125.81
465.195	239.81
465.414	241.81
465.634	111.81
465.854	89.81
466.073	96.81
466.293	88.81
466.512	77.81
466.732	90.81
466.951	97.81
467.171	99.81
467.391	104.81
467.61	159.81
467.829	218.81
468.049	672.81
468.268	986.81
468.488	241.81
468.707	119.81
468.927	87.81
469.146	95.81
469.365	96.81
469.585	87.81
469.804	115.81
470.023	116.81
470.243	111.81
470.462	126.81
470.681	143.81
470.901	101.81
471.12	91.81
471.339	118.81
471.558	126.81
471.777	167.81
471.997	343.81
472.216	1332.81
472.435	3019.81
472.654	694.81
472.873	183.81
473.092	101.81
473.311	110.81
473.53	95.81
473.749	95.81
473.968	104.81
474.187	134.81
474.406	104.81
474.625	81.81
474.844	91.81
475.063	87.81
475.282	79.81
475.501	77.81
475.72	87.81
475.939	87.81
476.158	86.81
476.377	92.81
476.596	99.81
476.814	97.81
477.033	88.81
477.252	78.81
477.471	90.81
477.69	84.81
477.908	97.81
478.127	95.81
478.346	87.81
478.564	87.81
478.783	110.81
479.002	116.81
479.22	103.81
479.439	134.81
479.658	152.81
479.876	117.81
480.095	114.81
480.313	137.81
480.532	178.81
480.751	329.81
480.969	1200.81
481.188	5413.81
481.406	2990.81
481.624	423.81
481.843	145.81
482.061	115.81
482.28	97.81
482.498	93.81
482.717	102.81
482.935	96.81
483.153	95.81
483.372	90.81
483.59	95.81
483.808	79.81
484.027	98.81
484.245	95.81
484.463	97.81
484.681	85.81
484.9	95.81
485.118	96.81
485.336	96.81
485.554	104.81
485.772	115.81
485.99	103.81
486.209	101.81
486.427	110.81
486.645	126.81
486.863	126.81
487.081	115.81
487.299	104.81
487.517	91.81
487.735	91.81
487.953	87.81
488.171	89.81
488.389	96.81
488.607	96.81
488.825	84.81
489.043	85.81
489.261	81.81
489.479	89.81
489.696	76.81
489.914	85.81
490.132	84.81
490.35	99.81
490.568	88.81
490.786	96.81
491.003	87.81
491.221	93.81
491.439	107.81
491.657	84.81
491.874	93.81
492.092	90.81
492.31	87.81
492.527	100.81
492.745	101.81
492.963	96.81
493.18	111.81
493.398	103.81
493.615	92.81
493.833	92.81
494.05	88.81
494.268	93.81
494.485	95.81
494.703	82.81
494.92	100.81
495.138	96.81
495.355	91.81
495.573	105.81
495.79	95.81
496.008	90.81
496.225	102.81
496.442	82.81
496.66	95.81
496.877	78.81
497.094	90.81
497.312	92.81
497.529	96.81
497.746	94.81
497.963	103.81
498.181	97.81
498.398	92.81
498.615	119.81
498.832	109.81
499.049	100.81
499.267	105.81
499.484	88.81
499.701	93.81
499.918	92.81
500.135	79.81
500.352	93.81
500.569	88.81
500.786	90.81
501.003	87.81
501.22	97.81
501.437	100.81
501.654	106.81
501.871	136.81
502.088	105.81
502.305	96.81
502.522	80.81
502.739	93.81
502.956	84.81
503.172	112.81
503.389	108.81
503.606	121.81
503.823	101.81
504.04	83.81
504.256	80.81
504.473	92.81
504.69	100.81
504.907	91.81
505.123	90.81
505.34	91.81
505.557	91.81
505.773	88.81
505.99	101.81
506.207	90.81
506.423	90.81
506.64	97.81
506.856	92.81
507.073	99.81
507.289	96.81
507.506	115.81
507.722	134.81
507.939	138.81
508.155	95.81
508.372	92.81
508.588	97.81
508.805	85.81
509.021	93.81
509.238	94.81
509.454	102.81
509.67	106.81
509.887	113.81
510.103	144.81
510.319	247.81
510.536	1035.81
510.752	3558.81
510.968	923.81
511.184	188.81
511.401	135.81
511.617	122.81
511.833	103.81
512.049	99.81
512.265	83.81
512.481	93.81
512.698	92.81
512.914	89.81
