Data from Circ_1998_H10_HRD10591_00099.txt Node
Date: Wed Jan 03 11:27:08 EST 2024
User: Yrep
Spectrometer: HR+D1059
Trigger mode: 1
Integration Time (sec): 1.000000E-1
Scans to average: 1
Electric dark correction enabled: true
Nonlinearity correction enabled: false
Boxcar width: 0
XAxis mode: Wavelengths
Number of Pixels in Spectrum: 2048
>>>>>Begin Spectral Data<<<<<
223.165	-20.19
223.4	-20.19
223.635	-20.19
223.869	-14.19
224.104	-16.19
224.338	-23.19
224.573	-19.19
224.808	-2.19
225.042	-9.19
225.277	-8.19
225.511	10.81
225.746	-0.19
225.98	1.81
226.215	10.81
226.449	13.81
226.683	24.81
226.918	26.81
227.152	23.81
227.387	40.81
227.621	26.81
227.856	57.81
228.09	52.81
228.324	58.81
228.559	59.81
228.793	75.81
229.027	77.81
229.262	70.81
229.496	77.81
229.73	103.81
229.964	117.81
230.199	89.81
230.433	74.81
230.667	90.81
230.901	86.81
231.136	78.81
231.37	84.81
231.604	78.81
231.838	86.81
232.072	82.81
232.306	72.81
232.541	94.81
232.775	86.81
233.009	94.81
233.243	79.81
233.477	81.81
233.711	87.81
233.945	80.81
234.179	88.81
234.413	88.81
234.647	90.81
234.881	85.81
235.115	91.81
235.349	73.81
235.583	90.81
235.817	101.81
236.051	78.81
236.285	85.81
236.519	83.81
236.753	90.81
236.987	84.81
237.221	107.81
237.455	90.81
237.689	84.81
237.922	88.81
238.156	70.81
238.39	95.81
238.624	69.81
238.858	84.81
239.091	83.81
239.325	87.81
239.559	96.81
239.793	91.81
240.027	80.81
240.26	74.81
240.494	74.81
240.728	86.81
240.961	98.81
241.195	87.81
241.429	65.81
241.662	76.81
241.896	81.81
242.13	95.81
242.363	79.81
242.597	79.81
242.83	88.81
243.064	68.81
243.298	95.81
243.531	86.81
243.765	71.81
243.998	82.81
244.232	90.81
244.465	98.81
244.699	98.81
244.932	77.81
245.166	82.81
245.399	72.81
245.633	81.81
245.866	91.81
246.099	85.81
246.333	92.81
246.566	90.81
246.8	82.81
247.033	86.81
247.266	95.81
247.5	78.81
247.733	97.81
247.966	83.81
248.2	80.81
248.433	79.81
248.666	82.81
248.899	83.81
249.133	100.81
249.366	113.81
249.599	114.81
249.832	83.81
250.066	92.81
250.299	91.81
250.532	111.81
250.765	89.81
250.998	91.81
251.231	105.81
251.465	83.81
251.698	89.81
251.931	92.81
252.164	89.81
252.397	67.81
252.63	83.81
252.863	94.81
253.096	88.81
253.329	94.81
253.562	88.81
253.795	92.81
254.028	77.81
254.261	91.81
254.494	72.81
254.727	88.81
254.96	94.81
255.193	91.81
255.426	84.81
255.659	89.81
255.892	101.81
256.124	120.81
256.357	89.81
256.59	96.81
256.823	99.81
257.056	114.81
257.289	108.81
257.521	92.81
257.754	80.81
257.987	98.81
258.22	103.81
258.452	122.81
258.685	122.81
258.918	98.81
259.151	92.81
259.383	90.81
259.616	85.81
259.849	74.81
260.081	103.81
260.314	103.81
260.547	106.81
260.779	107.81
261.012	145.81
261.244	135.81
261.477	119.81
261.71	138.81
261.942	173.81
262.175	200.81
262.407	102.81
262.64	80.81
262.872	98.81
263.105	97.81
263.337	93.81
263.57	91.81
263.802	87.81
264.035	85.81
264.267	98.81
264.499	89.81
264.732	104.81
264.964	92.81
265.197	98.81
265.429	92.81
265.661	77.81
265.894	70.81
266.126	91.81
266.358	79.81
266.591	71.81
266.823	98.81
267.055	80.81
267.287	89.81
267.52	96.81
267.752	86.81
267.984	112.81
268.216	80.81
268.448	81.81
268.681	91.81
268.913	88.81
269.145	103.81
269.377	88.81
269.609	93.81
269.841	100.81
270.073	90.81
270.306	94.81
270.538	93.81
270.77	93.81
271.002	94.81
271.234	91.81
271.466	101.81
271.698	104.81
271.93	108.81
272.162	90.81
272.394	88.81
272.626	99.81
272.858	95.81
273.09	86.81
273.322	102.81
273.553	98.81
273.785	94.81
274.017	95.81
274.249	106.81
274.481	97.81
274.713	76.81
274.945	100.81
275.176	110.81
275.408	125.81
275.64	147.81
275.872	166.81
276.104	136.81
276.335	125.81
276.567	163.81
276.799	224.81
277.031	289.81
277.262	343.81
277.494	245.81
277.726	138.81
277.957	111.81
278.189	97.81
278.421	104.81
278.652	94.81
278.884	112.81
279.115	99.81
279.347	110.81
279.579	134.81
279.81	207.81
280.042	340.81
280.273	497.81
280.505	308.81
280.736	141.81
280.968	102.81
281.199	97.81
281.431	80.81
281.662	95.81
281.894	107.81
282.125	118.81
282.356	173.81
282.588	230.81
282.819	173.81
283.051	105.81
283.282	98.81
283.513	83.81
283.745	94.81
283.976	93.81
284.207	89.81
284.439	106.81
284.67	99.81
284.901	86.81
285.132	101.81
285.364	88.81
285.595	106.81
285.826	115.81
286.057	103.81
286.288	85.81
286.52	96.81
286.751	91.81
286.982	90.81
287.213	100.81
287.444	101.81
287.675	97.81
287.906	94.81
288.138	109.81
288.369	98.81
288.6	104.81
288.831	100.81
289.062	103.81
289.293	92.81
289.524	100.81
289.755	86.81
289.986	80.81
290.217	86.81
290.448	95.81
290.679	88.81
290.91	99.81
291.141	107.81
291.371	85.81
291.602	96.81
291.833	96.81
292.064	98.81
292.295	95.81
292.526	90.81
292.757	93.81
292.987	90.81
293.218	81.81
293.449	95.81
293.68	97.81
293.91	108.81
294.141	97.81
294.372	86.81
294.603	92.81
294.833	85.81
295.064	98.81
295.295	90.81
295.525	109.81
295.756	113.81
295.987	162.81
296.217	230.81
296.448	189.81
296.679	111.81
296.909	94.81
297.14	94.81
297.37	90.81
297.601	99.81
297.831	111.81
298.062	93.81
298.292	83.81
298.523	109.81
298.753	98.81
298.984	86.81
299.214	99.81
299.445	106.81
299.675	104.81
299.905	98.81
300.136	106.81
300.366	99.81
300.597	103.81
300.827	95.81
301.057	115.81
301.288	136.81
301.518	126.81
301.748	116.81
301.979	140.81
302.209	118.81
302.439	104.81
302.669	109.81
302.9	99.81
303.13	132.81
303.36	140.81
303.59	185.81
303.82	214.81
304.051	127.81
304.281	112.81
304.511	95.81
304.741	106.81
304.971	94.81
305.201	92.81
305.431	98.81
305.661	111.81
305.891	99.81
306.121	120.81
306.352	137.81
306.582	147.81
306.812	149.81
307.042	163.81
307.272	244.81
307.502	294.81
307.731	262.81
307.961	188.81
308.191	117.81
308.421	94.81
308.651	90.81
308.881	113.81
309.111	115.81
309.341	108.81
309.571	116.81
309.8	123.81
310.03	134.81
310.26	133.81
310.49	117.81
310.72	114.81
310.949	139.81
311.179	131.81
311.409	112.81
311.639	118.81
311.868	115.81
312.098	101.81
312.328	119.81
312.557	133.81
312.787	159.81
313.017	128.81
313.246	113.81
313.476	102.81
313.706	94.81
313.935	107.81
314.165	135.81
314.394	134.81
314.624	121.81
314.853	111.81
315.083	104.81
315.312	106.81
315.542	103.81
315.771	103.81
316.001	95.81
316.23	97.81
316.46	94.81
316.689	91.81
316.919	103.81
317.148	108.81
317.377	94.81
317.607	123.81
317.836	94.81
318.065	106.81
318.295	106.81
318.524	93.81
318.753	102.81
318.983	108.81
319.212	119.81
319.441	122.81
319.67	138.81
319.9	113.81
320.129	116.81
320.358	121.81
320.587	108.81
320.816	113.81
321.046	130.81
321.275	113.81
321.504	127.81
321.733	107.81
321.962	126.81
322.191	127.81
322.42	138.81
322.649	148.81
322.878	154.81
323.108	158.81
323.337	206.81
323.566	209.81
323.795	248.81
324.024	326.81
324.253	705.81
324.482	1544.81
324.71	3451.81
324.939	4474.81
325.168	1580.81
325.397	409.81
325.626	238.81
325.855	193.81
326.084	168.81
326.313	181.81
326.542	233.81
326.77	376.81
326.999	759.81
327.228	1634.81
327.457	3178.81
327.686	2490.81
327.914	932.81
328.143	1050.81
328.372	1361.81
328.6	718.81
328.829	294.81
329.058	292.81
329.287	294.81
329.515	297.81
329.744	471.81
329.972	989.81
330.201	2216.81
330.43	3296.81
330.658	1315.81
330.887	508.81
331.115	288.81
331.344	172.81
331.572	154.81
331.801	156.81
332.03	173.81
332.258	146.81
332.486	135.81
332.715	131.81
332.943	147.81
333.172	155.81
333.4	189.81
333.629	252.81
333.857	391.81
334.085	856.81
334.314	2040.81
334.542	4028.81
334.771	3684.81
334.999	833.81
335.227	286.81
335.455	180.81
335.684	154.81
335.912	135.81
336.14	132.81
336.369	130.81
336.597	128.81
336.825	130.81
337.053	112.81
337.281	111.81
337.51	99.81
337.738	109.81
337.966	102.81
338.194	130.81
338.422	123.81
338.65	114.81
338.878	109.81
339.106	118.81
339.334	109.81
339.562	101.81
339.79	100.81
340.018	122.81
340.246	104.81
340.474	92.81
340.702	110.81
340.93	102.81
341.158	109.81
341.386	112.81
341.614	109.81
341.842	120.81
342.07	118.81
342.298	90.81
342.526	105.81
342.754	96.81
342.981	103.81
343.209	96.81
343.437	106.81
343.665	104.81
343.893	96.81
344.12	111.81
344.348	91.81
344.576	102.81
344.804	102.81
345.031	109.81
345.259	126.81
345.487	122.81
345.714	99.81
345.942	106.81
346.17	104.81
346.397	111.81
346.625	100.81
346.853	110.81
347.08	95.81
347.308	96.81
347.535	120.81
347.763	129.81
347.99	123.81
348.218	116.81
348.445	125.81
348.673	121.81
348.9	100.81
349.128	108.81
349.355	106.81
349.583	103.81
349.81	102.81
350.037	100.81
350.265	104.81
350.492	109.81
350.72	99.81
350.947	110.81
351.174	122.81
351.402	153.81
351.629	114.81
351.856	123.81
352.083	122.81
352.311	134.81
352.538	139.81
352.765	155.81
352.992	153.81
353.22	126.81
353.447	124.81
353.674	108.81
353.901	107.81
354.128	95.81
354.355	86.81
354.583	113.81
354.81	110.81
355.037	102.81
355.264	87.81
355.491	97.81
355.718	95.81
355.945	100.81
356.172	100.81
356.399	96.81
356.626	93.81
356.853	100.81
357.08	102.81
357.307	99.81
357.534	98.81
357.761	90.81
357.988	110.81
358.215	92.81
358.441	83.81
358.668	98.81
358.895	102.81
359.122	105.81
359.349	104.81
359.576	116.81
359.802	148.81
360.029	178.81
360.256	193.81
360.483	157.81
360.709	96.81
360.936	104.81
361.163	125.81
361.39	119.81
361.616	113.81
361.843	117.81
362.07	112.81
362.296	140.81
362.523	118.81
362.749	116.81
362.976	117.81
363.203	117.81
363.429	105.81
363.656	118.81
363.882	90.81
364.109	98.81
364.335	114.81
364.562	98.81
364.788	106.81
365.015	107.81
365.241	122.81
365.468	124.81
365.694	132.81
365.92	126.81
366.147	116.81
366.373	86.81
366.599	98.81
366.826	100.81
367.052	105.81
367.278	98.81
367.505	90.81
367.731	117.81
367.957	116.81
368.184	106.81
368.41	111.81
368.636	162.81
368.862	154.81
369.089	151.81
369.315	103.81
369.541	109.81
369.767	113.81
369.993	100.81
370.219	117.81
370.445	105.81
370.672	74.81
370.898	91.81
371.124	87.81
371.35	101.81
371.576	103.81
371.802	86.81
372.028	80.81
372.254	103.81
372.48	94.81
372.706	104.81
372.932	92.81
373.158	90.81
373.384	92.81
373.61	108.81
373.835	87.81
374.061	89.81
374.287	111.81
374.513	92.81
374.739	89.81
374.965	91.81
375.191	94.81
375.416	88.81
375.642	85.81
375.868	86.81
376.094	96.81
376.319	89.81
376.545	84.81
376.771	85.81
376.997	90.81
377.222	101.81
377.448	92.81
377.674	89.81
377.899	73.81
378.125	89.81
378.35	85.81
378.576	97.81
378.802	94.81
379.027	98.81
379.253	92.81
379.478	91.81
379.704	98.81
379.929	87.81
380.155	119.81
380.38	93.81
380.606	90.81
380.831	124.81
381.057	103.81
381.282	106.81
381.507	97.81
381.733	92.81
381.958	100.81
382.184	98.81
382.409	104.81
382.634	106.81
382.86	104.81
383.085	90.81
383.31	99.81
383.535	107.81
383.761	94.81
383.986	99.81
384.211	87.81
384.436	94.81
384.662	107.81
384.887	88.81
385.112	88.81
385.337	99.81
385.562	87.81
385.787	99.81
386.013	123.81
386.238	138.81
386.463	102.81
386.688	109.81
386.913	107.81
387.138	91.81
387.363	91.81
387.588	96.81
387.813	90.81
388.038	101.81
388.263	114.81
388.488	125.81
388.713	94.81
388.938	96.81
389.163	84.81
389.387	101.81
389.612	91.81
389.837	89.81
390.062	95.81
390.287	91.81
390.512	88.81
390.736	105.81
390.961	82.81
391.186	96.81
391.411	98.81
391.636	105.81
391.86	87.81
392.085	100.81
392.31	105.81
392.534	88.81
392.759	84.81
392.984	99.81
393.208	93.81
393.433	112.81
393.658	94.81
393.882	83.81
394.107	84.81
394.331	84.81
394.556	84.81
394.78	74.81
395.005	103.81
395.229	83.81
395.454	93.81
395.678	87.81
395.903	103.81
396.127	106.81
396.352	97.81
396.576	90.81
396.801	97.81
397.025	93.81
397.249	86.81
397.474	96.81
397.698	99.81
397.922	93.81
398.147	97.81
398.371	109.81
398.595	89.81
398.82	73.81
399.044	103.81
399.268	94.81
399.492	90.81
399.717	88.81
399.941	103.81
400.165	94.81
400.389	99.81
400.613	98.81
400.837	85.81
401.062	99.81
401.286	105.81
401.51	101.81
401.734	109.81
401.958	146.81
402.182	182.81
402.406	249.81
402.63	189.81
402.854	126.81
403.078	108.81
403.302	106.81
403.526	82.81
403.75	92.81
403.974	103.81
404.198	100.81
404.422	100.81
404.645	121.81
404.869	125.81
405.093	155.81
405.317	191.81
405.541	186.81
405.765	157.81
405.988	180.81
406.212	284.81
406.436	443.81
406.66	284.81
406.883	154.81
407.107	126.81
407.331	142.81
407.555	124.81
407.778	118.81
408.002	120.81
408.226	104.81
408.449	92.81
408.673	98.81
408.896	121.81
409.12	103.81
409.344	103.81
409.567	97.81
409.791	98.81
410.014	84.81
410.238	106.81
410.461	96.81
410.685	107.81
410.908	100.81
411.132	136.81
411.355	112.81
411.578	106.81
411.802	105.81
412.025	116.81
412.249	116.81
412.472	145.81
412.695	175.81
412.919	135.81
413.142	94.81
413.365	96.81
413.589	87.81
413.812	83.81
414.035	106.81
414.258	88.81
414.482	95.81
414.705	116.81
414.928	94.81
415.151	92.81
415.374	98.81
415.597	92.81
415.821	95.81
416.044	100.81
416.267	94.81
416.49	87.81
416.713	97.81
416.936	98.81
417.159	84.81
417.382	99.81
417.605	122.81
417.828	154.81
418.051	116.81
418.274	106.81
418.497	93.81
418.72	95.81
418.943	86.81
419.166	98.81
419.389	83.81
419.611	104.81
419.834	112.81
420.057	107.81
420.28	108.81
420.503	100.81
420.726	102.81
420.948	90.81
421.171	114.81
421.394	112.81
421.617	93.81
421.839	86.81
422.062	96.81
422.285	93.81
422.507	119.81
422.73	118.81
422.953	94.81
423.175	99.81
423.398	95.81
423.621	87.81
423.843	100.81
424.066	101.81
424.288	86.81
424.511	98.81
424.733	108.81
424.956	143.81
425.178	115.81
425.401	125.81
425.623	124.81
425.846	114.81
426.068	112.81
426.291	110.81
426.513	92.81
426.735	100.81
426.958	112.81
427.18	152.81
427.402	240.81
427.625	392.81
427.847	402.81
428.069	352.81
428.292	180.81
428.514	108.81
428.736	103.81
428.958	104.81
429.181	93.81
429.403	102.81
429.625	94.81
429.847	113.81
430.069	125.81
430.292	101.81
430.514	91.81
430.736	88.81
430.958	103.81
431.18	78.81
431.402	98.81
431.624	100.81
431.846	105.81
432.068	90.81
432.29	105.81
432.512	96.81
432.734	98.81
432.956	112.81
433.178	139.81
433.4	111.81
433.622	102.81
433.844	94.81
434.066	95.81
434.287	104.81
434.509	90.81
434.731	88.81
434.953	93.81
435.175	100.81
435.397	97.81
435.618	126.81
435.84	132.81
436.062	180.81
436.284	147.81
436.505	113.81
436.727	108.81
436.949	105.81
437.17	92.81
437.392	111.81
437.614	111.81
437.835	161.81
438.057	196.81
438.278	154.81
438.5	151.81
438.721	176.81
438.943	128.81
439.165	107.81
439.386	108.81
439.608	112.81
439.829	144.81
440.05	182.81
440.272	250.81
440.493	156.81
440.715	99.81
440.936	91.81
441.158	98.81
441.379	100.81
441.6	120.81
441.822	100.81
442.043	118.81
442.264	136.81
442.486	138.81
442.707	106.81
442.928	144.81
443.149	235.81
443.371	228.81
443.592	156.81
443.813	178.81
444.034	146.81
444.255	88.81
444.476	102.81
444.698	82.81
444.919	99.81
445.14	157.81
445.361	162.81
445.582	180.81
445.803	260.81
446.024	221.81
446.245	232.81
446.466	158.81
446.687	106.81
446.908	86.81
447.129	98.81
447.35	109.81
447.571	113.81
447.792	117.81
448.013	126.81
448.234	151.81
448.455	123.81
448.675	156.81
448.896	169.81
449.117	133.81
449.338	128.81
449.559	186.81
449.779	187.81
450	121.81
450.221	83.81
450.442	94.81
450.662	118.81
450.883	170.81
451.104	183.81
451.324	136.81
451.545	115.81
451.766	97.81
451.986	108.81
452.207	98.81
452.428	95.81
452.648	119.81
452.869	170.81
453.089	177.81
453.31	189.81
453.53	119.81
453.751	100.81
453.971	145.81
454.192	181.81
454.412	122.81
454.633	103.81
454.853	102.81
455.073	93.81
455.294	104.81
455.514	137.81
455.734	105.81
455.955	92.81
456.175	102.81
456.395	92.81
456.616	102.81
456.836	109.81
457.056	94.81
457.276	92.81
457.497	96.81
457.717	86.81
457.937	94.81
458.157	103.81
458.377	112.81
458.598	167.81
458.818	289.81
459.038	307.81
459.258	209.81
459.478	116.81
459.698	106.81
459.918	106.81
460.138	95.81
460.358	89.81
460.578	116.81
460.798	109.81
461.018	99.81
461.238	86.81
461.458	91.81
461.678	91.81
461.898	106.81
462.118	82.81
462.338	97.81
462.558	103.81
462.777	93.81
462.997	109.81
463.217	135.81
463.437	125.81
463.657	106.81
463.876	102.81
464.096	99.81
464.316	110.81
464.536	114.81
464.755	128.81
464.975	160.81
465.195	368.81
465.414	366.81
465.634	129.81
465.854	104.81
466.073	87.81
466.293	112.81
466.512	104.81
466.732	100.81
466.951	102.81
467.171	117.81
467.391	149.81
467.61	200.81
467.829	390.81
468.049	1247.81
468.268	1937.81
468.488	419.81
468.707	153.81
468.927	106.81
469.146	118.81
469.365	118.81
469.585	100.81
469.804	128.81
470.023	149.81
470.243	124.81
470.462	156.81
470.681	196.81
470.901	148.81
471.12	123.81
471.339	141.81
471.558	170.81
471.777	247.81
471.997	568.81
472.216	2455.81
472.435	5791.81
472.654	1192.81
472.873	259.81
473.092	135.81
473.311	109.81
473.53	117.81
473.749	111.81
473.968	127.81
474.187	158.81
474.406	131.81
474.625	110.81
474.844	110.81
475.063	96.81
475.282	100.81
475.501	98.81
475.72	100.81
475.939	105.81
476.158	104.81
476.377	97.81
476.596	108.81
476.814	120.81
477.033	139.81
477.252	107.81
477.471	105.81
477.69	100.81
477.908	122.81
478.127	114.81
478.346	128.81
478.564	115.81
478.783	124.81
479.002	132.81
479.22	131.81
479.439	164.81
479.658	177.81
479.876	164.81
480.095	170.81
480.313	199.81
480.532	267.81
480.751	531.81
480.969	2139.81
481.188	9597.81
481.406	5345.81
481.624	661.81
481.843	222.81
482.061	131.81
482.28	125.81
482.498	127.81
482.717	115.81
482.935	103.81
483.153	102.81
483.372	109.81
483.59	110.81
483.808	92.81
484.027	110.81
484.245	106.81
484.463	103.81
484.681	104.81
484.9	105.81
485.118	108.81
485.336	109.81
485.554	107.81
485.772	97.81
485.99	118.81
486.209	130.81
486.427	112.81
486.645	144.81
486.863	154.81
487.081	117.81
487.299	119.81
487.517	97.81
487.735	101.81
487.953	110.81
488.171	97.81
488.389	100.81
488.607	113.81
488.825	98.81
489.043	92.81
489.261	88.81
489.479	103.81
489.696	83.81
489.914	94.81
490.132	108.81
490.35	103.81
490.568	103.81
490.786	84.81
491.003	111.81
491.221	121.81
491.439	113.81
491.657	109.81
491.874	102.81
492.092	113.81
492.31	116.81
492.527	119.81
492.745	104.81
492.963	100.81
493.18	95.81
493.398	97.81
493.615	92.81
493.833	97.81
494.05	93.81
494.268	98.81
494.485	84.81
494.703	92.81
494.92	98.81
495.138	98.81
495.355	93.81
495.573	112.81
495.79	94.81
496.008	83.81
496.225	94.81
496.442	117.81
496.66	111.81
496.877	103.81
497.094	91.81
497.312	100.81
497.529	102.81
497.746	94.81
497.963	103.81
498.181	106.81
498.398	108.81
498.615	141.81
498.832	137.81
499.049	108.81
499.267	109.81
499.484	99.81
499.701	106.81
499.918	121.81
500.135	103.81
500.352	94.81
500.569	115.81
500.786	109.81
501.003	93.81
501.22	103.81
501.437	92.81
501.654	115.81
501.871	154.81
502.088	106.81
502.305	93.81
502.522	105.81
502.739	98.81
502.956	89.81
503.172	110.81
503.389	129.81
503.606	152.81
503.823	123.81
504.04	101.81
504.256	94.81
504.473	99.81
504.69	99.81
504.907	102.81
505.123	105.81
505.34	100.81
505.557	94.81
505.773	98.81
505.99	98.81
506.207	94.81
506.423	92.81
506.64	96.81
506.856	91.81
507.073	89.81
507.289	108.81
507.506	137.81
507.722	162.81
507.939	162.81
508.155	127.81
508.372	110.81
508.588	112.81
508.805	101.81
509.021	98.81
509.238	110.81
