Data from Circ_1998_H10_HRD10591_00052.txt Node
Date: Wed Jan 03 11:26:59 EST 2024
User: Yrep
Spectrometer: HR+D1059
Trigger mode: 1
Integration Time (sec): 1.000000E-1
Scans to average: 1
Electric dark correction enabled: true
Nonlinearity correction enabled: false
Boxcar width: 0
XAxis mode: Wavelengths
Number of Pixels in Spectrum: 2048
>>>>>Begin Spectral Data<<<<<
223.165	-10.75
223.4	-10.75
223.635	-10.75
223.869	-34.75
224.104	-10.75
224.338	-12.75
224.573	-23.75
224.808	-11.75
225.042	-1.75
225.277	-4.75
225.511	-0.75
225.746	7.25
225.98	12.25
226.215	11.25
226.449	8.25
226.683	14.25
226.918	23.25
227.152	35.25
227.387	25.25
227.621	26.25
227.856	36.25
228.09	41.25
228.324	59.25
228.559	52.25
228.793	54.25
229.027	58.25
229.262	68.25
229.496	80.25
229.73	97.25
229.964	103.25
230.199	77.25
230.433	76.25
230.667	71.25
230.901	88.25
231.136	76.25
231.37	68.25
231.604	70.25
231.838	83.25
232.072	88.25
232.306	81.25
232.541	71.25
232.775	84.25
233.009	71.25
233.243	80.25
233.477	77.25
233.711	78.25
233.945	66.25
234.179	67.25
234.413	80.25
234.647	90.25
234.881	72.25
235.115	87.25
235.349	80.25
235.583	59.25
235.817	71.25
236.051	60.25
236.285	67.25
236.519	83.25
236.753	93.25
236.987	87.25
237.221	98.25
237.455	100.25
237.689	64.25
237.922	74.25
238.156	77.25
238.39	85.25
238.624	80.25
238.858	68.25
239.091	65.25
239.325	84.25
239.559	82.25
239.793	81.25
240.027	73.25
240.26	80.25
240.494	71.25
240.728	66.25
240.961	74.25
241.195	80.25
241.429	89.25
241.662	75.25
241.896	78.25
242.13	83.25
242.363	72.25
242.597	54.25
242.83	68.25
243.064	73.25
243.298	74.25
243.531	68.25
243.765	70.25
243.998	89.25
244.232	80.25
244.465	76.25
244.699	76.25
244.932	84.25
245.166	61.25
245.399	73.25
245.633	79.25
245.866	83.25
246.099	82.25
246.333	75.25
246.566	70.25
246.8	70.25
247.033	76.25
247.266	89.25
247.5	75.25
247.733	74.25
247.966	69.25
248.2	77.25
248.433	72.25
248.666	73.25
248.899	74.25
249.133	91.25
249.366	103.25
249.599	99.25
249.832	73.25
250.066	89.25
250.299	80.25
250.532	90.25
250.765	78.25
250.998	76.25
251.231	86.25
251.465	87.25
251.698	82.25
251.931	81.25
252.164	73.25
252.397	84.25
252.63	83.25
252.863	78.25
253.096	75.25
253.329	81.25
253.562	77.25
253.795	76.25
254.028	80.25
254.261	86.25
254.494	82.25
254.727	82.25
254.96	91.25
255.193	80.25
255.426	77.25
255.659	85.25
255.892	95.25
256.124	107.25
256.357	92.25
256.59	76.25
256.823	77.25
257.056	81.25
257.289	96.25
257.521	78.25
257.754	84.25
257.987	75.25
258.22	99.25
258.452	103.25
258.685	105.25
258.918	97.25
259.151	86.25
259.383	83.25
259.616	76.25
259.849	83.25
260.081	68.25
260.314	90.25
260.547	78.25
260.779	82.25
261.012	130.25
261.244	117.25
261.477	116.25
261.71	104.25
261.942	130.25
262.175	150.25
262.407	85.25
262.64	92.25
262.872	83.25
263.105	84.25
263.337	76.25
263.57	94.25
263.802	82.25
264.035	82.25
264.267	75.25
264.499	72.25
264.732	86.25
264.964	76.25
265.197	80.25
265.429	80.25
265.661	93.25
265.894	71.25
266.126	75.25
266.358	68.25
266.591	76.25
266.823	76.25
267.055	85.25
267.287	89.25
267.52	66.25
267.752	78.25
267.984	80.25
268.216	74.25
268.448	89.25
268.681	78.25
268.913	83.25
269.145	74.25
269.377	86.25
269.609	92.25
269.841	83.25
270.073	92.25
270.306	45.25
270.538	77.25
270.77	91.25
271.002	88.25
271.234	88.25
271.466	94.25
271.698	82.25
271.93	89.25
272.162	67.25
272.394	84.25
272.626	96.25
272.858	90.25
273.09	68.25
273.322	78.25
273.553	89.25
273.785	85.25
274.017	90.25
274.249	85.25
274.481	80.25
274.713	85.25
274.945	101.25
275.176	96.25
275.408	116.25
275.64	123.25
275.872	146.25
276.104	102.25
276.335	100.25
276.567	113.25
276.799	157.25
277.031	205.25
277.262	258.25
277.494	186.25
277.726	103.25
277.957	92.25
278.189	87.25
278.421	95.25
278.652	77.25
278.884	91.25
279.115	89.25
279.347	92.25
279.579	100.25
279.81	141.25
280.042	257.25
280.273	364.25
280.505	228.25
280.736	106.25
280.968	104.25
281.199	98.25
281.431	91.25
281.662	82.25
281.894	87.25
282.125	90.25
282.356	149.25
282.588	197.25
282.819	136.25
283.051	88.25
283.282	92.25
283.513	95.25
283.745	91.25
283.976	84.25
284.207	69.25
284.439	85.25
284.67	85.25
284.901	79.25
285.132	89.25
285.364	70.25
285.595	80.25
285.826	84.25
286.057	95.25
286.288	71.25
286.52	85.25
286.751	88.25
286.982	84.25
287.213	70.25
287.444	94.25
287.675	91.25
287.906	92.25
288.138	86.25
288.369	87.25
288.6	86.25
288.831	83.25
289.062	64.25
289.293	95.25
289.524	88.25
289.755	89.25
289.986	80.25
290.217	76.25
290.448	85.25
290.679	89.25
290.91	75.25
291.141	86.25
291.371	72.25
291.602	92.25
291.833	85.25
292.064	89.25
292.295	81.25
292.526	87.25
292.757	82.25
292.987	88.25
293.218	75.25
293.449	84.25
293.68	82.25
293.91	91.25
294.141	88.25
294.372	83.25
294.603	106.25
294.833	92.25
295.064	98.25
295.295	89.25
295.525	84.25
295.756	108.25
295.987	135.25
296.217	187.25
296.448	154.25
296.679	88.25
296.909	79.25
297.14	84.25
297.37	83.25
297.601	73.25
297.831	85.25
298.062	96.25
298.292	110.25
298.523	96.25
298.753	88.25
298.984	83.25
299.214	98.25
299.445	84.25
299.675	89.25
299.905	84.25
300.136	92.25
300.366	98.25
300.597	92.25
300.827	97.25
301.057	103.25
301.288	105.25
301.518	97.25
301.748	110.25
301.979	128.25
302.209	98.25
302.439	90.25
302.669	80.25
302.9	88.25
303.13	87.25
303.36	113.25
303.59	149.25
303.82	168.25
304.051	113.25
304.281	92.25
304.511	92.25
304.741	89.25
304.971	83.25
305.201	82.25
305.431	101.25
305.661	92.25
305.891	101.25
306.121	109.25
306.352	100.25
306.582	112.25
306.812	105.25
307.042	144.25
307.272	202.25
307.502	238.25
307.731	220.25
307.961	145.25
308.191	104.25
308.421	90.25
308.651	85.25
308.881	81.25
309.111	88.25
309.341	88.25
309.571	105.25
309.8	102.25
310.03	120.25
310.26	117.25
310.49	96.25
310.72	94.25
310.949	115.25
311.179	121.25
311.409	104.25
311.639	99.25
311.868	112.25
312.098	92.25
312.328	113.25
312.557	113.25
312.787	131.25
313.017	111.25
313.246	101.25
313.476	89.25
313.706	97.25
313.935	95.25
314.165	109.25
314.394	124.25
314.624	112.25
314.853	103.25
315.083	98.25
315.312	93.25
315.542	84.25
315.771	87.25
316.001	100.25
316.23	91.25
316.46	90.25
316.689	90.25
316.919	88.25
317.148	94.25
317.377	101.25
317.607	104.25
317.836	104.25
318.065	87.25
318.295	104.25
318.524	90.25
318.753	95.25
318.983	83.25
319.212	118.25
319.441	121.25
319.67	115.25
319.9	99.25
320.129	94.25
320.358	96.25
320.587	96.25
320.816	89.25
321.046	105.25
321.275	120.25
321.504	87.25
321.733	100.25
321.962	110.25
322.191	117.25
322.42	123.25
322.649	140.25
322.878	120.25
323.108	144.25
323.337	159.25
323.566	164.25
323.795	213.25
324.024	291.25
324.253	612.25
324.482	1353.25
324.71	2952.25
324.939	3882.25
325.168	1365.25
325.397	361.25
325.626	190.25
325.855	165.25
326.084	154.25
326.313	150.25
326.542	193.25
326.77	318.25
326.999	682.25
327.228	1482.25
327.457	2823.25
327.686	2220.25
327.914	749.25
328.143	764.25
328.372	992.25
328.6	527.25
328.829	228.25
329.058	228.25
329.287	245.25
329.515	228.25
329.744	353.25
329.972	720.25
330.201	1521.25
330.43	2304.25
330.658	958.25
330.887	381.25
331.115	240.25
331.344	136.25
331.572	142.25
331.801	144.25
332.03	139.25
332.258	115.25
332.486	110.25
332.715	114.25
332.943	119.25
333.172	128.25
333.4	158.25
333.629	201.25
333.857	294.25
334.085	658.25
334.314	1437.25
334.542	2928.25
334.771	2630.25
334.999	641.25
335.227	220.25
335.455	147.25
335.684	120.25
335.912	112.25
336.14	109.25
336.369	111.25
336.597	116.25
336.825	104.25
337.053	107.25
337.281	87.25
337.51	84.25
337.738	102.25
337.966	94.25
338.194	114.25
338.422	100.25
338.65	98.25
338.878	91.25
339.106	92.25
339.334	92.25
339.562	97.25
339.79	104.25
340.018	92.25
340.246	93.25
340.474	110.25
340.702	102.25
340.93	90.25
341.158	90.25
341.386	103.25
341.614	110.25
341.842	94.25
342.07	110.25
342.298	97.25
342.526	88.25
342.754	83.25
342.981	81.25
343.209	92.25
343.437	101.25
343.665	82.25
343.893	78.25
344.12	94.25
344.348	87.25
344.576	84.25
344.804	98.25
345.031	117.25
345.259	114.25
345.487	103.25
345.714	103.25
345.942	93.25
346.17	91.25
346.397	102.25
346.625	99.25
346.853	96.25
347.08	95.25
347.308	103.25
347.535	116.25
347.763	124.25
347.99	111.25
348.218	106.25
348.445	97.25
348.673	105.25
348.9	93.25
349.128	84.25
349.355	97.25
349.583	101.25
349.81	95.25
350.037	104.25
350.265	100.25
350.492	93.25
350.72	90.25
350.947	114.25
351.174	124.25
351.402	121.25
351.629	105.25
351.856	106.25
352.083	121.25
352.311	116.25
352.538	130.25
352.765	125.25
352.992	122.25
353.22	102.25
353.447	108.25
353.674	98.25
353.901	91.25
354.128	93.25
354.355	96.25
354.583	94.25
354.81	90.25
355.037	88.25
355.264	81.25
355.491	87.25
355.718	88.25
355.945	90.25
356.172	91.25
356.399	96.25
356.626	92.25
356.853	86.25
357.08	92.25
357.307	85.25
357.534	92.25
357.761	95.25
357.988	76.25
358.215	91.25
358.441	95.25
358.668	76.25
358.895	81.25
359.122	66.25
359.349	87.25
359.576	91.25
359.802	104.25
360.029	146.25
360.256	147.25
360.483	122.25
360.709	87.25
360.936	82.25
361.163	100.25
361.39	109.25
361.616	97.25
361.843	96.25
362.07	90.25
362.296	109.25
362.523	100.25
362.749	92.25
362.976	89.25
363.203	89.25
363.429	73.25
363.656	91.25
363.882	77.25
364.109	96.25
364.335	101.25
364.562	80.25
364.788	81.25
365.015	102.25
365.241	99.25
365.468	117.25
365.694	116.25
365.92	92.25
366.147	97.25
366.373	90.25
366.599	85.25
366.826	81.25
367.052	81.25
367.278	94.25
367.505	84.25
367.731	102.25
367.957	101.25
368.184	86.25
368.41	107.25
368.636	128.25
368.862	127.25
369.089	124.25
369.315	83.25
369.541	91.25
369.767	98.25
369.993	98.25
370.219	84.25
370.445	98.25
370.672	88.25
370.898	91.25
371.124	88.25
371.35	85.25
371.576	93.25
371.802	97.25
372.028	78.25
372.254	81.25
372.48	88.25
372.706	94.25
372.932	80.25
373.158	89.25
373.384	69.25
373.61	85.25
373.835	90.25
374.061	96.25
374.287	91.25
374.513	86.25
374.739	84.25
374.965	68.25
375.191	86.25
375.416	83.25
375.642	78.25
375.868	91.25
376.094	78.25
376.319	73.25
376.545	79.25
376.771	101.25
376.997	88.25
377.222	84.25
377.448	93.25
377.674	82.25
377.899	75.25
378.125	79.25
378.35	88.25
378.576	89.25
378.802	98.25
379.027	91.25
379.253	83.25
379.478	88.25
379.704	77.25
379.929	90.25
380.155	87.25
380.38	77.25
380.606	92.25
380.831	78.25
381.057	85.25
381.282	92.25
381.507	85.25
381.733	85.25
381.958	92.25
382.184	99.25
382.409	84.25
382.634	75.25
382.86	108.25
383.085	86.25
383.31	106.25
383.535	100.25
383.761	85.25
383.986	89.25
384.211	107.25
384.436	75.25
384.662	86.25
384.887	97.25
385.112	100.25
385.337	85.25
385.562	124.25
385.787	89.25
386.013	119.25
386.238	136.25
386.463	102.25
386.688	105.25
386.913	104.25
387.138	102.25
387.363	100.25
387.588	108.25
387.813	104.25
388.038	103.25
388.263	102.25
388.488	96.25
388.713	81.25
388.938	73.25
389.163	103.25
389.387	94.25
389.612	80.25
389.837	82.25
390.062	89.25
390.287	74.25
390.512	91.25
390.736	93.25
390.961	83.25
391.186	95.25
391.411	85.25
391.636	86.25
391.86	85.25
392.085	77.25
392.31	73.25
392.534	90.25
392.759	77.25
392.984	68.25
393.208	77.25
393.433	74.25
393.658	91.25
393.882	66.25
394.107	78.25
394.331	68.25
394.556	80.25
394.78	82.25
395.005	96.25
395.229	91.25
395.454	84.25
395.678	86.25
395.903	85.25
396.127	76.25
396.352	98.25
396.576	84.25
396.801	93.25
397.025	78.25
397.249	91.25
397.474	83.25
397.698	86.25
397.922	86.25
398.147	73.25
398.371	70.25
398.595	89.25
398.82	90.25
399.044	80.25
399.268	86.25
399.492	68.25
399.717	94.25
399.941	96.25
400.165	114.25
400.389	92.25
400.613	82.25
400.837	89.25
401.062	77.25
401.286	98.25
401.51	93.25
401.734	92.25
401.958	104.25
402.182	169.25
402.406	221.25
402.63	157.25
402.854	103.25
403.078	98.25
403.302	81.25
403.526	78.25
403.75	87.25
403.974	72.25
404.198	77.25
404.422	89.25
404.645	90.25
404.869	102.25
405.093	134.25
405.317	162.25
405.541	152.25
405.765	123.25
405.988	145.25
406.212	230.25
406.436	363.25
406.66	243.25
406.883	125.25
407.107	104.25
407.331	94.25
407.555	108.25
407.778	89.25
408.002	77.25
408.226	86.25
408.449	88.25
408.673	102.25
408.896	90.25
409.12	101.25
409.344	80.25
409.567	83.25
409.791	102.25
410.014	90.25
410.238	85.25
410.461	95.25
410.685	88.25
410.908	102.25
411.132	99.25
411.355	92.25
411.578	88.25
411.802	80.25
412.025	83.25
412.249	108.25
412.472	128.25
412.695	146.25
412.919	123.25
413.142	91.25
413.365	92.25
413.589	90.25
413.812	90.25
414.035	83.25
414.258	105.25
414.482	92.25
414.705	89.25
414.928	96.25
415.151	76.25
415.374	101.25
415.597	81.25
415.821	86.25
416.044	87.25
416.267	90.25
416.49	85.25
416.713	91.25
416.936	85.25
417.159	77.25
417.382	101.25
417.605	125.25
417.828	113.25
418.051	108.25
418.274	86.25
418.497	86.25
418.72	68.25
418.943	88.25
419.166	84.25
419.389	91.25
419.611	99.25
419.834	85.25
420.057	80.25
420.28	102.25
420.503	97.25
420.726	84.25
420.948	103.25
421.171	106.25
421.394	93.25
421.617	81.25
421.839	84.25
422.062	66.25
422.285	87.25
422.507	92.25
422.73	109.25
422.953	87.25
423.175	83.25
423.398	91.25
423.621	94.25
423.843	96.25
424.066	92.25
424.288	84.25
424.511	84.25
424.733	104.25
424.956	119.25
425.178	101.25
425.401	94.25
425.623	105.25
425.846	94.25
426.068	103.25
426.291	88.25
426.513	105.25
426.735	100.25
426.958	105.25
427.18	132.25
427.402	200.25
427.625	317.25
427.847	315.25
428.069	279.25
428.292	147.25
428.514	108.25
428.736	111.25
428.958	81.25
429.181	89.25
429.403	80.25
429.625	97.25
429.847	80.25
430.069	119.25
430.292	101.25
430.514	78.25
430.736	76.25
430.958	66.25
431.18	82.25
431.402	68.25
431.624	82.25
431.846	95.25
432.068	83.25
432.29	81.25
432.512	88.25
432.734	78.25
432.956	105.25
433.178	97.25
433.4	116.25
433.622	95.25
433.844	94.25
434.066	96.25
434.287	98.25
434.509	101.25
434.731	84.25
434.953	76.25
435.175	86.25
435.397	104.25
435.618	95.25
435.84	130.25
436.062	157.25
436.284	144.25
436.505	118.25
436.727	118.25
436.949	75.25
437.17	85.25
437.392	82.25
437.614	106.25
437.835	128.25
438.057	164.25
438.278	151.25
438.5	126.25
438.721	152.25
438.943	106.25
439.165	79.25
439.386	79.25
439.608	86.25
439.829	116.25
440.05	167.25
440.272	227.25
440.493	106.25
440.715	97.25
440.936	92.25
441.158	100.25
441.379	93.25
441.6	99.25
441.822	103.25
442.043	99.25
442.264	117.25
442.486	118.25
442.707	110.25
442.928	129.25
443.149	200.25
443.371	198.25
443.592	152.25
443.813	150.25
444.034	131.25
444.255	100.25
444.476	93.25
444.698	84.25
444.919	92.25
445.14	122.25
445.361	128.25
445.582	157.25
445.803	209.25
446.024	201.25
446.245	188.25
446.466	140.25
446.687	93.25
446.908	91.25
447.129	107.25
447.35	91.25
447.571	97.25
447.792	102.25
448.013	121.25
448.234	117.25
448.455	111.25
448.675	135.25
448.896	138.25
449.117	109.25
449.338	104.25
449.559	154.25
449.779	157.25
450	117.25
450.221	88.25
450.442	94.25
450.662	106.25
450.883	137.25
451.104	154.25
451.324	105.25
451.545	76.25
451.766	90.25
451.986	89.25
452.207	92.25
452.428	93.25
452.648	103.25
452.869	125.25
453.089	156.25
453.31	140.25
453.53	122.25
453.751	101.25
453.971	129.25
454.192	152.25
454.412	107.25
454.633	92.25
454.853	94.25
455.073	81.25
455.294	88.25
455.514	105.25
455.734	97.25
455.955	86.25
456.175	77.25
456.395	77.25
456.616	78.25
456.836	84.25
457.056	77.25
457.276	82.25
457.497	79.25
457.717	91.25
457.937	102.25
458.157	101.25
458.377	94.25
458.598	129.25
458.818	244.25
459.038	264.25
459.258	166.25
459.478	100.25
459.698	100.25
459.918	89.25
460.138	86.25
460.358	59.25
460.578	92.25
460.798	94.25
461.018	92.25
461.238	85.25
461.458	94.25
461.678	75.25
461.898	81.25
462.118	92.25
462.338	90.25
462.558	86.25
462.777	92.25
462.997	102.25
463.217	123.25
463.437	99.25
463.657	115.25
463.876	78.25
464.096	95.25
464.316	106.25
464.536	97.25
464.755	115.25
464.975	134.25
465.195	278.25
465.414	252.25
465.634	104.25
465.854	88.25
466.073	84.25
466.293	94.25
466.512	101.25
466.732	72.25
466.951	91.25
467.171	107.25
467.391	110.25
467.61	166.25
467.829	288.25
468.049	849.25
468.268	1330.25
468.488	313.25
468.707	106.25
468.927	92.25
469.146	104.25
469.365	113.25
469.585	104.25
469.804	108.25
470.023	124.25
470.243	111.25
470.462	128.25
470.681	152.25
470.901	107.25
471.12	117.25
471.339	113.25
471.558	154.25
471.777	184.25
471.997	434.25
472.216	1710.25
472.435	4081.25
472.654	873.25
472.873	214.25
473.092	115.25
473.311	96.25
473.53	89.25
473.749	77.25
473.968	98.25
474.187	123.25
474.406	114.25
474.625	92.25
474.844	86.25
475.063	83.25
475.282	89.25
475.501	101.25
475.72	88.25
475.939	98.25
476.158	75.25
476.377	99.25
476.596	94.25
476.814	102.25
477.033	106.25
477.252	94.25
477.471	74.25
477.69	88.25
477.908	88.25
478.127	87.25
478.346	98.25
478.564	109.25
478.783	123.25
479.002	121.25
479.22	111.25
479.439	122.25
479.658	153.25
479.876	147.25
480.095	146.25
480.313	158.25
480.532	188.25
480.751	385.25
480.969	1576.25
481.188	6946.25
481.406	3907.25
481.624	508.25
481.843	181.25
482.061	133.25
482.28	102.25
482.498	96.25
482.717	94.25
482.935	100.25
483.153	86.25
483.372	101.25
483.59	93.25
483.808	87.25
484.027	88.25
484.245	85.25
484.463	93.25
484.681	84.25
484.9	101.25
485.118	103.25
485.336	90.25
485.554	99.25
485.772	96.25
485.99	106.25
486.209	102.25
486.427	114.25
486.645	132.25
486.863	144.25
487.081	90.25
487.299	93.25
487.517	97.25
487.735	84.25
487.953	96.25
488.171	81.25
488.389	98.25
488.607	85.25
488.825	87.25
489.043	80.25
489.261	93.25
489.479	95.25
489.696	74.25
489.914	94.25
490.132	101.25
490.35	72.25
490.568	94.25
490.786	84.25
491.003	76.25
491.221	91.25
491.439	98.25
491.657	88.25
491.874	98.25
492.092	93.25
492.31	98.25
492.527	107.25
492.745	98.25
492.963	92.25
493.18	94.25
493.398	79.25
493.615	99.25
493.833	106.25
494.05	88.25
494.268	92.25
494.485	93.25
494.703	78.25
494.92	89.25
495.138	91.25
495.355	91.25
495.573	88.25
495.79	91.25
496.008	96.25
496.225	94.25
496.442	97.25
496.66	98.25
496.877	92.25
497.094	90.25
497.312	89.25
497.529	91.25
497.746	95.25
497.963	84.25
498.181	86.25
498.398	101.25
498.615	107.25
498.832	125.25
499.049	98.25
499.267	79.25
499.484	80.25
499.701	86.25
499.918	87.25
500.135	77.25
500.352	86.25
500.569	100.25
500.786	89.25
501.003	83.25
501.22	78.25
501.437	78.25
501.654	101.25
501.871	133.25
502.088	96.25
502.305	87.25
502.522	93.25
502.739	88.25
502.956	86.25
503.172	98.25
503.389	112.25
503.606	113.25
503.823	126.25
504.04	89.25
504.256	88.25
504.473	87.25
504.69	84.25
504.907	97.25
505.123	92.25
505.34	96.25
505.557	84.25
505.773	89.25
505.99	98.25
506.207	92.25
506.423	79.25
506.64	74.25
506.856	86.25
507.073	88.25
507.289	92.25
507.506	113.25
507.722	149.25
507.939	140.25
508.155	91.25
508.372	104.25
508.588	95.25
508.805	108.25
509.021	99.25
509.238	122.25
509.454	104.25
509.67	106.25
509.887	118.25
510.103	165.25
510.319	280.25
510.536	1088.25
510.752	3854.25
510.968	1004.25
511.184	209.25
511.401	144.25
511.617	106.25
511.833	123.25
512.049	108.25
512.265	105.25
512.481	99.25
512.698	90.25
512.914	93.25
513.13	98.25
513.346	88.25
