Data from Circ_1998_H10_HRD10591_00007.txt Node
Date: Wed Jan 03 11:26:50 EST 2024
User: Yrep
Spectrometer: HR+D1059
Trigger mode: 1
Integration Time (sec): 1.000000E-1
Scans to average: 1
Electric dark correction enabled: true
Nonlinearity correction enabled: false
Boxcar width: 0
XAxis mode: Wavelengths
Number of Pixels in Spectrum: 2048
>>>>>Begin Spectral Data<<<<<
223.165	-5.69
223.4	-5.69
223.635	-5.69
223.869	-16.69
224.104	-11.69
224.338	-2.69
224.573	-5.69
224.808	-26.69
225.042	-3.69
225.277	-17.69
225.511	9.31
225.746	2.31
225.98	-6.69
226.215	18.31
226.449	14.31
226.683	5.31
226.918	27.31
227.152	20.31
227.387	31.31
227.621	49.31
227.856	57.31
228.09	59.31
228.324	62.31
228.559	61.31
228.793	65.31
229.027	63.31
229.262	58.31
229.496	77.31
229.73	107.31
229.964	83.31
230.199	95.31
230.433	77.31
230.667	87.31
230.901	81.31
231.136	85.31
231.37	81.31
231.604	92.31
231.838	101.31
232.072	93.31
232.306	81.31
232.541	92.31
232.775	92.31
233.009	85.31
233.243	86.31
233.477	83.31
233.711	86.31
233.945	69.31
234.179	82.31
234.413	82.31
234.647	83.31
234.881	90.31
235.115	89.31
235.349	89.31
235.583	87.31
235.817	77.31
236.051	88.31
236.285	84.31
236.519	92.31
236.753	78.31
236.987	93.31
237.221	100.31
237.455	94.31
237.689	79.31
237.922	77.31
238.156	87.31
238.39	78.31
238.624	97.31
238.858	80.31
239.091	81.31
239.325	71.31
239.559	95.31
239.793	82.31
240.027	97.31
240.26	88.31
240.494	78.31
240.728	71.31
240.961	96.31
241.195	78.31
241.429	90.31
241.662	82.31
241.896	82.31
242.13	87.31
242.363	89.31
242.597	77.31
242.83	91.31
243.064	87.31
243.298	86.31
243.531	81.31
243.765	95.31
243.998	70.31
244.232	89.31
244.465	89.31
244.699	78.31
244.932	82.31
245.166	86.31
245.399	81.31
245.633	70.31
245.866	81.31
246.099	75.31
246.333	70.31
246.566	76.31
246.8	86.31
247.033	91.31
247.266	78.31
247.5	78.31
247.733	81.31
247.966	84.31
248.2	84.31
248.433	92.31
248.666	83.31
248.899	96.31
249.133	82.31
249.366	109.31
249.599	111.31
249.832	111.31
250.066	80.31
250.299	89.31
250.532	96.31
250.765	85.31
250.998	89.31
251.231	94.31
251.465	82.31
251.698	73.31
251.931	83.31
252.164	87.31
252.397	87.31
252.63	80.31
252.863	85.31
253.096	91.31
253.329	80.31
253.562	81.31
253.795	82.31
254.028	88.31
254.261	90.31
254.494	107.31
254.727	91.31
254.96	82.31
255.193	81.31
255.426	91.31
255.659	76.31
255.892	92.31
256.124	113.31
256.357	102.31
256.59	100.31
256.823	81.31
257.056	84.31
257.289	89.31
257.521	95.31
257.754	94.31
257.987	80.31
258.22	98.31
258.452	101.31
258.685	94.31
258.918	84.31
259.151	99.31
259.383	80.31
259.616	83.31
259.849	80.31
260.081	97.31
260.314	87.31
260.547	94.31
260.779	84.31
261.012	118.31
261.244	109.31
261.477	102.31
261.71	107.31
261.942	129.31
262.175	149.31
262.407	93.31
262.64	83.31
262.872	87.31
263.105	85.31
263.337	102.31
263.57	67.31
263.802	83.31
264.035	86.31
264.267	74.31
264.499	90.31
264.732	86.31
264.964	85.31
265.197	82.31
265.429	91.31
265.661	83.31
265.894	83.31
266.126	88.31
266.358	103.31
266.591	91.31
266.823	83.31
267.055	81.31
267.287	85.31
267.52	105.31
267.752	90.31
267.984	93.31
268.216	90.31
268.448	90.31
268.681	106.31
268.913	96.31
269.145	99.31
269.377	96.31
269.609	87.31
269.841	85.31
270.073	93.31
270.306	87.31
270.538	97.31
270.77	82.31
271.002	100.31
271.234	93.31
271.466	103.31
271.698	101.31
271.93	97.31
272.162	95.31
272.394	96.31
272.626	96.31
272.858	99.31
273.09	80.31
273.322	87.31
273.553	81.31
273.785	92.31
274.017	89.31
274.249	100.31
274.481	94.31
274.713	79.31
274.945	90.31
275.176	82.31
275.408	108.31
275.64	120.31
275.872	134.31
276.104	101.31
276.335	109.31
276.567	129.31
276.799	151.31
277.031	167.31
277.262	196.31
277.494	145.31
277.726	98.31
277.957	105.31
278.189	97.31
278.421	96.31
278.652	92.31
278.884	94.31
279.115	94.31
279.347	101.31
279.579	100.31
279.81	120.31
280.042	166.31
280.273	236.31
280.505	161.31
280.736	102.31
280.968	90.31
281.199	84.31
281.431	97.31
281.662	101.31
281.894	114.31
282.125	117.31
282.356	155.31
282.588	188.31
282.819	139.31
283.051	108.31
283.282	105.31
283.513	87.31
283.745	97.31
283.976	96.31
284.207	78.31
284.439	93.31
284.67	92.31
284.901	85.31
285.132	85.31
285.364	88.31
285.595	89.31
285.826	91.31
286.057	101.31
286.288	95.31
286.52	89.31
286.751	88.31
286.982	95.31
287.213	91.31
287.444	92.31
287.675	82.31
287.906	103.31
288.138	106.31
288.369	113.31
288.6	96.31
288.831	93.31
289.062	93.31
289.293	98.31
289.524	93.31
289.755	98.31
289.986	89.31
290.217	81.31
290.448	91.31
290.679	89.31
290.91	103.31
291.141	90.31
291.371	91.31
291.602	99.31
291.833	92.31
292.064	102.31
292.295	98.31
292.526	97.31
292.757	102.31
292.987	83.31
293.218	89.31
293.449	108.31
293.68	92.31
293.91	79.31
294.141	85.31
294.372	98.31
294.603	86.31
294.833	100.31
295.064	104.31
295.295	90.31
295.525	86.31
295.756	109.31
295.987	137.31
296.217	189.31
296.448	157.31
296.679	116.31
296.909	98.31
297.14	93.31
297.37	88.31
297.601	88.31
297.831	86.31
298.062	100.31
298.292	103.31
298.523	102.31
298.753	109.31
298.984	80.31
299.214	103.31
299.445	105.31
299.675	97.31
299.905	116.31
300.136	98.31
300.366	87.31
300.597	90.31
300.827	106.31
301.057	113.31
301.288	135.31
301.518	112.31
301.748	106.31
301.979	110.31
302.209	104.31
302.439	104.31
302.669	103.31
302.9	97.31
303.13	103.31
303.36	115.31
303.59	145.31
303.82	141.31
304.051	110.31
304.281	109.31
304.511	89.31
304.741	94.31
304.971	100.31
305.201	114.31
305.431	101.31
305.661	105.31
305.891	103.31
306.121	89.31
306.352	102.31
306.582	108.31
306.812	118.31
307.042	125.31
307.272	162.31
307.502	174.31
307.731	156.31
307.961	133.31
308.191	112.31
308.421	94.31
308.651	97.31
308.881	98.31
309.111	98.31
309.341	111.31
309.571	98.31
309.8	104.31
310.03	97.31
310.26	101.31
310.49	116.31
310.72	111.31
310.949	130.31
311.179	121.31
311.409	102.31
311.639	100.31
311.868	91.31
312.098	103.31
312.328	97.31
312.557	133.31
312.787	138.31
313.017	111.31
313.246	121.31
313.476	116.31
313.706	106.31
313.935	107.31
314.165	111.31
314.394	125.31
314.624	119.31
314.853	103.31
315.083	110.31
315.312	109.31
315.542	89.31
315.771	102.31
316.001	98.31
316.23	91.31
316.46	94.31
316.689	97.31
316.919	103.31
317.148	104.31
317.377	97.31
317.607	101.31
317.836	107.31
318.065	93.31
318.295	95.31
318.524	97.31
318.753	102.31
318.983	98.31
319.212	110.31
319.441	118.31
319.67	128.31
319.9	92.31
320.129	106.31
320.358	95.31
320.587	99.31
320.816	114.31
321.046	115.31
321.275	113.31
321.504	101.31
321.733	102.31
321.962	116.31
322.191	127.31
322.42	138.31
322.649	142.31
322.878	117.31
323.108	137.31
323.337	145.31
323.566	159.31
323.795	205.31
324.024	263.31
324.253	534.31
324.482	1221.31
324.71	2542.31
324.939	3384.31
325.168	1193.31
325.397	345.31
325.626	193.31
325.855	171.31
326.084	160.31
326.313	158.31
326.542	197.31
326.77	309.31
326.999	631.31
327.228	1307.31
327.457	2481.31
327.686	1966.31
327.914	623.31
328.143	483.31
328.372	624.31
328.6	367.31
328.829	188.31
329.058	191.31
329.287	194.31
329.515	196.31
329.744	229.31
329.972	448.31
330.201	865.31
330.43	1306.31
330.658	595.31
330.887	291.31
331.115	195.31
331.344	137.31
331.572	115.31
331.801	119.31
332.03	139.31
332.258	117.31
332.486	93.31
332.715	101.31
332.943	109.31
333.172	123.31
333.4	141.31
333.629	173.31
333.857	229.31
334.085	412.31
334.314	839.31
334.542	1635.31
334.771	1509.31
334.999	399.31
335.227	175.31
335.455	139.31
335.684	129.31
335.912	115.31
336.14	116.31
336.369	121.31
336.597	119.31
336.825	102.31
337.053	118.31
337.281	106.31
337.51	96.31
337.738	101.31
337.966	105.31
338.194	108.31
338.422	121.31
338.65	110.31
338.878	103.31
339.106	118.31
339.334	95.31
339.562	102.31
339.79	95.31
340.018	97.31
340.246	97.31
340.474	108.31
340.702	93.31
340.93	102.31
341.158	94.31
341.386	106.31
341.614	106.31
341.842	103.31
342.07	95.31
342.298	109.31
342.526	105.31
342.754	93.31
342.981	106.31
343.209	96.31
343.437	97.31
343.665	92.31
343.893	93.31
344.12	101.31
344.348	76.31
344.576	97.31
344.804	99.31
345.031	105.31
345.259	115.31
345.487	101.31
345.714	102.31
345.942	93.31
346.17	93.31
346.397	103.31
346.625	104.31
346.853	97.31
347.08	95.31
347.308	112.31
347.535	106.31
347.763	94.31
347.99	105.31
348.218	107.31
348.445	112.31
348.673	111.31
348.9	106.31
349.128	93.31
349.355	100.31
349.583	92.31
349.81	102.31
350.037	110.31
350.265	107.31
350.492	90.31
350.72	108.31
350.947	117.31
351.174	110.31
351.402	113.31
351.629	126.31
351.856	107.31
352.083	110.31
352.311	124.31
352.538	130.31
352.765	130.31
352.992	119.31
353.22	133.31
353.447	126.31
353.674	104.31
353.901	103.31
354.128	93.31
354.355	99.31
354.583	100.31
354.81	111.31
355.037	98.31
355.264	113.31
355.491	100.31
355.718	102.31
355.945	106.31
356.172	107.31
356.399	98.31
356.626	107.31
356.853	93.31
357.08	85.31
357.307	101.31
357.534	94.31
357.761	97.31
357.988	98.31
358.215	100.31
358.441	114.31
358.668	101.31
358.895	97.31
359.122	103.31
359.349	100.31
359.576	101.31
359.802	111.31
360.029	163.31
360.256	148.31
360.483	134.31
360.709	88.31
360.936	98.31
361.163	101.31
361.39	115.31
361.616	110.31
361.843	94.31
362.07	86.31
362.296	102.31
362.523	113.31
362.749	97.31
362.976	102.31
363.203	101.31
363.429	91.31
363.656	97.31
363.882	96.31
364.109	112.31
364.335	100.31
364.562	109.31
364.788	105.31
365.015	109.31
365.241	111.31
365.468	125.31
365.694	110.31
365.92	102.31
366.147	107.31
366.373	103.31
366.599	105.31
366.826	98.31
367.052	87.31
367.278	93.31
367.505	111.31
367.731	113.31
367.957	96.31
368.184	100.31
368.41	112.31
368.636	129.31
368.862	130.31
369.089	124.31
369.315	105.31
369.541	89.31
369.767	87.31
369.993	100.31
370.219	99.31
370.445	102.31
370.672	100.31
370.898	84.31
371.124	86.31
371.35	91.31
371.576	89.31
371.802	77.31
372.028	111.31
372.254	82.31
372.48	98.31
372.706	85.31
372.932	87.31
373.158	80.31
373.384	94.31
373.61	85.31
373.835	100.31
374.061	103.31
374.287	101.31
374.513	89.31
374.739	98.31
374.965	103.31
375.191	94.31
375.416	98.31
375.642	105.31
375.868	95.31
376.094	108.31
376.319	99.31
376.545	81.31
376.771	95.31
376.997	79.31
377.222	109.31
377.448	100.31
377.674	95.31
377.899	111.31
378.125	102.31
378.35	88.31
378.576	89.31
378.802	101.31
379.027	111.31
379.253	107.31
379.478	90.31
379.704	101.31
379.929	101.31
380.155	111.31
380.38	107.31
380.606	113.31
380.831	93.31
381.057	100.31
381.282	100.31
381.507	114.31
381.733	121.31
381.958	94.31
382.184	124.31
382.409	114.31
382.634	125.31
382.86	111.31
383.085	119.31
383.31	128.31
383.535	106.31
383.761	120.31
383.986	113.31
384.211	110.31
384.436	118.31
384.662	124.31
384.887	129.31
385.112	129.31
385.337	129.31
385.562	111.31
385.787	125.31
386.013	146.31
386.238	149.31
386.463	151.31
386.688	139.31
386.913	133.31
387.138	132.31
387.363	123.31
387.588	106.31
387.813	109.31
388.038	135.31
388.263	150.31
388.488	134.31
388.713	98.31
388.938	102.31
389.163	106.31
389.387	105.31
389.612	105.31
389.837	91.31
390.062	103.31
390.287	90.31
390.512	85.31
390.736	96.31
390.961	108.31
391.186	101.31
391.411	95.31
391.636	93.31
391.86	102.31
392.085	86.31
392.31	100.31
392.534	92.31
392.759	95.31
392.984	100.31
393.208	85.31
393.433	105.31
393.658	115.31
393.882	85.31
394.107	99.31
394.331	105.31
394.556	97.31
394.78	90.31
395.005	91.31
395.229	87.31
395.454	83.31
395.678	93.31
395.903	98.31
396.127	89.31
396.352	90.31
396.576	101.31
396.801	97.31
397.025	102.31
397.249	93.31
397.474	96.31
397.698	86.31
397.922	99.31
398.147	90.31
398.371	80.31
398.595	77.31
398.82	81.31
399.044	74.31
399.268	87.31
399.492	99.31
399.717	85.31
399.941	90.31
400.165	105.31
400.389	96.31
400.613	90.31
400.837	92.31
401.062	74.31
401.286	96.31
401.51	98.31
401.734	103.31
401.958	90.31
402.182	140.31
402.406	186.31
402.63	141.31
402.854	111.31
403.078	100.31
403.302	88.31
403.526	97.31
403.75	96.31
403.974	97.31
404.198	94.31
404.422	86.31
404.645	99.31
404.869	110.31
405.093	115.31
405.317	153.31
405.541	149.31
405.765	123.31
405.988	137.31
406.212	227.31
406.436	326.31
406.66	202.31
406.883	113.31
407.107	103.31
407.331	101.31
407.555	108.31
407.778	125.31
408.002	107.31
408.226	87.31
408.449	69.31
408.673	95.31
408.896	111.31
409.12	106.31
409.344	105.31
409.567	86.31
409.791	95.31
410.014	101.31
410.238	107.31
410.461	90.31
410.685	107.31
410.908	106.31
411.132	109.31
411.355	102.31
411.578	97.31
411.802	90.31
412.025	93.31
412.249	98.31
412.472	129.31
412.695	131.31
412.919	111.31
413.142	101.31
413.365	99.31
413.589	89.31
413.812	83.31
414.035	107.31
414.258	89.31
414.482	95.31
414.705	93.31
414.928	86.31
415.151	95.31
415.374	96.31
415.597	101.31
415.821	105.31
416.044	110.31
416.267	106.31
416.49	93.31
416.713	98.31
416.936	101.31
417.159	103.31
417.382	106.31
417.605	90.31
417.828	98.31
418.051	108.31
418.274	95.31
418.497	81.31
418.72	95.31
418.943	97.31
419.166	87.31
419.389	97.31
419.611	104.31
419.834	102.31
420.057	98.31
420.28	98.31
420.503	103.31
420.726	91.31
420.948	99.31
421.171	120.31
421.394	107.31
421.617	120.31
421.839	101.31
422.062	90.31
422.285	112.31
422.507	108.31
422.73	132.31
422.953	125.31
423.175	97.31
423.398	93.31
423.621	94.31
423.843	90.31
424.066	82.31
424.288	95.31
424.511	91.31
424.733	102.31
424.956	133.31
425.178	109.31
425.401	122.31
425.623	122.31
425.846	103.31
426.068	107.31
426.291	99.31
426.513	101.31
426.735	98.31
426.958	101.31
427.18	133.31
427.402	188.31
427.625	266.31
427.847	248.31
428.069	222.31
428.292	147.31
428.514	99.31
428.736	89.31
428.958	92.31
429.181	77.31
429.403	96.31
429.625	97.31
429.847	99.31
430.069	116.31
430.292	103.31
430.514	75.31
430.736	89.31
430.958	102.31
431.18	87.31
431.402	85.31
431.624	86.31
431.846	97.31
432.068	108.31
432.29	93.31
432.512	91.31
432.734	89.31
432.956	94.31
433.178	116.31
433.4	110.31
433.622	90.31
433.844	93.31
434.066	89.31
434.287	111.31
434.509	90.31
434.731	107.31
434.953	109.31
435.175	93.31
435.397	103.31
435.618	99.31
435.84	110.31
436.062	142.31
436.284	142.31
436.505	118.31
436.727	117.31
436.949	113.31
437.17	99.31
437.392	90.31
437.614	108.31
437.835	128.31
438.057	160.31
438.278	123.31
438.5	119.31
438.721	143.31
438.943	97.31
439.165	94.31
439.386	89.31
439.608	99.31
439.829	116.31
440.05	169.31
440.272	225.31
440.493	119.31
440.715	92.31
440.936	94.31
441.158	97.31
441.379	115.31
441.6	109.31
441.822	118.31
442.043	98.31
442.264	122.31
442.486	116.31
442.707	118.31
442.928	135.31
443.149	185.31
443.371	173.31
443.592	147.31
443.813	142.31
444.034	118.31
444.255	100.31
444.476	106.31
444.698	97.31
444.919	97.31
445.14	145.31
445.361	149.31
445.582	160.31
445.803	201.31
446.024	206.31
446.245	192.31
446.466	151.31
446.687	118.31
446.908	91.31
447.129	95.31
447.35	94.31
447.571	92.31
447.792	106.31
448.013	117.31
448.234	135.31
448.455	109.31
448.675	147.31
448.896	157.31
449.117	116.31
449.338	113.31
449.559	165.31
449.779	148.31
450	122.31
450.221	109.31
450.442	116.31
450.662	114.31
450.883	123.31
451.104	130.31
451.324	103.31
451.545	102.31
451.766	93.31
451.986	99.31
452.207	106.31
452.428	119.31
452.648	121.31
452.869	133.31
453.089	149.31
453.31	143.31
453.53	123.31
453.751	108.31
453.971	130.31
454.192	149.31
454.412	114.31
454.633	98.31
454.853	108.31
455.073	93.31
455.294	89.31
455.514	114.31
455.734	92.31
455.955	85.31
456.175	92.31
456.395	107.31
456.616	79.31
456.836	85.31
457.056	89.31
457.276	101.31
457.497	83.31
457.717	94.31
457.937	97.31
458.157	93.31
458.377	91.31
458.598	142.31
458.818	203.31
459.038	243.31
459.258	160.31
459.478	113.31
459.698	95.31
459.918	83.31
460.138	97.31
460.358	86.31
460.578	100.31
460.798	91.31
461.018	93.31
461.238	87.31
461.458	96.31
461.678	83.31
461.898	86.31
462.118	94.31
462.338	97.31
462.558	101.31
462.777	108.31
462.997	102.31
463.217	104.31
463.437	92.31
463.657	91.31
463.876	99.31
464.096	86.31
464.316	111.31
464.536	115.31
464.755	98.31
464.975	113.31
465.195	233.31
465.414	236.31
465.634	94.31
465.854	105.31
466.073	97.31
466.293	102.31
466.512	89.31
466.732	92.31
466.951	90.31
467.171	101.31
467.391	101.31
467.61	150.31
467.829	207.31
468.049	526.31
468.268	761.31
468.488	199.31
468.707	120.31
468.927	102.31
469.146	96.31
469.365	94.31
469.585	100.31
469.804	112.31
470.023	104.31
470.243	106.31
470.462	121.31
470.681	131.31
470.901	107.31
471.12	118.31
471.339	116.31
471.558	133.31
471.777	145.31
471.997	276.31
472.216	992.31
472.435	2301.31
472.654	559.31
472.873	167.31
473.092	99.31
473.311	97.31
473.53	110.31
473.749	94.31
473.968	114.31
474.187	145.31
474.406	109.31
474.625	96.31
474.844	99.31
475.063	101.31
475.282	102.31
475.501	87.31
475.72	86.31
475.939	95.31
476.158	96.31
476.377	79.31
476.596	104.31
476.814	102.31
477.033	122.31
477.252	97.31
477.471	109.31
477.69	108.31
477.908	100.31
478.127	101.31
478.346	89.31
478.564	109.31
478.783	110.31
479.002	113.31
479.22	109.31
479.439	121.31
479.658	148.31
479.876	132.31
480.095	131.31
480.313	140.31
480.532	155.31
480.751	276.31
480.969	931.31
481.188	4027.31
481.406	2309.31
481.624	354.31
481.843	143.31
482.061	114.31
482.28	97.31
482.498	97.31
482.717	102.31
482.935	101.31
483.153	91.31
483.372	98.31
483.59	91.31
483.808	100.31
484.027	109.31
484.245	102.31
484.463	114.31
484.681	117.31
484.9	98.31
485.118	107.31
485.336	114.31
485.554	107.31
485.772	113.31
485.99	123.31
486.209	115.31
486.427	95.31
486.645	128.31
486.863	133.31
487.081	123.31
487.299	107.31
487.517	92.31
487.735	87.31
487.953	96.31
488.171	112.31
488.389	96.31
488.607	93.31
488.825	105.31
489.043	106.31
489.261	113.31
489.479	94.31
489.696	86.31
489.914	88.31
490.132	83.31
490.35	99.31
490.568	108.31
490.786	93.31
491.003	100.31
491.221	101.31
491.439	111.31
491.657	108.31
491.874	85.31
492.092	94.31
492.31	97.31
492.527	90.31
492.745	100.31
492.963	104.31
493.18	99.31
493.398	91.31
493.615	101.31
493.833	99.31
494.05	87.31
494.268	82.31
494.485	102.31
494.703	95.31
494.92	107.31
495.138	94.31
495.355	109.31
495.573	90.31
495.79	114.31
496.008	114.31
496.225	87.31
496.442	104.31
496.66	91.31
496.877	96.31
497.094	85.31
497.312	98.31
497.529	99.31
497.746	103.31
497.963	87.31
498.181	107.31
498.398	109.31
498.615	128.31
498.832	117.31
499.049	113.31
499.267	84.31
499.484	101.31
499.701	86.31
499.918	99.31
500.135	91.31
500.352	98.31
500.569	102.31
500.786	89.31
501.003	91.31
501.22	87.31
501.437	91.31
501.654	92.31
501.871	137.31
502.088	100.31
502.305	95.31
502.522	101.31
502.739	98.31
502.956	96.31
503.172	100.31
503.389	109.31
503.606	127.31
503.823	106.31
504.04	91.31
504.256	97.31
504.473	100.31
504.69	95.31
504.907	94.31
505.123	100.31
505.34	99.31
505.557	92.31
505.773	99.31
505.99	89.31
506.207	97.31
506.423	94.31
506.64	95.31
506.856	89.31
507.073	99.31
507.289	95.31
507.506	99.31
507.722	135.31
507.939	146.31
508.155	112.31
508.372	90.31
508.588	84.31
508.805	88.31
509.021	92.31
509.238	89.31
509.454	115.31
509.67	100.31
509.887	115.31
510.103	139.31
510.319	254.31
510.536	966.31
