Data from Circ_1998_H10_HRD10591_00027.txt Node
Date: Wed Jan 03 11:26:54 EST 2024
User: Yrep
Spectrometer: HR+D1059
Trigger mode: 1
Integration Time (sec): 1.000000E-1
Scans to average: 1
Electric dark correction enabled: true
Nonlinearity correction enabled: false
Boxcar width: 0
XAxis mode: Wavelengths
Number of Pixels in Spectrum: 2048
>>>>>Begin Spectral Data<<<<<
223.165	-11.25
223.4	-11.25
223.635	-11.25
223.869	-22.25
224.104	-31.25
224.338	-9.25
224.573	-22.25
224.808	-13.25
225.042	-10.25
225.277	-6.25
225.511	-9.25
225.746	8.75
225.98	5.75
226.215	10.75
226.449	32.75
226.683	25.75
226.918	16.75
227.152	34.75
227.387	40.75
227.621	40.75
227.856	54.75
228.09	32.75
228.324	47.75
228.559	54.75
228.793	70.75
229.027	62.75
229.262	66.75
229.496	75.75
229.73	99.75
229.964	100.75
230.199	77.75
230.433	76.75
230.667	73.75
230.901	77.75
231.136	86.75
231.37	90.75
231.604	81.75
231.838	80.75
232.072	78.75
232.306	91.75
232.541	86.75
232.775	67.75
233.009	83.75
233.243	61.75
233.477	74.75
233.711	75.75
233.945	89.75
234.179	86.75
234.413	76.75
234.647	76.75
234.881	67.75
235.115	76.75
235.349	84.75
235.583	83.75
235.817	76.75
236.051	75.75
236.285	71.75
236.519	73.75
236.753	63.75
236.987	76.75
237.221	80.75
237.455	89.75
237.689	93.75
237.922	76.75
238.156	66.75
238.39	89.75
238.624	65.75
238.858	82.75
239.091	81.75
239.325	81.75
239.559	85.75
239.793	98.75
240.027	82.75
240.26	92.75
240.494	74.75
240.728	72.75
240.961	83.75
241.195	82.75
241.429	63.75
241.662	82.75
241.896	78.75
242.13	70.75
242.363	80.75
242.597	68.75
242.83	73.75
243.064	78.75
243.298	77.75
243.531	86.75
243.765	89.75
243.998	88.75
244.232	87.75
244.465	91.75
244.699	68.75
244.932	84.75
245.166	77.75
245.399	79.75
245.633	81.75
245.866	76.75
246.099	80.75
246.333	81.75
246.566	72.75
246.8	82.75
247.033	83.75
247.266	83.75
247.5	81.75
247.733	81.75
247.966	78.75
248.2	66.75
248.433	77.75
248.666	89.75
248.899	96.75
249.133	88.75
249.366	108.75
249.599	105.75
249.832	84.75
250.066	81.75
250.299	82.75
250.532	92.75
250.765	78.75
250.998	75.75
251.231	76.75
251.465	86.75
251.698	79.75
251.931	80.75
252.164	105.75
252.397	78.75
252.63	89.75
252.863	80.75
253.096	84.75
253.329	79.75
253.562	80.75
253.795	85.75
254.028	79.75
254.261	77.75
254.494	85.75
254.727	82.75
254.96	85.75
255.193	82.75
255.426	83.75
255.659	74.75
255.892	86.75
256.124	106.75
256.357	94.75
256.59	84.75
256.823	85.75
257.056	89.75
257.289	85.75
257.521	86.75
257.754	88.75
257.987	83.75
258.22	102.75
258.452	94.75
258.685	90.75
258.918	103.75
259.151	82.75
259.383	89.75
259.616	82.75
259.849	84.75
260.081	96.75
260.314	85.75
260.547	78.75
260.779	108.75
261.012	124.75
261.244	109.75
261.477	100.75
261.71	108.75
261.942	137.75
262.175	136.75
262.407	101.75
262.64	101.75
262.872	91.75
263.105	90.75
263.337	82.75
263.57	93.75
263.802	90.75
264.035	94.75
264.267	80.75
264.499	78.75
264.732	83.75
264.964	84.75
265.197	71.75
265.429	84.75
265.661	89.75
265.894	92.75
266.126	93.75
266.358	81.75
266.591	84.75
266.823	82.75
267.055	95.75
267.287	80.75
267.52	91.75
267.752	95.75
267.984	84.75
268.216	79.75
268.448	80.75
268.681	87.75
268.913	94.75
269.145	83.75
269.377	88.75
269.609	66.75
269.841	93.75
270.073	86.75
270.306	86.75
270.538	81.75
270.77	75.75
271.002	80.75
271.234	103.75
271.466	96.75
271.698	95.75
271.93	93.75
272.162	76.75
272.394	89.75
272.626	88.75
272.858	69.75
273.09	89.75
273.322	76.75
273.553	93.75
273.785	99.75
274.017	77.75
274.249	83.75
274.481	101.75
274.713	88.75
274.945	86.75
275.176	83.75
275.408	99.75
275.64	117.75
275.872	120.75
276.104	109.75
276.335	96.75
276.567	122.75
276.799	145.75
277.031	177.75
277.262	220.75
277.494	165.75
277.726	102.75
277.957	100.75
278.189	84.75
278.421	82.75
278.652	93.75
278.884	83.75
279.115	89.75
279.347	93.75
279.579	109.75
279.81	145.75
280.042	221.75
280.273	305.75
280.505	198.75
280.736	113.75
280.968	84.75
281.199	87.75
281.431	90.75
281.662	99.75
281.894	92.75
282.125	113.75
282.356	133.75
282.588	180.75
282.819	136.75
283.051	93.75
283.282	93.75
283.513	93.75
283.745	90.75
283.976	80.75
284.207	88.75
284.439	99.75
284.67	89.75
284.901	96.75
285.132	97.75
285.364	92.75
285.595	77.75
285.826	89.75
286.057	96.75
286.288	76.75
286.52	80.75
286.751	84.75
286.982	97.75
287.213	91.75
287.444	98.75
287.675	89.75
287.906	91.75
288.138	84.75
288.369	92.75
288.6	95.75
288.831	87.75
289.062	84.75
289.293	96.75
289.524	103.75
289.755	88.75
289.986	84.75
290.217	92.75
290.448	84.75
290.679	95.75
290.91	90.75
291.141	90.75
291.371	91.75
291.602	90.75
291.833	92.75
292.064	94.75
292.295	98.75
292.526	84.75
292.757	81.75
292.987	97.75
293.218	90.75
293.449	71.75
293.68	93.75
293.91	95.75
294.141	98.75
294.372	96.75
294.603	91.75
294.833	78.75
295.064	75.75
295.295	83.75
295.525	77.75
295.756	113.75
295.987	149.75
296.217	177.75
296.448	153.75
296.679	100.75
296.909	100.75
297.14	88.75
297.37	87.75
297.601	89.75
297.831	103.75
298.062	96.75
298.292	99.75
298.523	93.75
298.753	95.75
298.984	95.75
299.214	84.75
299.445	93.75
299.675	98.75
299.905	113.75
300.136	98.75
300.366	82.75
300.597	108.75
300.827	108.75
301.057	108.75
301.288	120.75
301.518	102.75
301.748	108.75
301.979	128.75
302.209	101.75
302.439	91.75
302.669	95.75
302.9	98.75
303.13	114.75
303.36	123.75
303.59	135.75
303.82	161.75
304.051	111.75
304.281	107.75
304.511	86.75
304.741	76.75
304.971	84.75
305.201	88.75
305.431	82.75
305.661	95.75
305.891	106.75
306.121	107.75
306.352	117.75
306.582	112.75
306.812	107.75
307.042	128.75
307.272	162.75
307.502	185.75
307.731	186.75
307.961	127.75
308.191	88.75
308.421	91.75
308.651	93.75
308.881	75.75
309.111	96.75
309.341	78.75
309.571	98.75
309.8	99.75
310.03	115.75
310.26	105.75
310.49	120.75
310.72	125.75
310.949	119.75
311.179	125.75
311.409	90.75
311.639	91.75
311.868	105.75
312.098	108.75
312.328	119.75
312.557	123.75
312.787	151.75
313.017	125.75
313.246	91.75
313.476	88.75
313.706	86.75
313.935	107.75
314.165	103.75
314.394	108.75
314.624	108.75
314.853	101.75
315.083	97.75
315.312	96.75
315.542	99.75
315.771	88.75
316.001	91.75
316.23	94.75
316.46	90.75
316.689	107.75
316.919	117.75
317.148	106.75
317.377	106.75
317.607	95.75
317.836	102.75
318.065	98.75
318.295	94.75
318.524	99.75
318.753	91.75
318.983	114.75
319.212	109.75
319.441	134.75
319.67	127.75
319.9	89.75
320.129	97.75
320.358	106.75
320.587	101.75
320.816	105.75
321.046	140.75
321.275	100.75
321.504	91.75
321.733	102.75
321.962	101.75
322.191	116.75
322.42	140.75
322.649	137.75
322.878	132.75
323.108	139.75
323.337	152.75
323.566	169.75
323.795	193.75
324.024	279.75
324.253	569.75
324.482	1269.75
324.71	2710.75
324.939	3628.75
325.168	1263.75
325.397	345.75
325.626	197.75
325.855	149.75
326.084	145.75
326.313	167.75
326.542	201.75
326.77	317.75
326.999	600.75
327.228	1378.75
327.457	2575.75
327.686	2079.75
327.914	706.75
328.143	654.75
328.372	832.75
328.6	436.75
328.829	216.75
329.058	222.75
329.287	228.75
329.515	209.75
329.744	291.75
329.972	585.75
330.201	1257.75
330.43	1885.75
330.658	784.75
330.887	344.75
331.115	224.75
331.344	138.75
331.572	134.75
331.801	123.75
332.03	135.75
332.258	115.75
332.486	105.75
332.715	101.75
332.943	138.75
333.172	139.75
333.4	132.75
333.629	189.75
333.857	280.75
334.085	533.75
334.314	1158.75
334.542	2294.75
334.771	2143.75
334.999	525.75
335.227	193.75
335.455	138.75
335.684	119.75
335.912	103.75
336.14	105.75
336.369	99.75
336.597	127.75
336.825	105.75
337.053	104.75
337.281	98.75
337.51	100.75
337.738	115.75
337.966	101.75
338.194	104.75
338.422	117.75
338.65	102.75
338.878	97.75
339.106	104.75
339.334	84.75
339.562	86.75
339.79	100.75
340.018	102.75
340.246	98.75
340.474	104.75
340.702	98.75
340.93	96.75
341.158	94.75
341.386	111.75
341.614	108.75
341.842	89.75
342.07	100.75
342.298	97.75
342.526	106.75
342.754	100.75
342.981	86.75
343.209	94.75
343.437	90.75
343.665	85.75
343.893	99.75
344.12	80.75
344.348	95.75
344.576	91.75
344.804	105.75
345.031	99.75
345.259	113.75
345.487	110.75
345.714	105.75
345.942	94.75
346.17	92.75
346.397	90.75
346.625	101.75
346.853	98.75
347.08	101.75
347.308	106.75
347.535	119.75
347.763	133.75
347.99	101.75
348.218	114.75
348.445	135.75
348.673	102.75
348.9	103.75
349.128	100.75
349.355	97.75
349.583	97.75
349.81	98.75
350.037	102.75
350.265	90.75
350.492	102.75
350.72	93.75
350.947	105.75
351.174	121.75
351.402	127.75
351.629	113.75
351.856	116.75
352.083	124.75
352.311	144.75
352.538	127.75
352.765	115.75
352.992	116.75
353.22	120.75
353.447	105.75
353.674	101.75
353.901	106.75
354.128	88.75
354.355	97.75
354.583	91.75
354.81	94.75
355.037	98.75
355.264	101.75
355.491	89.75
355.718	89.75
355.945	98.75
356.172	108.75
356.399	97.75
356.626	97.75
356.853	85.75
357.08	92.75
357.307	105.75
357.534	96.75
357.761	92.75
357.988	85.75
358.215	98.75
358.441	89.75
358.668	104.75
358.895	98.75
359.122	87.75
359.349	81.75
359.576	100.75
359.802	109.75
360.029	155.75
360.256	148.75
360.483	127.75
360.709	96.75
360.936	110.75
361.163	106.75
361.39	92.75
361.616	108.75
361.843	86.75
362.07	111.75
362.296	104.75
362.523	100.75
362.749	103.75
362.976	94.75
363.203	100.75
363.429	92.75
363.656	102.75
363.882	82.75
364.109	99.75
364.335	101.75
364.562	94.75
364.788	91.75
365.015	109.75
365.241	118.75
365.468	120.75
365.694	125.75
365.92	104.75
366.147	102.75
366.373	85.75
366.599	108.75
366.826	97.75
367.052	74.75
367.278	92.75
367.505	94.75
367.731	96.75
367.957	94.75
368.184	108.75
368.41	108.75
368.636	127.75
368.862	140.75
369.089	110.75
369.315	110.75
369.541	106.75
369.767	103.75
369.993	104.75
370.219	85.75
370.445	100.75
370.672	98.75
370.898	95.75
371.124	87.75
371.35	90.75
371.576	94.75
371.802	75.75
372.028	92.75
372.254	96.75
372.48	98.75
372.706	77.75
372.932	93.75
373.158	86.75
373.384	108.75
373.61	102.75
373.835	81.75
374.061	85.75
374.287	103.75
374.513	97.75
374.739	105.75
374.965	105.75
375.191	89.75
375.416	83.75
375.642	89.75
375.868	92.75
376.094	89.75
376.319	96.75
376.545	96.75
376.771	95.75
376.997	94.75
377.222	102.75
377.448	94.75
377.674	89.75
377.899	104.75
378.125	80.75
378.35	91.75
378.576	95.75
378.802	93.75
379.027	93.75
379.253	100.75
379.478	102.75
379.704	97.75
379.929	89.75
380.155	109.75
380.38	112.75
380.606	116.75
380.831	98.75
381.057	99.75
381.282	106.75
381.507	112.75
381.733	101.75
381.958	102.75
382.184	105.75
382.409	106.75
382.634	106.75
382.86	106.75
383.085	111.75
383.31	95.75
383.535	104.75
383.761	113.75
383.986	110.75
384.211	83.75
384.436	107.75
384.662	108.75
384.887	109.75
385.112	113.75
385.337	118.75
385.562	115.75
385.787	120.75
386.013	138.75
386.238	130.75
386.463	109.75
386.688	102.75
386.913	121.75
387.138	105.75
387.363	96.75
387.588	100.75
387.813	99.75
388.038	94.75
388.263	129.75
388.488	126.75
388.713	84.75
388.938	98.75
389.163	87.75
389.387	97.75
389.612	92.75
389.837	89.75
390.062	94.75
390.287	99.75
390.512	94.75
390.736	97.75
390.961	84.75
391.186	83.75
391.411	98.75
391.636	87.75
391.86	86.75
392.085	99.75
392.31	90.75
392.534	89.75
392.759	85.75
392.984	97.75
393.208	87.75
393.433	84.75
393.658	94.75
393.882	87.75
394.107	96.75
394.331	82.75
394.556	76.75
394.78	90.75
395.005	84.75
395.229	85.75
395.454	74.75
395.678	91.75
395.903	102.75
396.127	101.75
396.352	89.75
396.576	81.75
396.801	101.75
397.025	97.75
397.249	92.75
397.474	99.75
397.698	88.75
397.922	89.75
398.147	94.75
398.371	84.75
398.595	89.75
398.82	80.75
399.044	77.75
399.268	70.75
399.492	77.75
399.717	93.75
399.941	93.75
400.165	100.75
400.389	89.75
400.613	99.75
400.837	85.75
401.062	91.75
401.286	92.75
401.51	96.75
401.734	96.75
401.958	103.75
402.182	160.75
402.406	213.75
402.63	157.75
402.854	119.75
403.078	90.75
403.302	93.75
403.526	89.75
403.75	79.75
403.974	94.75
404.198	93.75
404.422	96.75
404.645	91.75
404.869	113.75
405.093	132.75
405.317	151.75
405.541	141.75
405.765	113.75
405.988	141.75
406.212	237.75
406.436	358.75
406.66	234.75
406.883	141.75
407.107	104.75
407.331	100.75
407.555	113.75
407.778	107.75
408.002	96.75
408.226	87.75
408.449	103.75
408.673	105.75
408.896	103.75
409.12	109.75
409.344	102.75
409.567	96.75
409.791	75.75
410.014	98.75
410.238	87.75
410.461	99.75
410.685	98.75
410.908	90.75
411.132	111.75
411.355	118.75
411.578	103.75
411.802	102.75
412.025	103.75
412.249	113.75
412.472	127.75
412.695	153.75
412.919	131.75
413.142	95.75
413.365	91.75
413.589	103.75
413.812	86.75
414.035	88.75
414.258	94.75
414.482	86.75
414.705	80.75
414.928	82.75
415.151	98.75
415.374	82.75
415.597	89.75
415.821	90.75
416.044	95.75
416.267	106.75
416.49	83.75
416.713	95.75
416.936	91.75
417.159	104.75
417.382	96.75
417.605	105.75
417.828	109.75
418.051	108.75
418.274	98.75
418.497	90.75
418.72	92.75
418.943	96.75
419.166	72.75
419.389	93.75
419.611	113.75
419.834	108.75
420.057	104.75
420.28	94.75
420.503	104.75
420.726	95.75
420.948	86.75
421.171	103.75
421.394	106.75
421.617	88.75
421.839	93.75
422.062	84.75
422.285	82.75
422.507	101.75
422.73	110.75
422.953	113.75
423.175	80.75
423.398	78.75
423.621	91.75
423.843	86.75
424.066	89.75
424.288	85.75
424.511	105.75
424.733	107.75
424.956	128.75
425.178	111.75
425.401	121.75
425.623	129.75
425.846	88.75
426.068	97.75
426.291	100.75
426.513	90.75
426.735	116.75
426.958	106.75
427.18	130.75
427.402	212.75
427.625	296.75
427.847	287.75
428.069	267.75
428.292	136.75
428.514	95.75
428.736	91.75
428.958	94.75
429.181	95.75
429.403	101.75
429.625	98.75
429.847	111.75
430.069	117.75
430.292	106.75
430.514	79.75
430.736	80.75
430.958	81.75
431.18	98.75
431.402	92.75
431.624	89.75
431.846	75.75
432.068	84.75
432.29	87.75
432.512	94.75
432.734	84.75
432.956	98.75
433.178	98.75
433.4	117.75
433.622	89.75
433.844	88.75
434.066	81.75
434.287	93.75
434.509	94.75
434.731	101.75
434.953	90.75
435.175	101.75
435.397	90.75
435.618	88.75
435.84	121.75
436.062	163.75
436.284	134.75
436.505	121.75
436.727	118.75
436.949	113.75
437.17	103.75
437.392	84.75
437.614	108.75
437.835	140.75
438.057	167.75
438.278	151.75
438.5	134.75
438.721	155.75
438.943	122.75
439.165	97.75
439.386	101.75
439.608	93.75
439.829	134.75
440.05	172.75
440.272	219.75
440.493	122.75
440.715	106.75
440.936	90.75
441.158	94.75
441.379	93.75
441.6	93.75
441.822	106.75
442.043	104.75
442.264	122.75
442.486	113.75
442.707	124.75
442.928	137.75
443.149	203.75
443.371	206.75
443.592	125.75
443.813	139.75
444.034	127.75
444.255	100.75
444.476	108.75
444.698	99.75
444.919	88.75
445.14	139.75
445.361	144.75
445.582	161.75
445.803	223.75
446.024	216.75
446.245	183.75
446.466	121.75
446.687	101.75
446.908	88.75
447.129	97.75
447.35	101.75
447.571	104.75
447.792	109.75
448.013	109.75
448.234	123.75
448.455	116.75
448.675	150.75
448.896	157.75
449.117	111.75
449.338	136.75
449.559	166.75
449.779	167.75
450	113.75
450.221	99.75
450.442	97.75
450.662	113.75
450.883	141.75
451.104	139.75
451.324	112.75
451.545	81.75
451.766	88.75
451.986	96.75
452.207	93.75
452.428	94.75
452.648	117.75
452.869	128.75
453.089	148.75
453.31	152.75
453.53	107.75
453.751	104.75
453.971	130.75
454.192	148.75
454.412	108.75
454.633	104.75
454.853	96.75
455.073	90.75
455.294	93.75
455.514	111.75
455.734	98.75
455.955	96.75
456.175	84.75
456.395	89.75
456.616	93.75
456.836	95.75
457.056	79.75
457.276	92.75
457.497	89.75
457.717	101.75
457.937	80.75
458.157	93.75
458.377	97.75
458.598	128.75
458.818	230.75
459.038	255.75
459.258	158.75
459.478	95.75
459.698	88.75
459.918	97.75
460.138	92.75
460.358	89.75
460.578	86.75
460.798	101.75
461.018	94.75
461.238	88.75
461.458	91.75
461.678	90.75
461.898	95.75
462.118	88.75
462.338	85.75
462.558	92.75
462.777	94.75
462.997	91.75
463.217	108.75
463.437	114.75
463.657	86.75
463.876	91.75
464.096	92.75
464.316	92.75
464.536	102.75
464.755	109.75
464.975	132.75
465.195	262.75
465.414	270.75
465.634	127.75
465.854	94.75
466.073	95.75
466.293	96.75
466.512	97.75
466.732	102.75
466.951	87.75
467.171	105.75
467.391	100.75
467.61	162.75
467.829	257.75
468.049	717.75
468.268	1061.75
468.488	247.75
468.707	116.75
468.927	105.75
469.146	106.75
469.365	90.75
469.585	103.75
469.804	132.75
470.023	127.75
470.243	111.75
470.462	119.75
470.681	159.75
470.901	110.75
471.12	98.75
471.339	93.75
471.558	124.75
471.777	183.75
471.997	358.75
472.216	1434.75
472.435	3288.75
472.654	728.75
472.873	200.75
473.092	119.75
473.311	103.75
473.53	92.75
473.749	106.75
473.968	117.75
474.187	130.75
474.406	107.75
474.625	97.75
474.844	104.75
475.063	95.75
475.282	90.75
475.501	103.75
475.72	103.75
475.939	90.75
476.158	80.75
476.377	92.75
476.596	106.75
476.814	116.75
477.033	110.75
477.252	102.75
477.471	109.75
477.69	96.75
477.908	97.75
478.127	102.75
478.346	82.75
478.564	98.75
478.783	116.75
479.002	102.75
479.22	107.75
479.439	142.75
479.658	144.75
479.876	134.75
480.095	141.75
480.313	138.75
480.532	204.75
480.751	348.75
480.969	1315.75
481.188	5582.75
481.406	3148.75
481.624	447.75
481.843	150.75
482.061	109.75
482.28	102.75
482.498	94.75
482.717	94.75
482.935	94.75
483.153	95.75
483.372	92.75
483.59	94.75
483.808	109.75
484.027	100.75
484.245	112.75
484.463	96.75
484.681	109.75
484.9	80.75
485.118	95.75
485.336	98.75
485.554	94.75
485.772	102.75
485.99	112.75
486.209	113.75
486.427	116.75
486.645	135.75
486.863	140.75
487.081	105.75
487.299	102.75
487.517	94.75
487.735	95.75
487.953	89.75
488.171	87.75
488.389	103.75
488.607	96.75
488.825	107.75
489.043	95.75
489.261	97.75
489.479	103.75
489.696	101.75
489.914	97.75
490.132	92.75
490.35	86.75
490.568	81.75
490.786	82.75
491.003	87.75
491.221	97.75
491.439	103.75
491.657	90.75
491.874	98.75
492.092	103.75
492.31	95.75
492.527	106.75
492.745	105.75
492.963	94.75
493.18	103.75
493.398	93.75
493.615	101.75
493.833	97.75
494.05	96.75
494.268	101.75
494.485	80.75
494.703	105.75
494.92	96.75
495.138	97.75
495.355	94.75
495.573	84.75
495.79	96.75
496.008	111.75
496.225	83.75
496.442	101.75
496.66	105.75
496.877	102.75
497.094	87.75
497.312	92.75
497.529	93.75
497.746	84.75
497.963	85.75
498.181	96.75
498.398	96.75
498.615	125.75
498.832	118.75
499.049	93.75
499.267	101.75
499.484	97.75
499.701	103.75
499.918	97.75
500.135	105.75
500.352	93.75
500.569	89.75
500.786	101.75
501.003	83.75
501.22	94.75
501.437	89.75
501.654	84.75
501.871	132.75
502.088	117.75
502.305	97.75
502.522	94.75
502.739	92.75
502.956	97.75
503.172	76.75
503.389	107.75
503.606	136.75
503.823	108.75
504.04	93.75
504.256	93.75
504.473	81.75
504.69	97.75
504.907	84.75
505.123	71.75
505.34	95.75
505.557	99.75
505.773	97.75
505.99	94.75
506.207	84.75
506.423	91.75
506.64	101.75
506.856	92.75
507.073	96.75
507.289	89.75
507.506	111.75
507.722	144.75
507.939	144.75
508.155	108.75
508.372	95.75
508.588	97.75
508.805	104.75
509.021	101.75
509.238	118.75
509.454	109.75
509.67	119.75
509.887	122.75
510.103	143.75
510.319	264.75
510.536	1066.75
510.752	3878.75
510.968	1025.75
511.184	203.75
511.401	144.75
511.617	115.75
511.833	114.75
