Data from Circ_1998_H10_HRD10591_00041.txt Node
Date: Wed Jan 03 11:26:57 EST 2024
User: Yrep
Spectrometer: HR+D1059
Trigger mode: 1
Integration Time (sec): 1.000000E-1
Scans to average: 1
Electric dark correction enabled: true
Nonlinearity correction enabled: false
Boxcar width: 0
XAxis mode: Wavelengths
Number of Pixels in Spectrum: 2048
>>>>>Begin Spectral Data<<<<<
223.165	-5.94
223.4	-5.94
223.635	-5.94
223.869	-32.94
224.104	-19.94
224.338	-23.94
224.573	-11.94
224.808	-1.94
225.042	-2.94
225.277	11.06
225.511	8.06
225.746	-5.94
225.98	15.06
226.215	-6.94
226.449	-3.94
226.683	11.06
226.918	33.06
227.152	38.06
227.387	35.06
227.621	43.06
227.856	53.06
228.09	50.06
228.324	53.06
228.559	48.06
228.793	56.06
229.027	66.06
229.262	60.06
229.496	81.06
229.73	119.06
229.964	99.06
230.199	70.06
230.433	75.06
230.667	83.06
230.901	83.06
231.136	76.06
231.37	86.06
231.604	79.06
231.838	75.06
232.072	95.06
232.306	80.06
232.541	84.06
232.775	92.06
233.009	65.06
233.243	83.06
233.477	67.06
233.711	81.06
233.945	91.06
234.179	87.06
234.413	87.06
234.647	84.06
234.881	77.06
235.115	88.06
235.349	87.06
235.583	80.06
235.817	76.06
236.051	80.06
236.285	88.06
236.519	78.06
236.753	95.06
236.987	84.06
237.221	92.06
237.455	85.06
237.689	90.06
237.922	74.06
238.156	88.06
238.39	83.06
238.624	76.06
238.858	85.06
239.091	103.06
239.325	75.06
239.559	76.06
239.793	88.06
240.027	65.06
240.26	74.06
240.494	97.06
240.728	75.06
240.961	88.06
241.195	87.06
241.429	80.06
241.662	75.06
241.896	67.06
242.13	71.06
242.363	92.06
242.597	66.06
242.83	77.06
243.064	71.06
243.298	88.06
243.531	93.06
243.765	80.06
243.998	85.06
244.232	78.06
244.465	92.06
244.699	81.06
244.932	81.06
245.166	72.06
245.399	64.06
245.633	82.06
245.866	75.06
246.099	91.06
246.333	95.06
246.566	89.06
246.8	96.06
247.033	93.06
247.266	73.06
247.5	83.06
247.733	87.06
247.966	84.06
248.2	86.06
248.433	95.06
248.666	75.06
248.899	97.06
249.133	97.06
249.366	114.06
249.599	120.06
249.832	91.06
250.066	84.06
250.299	87.06
250.532	82.06
250.765	85.06
250.998	78.06
251.231	92.06
251.465	87.06
251.698	87.06
251.931	92.06
252.164	96.06
252.397	86.06
252.63	85.06
252.863	89.06
253.096	82.06
253.329	76.06
253.562	79.06
253.795	79.06
254.028	89.06
254.261	77.06
254.494	82.06
254.727	82.06
254.96	87.06
255.193	82.06
255.426	78.06
255.659	84.06
255.892	93.06
256.124	101.06
256.357	89.06
256.59	85.06
256.823	89.06
257.056	81.06
257.289	82.06
257.521	87.06
257.754	97.06
257.987	90.06
258.22	88.06
258.452	97.06
258.685	105.06
258.918	77.06
259.151	101.06
259.383	85.06
259.616	88.06
259.849	84.06
260.081	83.06
260.314	103.06
260.547	95.06
260.779	104.06
261.012	111.06
261.244	116.06
261.477	105.06
261.71	119.06
261.942	138.06
262.175	156.06
262.407	108.06
262.64	85.06
262.872	84.06
263.105	90.06
263.337	92.06
263.57	83.06
263.802	89.06
264.035	95.06
264.267	91.06
264.499	88.06
264.732	81.06
264.964	91.06
265.197	83.06
265.429	80.06
265.661	84.06
265.894	89.06
266.126	94.06
266.358	89.06
266.591	82.06
266.823	83.06
267.055	79.06
267.287	90.06
267.52	91.06
267.752	97.06
267.984	78.06
268.216	101.06
268.448	105.06
268.681	97.06
268.913	105.06
269.145	89.06
269.377	83.06
269.609	81.06
269.841	91.06
270.073	87.06
270.306	92.06
270.538	98.06
270.77	83.06
271.002	96.06
271.234	83.06
271.466	90.06
271.698	80.06
271.93	84.06
272.162	85.06
272.394	101.06
272.626	104.06
272.858	81.06
273.09	84.06
273.322	97.06
273.553	85.06
273.785	89.06
274.017	87.06
274.249	88.06
274.481	99.06
274.713	92.06
274.945	97.06
275.176	77.06
275.408	111.06
275.64	106.06
275.872	145.06
276.104	123.06
276.335	114.06
276.567	129.06
276.799	179.06
277.031	218.06
277.262	238.06
277.494	186.06
277.726	105.06
277.957	87.06
278.189	89.06
278.421	100.06
278.652	91.06
278.884	89.06
279.115	97.06
279.347	95.06
279.579	109.06
279.81	152.06
280.042	228.06
280.273	340.06
280.505	212.06
280.736	124.06
280.968	95.06
281.199	90.06
281.431	95.06
281.662	92.06
281.894	103.06
282.125	103.06
282.356	151.06
282.588	194.06
282.819	146.06
283.051	105.06
283.282	87.06
283.513	83.06
283.745	89.06
283.976	96.06
284.207	91.06
284.439	91.06
284.67	96.06
284.901	85.06
285.132	77.06
285.364	95.06
285.595	93.06
285.826	92.06
286.057	92.06
286.288	75.06
286.52	77.06
286.751	91.06
286.982	98.06
287.213	87.06
287.444	73.06
287.675	94.06
287.906	90.06
288.138	90.06
288.369	97.06
288.6	104.06
288.831	82.06
289.062	100.06
289.293	93.06
289.524	89.06
289.755	85.06
289.986	105.06
290.217	89.06
290.448	98.06
290.679	87.06
290.91	99.06
291.141	105.06
291.371	92.06
291.602	102.06
291.833	94.06
292.064	85.06
292.295	75.06
292.526	81.06
292.757	98.06
292.987	97.06
293.218	91.06
293.449	82.06
293.68	95.06
293.91	94.06
294.141	99.06
294.372	102.06
294.603	101.06
294.833	95.06
295.064	99.06
295.295	96.06
295.525	73.06
295.756	108.06
295.987	155.06
296.217	181.06
296.448	148.06
296.679	96.06
296.909	96.06
297.14	85.06
297.37	90.06
297.601	88.06
297.831	101.06
298.062	94.06
298.292	93.06
298.523	109.06
298.753	91.06
298.984	92.06
299.214	97.06
299.445	98.06
299.675	111.06
299.905	97.06
300.136	93.06
300.366	98.06
300.597	101.06
300.827	92.06
301.057	108.06
301.288	129.06
301.518	108.06
301.748	97.06
301.979	117.06
302.209	104.06
302.439	98.06
302.669	103.06
302.9	108.06
303.13	101.06
303.36	111.06
303.59	141.06
303.82	164.06
304.051	104.06
304.281	106.06
304.511	100.06
304.741	93.06
304.971	91.06
305.201	92.06
305.431	90.06
305.661	87.06
305.891	98.06
306.121	104.06
306.352	103.06
306.582	126.06
306.812	126.06
307.042	151.06
307.272	195.06
307.502	229.06
307.731	222.06
307.961	139.06
308.191	106.06
308.421	90.06
308.651	92.06
308.881	96.06
309.111	88.06
309.341	119.06
309.571	105.06
309.8	105.06
310.03	115.06
310.26	114.06
310.49	109.06
310.72	101.06
310.949	123.06
311.179	136.06
311.409	105.06
311.639	93.06
311.868	115.06
312.098	91.06
312.328	87.06
312.557	122.06
312.787	128.06
313.017	103.06
313.246	108.06
313.476	97.06
313.706	96.06
313.935	107.06
314.165	108.06
314.394	117.06
314.624	109.06
314.853	116.06
315.083	108.06
315.312	104.06
315.542	116.06
315.771	100.06
316.001	84.06
316.23	87.06
316.46	106.06
316.689	98.06
316.919	97.06
317.148	109.06
317.377	97.06
317.607	105.06
317.836	105.06
318.065	96.06
318.295	111.06
318.524	113.06
318.753	88.06
318.983	100.06
319.212	104.06
319.441	131.06
319.67	132.06
319.9	83.06
320.129	101.06
320.358	87.06
320.587	86.06
320.816	105.06
321.046	109.06
321.275	93.06
321.504	105.06
321.733	99.06
321.962	101.06
322.191	121.06
322.42	130.06
322.649	130.06
322.878	115.06
323.108	161.06
323.337	154.06
323.566	152.06
323.795	205.06
324.024	277.06
324.253	526.06
324.482	1162.06
324.71	2455.06
324.939	3292.06
325.168	1197.06
325.397	332.06
325.626	179.06
325.855	165.06
326.084	157.06
326.313	181.06
326.542	197.06
326.77	295.06
326.999	585.06
327.228	1259.06
327.457	2367.06
327.686	1919.06
327.914	661.06
328.143	691.06
328.372	892.06
328.6	473.06
328.829	217.06
329.058	232.06
329.287	226.06
329.515	219.06
329.744	313.06
329.972	631.06
330.201	1341.06
330.43	1940.06
330.658	838.06
330.887	346.06
331.115	220.06
331.344	140.06
331.572	126.06
331.801	148.06
332.03	138.06
332.258	122.06
332.486	115.06
332.715	127.06
332.943	125.06
333.172	139.06
333.4	154.06
333.629	203.06
333.857	274.06
334.085	571.06
334.314	1247.06
334.542	2450.06
334.771	2272.06
334.999	575.06
335.227	225.06
335.455	151.06
335.684	128.06
335.912	115.06
336.14	105.06
336.369	110.06
336.597	131.06
336.825	120.06
337.053	103.06
337.281	100.06
337.51	116.06
337.738	107.06
337.966	101.06
338.194	117.06
338.422	108.06
338.65	110.06
338.878	104.06
339.106	91.06
339.334	101.06
339.562	89.06
339.79	98.06
340.018	100.06
340.246	108.06
340.474	107.06
340.702	106.06
340.93	82.06
341.158	106.06
341.386	111.06
341.614	115.06
341.842	105.06
342.07	102.06
342.298	99.06
342.526	107.06
342.754	97.06
342.981	93.06
343.209	109.06
343.437	103.06
343.665	79.06
343.893	84.06
344.12	89.06
344.348	95.06
344.576	97.06
344.804	93.06
345.031	108.06
345.259	117.06
345.487	112.06
345.714	99.06
345.942	93.06
346.17	87.06
346.397	100.06
346.625	109.06
346.853	97.06
347.08	99.06
347.308	113.06
347.535	118.06
347.763	120.06
347.99	116.06
348.218	118.06
348.445	136.06
348.673	110.06
348.9	103.06
349.128	89.06
349.355	106.06
349.583	99.06
349.81	94.06
350.037	106.06
350.265	110.06
350.492	103.06
350.72	107.06
350.947	107.06
351.174	132.06
351.402	135.06
351.629	115.06
351.856	107.06
352.083	135.06
352.311	124.06
352.538	139.06
352.765	136.06
352.992	139.06
353.22	130.06
353.447	112.06
353.674	100.06
353.901	106.06
354.128	93.06
354.355	92.06
354.583	100.06
354.81	95.06
355.037	89.06
355.264	92.06
355.491	81.06
355.718	91.06
355.945	96.06
356.172	100.06
356.399	94.06
356.626	86.06
356.853	84.06
357.08	99.06
357.307	87.06
357.534	98.06
357.761	94.06
357.988	87.06
358.215	106.06
358.441	99.06
358.668	92.06
358.895	83.06
359.122	96.06
359.349	95.06
359.576	119.06
359.802	116.06
360.029	159.06
360.256	143.06
360.483	111.06
360.709	84.06
360.936	95.06
361.163	105.06
361.39	113.06
361.616	90.06
361.843	101.06
362.07	107.06
362.296	113.06
362.523	111.06
362.749	103.06
362.976	98.06
363.203	97.06
363.429	89.06
363.656	101.06
363.882	97.06
364.109	100.06
364.335	87.06
364.562	98.06
364.788	81.06
365.015	101.06
365.241	100.06
365.468	129.06
365.694	131.06
365.92	119.06
366.147	98.06
366.373	99.06
366.599	98.06
366.826	105.06
367.052	108.06
367.278	87.06
367.505	103.06
367.731	101.06
367.957	97.06
368.184	100.06
368.41	96.06
368.636	128.06
368.862	140.06
369.089	113.06
369.315	112.06
369.541	107.06
369.767	93.06
369.993	100.06
370.219	96.06
370.445	88.06
370.672	95.06
370.898	107.06
371.124	80.06
371.35	107.06
371.576	95.06
371.802	80.06
372.028	84.06
372.254	102.06
372.48	95.06
372.706	99.06
372.932	108.06
373.158	92.06
373.384	93.06
373.61	99.06
373.835	91.06
374.061	81.06
374.287	94.06
374.513	98.06
374.739	85.06
374.965	85.06
375.191	90.06
375.416	81.06
375.642	97.06
375.868	84.06
376.094	105.06
376.319	102.06
376.545	84.06
376.771	88.06
376.997	72.06
377.222	98.06
377.448	107.06
377.674	87.06
377.899	87.06
378.125	90.06
378.35	87.06
378.576	109.06
378.802	90.06
379.027	81.06
379.253	92.06
379.478	85.06
379.704	96.06
379.929	82.06
380.155	101.06
380.38	96.06
380.606	102.06
380.831	100.06
381.057	101.06
381.282	101.06
381.507	86.06
381.733	82.06
381.958	98.06
382.184	93.06
382.409	98.06
382.634	100.06
382.86	101.06
383.085	105.06
383.31	95.06
383.535	102.06
383.761	99.06
383.986	95.06
384.211	107.06
384.436	108.06
384.662	113.06
384.887	104.06
385.112	99.06
385.337	107.06
385.562	119.06
385.787	126.06
386.013	116.06
386.238	147.06
386.463	121.06
386.688	109.06
386.913	118.06
387.138	101.06
387.363	104.06
387.588	107.06
387.813	110.06
388.038	117.06
388.263	116.06
388.488	103.06
388.713	117.06
388.938	100.06
389.163	83.06
389.387	89.06
389.612	78.06
389.837	99.06
390.062	109.06
390.287	93.06
390.512	76.06
390.736	103.06
390.961	84.06
391.186	100.06
391.411	88.06
391.636	99.06
391.86	87.06
392.085	95.06
392.31	107.06
392.534	91.06
392.759	83.06
392.984	93.06
393.208	97.06
393.433	112.06
393.658	100.06
393.882	85.06
394.107	94.06
394.331	82.06
394.556	91.06
394.78	85.06
395.005	92.06
395.229	89.06
395.454	110.06
395.678	95.06
395.903	99.06
396.127	94.06
396.352	116.06
396.576	94.06
396.801	99.06
397.025	91.06
397.249	95.06
397.474	92.06
397.698	89.06
397.922	92.06
398.147	101.06
398.371	81.06
398.595	87.06
398.82	88.06
399.044	84.06
399.268	89.06
399.492	101.06
399.717	95.06
399.941	104.06
400.165	94.06
400.389	101.06
400.613	101.06
400.837	92.06
401.062	97.06
401.286	89.06
401.51	98.06
401.734	99.06
401.958	115.06
402.182	170.06
402.406	222.06
402.63	163.06
402.854	102.06
403.078	100.06
403.302	96.06
403.526	101.06
403.75	95.06
403.974	95.06
404.198	91.06
404.422	103.06
404.645	92.06
404.869	112.06
405.093	132.06
405.317	153.06
405.541	148.06
405.765	123.06
405.988	157.06
406.212	244.06
406.436	369.06
406.66	244.06
406.883	112.06
407.107	104.06
407.331	122.06
407.555	106.06
407.778	104.06
408.002	103.06
408.226	92.06
408.449	94.06
408.673	92.06
408.896	99.06
409.12	109.06
409.344	107.06
409.567	92.06
409.791	101.06
410.014	99.06
410.238	90.06
410.461	97.06
410.685	98.06
410.908	95.06
411.132	108.06
411.355	117.06
411.578	108.06
411.802	105.06
412.025	90.06
412.249	99.06
412.472	132.06
412.695	151.06
412.919	125.06
413.142	112.06
413.365	90.06
413.589	91.06
413.812	89.06
414.035	92.06
414.258	101.06
414.482	96.06
414.705	100.06
414.928	95.06
415.151	98.06
415.374	83.06
415.597	93.06
415.821	80.06
416.044	107.06
416.267	104.06
416.49	89.06
416.713	96.06
416.936	92.06
417.159	89.06
417.382	108.06
417.605	121.06
417.828	119.06
418.051	99.06
418.274	101.06
418.497	85.06
418.72	91.06
418.943	88.06
419.166	88.06
419.389	99.06
419.611	86.06
419.834	86.06
420.057	85.06
420.28	115.06
420.503	90.06
420.726	100.06
420.948	85.06
421.171	110.06
421.394	95.06
421.617	84.06
421.839	88.06
422.062	106.06
422.285	107.06
422.507	113.06
422.73	113.06
422.953	105.06
423.175	96.06
423.398	98.06
423.621	90.06
423.843	83.06
424.066	89.06
424.288	98.06
424.511	106.06
424.733	113.06
424.956	133.06
425.178	106.06
425.401	116.06
425.623	114.06
425.846	111.06
426.068	109.06
426.291	120.06
426.513	93.06
426.735	93.06
426.958	100.06
427.18	130.06
427.402	200.06
427.625	287.06
427.847	279.06
428.069	266.06
428.292	149.06
428.514	108.06
428.736	99.06
428.958	89.06
429.181	86.06
429.403	95.06
429.625	102.06
429.847	97.06
430.069	120.06
430.292	103.06
430.514	84.06
430.736	98.06
430.958	86.06
431.18	79.06
431.402	85.06
431.624	97.06
431.846	97.06
432.068	92.06
432.29	83.06
432.512	107.06
432.734	87.06
432.956	96.06
433.178	114.06
433.4	110.06
433.622	98.06
433.844	112.06
434.066	93.06
434.287	100.06
434.509	100.06
434.731	106.06
434.953	96.06
435.175	95.06
435.397	104.06
435.618	101.06
435.84	121.06
436.062	162.06
436.284	138.06
436.505	114.06
436.727	109.06
436.949	90.06
437.17	98.06
437.392	101.06
437.614	109.06
437.835	128.06
438.057	165.06
438.278	136.06
438.5	118.06
438.721	157.06
438.943	120.06
439.165	89.06
439.386	90.06
439.608	106.06
439.829	108.06
440.05	163.06
440.272	196.06
440.493	123.06
440.715	101.06
440.936	80.06
441.158	97.06
441.379	91.06
441.6	97.06
441.822	102.06
442.043	100.06
442.264	126.06
442.486	116.06
442.707	99.06
442.928	138.06
443.149	194.06
443.371	193.06
443.592	153.06
443.813	139.06
444.034	120.06
444.255	112.06
444.476	97.06
444.698	99.06
444.919	94.06
445.14	148.06
445.361	152.06
445.582	165.06
445.803	201.06
446.024	205.06
446.245	177.06
446.466	144.06
446.687	97.06
446.908	87.06
447.129	106.06
447.35	93.06
447.571	102.06
447.792	105.06
448.013	105.06
448.234	122.06
448.455	131.06
448.675	137.06
448.896	165.06
449.117	122.06
449.338	114.06
449.559	153.06
449.779	175.06
450	104.06
450.221	94.06
450.442	98.06
450.662	114.06
450.883	150.06
451.104	161.06
451.324	111.06
451.545	92.06
451.766	97.06
451.986	104.06
452.207	101.06
452.428	109.06
452.648	122.06
452.869	130.06
453.089	152.06
453.31	149.06
453.53	111.06
453.751	111.06
453.971	133.06
454.192	144.06
454.412	114.06
454.633	98.06
454.853	93.06
455.073	93.06
455.294	92.06
455.514	103.06
455.734	105.06
455.955	107.06
456.175	96.06
456.395	97.06
456.616	91.06
456.836	92.06
457.056	81.06
457.276	88.06
457.497	85.06
457.717	97.06
457.937	101.06
458.157	89.06
458.377	109.06
458.598	136.06
458.818	237.06
459.038	259.06
459.258	155.06
459.478	98.06
459.698	99.06
459.918	98.06
460.138	92.06
460.358	94.06
460.578	79.06
460.798	108.06
461.018	106.06
461.238	95.06
461.458	90.06
461.678	103.06
461.898	84.06
462.118	96.06
462.338	93.06
462.558	94.06
462.777	89.06
462.997	103.06
463.217	119.06
463.437	94.06
463.657	111.06
463.876	93.06
464.096	97.06
464.316	97.06
464.536	109.06
464.755	105.06
464.975	143.06
465.195	268.06
465.414	274.06
465.634	130.06
465.854	97.06
466.073	97.06
466.293	101.06
466.512	99.06
466.732	93.06
466.951	77.06
467.171	107.06
467.391	118.06
467.61	175.06
467.829	269.06
468.049	764.06
468.268	1169.06
468.488	277.06
468.707	107.06
468.927	95.06
469.146	84.06
469.365	104.06
469.585	98.06
469.804	129.06
470.023	145.06
470.243	123.06
470.462	131.06
470.681	143.06
470.901	116.06
471.12	104.06
471.339	118.06
471.558	133.06
471.777	178.06
471.997	398.06
472.216	1524.06
472.435	3537.06
472.654	771.06
472.873	201.06
473.092	123.06
473.311	129.06
473.53	95.06
473.749	115.06
473.968	122.06
474.187	134.06
474.406	101.06
474.625	105.06
474.844	89.06
475.063	92.06
475.282	95.06
475.501	102.06
475.72	100.06
475.939	79.06
476.158	84.06
476.377	96.06
476.596	101.06
476.814	96.06
477.033	105.06
477.252	101.06
477.471	103.06
477.69	95.06
477.908	97.06
478.127	111.06
478.346	104.06
478.564	92.06
478.783	114.06
479.002	117.06
479.22	128.06
479.439	148.06
479.658	146.06
479.876	136.06
480.095	144.06
480.313	163.06
480.532	187.06
480.751	361.06
480.969	1385.06
481.188	6057.06
481.406	3379.06
481.624	466.06
481.843	159.06
482.061	118.06
482.28	93.06
482.498	95.06
482.717	103.06
482.935	89.06
483.153	97.06
483.372	92.06
483.59	106.06
483.808	97.06
484.027	102.06
484.245	103.06
484.463	93.06
484.681	103.06
484.9	84.06
485.118	98.06
485.336	108.06
485.554	116.06
485.772	115.06
485.99	110.06
486.209	118.06
486.427	114.06
486.645	124.06
486.863	144.06
487.081	103.06
487.299	108.06
487.517	96.06
487.735	92.06
487.953	98.06
488.171	98.06
488.389	108.06
488.607	111.06
488.825	108.06
489.043	101.06
489.261	87.06
489.479	97.06
489.696	92.06
489.914	102.06
490.132	86.06
490.35	101.06
490.568	97.06
490.786	88.06
491.003	103.06
491.221	102.06
491.439	95.06
491.657	105.06
491.874	89.06
492.092	95.06
492.31	104.06
492.527	100.06
492.745	115.06
492.963	92.06
493.18	97.06
493.398	96.06
493.615	96.06
493.833	91.06
494.05	104.06
494.268	92.06
494.485	96.06
494.703	99.06
494.92	90.06
495.138	91.06
495.355	98.06
495.573	81.06
495.79	96.06
496.008	93.06
496.225	96.06
496.442	85.06
496.66	97.06
496.877	104.06
497.094	97.06
497.312	106.06
497.529	111.06
497.746	81.06
497.963	94.06
498.181	92.06
498.398	100.06
498.615	114.06
498.832	116.06
499.049	103.06
499.267	102.06
499.484	103.06
499.701	97.06
499.918	94.06
500.135	105.06
500.352	108.06
500.569	112.06
500.786	116.06
501.003	108.06
501.22	99.06
501.437	84.06
501.654	96.06
501.871	135.06
502.088	93.06
502.305	96.06
502.522	84.06
502.739	98.06
502.956	89.06
503.172	108.06
503.389	124.06
503.606	139.06
503.823	103.06
504.04	103.06
504.256	105.06
504.473	95.06
504.69	101.06
504.907	92.06
505.123	92.06
505.34	105.06
505.557	99.06
505.773	91.06
505.99	104.06
506.207	104.06
506.423	95.06
506.64	84.06
506.856	90.06
507.073	92.06
507.289	99.06
507.506	96.06
507.722	139.06
507.939	143.06
508.155	91.06
508.372	103.06
508.588	107.06
508.805	93.06
509.021	101.06
509.238	105.06
509.454	111.06
509.67	114.06
509.887	130.06
510.103	144.06
510.319	278.06
510.536	1014.06
510.752	3694.06
510.968	992.06
