Data from Circ_1998_H10_HRD10591_00011.txt Node
Date: Wed Jan 03 11:26:51 EST 2024
User: Yrep
Spectrometer: HR+D1059
Trigger mode: 1
Integration Time (sec): 1.000000E-1
Scans to average: 1
Electric dark correction enabled: true
Nonlinearity correction enabled: false
Boxcar width: 0
XAxis mode: Wavelengths
Number of Pixels in Spectrum: 2048
>>>>>Begin Spectral Data<<<<<
223.165	-7.44
223.4	-7.44
223.635	-7.44
223.869	-18.44
224.104	-15.44
224.338	-15.44
224.573	-18.44
224.808	-8.44
225.042	-28.44
225.277	0.56
225.511	1.56
225.746	8.56
225.98	8.56
226.215	2.56
226.449	22.56
226.683	21.56
226.918	15.56
227.152	30.56
227.387	33.56
227.621	27.56
227.856	40.56
228.09	38.56
228.324	50.56
228.559	62.56
228.793	57.56
229.027	48.56
229.262	63.56
229.496	80.56
229.73	96.56
229.964	71.56
230.199	62.56
230.433	87.56
230.667	63.56
230.901	69.56
231.136	68.56
231.37	83.56
231.604	83.56
231.838	69.56
232.072	86.56
232.306	88.56
232.541	86.56
232.775	81.56
233.009	73.56
233.243	74.56
233.477	89.56
233.711	76.56
233.945	80.56
234.179	84.56
234.413	80.56
234.647	88.56
234.881	76.56
235.115	89.56
235.349	76.56
235.583	75.56
235.817	68.56
236.051	68.56
236.285	63.56
236.519	68.56
236.753	68.56
236.987	77.56
237.221	70.56
237.455	96.56
237.689	84.56
237.922	78.56
238.156	70.56
238.39	55.56
238.624	68.56
238.858	64.56
239.091	65.56
239.325	82.56
239.559	88.56
239.793	84.56
240.027	69.56
240.26	71.56
240.494	68.56
240.728	64.56
240.961	68.56
241.195	80.56
241.429	87.56
241.662	92.56
241.896	82.56
242.13	69.56
242.363	73.56
242.597	67.56
242.83	79.56
243.064	74.56
243.298	61.56
243.531	78.56
243.765	58.56
243.998	83.56
244.232	78.56
244.465	98.56
244.699	78.56
244.932	74.56
245.166	71.56
245.399	70.56
245.633	72.56
245.866	58.56
246.099	93.56
246.333	69.56
246.566	68.56
246.8	69.56
247.033	63.56
247.266	78.56
247.5	75.56
247.733	89.56
247.966	92.56
248.2	90.56
248.433	91.56
248.666	97.56
248.899	86.56
249.133	86.56
249.366	106.56
249.599	104.56
249.832	72.56
250.066	79.56
250.299	71.56
250.532	92.56
250.765	57.56
250.998	82.56
251.231	86.56
251.465	84.56
251.698	86.56
251.931	78.56
252.164	94.56
252.397	77.56
252.63	73.56
252.863	104.56
253.096	87.56
253.329	70.56
253.562	76.56
253.795	86.56
254.028	89.56
254.261	83.56
254.494	70.56
254.727	85.56
254.96	70.56
255.193	77.56
255.426	92.56
255.659	76.56
255.892	102.56
256.124	99.56
256.357	92.56
256.59	84.56
256.823	79.56
257.056	76.56
257.289	92.56
257.521	83.56
257.754	65.56
257.987	74.56
258.22	95.56
258.452	95.56
258.685	90.56
258.918	82.56
259.151	78.56
259.383	88.56
259.616	80.56
259.849	92.56
260.081	80.56
260.314	89.56
260.547	79.56
260.779	78.56
261.012	96.56
261.244	106.56
261.477	85.56
261.71	93.56
261.942	115.56
262.175	115.56
262.407	101.56
262.64	79.56
262.872	77.56
263.105	87.56
263.337	93.56
263.57	86.56
263.802	65.56
264.035	79.56
264.267	94.56
264.499	74.56
264.732	87.56
264.964	84.56
265.197	84.56
265.429	71.56
265.661	84.56
265.894	80.56
266.126	87.56
266.358	81.56
266.591	87.56
266.823	78.56
267.055	85.56
267.287	81.56
267.52	86.56
267.752	72.56
267.984	89.56
268.216	84.56
268.448	87.56
268.681	77.56
268.913	94.56
269.145	88.56
269.377	73.56
269.609	78.56
269.841	82.56
270.073	81.56
270.306	90.56
270.538	72.56
270.77	102.56
271.002	74.56
271.234	88.56
271.466	104.56
271.698	70.56
271.93	76.56
272.162	87.56
272.394	93.56
272.626	88.56
272.858	94.56
273.09	85.56
273.322	78.56
273.553	75.56
273.785	74.56
274.017	65.56
274.249	80.56
274.481	84.56
274.713	84.56
274.945	96.56
275.176	98.56
275.408	97.56
275.64	101.56
275.872	120.56
276.104	76.56
276.335	103.56
276.567	92.56
276.799	131.56
277.031	150.56
277.262	167.56
277.494	132.56
277.726	94.56
277.957	100.56
278.189	97.56
278.421	82.56
278.652	86.56
278.884	89.56
279.115	81.56
279.347	85.56
279.579	106.56
279.81	116.56
280.042	162.56
280.273	212.56
280.505	142.56
280.736	103.56
280.968	95.56
281.199	71.56
281.431	83.56
281.662	86.56
281.894	83.56
282.125	104.56
282.356	116.56
282.588	158.56
282.819	132.56
283.051	93.56
283.282	82.56
283.513	84.56
283.745	91.56
283.976	84.56
284.207	107.56
284.439	68.56
284.67	78.56
284.901	92.56
285.132	91.56
285.364	91.56
285.595	94.56
285.826	86.56
286.057	95.56
286.288	98.56
286.52	87.56
286.751	86.56
286.982	80.56
287.213	72.56
287.444	92.56
287.675	87.56
287.906	100.56
288.138	84.56
288.369	87.56
288.6	94.56
288.831	91.56
289.062	95.56
289.293	89.56
289.524	96.56
289.755	78.56
289.986	68.56
290.217	57.56
290.448	94.56
290.679	78.56
290.91	81.56
291.141	77.56
291.371	81.56
291.602	71.56
291.833	66.56
292.064	82.56
292.295	77.56
292.526	93.56
292.757	102.56
292.987	96.56
293.218	88.56
293.449	83.56
293.68	88.56
293.91	92.56
294.141	85.56
294.372	78.56
294.603	78.56
294.833	91.56
295.064	91.56
295.295	89.56
295.525	85.56
295.756	89.56
295.987	120.56
296.217	148.56
296.448	137.56
296.679	92.56
296.909	100.56
297.14	77.56
297.37	94.56
297.601	81.56
297.831	87.56
298.062	105.56
298.292	71.56
298.523	93.56
298.753	88.56
298.984	101.56
299.214	88.56
299.445	102.56
299.675	94.56
299.905	104.56
300.136	96.56
300.366	80.56
300.597	85.56
300.827	99.56
301.057	103.56
301.288	119.56
301.518	107.56
301.748	90.56
301.979	105.56
302.209	103.56
302.439	99.56
302.669	88.56
302.9	84.56
303.13	89.56
303.36	98.56
303.59	112.56
303.82	130.56
304.051	102.56
304.281	97.56
304.511	86.56
304.741	76.56
304.971	78.56
305.201	85.56
305.431	86.56
305.661	94.56
305.891	90.56
306.121	89.56
306.352	95.56
306.582	116.56
306.812	90.56
307.042	113.56
307.272	128.56
307.502	174.56
307.731	171.56
307.961	117.56
308.191	89.56
308.421	84.56
308.651	92.56
308.881	90.56
309.111	93.56
309.341	97.56
309.571	104.56
309.8	114.56
310.03	104.56
310.26	113.56
310.49	102.56
310.72	93.56
310.949	119.56
311.179	113.56
311.409	87.56
311.639	107.56
311.868	105.56
312.098	93.56
312.328	100.56
312.557	110.56
312.787	113.56
313.017	104.56
313.246	103.56
313.476	90.56
313.706	96.56
313.935	103.56
314.165	101.56
314.394	109.56
314.624	101.56
314.853	97.56
315.083	93.56
315.312	103.56
315.542	89.56
315.771	75.56
316.001	100.56
316.23	101.56
316.46	101.56
316.689	89.56
316.919	91.56
317.148	106.56
317.377	95.56
317.607	102.56
317.836	100.56
318.065	86.56
318.295	80.56
318.524	95.56
318.753	112.56
318.983	101.56
319.212	103.56
319.441	109.56
319.67	113.56
319.9	86.56
320.129	101.56
320.358	92.56
320.587	110.56
320.816	103.56
321.046	97.56
321.275	105.56
321.504	105.56
321.733	91.56
321.962	105.56
322.191	101.56
322.42	125.56
322.649	126.56
322.878	110.56
323.108	118.56
323.337	132.56
323.566	158.56
323.795	174.56
324.024	233.56
324.253	490.56
324.482	1037.56
324.71	2279.56
324.939	3145.56
325.168	1092.56
325.397	320.56
325.626	186.56
325.855	137.56
326.084	142.56
326.313	153.56
326.542	171.56
326.77	290.56
326.999	567.56
327.228	1244.56
327.457	2305.56
327.686	1863.56
327.914	580.56
328.143	474.56
328.372	562.56
328.6	316.56
328.829	181.56
329.058	181.56
329.287	176.56
329.515	166.56
329.744	242.56
329.972	414.56
330.201	816.56
330.43	1220.56
330.658	534.56
330.887	257.56
331.115	180.56
331.344	120.56
331.572	129.56
331.801	109.56
332.03	108.56
332.258	123.56
332.486	106.56
332.715	94.56
332.943	111.56
333.172	126.56
333.4	114.56
333.629	133.56
333.857	214.56
334.085	364.56
334.314	764.56
334.542	1520.56
334.771	1448.56
334.999	383.56
335.227	162.56
335.455	116.56
335.684	109.56
335.912	101.56
336.14	109.56
336.369	96.56
336.597	100.56
336.825	112.56
337.053	90.56
337.281	98.56
337.51	101.56
337.738	91.56
337.966	104.56
338.194	109.56
338.422	86.56
338.65	93.56
338.878	101.56
339.106	81.56
339.334	87.56
339.562	97.56
339.79	102.56
340.018	90.56
340.246	103.56
340.474	101.56
340.702	94.56
340.93	88.56
341.158	94.56
341.386	94.56
341.614	100.56
341.842	98.56
342.07	103.56
342.298	96.56
342.526	99.56
342.754	89.56
342.981	87.56
343.209	84.56
343.437	98.56
343.665	82.56
343.893	90.56
344.12	105.56
344.348	88.56
344.576	70.56
344.804	95.56
345.031	113.56
345.259	112.56
345.487	101.56
345.714	109.56
345.942	101.56
346.17	101.56
346.397	81.56
346.625	80.56
346.853	100.56
347.08	86.56
347.308	91.56
347.535	109.56
347.763	111.56
347.99	106.56
348.218	100.56
348.445	117.56
348.673	112.56
348.9	104.56
349.128	98.56
349.355	94.56
349.583	93.56
349.81	84.56
350.037	109.56
350.265	86.56
350.492	88.56
350.72	97.56
350.947	103.56
351.174	104.56
351.402	109.56
351.629	107.56
351.856	125.56
352.083	98.56
352.311	112.56
352.538	98.56
352.765	106.56
352.992	114.56
353.22	118.56
353.447	132.56
353.674	101.56
353.901	100.56
354.128	91.56
354.355	103.56
354.583	86.56
354.81	100.56
355.037	91.56
355.264	93.56
355.491	93.56
355.718	92.56
355.945	92.56
356.172	103.56
356.399	92.56
356.626	104.56
356.853	90.56
357.08	105.56
357.307	77.56
357.534	98.56
357.761	86.56
357.988	94.56
358.215	102.56
358.441	97.56
358.668	89.56
358.895	97.56
359.122	95.56
359.349	89.56
359.576	102.56
359.802	110.56
360.029	101.56
360.256	126.56
360.483	109.56
360.709	104.56
360.936	108.56
361.163	102.56
361.39	104.56
361.616	102.56
361.843	95.56
362.07	96.56
362.296	112.56
362.523	115.56
362.749	100.56
362.976	85.56
363.203	94.56
363.429	89.56
363.656	87.56
363.882	85.56
364.109	94.56
364.335	100.56
364.562	97.56
364.788	89.56
365.015	98.56
365.241	98.56
365.468	101.56
365.694	111.56
365.92	84.56
366.147	85.56
366.373	81.56
366.599	106.56
366.826	89.56
367.052	82.56
367.278	87.56
367.505	96.56
367.731	107.56
367.957	86.56
368.184	89.56
368.41	91.56
368.636	113.56
368.862	106.56
369.089	120.56
369.315	97.56
369.541	93.56
369.767	91.56
369.993	93.56
370.219	89.56
370.445	78.56
370.672	86.56
370.898	92.56
371.124	77.56
371.35	87.56
371.576	96.56
371.802	88.56
372.028	85.56
372.254	87.56
372.48	82.56
372.706	93.56
372.932	91.56
373.158	85.56
373.384	106.56
373.61	81.56
373.835	93.56
374.061	91.56
374.287	92.56
374.513	96.56
374.739	85.56
374.965	85.56
375.191	79.56
375.416	89.56
375.642	85.56
375.868	77.56
376.094	94.56
376.319	90.56
376.545	87.56
376.771	79.56
376.997	98.56
377.222	101.56
377.448	90.56
377.674	88.56
377.899	90.56
378.125	92.56
378.35	101.56
378.576	111.56
378.802	80.56
379.027	93.56
379.253	103.56
379.478	84.56
379.704	91.56
379.929	104.56
380.155	103.56
380.38	107.56
380.606	112.56
380.831	101.56
381.057	114.56
381.282	85.56
381.507	102.56
381.733	105.56
381.958	101.56
382.184	100.56
382.409	91.56
382.634	102.56
382.86	106.56
383.085	110.56
383.31	105.56
383.535	108.56
383.761	117.56
383.986	104.56
384.211	103.56
384.436	104.56
384.662	113.56
384.887	130.56
385.112	120.56
385.337	120.56
385.562	108.56
385.787	122.56
386.013	133.56
386.238	133.56
386.463	123.56
386.688	130.56
386.913	125.56
387.138	126.56
387.363	124.56
387.588	102.56
387.813	117.56
388.038	110.56
388.263	140.56
388.488	132.56
388.713	90.56
388.938	87.56
389.163	88.56
389.387	102.56
389.612	89.56
389.837	91.56
390.062	87.56
390.287	84.56
390.512	93.56
390.736	95.56
390.961	91.56
391.186	98.56
391.411	78.56
391.636	94.56
391.86	76.56
392.085	88.56
392.31	84.56
392.534	101.56
392.759	98.56
392.984	72.56
393.208	93.56
393.433	113.56
393.658	107.56
393.882	90.56
394.107	90.56
394.331	96.56
394.556	93.56
394.78	90.56
395.005	84.56
395.229	89.56
395.454	81.56
395.678	85.56
395.903	79.56
396.127	93.56
396.352	80.56
396.576	99.56
396.801	98.56
397.025	99.56
397.249	92.56
397.474	89.56
397.698	82.56
397.922	82.56
398.147	94.56
398.371	82.56
398.595	78.56
398.82	93.56
399.044	89.56
399.268	92.56
399.492	80.56
399.717	88.56
399.941	98.56
400.165	80.56
400.389	97.56
400.613	82.56
400.837	88.56
401.062	94.56
401.286	101.56
401.51	95.56
401.734	80.56
401.958	100.56
402.182	133.56
402.406	175.56
402.63	135.56
402.854	100.56
403.078	87.56
403.302	80.56
403.526	96.56
403.75	105.56
403.974	80.56
404.198	87.56
404.422	84.56
404.645	90.56
404.869	105.56
405.093	117.56
405.317	129.56
405.541	122.56
405.765	106.56
405.988	124.56
406.212	198.56
406.436	273.56
406.66	176.56
406.883	114.56
407.107	86.56
407.331	104.56
407.555	105.56
407.778	124.56
408.002	94.56
408.226	98.56
408.449	84.56
408.673	81.56
408.896	89.56
409.12	106.56
409.344	79.56
409.567	86.56
409.791	94.56
410.014	88.56
410.238	93.56
410.461	90.56
410.685	99.56
410.908	100.56
411.132	102.56
411.355	93.56
411.578	88.56
411.802	93.56
412.025	87.56
412.249	106.56
412.472	118.56
412.695	137.56
412.919	108.56
413.142	106.56
413.365	102.56
413.589	98.56
413.812	95.56
414.035	96.56
414.258	94.56
414.482	93.56
414.705	67.56
414.928	85.56
415.151	89.56
415.374	87.56
415.597	94.56
415.821	79.56
416.044	84.56
416.267	76.56
416.49	88.56
416.713	83.56
416.936	89.56
417.159	87.56
417.382	114.56
417.605	86.56
417.828	102.56
418.051	116.56
418.274	86.56
418.497	92.56
418.72	91.56
418.943	81.56
419.166	99.56
419.389	92.56
419.611	82.56
419.834	101.56
420.057	88.56
420.28	82.56
420.503	79.56
420.726	81.56
420.948	92.56
421.171	104.56
421.394	106.56
421.617	85.56
421.839	91.56
422.062	81.56
422.285	100.56
422.507	103.56
422.73	107.56
422.953	95.56
423.175	88.56
423.398	85.56
423.621	89.56
423.843	97.56
424.066	87.56
424.288	74.56
424.511	92.56
424.733	111.56
424.956	111.56
425.178	100.56
425.401	119.56
425.623	105.56
425.846	78.56
426.068	99.56
426.291	102.56
426.513	97.56
426.735	94.56
426.958	102.56
427.18	111.56
427.402	165.56
427.625	246.56
427.847	233.56
428.069	230.56
428.292	131.56
428.514	91.56
428.736	75.56
428.958	84.56
429.181	80.56
429.403	92.56
429.625	79.56
429.847	98.56
430.069	120.56
430.292	105.56
430.514	84.56
430.736	87.56
430.958	89.56
431.18	86.56
431.402	91.56
431.624	87.56
431.846	84.56
432.068	97.56
432.29	88.56
432.512	107.56
432.734	87.56
432.956	104.56
433.178	97.56
433.4	107.56
433.622	101.56
433.844	84.56
434.066	92.56
434.287	86.56
434.509	82.56
434.731	105.56
434.953	93.56
435.175	88.56
435.397	91.56
435.618	112.56
435.84	104.56
436.062	135.56
436.284	127.56
436.505	110.56
436.727	106.56
436.949	91.56
437.17	90.56
437.392	87.56
437.614	82.56
437.835	123.56
438.057	139.56
438.278	134.56
438.5	124.56
438.721	119.56
438.943	116.56
439.165	95.56
439.386	83.56
439.608	102.56
439.829	110.56
440.05	152.56
440.272	197.56
440.493	108.56
440.715	87.56
440.936	92.56
441.158	100.56
441.379	84.56
441.6	94.56
441.822	84.56
442.043	92.56
442.264	120.56
442.486	111.56
442.707	98.56
442.928	103.56
443.149	158.56
443.371	164.56
443.592	128.56
443.813	126.56
444.034	101.56
444.255	81.56
444.476	95.56
444.698	92.56
444.919	85.56
445.14	152.56
445.361	144.56
445.582	141.56
445.803	175.56
446.024	171.56
446.245	184.56
446.466	131.56
446.687	89.56
446.908	96.56
447.129	89.56
447.35	94.56
447.571	88.56
447.792	99.56
448.013	106.56
448.234	113.56
448.455	115.56
448.675	117.56
448.896	141.56
449.117	116.56
449.338	120.56
449.559	159.56
449.779	168.56
450	104.56
450.221	93.56
450.442	98.56
450.662	106.56
450.883	117.56
451.104	128.56
451.324	105.56
451.545	91.56
451.766	84.56
451.986	84.56
452.207	86.56
452.428	88.56
452.648	95.56
452.869	113.56
453.089	119.56
453.31	124.56
453.53	95.56
453.751	92.56
453.971	99.56
454.192	126.56
454.412	98.56
454.633	84.56
454.853	81.56
455.073	92.56
455.294	96.56
455.514	109.56
455.734	82.56
455.955	76.56
456.175	85.56
456.395	84.56
456.616	82.56
456.836	75.56
457.056	82.56
457.276	79.56
457.497	81.56
457.717	91.56
457.937	85.56
458.157	91.56
458.377	91.56
458.598	106.56
458.818	189.56
459.038	192.56
459.258	146.56
459.478	90.56
459.698	110.56
459.918	90.56
460.138	86.56
460.358	88.56
460.578	86.56
460.798	71.56
461.018	100.56
461.238	92.56
461.458	81.56
461.678	94.56
461.898	98.56
462.118	96.56
462.338	86.56
462.558	89.56
462.777	87.56
462.997	108.56
463.217	103.56
463.437	88.56
463.657	90.56
463.876	92.56
464.096	90.56
464.316	96.56
464.536	105.56
464.755	105.56
464.975	124.56
465.195	216.56
465.414	206.56
465.634	120.56
465.854	100.56
466.073	90.56
466.293	82.56
466.512	94.56
466.732	97.56
466.951	86.56
467.171	110.56
467.391	100.56
467.61	141.56
467.829	198.56
468.049	510.56
468.268	701.56
468.488	202.56
468.707	98.56
468.927	88.56
469.146	100.56
469.365	87.56
469.585	97.56
469.804	106.56
470.023	94.56
470.243	94.56
470.462	116.56
470.681	135.56
470.901	92.56
471.12	90.56
471.339	101.56
471.558	105.56
471.777	155.56
471.997	266.56
472.216	942.56
472.435	2151.56
472.654	488.56
472.873	156.56
473.092	102.56
473.311	108.56
473.53	87.56
473.749	97.56
473.968	98.56
474.187	118.56
474.406	103.56
474.625	81.56
474.844	92.56
475.063	85.56
475.282	81.56
475.501	90.56
475.72	95.56
475.939	88.56
476.158	79.56
476.377	79.56
476.596	95.56
476.814	80.56
477.033	97.56
477.252	82.56
477.471	84.56
477.69	84.56
477.908	94.56
478.127	96.56
478.346	85.56
478.564	95.56
478.783	104.56
479.002	103.56
479.22	99.56
479.439	115.56
479.658	132.56
479.876	116.56
480.095	129.56
480.313	125.56
480.532	151.56
480.751	246.56
480.969	913.56
481.188	3795.56
481.406	2151.56
481.624	308.56
481.843	128.56
482.061	101.56
482.28	99.56
482.498	86.56
482.717	88.56
482.935	83.56
483.153	102.56
483.372	84.56
483.59	86.56
483.808	92.56
484.027	85.56
484.245	82.56
484.463	95.56
484.681	97.56
484.9	96.56
485.118	86.56
485.336	99.56
485.554	102.56
485.772	112.56
485.99	114.56
486.209	110.56
486.427	109.56
486.645	122.56
486.863	120.56
487.081	98.56
487.299	98.56
487.517	104.56
487.735	94.56
487.953	98.56
488.171	94.56
488.389	105.56
488.607	104.56
488.825	96.56
489.043	97.56
489.261	94.56
489.479	92.56
489.696	100.56
489.914	84.56
490.132	85.56
490.35	76.56
490.568	81.56
490.786	93.56
491.003	79.56
491.221	92.56
491.439	100.56
491.657	95.56
491.874	103.56
492.092	87.56
492.31	103.56
492.527	94.56
492.745	108.56
492.963	100.56
493.18	85.56
493.398	97.56
493.615	100.56
493.833	93.56
494.05	82.56
494.268	99.56
494.485	94.56
494.703	93.56
494.92	92.56
495.138	95.56
495.355	89.56
495.573	97.56
495.79	94.56
496.008	79.56
496.225	90.56
496.442	90.56
496.66	81.56
496.877	95.56
497.094	96.56
497.312	84.56
497.529	94.56
497.746	86.56
497.963	92.56
498.181	93.56
498.398	103.56
498.615	109.56
498.832	124.56
499.049	90.56
499.267	93.56
499.484	78.56
499.701	88.56
499.918	98.56
500.135	77.56
500.352	81.56
500.569	84.56
500.786	87.56
501.003	101.56
501.22	98.56
501.437	88.56
501.654	98.56
501.871	109.56
502.088	85.56
502.305	96.56
502.522	77.56
502.739	88.56
502.956	99.56
503.172	91.56
503.389	97.56
503.606	111.56
503.823	96.56
504.04	95.56
504.256	78.56
504.473	104.56
504.69	91.56
504.907	95.56
505.123	80.56
505.34	89.56
505.557	97.56
505.773	94.56
505.99	85.56
506.207	84.56
506.423	92.56
506.64	94.56
506.856	82.56
507.073	94.56
507.289	85.56
507.506	104.56
507.722	121.56
507.939	122.56
508.155	124.56
508.372	93.56
508.588	96.56
508.805	86.56
509.021	92.56
509.238	111.56
509.454	86.56
509.67	92.56
509.887	102.56
510.103	123.56
510.319	225.56
510.536	801.56
510.752	2849.56
510.968	774.56
511.184	166.56
511.401	110.56
511.617	104.56
511.833	96.56
512.049	97.56
512.265	96.56
512.481	75.56
512.698	101.56
512.914	91.56
513.13	96.56
513.346	100.56
