Data from Circ_1998_H10_HRD10591_00008.txt Node
Date: Wed Jan 03 11:26:50 EST 2024
User: Yrep
Spectrometer: HR+D1059
Trigger mode: 1
Integration Time (sec): 1.000000E-1
Scans to average: 1
Electric dark correction enabled: true
Nonlinearity correction enabled: false
Boxcar width: 0
XAxis mode: Wavelengths
Number of Pixels in Spectrum: 2048
>>>>>Begin Spectral Data<<<<<
223.165	-10.94
223.4	-10.94
223.635	-10.94
223.869	-17.94
224.104	-17.94
224.338	-15.94
224.573	-19.94
224.808	2.06
225.042	-2.94
225.277	-11.94
225.511	-8.94
225.746	11.06
225.98	-6.94
226.215	16.06
226.449	24.06
226.683	7.06
226.918	26.06
227.152	27.06
227.387	44.06
227.621	43.06
227.856	40.06
228.09	42.06
228.324	46.06
228.559	60.06
228.793	168.06
229.027	454.06
229.262	521.06
229.496	652.06
229.73	865.06
229.964	859.06
230.199	564.06
230.433	520.06
230.667	544.06
230.901	498.06
231.136	477.06
231.37	460.06
231.604	493.06
231.838	487.06
232.072	491.06
232.306	506.06
232.541	511.06
232.775	474.06
233.009	492.06
233.243	508.06
233.477	529.06
233.711	514.06
233.945	527.06
234.179	537.06
234.413	548.06
234.647	530.06
234.881	545.06
235.115	549.06
235.349	573.06
235.583	588.06
235.817	656.06
236.051	678.06
236.285	666.06
236.519	637.06
236.753	744.06
236.987	991.06
237.221	1465.06
237.455	1588.06
237.689	942.06
237.922	790.06
238.156	774.06
238.39	732.06
238.624	697.06
238.858	712.06
239.091	699.06
239.325	738.06
239.559	740.06
239.793	767.06
240.027	843.06
240.26	1007.06
240.494	1048.06
240.728	1016.06
240.961	938.06
241.195	849.06
241.429	867.06
241.662	866.06
241.896	856.06
242.13	864.06
242.363	870.06
242.597	904.06
242.83	945.06
243.064	953.06
243.298	945.06
243.531	952.06
243.765	983.06
243.998	948.06
244.232	987.06
244.465	991.06
244.699	988.06
244.932	1007.06
245.166	1025.06
245.399	1022.06
245.633	1034.06
245.866	1006.06
246.099	1046.06
246.333	1054.06
246.566	1080.06
246.8	1066.06
247.033	1144.06
247.266	1183.06
247.5	1270.06
247.733	1271.06
247.966	1275.06
248.2	1317.06
248.433	1258.06
248.666	1408.06
248.899	1506.06
249.133	1653.06
249.366	1722.06
249.599	1641.06
249.832	1616.06
250.066	1848.06
250.299	2503.06
250.532	3274.06
250.765	3018.06
250.998	2527.06
251.231	2144.06
251.465	1823.06
251.698	1739.06
251.931	1658.06
252.164	1616.06
252.397	1614.06
252.63	1670.06
252.863	1748.06
253.096	1842.06
253.329	1912.06
253.562	1833.06
253.795	1729.06
254.028	1761.06
254.261	1864.06
254.494	2097.06
254.727	2422.06
254.96	2554.06
255.193	2350.06
255.426	2411.06
255.659	3040.06
255.892	4540.06
256.124	5931.06
256.357	4728.06
256.59	3318.06
256.823	2685.06
257.056	2336.06
257.289	2184.06
257.521	2084.06
257.754	1997.06
257.987	1938.06
258.22	1924.06
258.452	1892.06
258.685	1867.06
258.918	1887.06
259.151	1881.06
259.383	1951.06
259.616	1900.06
259.849	2023.06
260.081	2117.06
260.314	2328.06
260.547	2259.06
260.779	2045.06
261.012	2007.06
261.244	1944.06
261.477	1971.06
261.71	1960.06
261.942	2058.06
262.175	2067.06
262.407	1979.06
262.64	1905.06
262.872	1909.06
263.105	1858.06
263.337	1862.06
263.57	1925.06
263.802	1883.06
264.035	1890.06
264.267	1925.06
264.499	1884.06
264.732	1914.06
264.964	1884.06
265.197	1894.06
265.429	1925.06
265.661	1939.06
265.894	1976.06
266.126	1972.06
266.358	2006.06
266.591	2014.06
266.823	2082.06
267.055	2084.06
267.287	2074.06
267.52	2066.06
267.752	2068.06
267.984	2106.06
268.216	2089.06
268.448	2175.06
268.681	2199.06
268.913	2356.06
269.145	2490.06
269.377	2557.06
269.609	2409.06
269.841	2445.06
270.073	2554.06
270.306	2810.06
270.538	2918.06
270.77	2744.06
271.002	2625.06
271.234	2591.06
271.466	2745.06
271.698	2929.06
271.93	2938.06
272.162	2934.06
272.394	2818.06
272.626	2710.06
272.858	2580.06
273.09	2536.06
273.322	2485.06
273.553	2504.06
273.785	2576.06
274.017	2565.06
274.249	2571.06
274.481	2637.06
274.713	2649.06
274.945	2688.06
275.176	2712.06
275.408	2737.06
275.64	2762.06
275.872	2833.06
276.104	2860.06
276.335	2868.06
276.567	3074.06
276.799	3329.06
277.031	3682.06
277.262	3933.06
277.494	3573.06
277.726	3228.06
277.957	3110.06
278.189	3076.06
278.421	2982.06
278.652	2914.06
278.884	2928.06
279.115	2885.06
279.347	2944.06
279.579	3040.06
279.81	3163.06
280.042	3534.06
280.273	3812.06
280.505	3632.06
280.736	3231.06
280.968	3134.06
281.199	3068.06
281.431	3047.06
281.662	2966.06
281.894	2972.06
282.125	3000.06
282.356	3224.06
282.588	3374.06
282.819	3149.06
283.051	2951.06
283.282	2930.06
283.513	2941.06
283.745	3002.06
283.976	2966.06
284.207	2958.06
284.439	2932.06
284.67	2945.06
284.901	3025.06
285.132	2982.06
285.364	2980.06
285.595	3030.06
285.826	3006.06
286.057	3065.06
286.288	3065.06
286.52	3048.06
286.751	3068.06
286.982	3060.06
287.213	3058.06
287.444	3168.06
287.675	3182.06
287.906	3272.06
288.138	3287.06
288.369	3265.06
288.6	3216.06
288.831	3213.06
289.062	3237.06
289.293	3170.06
289.524	3165.06
289.755	3174.06
289.986	3123.06
290.217	3150.06
290.448	3197.06
290.679	3133.06
290.91	3097.06
291.141	3111.06
291.371	3148.06
291.602	3111.06
291.833	3122.06
292.064	3148.06
292.295	3130.06
292.526	3114.06
292.757	3105.06
292.987	3148.06
293.218	3046.06
293.449	3150.06
293.68	3110.06
293.91	3154.06
294.141	3152.06
294.372	3114.06
294.603	3133.06
294.833	3149.06
295.064	3149.06
295.295	3187.06
295.525	3210.06
295.756	3280.06
295.987	3436.06
296.217	3581.06
296.448	3483.06
296.679	3245.06
296.909	3204.06
297.14	3228.06
297.37	3342.06
297.601	3344.06
297.831	3297.06
298.062	3332.06
298.292	3344.06
298.523	3378.06
298.753	3436.06
298.984	3397.06
299.214	3487.06
299.445	3365.06
299.675	3447.06
299.905	3518.06
300.136	3426.06
300.366	3493.06
300.597	3477.06
300.827	3602.06
301.057	3714.06
301.288	3767.06
301.518	3630.06
301.748	3672.06
301.979	3789.06
302.209	3759.06
302.439	3783.06
302.669	3640.06
302.9	3662.06
303.13	3614.06
303.36	3768.06
303.59	3865.06
303.82	3997.06
304.051	3858.06
304.281	3737.06
304.511	3652.06
304.741	3660.06
304.971	3600.06
305.201	3632.06
305.431	3589.06
305.661	3639.06
305.891	3575.06
306.121	3627.06
306.352	3793.06
306.582	3690.06
306.812	3645.06
307.042	3808.06
307.272	4078.06
307.502	4203.06
307.731	4050.06
307.961	3850.06
308.191	3727.06
308.421	3696.06
308.651	3734.06
308.881	3738.06
309.111	3726.06
309.341	3805.06
309.571	3872.06
309.8	3976.06
310.03	4053.06
310.26	4107.06
310.49	4036.06
310.72	4201.06
310.949	4369.06
311.179	4288.06
311.409	4104.06
311.639	4087.06
311.868	4123.06
312.098	4177.06
312.328	4320.06
312.557	4498.06
312.787	4533.06
313.017	4394.06
313.246	4207.06
313.476	4148.06
313.706	4192.06
313.935	4376.06
314.165	4466.06
314.394	4474.06
314.624	4382.06
314.853	4271.06
315.083	4220.06
315.312	4154.06
315.542	4153.06
315.771	4079.06
316.001	4074.06
316.23	4053.06
316.46	4102.06
316.689	4190.06
316.919	4225.06
317.148	4300.06
317.377	4271.06
317.607	4192.06
317.836	4206.06
318.065	4127.06
318.295	4165.06
318.524	4209.06
318.753	4185.06
318.983	4142.06
319.212	4093.06
319.441	4250.06
319.67	4262.06
319.9	4176.06
320.129	4251.06
320.358	4275.06
320.587	4318.06
320.816	4342.06
321.046	4408.06
321.275	4396.06
321.504	4415.06
321.733	4424.06
321.962	4502.06
322.191	4682.06
322.42	4916.06
322.649	4950.06
322.878	5068.06
323.108	5237.06
323.337	5525.06
323.566	5767.06
323.795	6170.06
324.024	6966.06
324.253	9466.06
324.482	14005.06
324.71	15618.06
324.939	15618.06
325.168	14960.06
325.397	8133.06
325.626	6488.06
325.855	5972.06
326.084	5949.06
326.313	5988.06
326.542	6297.06
326.77	7371.06
326.999	9624.06
327.228	13767.06
327.457	15618.06
327.686	15618.06
327.914	12708.06
328.143	11660.06
328.372	12337.06
328.6	9863.06
328.829	8381.06
329.058	8528.06
329.287	8644.06
329.515	8764.06
329.744	10203.06
329.972	13105.06
330.201	15593.06
330.43	15618.06
330.658	13865.06
330.887	10429.06
331.115	8639.06
331.344	7435.06
331.572	7031.06
331.801	7177.06
332.03	6937.06
332.258	6996.06
332.486	6928.06
332.715	7157.06
332.943	7426.06
333.172	7994.06
333.4	8660.06
333.629	9614.06
333.857	11474.06
334.085	14023.06
334.314	15618.06
334.542	15618.06
334.771	15618.06
334.999	13824.06
335.227	9717.06
335.455	8205.06
335.684	7387.06
335.912	7098.06
336.14	6665.06
336.369	6489.06
336.597	6415.06
336.825	6269.06
337.053	6026.06
337.281	5837.06
337.51	5724.06
337.738	5693.06
337.966	5701.06
338.194	5601.06
338.422	5570.06
338.65	5297.06
338.878	5271.06
339.106	5249.06
339.334	5158.06
339.562	5097.06
339.79	5022.06
340.018	5098.06
340.246	5085.06
340.474	5103.06
340.702	5039.06
340.93	5039.06
341.158	5005.06
341.386	5002.06
341.614	5013.06
341.842	4932.06
342.07	4858.06
342.298	4830.06
342.526	4808.06
342.754	4803.06
342.981	4766.06
343.209	4918.06
343.437	5093.06
343.665	5341.06
343.893	5503.06
344.12	5606.06
344.348	5396.06
344.576	5230.06
344.804	5178.06
345.031	5286.06
345.259	5193.06
345.487	5012.06
345.714	4810.06
345.942	4725.06
346.17	4681.06
346.397	4661.06
346.625	4670.06
346.853	4635.06
347.08	4623.06
347.308	4764.06
347.535	4848.06
347.763	4863.06
347.99	4844.06
348.218	4939.06
348.445	4890.06
348.673	4755.06
348.9	4633.06
349.128	4576.06
349.355	4525.06
349.583	4523.06
349.81	4521.06
350.037	4486.06
350.265	4490.06
350.492	4428.06
350.72	4532.06
350.947	4577.06
351.174	4748.06
351.402	4788.06
351.629	4667.06
351.856	4759.06
352.083	4842.06
352.311	4837.06
352.538	4881.06
352.765	4772.06
352.992	4686.06
353.22	4642.06
353.447	4637.06
353.674	4556.06
353.901	4393.06
354.128	4382.06
354.355	4404.06
354.583	4433.06
354.81	4415.06
355.037	4392.06
355.264	4384.06
355.491	4271.06
355.718	4336.06
355.945	4287.06
356.172	4347.06
356.399	4276.06
356.626	4351.06
356.853	4274.06
357.08	4276.06
357.307	4322.06
357.534	4335.06
357.761	4375.06
357.988	4279.06
358.215	4321.06
358.441	4414.06
358.668	4387.06
358.895	4455.06
359.122	4511.06
359.349	4616.06
359.576	4746.06
359.802	5002.06
360.029	5376.06
360.256	5338.06
360.483	4959.06
360.709	4714.06
360.936	4632.06
361.163	4716.06
361.39	4746.06
361.616	4718.06
361.843	4638.06
362.07	4673.06
362.296	4728.06
362.523	4615.06
362.749	4643.06
362.976	4606.06
363.203	4531.06
363.429	4480.06
363.656	4456.06
363.882	4540.06
364.109	4474.06
364.335	4416.06
364.562	4509.06
364.788	4539.06
365.015	4462.06
365.241	4553.06
365.468	4559.06
365.694	4511.06
365.92	4532.06
366.147	4443.06
366.373	4445.06
366.599	4446.06
366.826	4433.06
367.052	4385.06
367.278	4491.06
367.505	4485.06
367.731	4486.06
367.957	4498.06
368.184	4528.06
368.41	4619.06
368.636	4708.06
368.862	4682.06
369.089	4610.06
369.315	4478.06
369.541	4545.06
369.767	4616.06
369.993	4620.06
370.219	4630.06
370.445	4623.06
370.672	4557.06
370.898	4590.06
371.124	4619.06
371.35	4693.06
371.576	4623.06
371.802	4604.06
372.028	4620.06
372.254	4637.06
372.48	4683.06
372.706	4757.06
372.932	4845.06
373.158	4757.06
373.384	4680.06
373.61	4665.06
373.835	4740.06
374.061	4761.06
374.287	4825.06
374.513	4856.06
374.739	5032.06
374.965	5100.06
375.191	5023.06
375.416	5005.06
375.642	4806.06
375.868	4800.06
376.094	4769.06
376.319	4703.06
376.545	4728.06
376.771	4678.06
376.997	4649.06
377.222	4673.06
377.448	4649.06
377.674	4606.06
377.899	4572.06
378.125	4551.06
378.35	4575.06
378.576	4541.06
378.802	4576.06
379.027	4529.06
379.253	4639.06
379.478	4580.06
379.704	4609.06
379.929	4671.06
380.155	4628.06
380.38	4639.06
380.606	4622.06
380.831	4654.06
381.057	4698.06
381.282	4659.06
381.507	4682.06
381.733	4761.06
381.958	4746.06
382.184	4871.06
382.409	4901.06
382.634	4887.06
382.86	4902.06
383.085	4940.06
383.31	5013.06
383.535	5035.06
383.761	5198.06
383.986	5181.06
384.211	5313.06
384.436	5276.06
384.662	5432.06
384.887	5524.06
385.112	5509.06
385.337	5592.06
385.562	5561.06
385.787	5596.06
386.013	5745.06
386.238	5716.06
386.463	5686.06
386.688	5646.06
386.913	5502.06
387.138	5488.06
387.363	5504.06
387.588	5485.06
387.813	5498.06
388.038	5525.06
388.263	5496.06
388.488	5478.06
388.713	5470.06
388.938	5477.06
389.163	5434.06
389.387	5450.06
389.612	5327.06
389.837	5369.06
390.062	5365.06
390.287	5378.06
390.512	5425.06
390.736	5494.06
390.961	5574.06
391.186	5672.06
391.411	5728.06
391.636	5944.06
391.86	6064.06
392.085	6161.06
392.31	6018.06
392.534	5896.06
392.759	5832.06
392.984	5737.06
393.208	5705.06
393.433	5792.06
393.658	5743.06
393.882	5696.06
394.107	5675.06
394.331	5739.06
394.556	5700.06
394.78	5880.06
395.005	5862.06
395.229	5777.06
395.454	6082.06
395.678	6131.06
395.903	6207.06
396.127	6237.06
396.352	6058.06
396.576	5921.06
396.801	5870.06
397.025	6015.06
397.249	6040.06
397.474	6250.06
397.698	6188.06
397.922	6384.06
398.147	6439.06
398.371	6556.06
398.595	6696.06
398.82	7064.06
399.044	7598.06
399.268	8216.06
399.492	9316.06
399.717	9896.06
399.941	9771.06
400.165	9209.06
400.389	8547.06
400.613	7707.06
400.837	7290.06
401.062	7162.06
401.286	6980.06
401.51	7030.06
401.734	6929.06
401.958	7071.06
402.182	7229.06
402.406	7406.06
402.63	7410.06
402.854	7516.06
403.078	7527.06
403.302	7767.06
403.526	7866.06
403.75	7904.06
403.974	8045.06
404.198	8008.06
404.422	8238.06
404.645	8418.06
404.869	8729.06
405.093	9462.06
405.317	10134.06
405.541	9864.06
405.765	8881.06
405.988	8362.06
406.212	8327.06
406.436	8403.06
406.66	8436.06
406.883	8279.06
407.107	8893.06
407.331	9418.06
407.555	9872.06
407.778	9543.06
408.002	8759.06
408.226	8409.06
408.449	8276.06
408.673	8240.06
408.896	8330.06
409.12	8467.06
409.344	8000.06
409.567	7596.06
409.791	7682.06
410.014	7532.06
410.238	7527.06
410.461	7538.06
410.685	7520.06
410.908	7701.06
411.132	7856.06
411.355	7971.06
411.578	7603.06
411.802	7549.06
412.025	7809.06
412.249	8473.06
412.472	9308.06
412.695	10042.06
412.919	9140.06
413.142	8459.06
413.365	8020.06
413.589	7656.06
413.812	7378.06
414.035	7293.06
414.258	7196.06
414.482	7166.06
414.705	7133.06
414.928	7045.06
415.151	7014.06
415.374	6923.06
415.597	6936.06
415.821	6792.06
416.044	6916.06
416.267	6861.06
416.49	6738.06
416.713	6723.06
416.936	6850.06
417.159	6943.06
417.382	7111.06
417.605	7306.06
417.828	7525.06
418.051	7286.06
418.274	7058.06
418.497	6845.06
418.72	7054.06
418.943	6932.06
419.166	7421.06
419.389	7874.06
419.611	7964.06
419.834	7994.06
420.057	8248.06
420.28	8729.06
420.503	8322.06
420.726	8086.06
420.948	7968.06
421.171	8114.06
421.394	7871.06
421.617	7218.06
421.839	7190.06
422.062	7157.06
422.285	7308.06
422.507	7914.06
422.73	8590.06
422.953	7760.06
423.175	7369.06
423.398	7491.06
423.621	7352.06
423.843	7656.06
424.066	7452.06
424.288	7404.06
424.511	7668.06
424.733	8260.06
424.956	8796.06
425.178	8227.06
425.401	8378.06
425.623	8202.06
425.846	7201.06
426.068	7105.06
426.291	6996.06
426.513	6969.06
426.735	7116.06
426.958	7710.06
427.18	8606.06
427.402	10135.06
427.625	10817.06
427.847	10300.06
428.069	10012.06
428.292	8143.06
428.514	7156.06
428.736	6700.06
428.958	6588.06
429.181	6375.06
429.403	6308.06
429.625	6463.06
429.847	6876.06
430.069	7369.06
430.292	6838.06
430.514	6255.06
430.736	6248.06
430.958	6110.06
431.18	6056.06
431.402	5977.06
431.624	6030.06
431.846	6127.06
432.068	6089.06
432.29	6246.06
432.512	6158.06
432.734	6240.06
432.956	6190.06
433.178	6285.06
433.4	6244.06
433.622	6143.06
433.844	6106.06
434.066	6210.06
434.287	6259.06
434.509	6506.06
434.731	6595.06
434.953	6800.06
435.175	6993.06
435.397	7074.06
435.618	6970.06
435.84	7477.06
436.062	8396.06
436.284	8423.06
436.505	7015.06
436.727	6678.06
436.949	6342.06
437.17	6199.06
437.392	6116.06
437.614	6320.06
437.835	6937.06
438.057	7958.06
438.278	8676.06
438.5	8418.06
438.721	9380.06
438.943	8039.06
439.165	6779.06
439.386	6587.06
439.608	6674.06
439.829	6882.06
440.05	7398.06
440.272	7899.06
440.493	6992.06
440.715	6556.06
440.936	6460.06
441.158	6610.06
441.379	6615.06
441.6	6991.06
441.822	7274.06
442.043	7725.06
442.264	8553.06
442.486	8332.06
442.707	7307.06
442.928	7010.06
443.149	7450.06
443.371	7649.06
443.592	8182.06
443.813	9382.06
444.034	9069.06
444.255	7825.06
444.476	7547.06
444.698	7702.06
444.919	7836.06
445.14	7752.06
445.361	7808.06
445.582	8068.06
445.803	8951.06
446.024	9754.06
446.245	9238.06
446.466	8108.06
446.687	6777.06
446.908	6453.06
447.129	6209.06
447.35	6104.06
447.571	6033.06
447.792	5936.06
448.013	6012.06
448.234	6210.06
448.455	7059.06
448.675	8359.06
448.896	8844.06
449.117	7154.06
449.338	7508.06
449.559	8993.06
449.779	9156.06
450	6844.06
450.221	6115.06
450.442	5815.06
450.662	5873.06
450.883	6141.06
451.104	6251.06
451.324	6002.06
451.545	5697.06
451.766	5614.06
451.986	5458.06
452.207	5420.06
452.428	5350.06
452.648	5439.06
452.869	5507.06
453.089	5524.06
453.31	5687.06
453.53	5403.06
453.751	5399.06
453.971	5520.06
454.192	5740.06
454.412	5393.06
454.633	5313.06
454.853	5355.06
455.073	5322.06
455.294	5803.06
455.514	6433.06
455.734	5753.06
455.955	5154.06
456.175	5030.06
456.395	4960.06
456.616	4985.06
456.836	5102.06
457.056	4970.06
457.276	4953.06
457.497	5138.06
457.717	5132.06
457.937	5232.06
458.157	5303.06
458.377	5477.06
458.598	5898.06
458.818	6853.06
459.038	7769.06
459.258	7404.06
459.478	6438.06
459.698	6287.06
459.918	6246.06
460.138	6423.06
460.358	6656.06
460.578	6672.06
460.798	6773.06
461.018	6728.06
461.238	6640.06
461.458	6638.06
461.678	6544.06
461.898	6708.06
462.118	6771.06
462.338	7083.06
462.558	7229.06
462.777	7558.06
462.997	8033.06
463.217	8473.06
463.437	8316.06
463.657	7798.06
463.876	7517.06
464.096	7593.06
464.316	7656.06
464.536	7638.06
464.755	7517.06
464.975	7448.06
465.195	8024.06
465.414	8254.06
465.634	6947.06
465.854	6467.06
466.073	6228.06
466.293	6060.06
466.512	5921.06
466.732	5806.06
466.951	5831.06
467.171	5748.06
467.391	5974.06
467.61	6262.06
467.829	6677.06
468.049	8400.06
468.268	10253.06
468.488	7703.06
468.707	6497.06
468.927	6121.06
469.146	5962.06
469.365	5928.06
469.585	5799.06
469.804	6139.06
470.023	6258.06
470.243	6140.06
470.462	6273.06
470.681	6528.06
470.901	6427.06
471.12	6176.06
471.339	6206.06
471.558	6316.06
471.777	6536.06
471.997	7504.06
472.216	11725.06
472.435	15618.06
472.654	12859.06
472.873	8866.06
473.092	7711.06
473.311	7046.06
473.53	6647.06
473.749	6528.06
473.968	6969.06
474.187	8043.06
474.406	7396.06
474.625	6281.06
474.844	5993.06
475.063	5815.06
475.282	5808.06
475.501	5855.06
475.72	5993.06
475.939	5891.06
476.158	5951.06
476.377	5894.06
476.596	5961.06
476.814	6194.06
477.033	6207.06
477.252	6175.06
477.471	6358.06
477.69	6397.06
477.908	6641.06
478.127	6675.06
478.346	6701.06
478.564	6858.06
478.783	7039.06
479.002	7149.06
479.22	7242.06
479.439	7456.06
479.658	7668.06
479.876	7842.06
480.095	8107.06
480.313	8722.06
480.532	8912.06
480.751	9849.06
480.969	13598.06
481.188	15618.06
481.406	15618.06
481.624	14918.06
481.843	11686.06
482.061	10040.06
482.28	9065.06
482.498	8506.06
482.717	8036.06
482.935	7836.06
483.153	7640.06
483.372	7501.06
483.59	7324.06
483.808	7215.06
484.027	7132.06
484.245	7165.06
484.463	7201.06
484.681	7244.06
484.9	7265.06
485.118	7263.06
485.336	7340.06
485.554	7385.06
485.772	7454.06
485.99	7405.06
486.209	7325.06
486.427	7442.06
486.645	7533.06
486.863	7679.06
487.081	7616.06
487.299	7548.06
