Data from Circ_1998_H10_HRD10591_00087.txt Node
Date: Wed Jan 03 11:27:06 EST 2024
User: Yrep
Spectrometer: HR+D1059
Trigger mode: 1
Integration Time (sec): 1.000000E-1
Scans to average: 1
Electric dark correction enabled: true
Nonlinearity correction enabled: false
Boxcar width: 0
XAxis mode: Wavelengths
Number of Pixels in Spectrum: 2048
>>>>>Begin Spectral Data<<<<<
223.165	-20.62
223.4	-20.62
223.635	-20.62
223.869	-20.62
224.104	-12.62
224.338	-15.62
224.573	-15.62
224.808	-21.62
225.042	-14.62
225.277	-1.62
225.511	2.38
225.746	10.38
225.98	23.38
226.215	4.38
226.449	17.38
226.683	16.38
226.918	23.38
227.152	25.38
227.387	31.38
227.621	29.38
227.856	45.38
228.09	48.38
228.324	45.38
228.559	46.38
228.793	59.38
229.027	60.38
229.262	61.38
229.496	72.38
229.73	96.38
229.964	96.38
230.199	91.38
230.433	84.38
230.667	87.38
230.901	60.38
231.136	94.38
231.37	86.38
231.604	78.38
231.838	84.38
232.072	91.38
232.306	96.38
232.541	77.38
232.775	79.38
233.009	88.38
233.243	80.38
233.477	70.38
233.711	78.38
233.945	87.38
234.179	83.38
234.413	79.38
234.647	85.38
234.881	83.38
235.115	89.38
235.349	70.38
235.583	87.38
235.817	87.38
236.051	80.38
236.285	85.38
236.519	85.38
236.753	80.38
236.987	94.38
237.221	92.38
237.455	95.38
237.689	83.38
237.922	71.38
238.156	90.38
238.39	91.38
238.624	83.38
238.858	73.38
239.091	83.38
239.325	90.38
239.559	87.38
239.793	73.38
240.027	89.38
240.26	85.38
240.494	76.38
240.728	83.38
240.961	83.38
241.195	71.38
241.429	73.38
241.662	75.38
241.896	85.38
242.13	85.38
242.363	82.38
242.597	85.38
242.83	94.38
243.064	90.38
243.298	83.38
243.531	79.38
243.765	77.38
243.998	93.38
244.232	75.38
244.465	92.38
244.699	98.38
244.932	76.38
245.166	81.38
245.399	79.38
245.633	75.38
245.866	77.38
246.099	85.38
246.333	72.38
246.566	84.38
246.8	80.38
247.033	94.38
247.266	78.38
247.5	82.38
247.733	69.38
247.966	82.38
248.2	86.38
248.433	80.38
248.666	93.38
248.899	87.38
249.133	76.38
249.366	97.38
249.599	115.38
249.832	90.38
250.066	93.38
250.299	90.38
250.532	76.38
250.765	83.38
250.998	85.38
251.231	89.38
251.465	88.38
251.698	87.38
251.931	90.38
252.164	98.38
252.397	86.38
252.63	83.38
252.863	94.38
253.096	74.38
253.329	83.38
253.562	82.38
253.795	98.38
254.028	77.38
254.261	88.38
254.494	85.38
254.727	94.38
254.96	100.38
255.193	75.38
255.426	86.38
255.659	81.38
255.892	88.38
256.124	103.38
256.357	91.38
256.59	82.38
256.823	94.38
257.056	91.38
257.289	84.38
257.521	81.38
257.754	90.38
257.987	94.38
258.22	86.38
258.452	94.38
258.685	98.38
258.918	92.38
259.151	84.38
259.383	88.38
259.616	90.38
259.849	83.38
260.081	94.38
260.314	101.38
260.547	106.38
260.779	100.38
261.012	120.38
261.244	107.38
261.477	105.38
261.71	98.38
261.942	145.38
262.175	146.38
262.407	103.38
262.64	105.38
262.872	89.38
263.105	75.38
263.337	75.38
263.57	77.38
263.802	87.38
264.035	91.38
264.267	88.38
264.499	88.38
264.732	65.38
264.964	74.38
265.197	81.38
265.429	89.38
265.661	88.38
265.894	81.38
266.126	73.38
266.358	89.38
266.591	89.38
266.823	81.38
267.055	86.38
267.287	88.38
267.52	78.38
267.752	89.38
267.984	92.38
268.216	91.38
268.448	80.38
268.681	95.38
268.913	89.38
269.145	78.38
269.377	93.38
269.609	87.38
269.841	89.38
270.073	74.38
270.306	86.38
270.538	101.38
270.77	88.38
271.002	96.38
271.234	88.38
271.466	104.38
271.698	103.38
271.93	97.38
272.162	80.38
272.394	78.38
272.626	88.38
272.858	89.38
273.09	95.38
273.322	94.38
273.553	103.38
273.785	90.38
274.017	97.38
274.249	97.38
274.481	98.38
274.713	112.38
274.945	89.38
275.176	92.38
275.408	114.38
275.64	127.38
275.872	142.38
276.104	133.38
276.335	93.38
276.567	127.38
276.799	178.38
277.031	219.38
277.262	252.38
277.494	187.38
277.726	115.38
277.957	107.38
278.189	81.38
278.421	93.38
278.652	99.38
278.884	87.38
279.115	116.38
279.347	103.38
279.579	113.38
279.81	168.38
280.042	246.38
280.273	361.38
280.505	207.38
280.736	116.38
280.968	91.38
281.199	103.38
281.431	102.38
281.662	101.38
281.894	93.38
282.125	111.38
282.356	138.38
282.588	185.38
282.819	145.38
283.051	99.38
283.282	94.38
283.513	88.38
283.745	82.38
283.976	91.38
284.207	87.38
284.439	75.38
284.67	85.38
284.901	97.38
285.132	99.38
285.364	92.38
285.595	90.38
285.826	90.38
286.057	96.38
286.288	92.38
286.52	91.38
286.751	93.38
286.982	91.38
287.213	80.38
287.444	93.38
287.675	88.38
287.906	106.38
288.138	91.38
288.369	78.38
288.6	93.38
288.831	94.38
289.062	96.38
289.293	92.38
289.524	90.38
289.755	96.38
289.986	85.38
290.217	75.38
290.448	90.38
290.679	90.38
290.91	98.38
291.141	92.38
291.371	93.38
291.602	86.38
291.833	81.38
292.064	84.38
292.295	93.38
292.526	97.38
292.757	102.38
292.987	91.38
293.218	88.38
293.449	87.38
293.68	102.38
293.91	92.38
294.141	100.38
294.372	85.38
294.603	89.38
294.833	90.38
295.064	96.38
295.295	83.38
295.525	105.38
295.756	104.38
295.987	139.38
296.217	185.38
296.448	152.38
296.679	107.38
296.909	89.38
297.14	82.38
297.37	108.38
297.601	99.38
297.831	83.38
298.062	99.38
298.292	93.38
298.523	86.38
298.753	92.38
298.984	104.38
299.214	79.38
299.445	96.38
299.675	91.38
299.905	95.38
300.136	105.38
300.366	105.38
300.597	98.38
300.827	113.38
301.057	102.38
301.288	123.38
301.518	116.38
301.748	109.38
301.979	119.38
302.209	96.38
302.439	94.38
302.669	89.38
302.9	102.38
303.13	109.38
303.36	129.38
303.59	159.38
303.82	169.38
304.051	112.38
304.281	96.38
304.511	80.38
304.741	91.38
304.971	94.38
305.201	90.38
305.431	95.38
305.661	70.38
305.891	90.38
306.121	118.38
306.352	109.38
306.582	125.38
306.812	134.38
307.042	126.38
307.272	205.38
307.502	225.38
307.731	213.38
307.961	157.38
308.191	117.38
308.421	81.38
308.651	94.38
308.881	102.38
309.111	100.38
309.341	101.38
309.571	99.38
309.8	113.38
310.03	106.38
310.26	116.38
310.49	111.38
310.72	115.38
310.949	110.38
311.179	97.38
311.409	108.38
311.639	107.38
311.868	104.38
312.098	105.38
312.328	104.38
312.557	108.38
312.787	125.38
313.017	117.38
313.246	109.38
313.476	92.38
313.706	101.38
313.935	110.38
314.165	110.38
314.394	110.38
314.624	108.38
314.853	110.38
315.083	107.38
315.312	101.38
315.542	105.38
315.771	90.38
316.001	101.38
316.23	103.38
316.46	100.38
316.689	90.38
316.919	113.38
317.148	111.38
317.377	109.38
317.607	94.38
317.836	110.38
318.065	101.38
318.295	98.38
318.524	95.38
318.753	97.38
318.983	96.38
319.212	113.38
319.441	128.38
319.67	118.38
319.9	89.38
320.129	79.38
320.358	97.38
320.587	104.38
320.816	106.38
321.046	114.38
321.275	113.38
321.504	92.38
321.733	102.38
321.962	110.38
322.191	102.38
322.42	115.38
322.649	126.38
322.878	133.38
323.108	125.38
323.337	143.38
323.566	162.38
323.795	205.38
324.024	259.38
324.253	520.38
324.482	1094.38
324.71	2281.38
324.939	2979.38
325.168	1079.38
325.397	341.38
325.626	168.38
325.855	159.38
326.084	156.38
326.313	170.38
326.542	185.38
326.77	276.38
326.999	541.38
327.228	1159.38
327.457	2101.38
327.686	1693.38
327.914	660.38
328.143	714.38
328.372	983.38
328.6	510.38
328.829	228.38
329.058	233.38
329.287	211.38
329.515	226.38
329.744	350.38
329.972	737.38
330.201	1464.38
330.43	2122.38
330.658	909.38
330.887	365.38
331.115	219.38
331.344	143.38
331.572	139.38
331.801	129.38
332.03	139.38
332.258	121.38
332.486	105.38
332.715	135.38
332.943	127.38
333.172	137.38
333.4	143.38
333.629	206.38
333.857	306.38
334.085	601.38
334.314	1386.38
334.542	2652.38
334.771	2414.38
334.999	585.38
335.227	239.38
335.455	135.38
335.684	117.38
335.912	125.38
336.14	113.38
336.369	106.38
336.597	118.38
336.825	134.38
337.053	94.38
337.281	105.38
337.51	97.38
337.738	102.38
337.966	104.38
338.194	114.38
338.422	122.38
338.65	97.38
338.878	99.38
339.106	110.38
339.334	98.38
339.562	96.38
339.79	94.38
340.018	103.38
340.246	93.38
340.474	87.38
340.702	85.38
340.93	89.38
341.158	92.38
341.386	99.38
341.614	110.38
341.842	105.38
342.07	106.38
342.298	99.38
342.526	102.38
342.754	89.38
342.981	99.38
343.209	96.38
343.437	105.38
343.665	77.38
343.893	102.38
344.12	94.38
344.348	77.38
344.576	97.38
344.804	99.38
345.031	106.38
345.259	117.38
345.487	96.38
345.714	102.38
345.942	94.38
346.17	95.38
346.397	110.38
346.625	91.38
346.853	95.38
347.08	108.38
347.308	107.38
347.535	102.38
347.763	102.38
347.99	112.38
348.218	115.38
348.445	117.38
348.673	111.38
348.9	103.38
349.128	96.38
349.355	106.38
349.583	104.38
349.81	96.38
350.037	95.38
350.265	91.38
350.492	103.38
350.72	114.38
350.947	116.38
351.174	118.38
351.402	130.38
351.629	108.38
351.856	95.38
352.083	124.38
352.311	122.38
352.538	128.38
352.765	120.38
352.992	123.38
353.22	127.38
353.447	104.38
353.674	93.38
353.901	108.38
354.128	103.38
354.355	93.38
354.583	87.38
354.81	97.38
355.037	75.38
355.264	103.38
355.491	89.38
355.718	90.38
355.945	81.38
356.172	99.38
356.399	94.38
356.626	106.38
356.853	98.38
357.08	98.38
357.307	94.38
357.534	98.38
357.761	91.38
357.988	91.38
358.215	96.38
358.441	75.38
358.668	89.38
358.895	99.38
359.122	88.38
359.349	101.38
359.576	105.38
359.802	132.38
360.029	160.38
360.256	131.38
360.483	126.38
360.709	98.38
360.936	102.38
361.163	98.38
361.39	111.38
361.616	90.38
361.843	90.38
362.07	95.38
362.296	105.38
362.523	99.38
362.749	102.38
362.976	96.38
363.203	103.38
363.429	92.38
363.656	101.38
363.882	97.38
364.109	99.38
364.335	91.38
364.562	104.38
364.788	110.38
365.015	98.38
365.241	102.38
365.468	134.38
365.694	130.38
365.92	108.38
366.147	104.38
366.373	87.38
366.599	94.38
366.826	97.38
367.052	85.38
367.278	85.38
367.505	93.38
367.731	96.38
367.957	99.38
368.184	104.38
368.41	114.38
368.636	130.38
368.862	147.38
369.089	125.38
369.315	107.38
369.541	110.38
369.767	94.38
369.993	89.38
370.219	98.38
370.445	94.38
370.672	96.38
370.898	90.38
371.124	100.38
371.35	80.38
371.576	86.38
371.802	93.38
372.028	85.38
372.254	81.38
372.48	92.38
372.706	81.38
372.932	81.38
373.158	93.38
373.384	92.38
373.61	82.38
373.835	86.38
374.061	98.38
374.287	108.38
374.513	85.38
374.739	79.38
374.965	94.38
375.191	85.38
375.416	81.38
375.642	91.38
375.868	90.38
376.094	92.38
376.319	90.38
376.545	82.38
376.771	76.38
376.997	88.38
377.222	91.38
377.448	93.38
377.674	83.38
377.899	104.38
378.125	87.38
378.35	91.38
378.576	91.38
378.802	81.38
379.027	84.38
379.253	92.38
379.478	95.38
379.704	82.38
379.929	96.38
380.155	93.38
380.38	95.38
380.606	89.38
380.831	90.38
381.057	102.38
381.282	90.38
381.507	91.38
381.733	107.38
381.958	111.38
382.184	92.38
382.409	105.38
382.634	93.38
382.86	81.38
383.085	104.38
383.31	105.38
383.535	82.38
383.761	96.38
383.986	112.38
384.211	108.38
384.436	111.38
384.662	98.38
384.887	99.38
385.112	101.38
385.337	110.38
385.562	103.38
385.787	100.38
386.013	110.38
386.238	118.38
386.463	109.38
386.688	93.38
386.913	99.38
387.138	107.38
387.363	97.38
387.588	99.38
387.813	89.38
388.038	90.38
388.263	105.38
388.488	105.38
388.713	102.38
388.938	89.38
389.163	99.38
389.387	88.38
389.612	89.38
389.837	86.38
390.062	74.38
390.287	83.38
390.512	84.38
390.736	78.38
390.961	75.38
391.186	93.38
391.411	90.38
391.636	103.38
391.86	91.38
392.085	85.38
392.31	73.38
392.534	89.38
392.759	90.38
392.984	89.38
393.208	77.38
393.433	89.38
393.658	101.38
393.882	87.38
394.107	96.38
394.331	83.38
394.556	81.38
394.78	86.38
395.005	94.38
395.229	84.38
395.454	90.38
395.678	77.38
395.903	80.38
396.127	92.38
396.352	88.38
396.576	107.38
396.801	95.38
397.025	75.38
397.249	96.38
397.474	101.38
397.698	99.38
397.922	94.38
398.147	88.38
398.371	90.38
398.595	94.38
398.82	93.38
399.044	92.38
399.268	95.38
399.492	85.38
399.717	96.38
399.941	83.38
400.165	90.38
400.389	93.38
400.613	89.38
400.837	96.38
401.062	88.38
401.286	109.38
401.51	90.38
401.734	100.38
401.958	113.38
402.182	161.38
402.406	219.38
402.63	177.38
402.854	106.38
403.078	104.38
403.302	83.38
403.526	85.38
403.75	97.38
403.974	95.38
404.198	81.38
404.422	91.38
404.645	111.38
404.869	98.38
405.093	121.38
405.317	156.38
405.541	153.38
405.765	115.38
405.988	157.38
406.212	245.38
406.436	366.38
406.66	225.38
406.883	130.38
407.107	100.38
407.331	114.38
407.555	99.38
407.778	108.38
408.002	110.38
408.226	97.38
408.449	90.38
408.673	94.38
408.896	105.38
409.12	115.38
409.344	92.38
409.567	89.38
409.791	107.38
410.014	86.38
410.238	96.38
410.461	96.38
410.685	89.38
410.908	101.38
411.132	111.38
411.355	107.38
411.578	97.38
411.802	94.38
412.025	85.38
412.249	109.38
412.472	131.38
412.695	154.38
412.919	120.38
413.142	105.38
413.365	93.38
413.589	83.38
413.812	85.38
414.035	103.38
414.258	102.38
414.482	85.38
414.705	88.38
414.928	97.38
415.151	95.38
415.374	94.38
415.597	99.38
415.821	82.38
416.044	100.38
416.267	92.38
416.49	71.38
416.713	100.38
416.936	106.38
417.159	97.38
417.382	82.38
417.605	119.38
417.828	114.38
418.051	97.38
418.274	82.38
418.497	84.38
418.72	83.38
418.943	81.38
419.166	90.38
419.389	93.38
419.611	105.38
419.834	84.38
420.057	104.38
420.28	103.38
420.503	94.38
420.726	92.38
420.948	93.38
421.171	112.38
421.394	96.38
421.617	88.38
421.839	90.38
422.062	91.38
422.285	102.38
422.507	111.38
422.73	121.38
422.953	89.38
423.175	91.38
423.398	97.38
423.621	106.38
423.843	73.38
424.066	82.38
424.288	87.38
424.511	106.38
424.733	100.38
424.956	126.38
425.178	115.38
425.401	113.38
425.623	113.38
425.846	92.38
426.068	96.38
426.291	98.38
426.513	101.38
426.735	108.38
426.958	102.38
427.18	122.38
427.402	187.38
427.625	281.38
427.847	261.38
428.069	233.38
428.292	127.38
428.514	99.38
428.736	98.38
428.958	89.38
429.181	84.38
429.403	91.38
429.625	91.38
429.847	108.38
430.069	113.38
430.292	97.38
430.514	93.38
430.736	90.38
430.958	89.38
431.18	89.38
431.402	82.38
431.624	71.38
431.846	85.38
432.068	94.38
432.29	86.38
432.512	100.38
432.734	91.38
432.956	98.38
433.178	99.38
433.4	94.38
433.622	107.38
433.844	101.38
434.066	104.38
434.287	88.38
434.509	85.38
434.731	94.38
434.953	75.38
435.175	103.38
435.397	99.38
435.618	91.38
435.84	129.38
436.062	147.38
436.284	123.38
436.505	83.38
436.727	109.38
436.949	97.38
437.17	97.38
437.392	90.38
437.614	97.38
437.835	126.38
438.057	162.38
438.278	123.38
438.5	122.38
438.721	133.38
438.943	116.38
439.165	96.38
439.386	106.38
439.608	108.38
439.829	120.38
440.05	168.38
440.272	197.38
440.493	108.38
440.715	93.38
440.936	84.38
441.158	89.38
441.379	98.38
441.6	93.38
441.822	105.38
442.043	103.38
442.264	111.38
442.486	108.38
442.707	90.38
442.928	133.38
443.149	176.38
443.371	184.38
443.592	126.38
443.813	141.38
444.034	131.38
444.255	110.38
444.476	97.38
444.698	94.38
444.919	90.38
445.14	146.38
445.361	118.38
445.582	140.38
445.803	187.38
446.024	188.38
446.245	175.38
446.466	134.38
446.687	101.38
446.908	96.38
447.129	86.38
447.35	80.38
447.571	103.38
447.792	105.38
448.013	119.38
448.234	110.38
448.455	105.38
448.675	141.38
448.896	137.38
449.117	128.38
449.338	122.38
449.559	149.38
449.779	166.38
450	105.38
450.221	99.38
450.442	96.38
450.662	107.38
450.883	129.38
451.104	166.38
451.324	106.38
451.545	97.38
451.766	83.38
451.986	79.38
452.207	92.38
452.428	96.38
452.648	99.38
452.869	129.38
453.089	149.38
453.31	162.38
453.53	124.38
453.751	88.38
453.971	120.38
454.192	136.38
454.412	106.38
454.633	86.38
454.853	91.38
455.073	85.38
455.294	93.38
455.514	113.38
455.734	102.38
455.955	95.38
456.175	75.38
456.395	85.38
456.616	88.38
456.836	87.38
457.056	105.38
457.276	83.38
457.497	91.38
457.717	93.38
457.937	78.38
458.157	96.38
458.377	109.38
458.598	134.38
458.818	231.38
459.038	269.38
459.258	153.38
459.478	92.38
459.698	92.38
459.918	79.38
460.138	101.38
460.358	83.38
460.578	74.38
460.798	107.38
461.018	106.38
461.238	91.38
461.458	85.38
461.678	95.38
461.898	87.38
462.118	104.38
462.338	93.38
462.558	89.38
462.777	92.38
462.997	102.38
463.217	120.38
463.437	102.38
463.657	100.38
463.876	100.38
464.096	100.38
464.316	103.38
464.536	99.38
464.755	95.38
464.975	141.38
465.195	265.38
465.414	256.38
465.634	115.38
465.854	99.38
466.073	85.38
466.293	93.38
466.512	86.38
466.732	97.38
466.951	99.38
467.171	107.38
467.391	126.38
467.61	160.38
467.829	311.38
468.049	893.38
468.268	1362.38
468.488	299.38
468.707	141.38
468.927	111.38
469.146	98.38
469.365	91.38
469.585	100.38
469.804	121.38
470.023	134.38
470.243	114.38
470.462	142.38
470.681	167.38
470.901	106.38
471.12	118.38
471.339	127.38
471.558	139.38
471.777	197.38
471.997	433.38
472.216	1734.38
472.435	4001.38
472.654	859.38
472.873	213.38
473.092	130.38
473.311	102.38
473.53	94.38
473.749	116.38
473.968	105.38
474.187	129.38
474.406	119.38
474.625	87.38
474.844	89.38
475.063	79.38
475.282	70.38
475.501	84.38
475.72	95.38
475.939	93.38
476.158	98.38
476.377	103.38
476.596	91.38
476.814	101.38
477.033	110.38
477.252	104.38
477.471	96.38
477.69	92.38
477.908	88.38
478.127	102.38
478.346	109.38
478.564	99.38
478.783	109.38
479.002	105.38
479.22	115.38
479.439	141.38
479.658	157.38
479.876	128.38
480.095	138.38
480.313	171.38
480.532	200.38
480.751	412.38
480.969	1554.38
481.188	6805.38
481.406	3717.38
481.624	489.38
481.843	170.38
482.061	120.38
482.28	115.38
482.498	92.38
482.717	95.38
482.935	108.38
483.153	94.38
483.372	97.38
483.59	103.38
483.808	92.38
484.027	92.38
484.245	92.38
484.463	96.38
484.681	80.38
484.9	97.38
485.118	103.38
485.336	100.38
485.554	102.38
485.772	111.38
485.99	108.38
486.209	117.38
486.427	112.38
486.645	123.38
486.863	137.38
487.081	112.38
487.299	104.38
487.517	92.38
487.735	110.38
487.953	98.38
488.171	93.38
488.389	112.38
488.607	105.38
488.825	83.38
489.043	95.38
489.261	93.38
489.479	100.38
489.696	92.38
489.914	87.38
490.132	99.38
490.35	99.38
490.568	94.38
490.786	77.38
491.003	97.38
491.221	108.38
491.439	116.38
491.657	121.38
491.874	102.38
492.092	102.38
492.31	95.38
492.527	111.38
492.745	105.38
492.963	92.38
493.18	90.38
493.398	94.38
493.615	98.38
493.833	97.38
494.05	87.38
494.268	99.38
494.485	90.38
494.703	88.38
494.92	101.38
495.138	96.38
495.355	95.38
495.573	108.38
495.79	96.38
496.008	98.38
496.225	99.38
496.442	87.38
496.66	101.38
496.877	105.38
497.094	109.38
497.312	92.38
497.529	102.38
497.746	94.38
497.963	113.38
498.181	94.38
498.398	104.38
498.615	114.38
498.832	115.38
499.049	93.38
499.267	105.38
499.484	90.38
499.701	103.38
499.918	99.38
500.135	101.38
500.352	86.38
500.569	90.38
500.786	116.38
501.003	85.38
501.22	92.38
501.437	103.38
501.654	125.38
501.871	118.38
502.088	94.38
502.305	91.38
502.522	93.38
502.739	106.38
502.956	114.38
503.172	101.38
503.389	129.38
503.606	133.38
503.823	112.38
504.04	85.38
504.256	90.38
504.473	98.38
504.69	95.38
504.907	106.38
505.123	93.38
505.34	90.38
505.557	97.38
505.773	77.38
505.99	94.38
506.207	82.38
506.423	78.38
506.64	93.38
506.856	92.38
507.073	89.38
507.289	92.38
507.506	85.38
507.722	142.38
507.939	137.38
508.155	109.38
508.372	117.38
508.588	93.38
508.805	100.38
509.021	95.38
509.238	95.38
509.454	117.38
509.67	109.38
509.887	121.38
510.103	156.38
510.319	262.38
510.536	1129.38
510.752	4063.38
510.968	1070.38
511.184	203.38
511.401	157.38
511.617	111.38
511.833	113.38
