Data from Circ_1998_H10_HRD10591_00088.txt Node
Date: Wed Jan 03 11:27:06 EST 2024
User: Yrep
Spectrometer: HR+D1059
Trigger mode: 1
Integration Time (sec): 1.000000E-1
Scans to average: 1
Electric dark correction enabled: true
Nonlinearity correction enabled: false
Boxcar width: 0
XAxis mode: Wavelengths
Number of Pixels in Spectrum: 2048
>>>>>Begin Spectral Data<<<<<
223.165	-22.19
223.4	-22.19
223.635	-22.19
223.869	-13.19
224.104	-10.19
224.338	-20.19
224.573	-8.19
224.808	-17.19
225.042	-9.19
225.277	-2.19
225.511	-20.19
225.746	-4.19
225.98	4.81
226.215	26.81
226.449	11.81
226.683	29.81
226.918	27.81
227.152	25.81
227.387	36.81
227.621	39.81
227.856	51.81
228.09	52.81
228.324	52.81
228.559	50.81
228.793	61.81
229.027	49.81
229.262	60.81
229.496	84.81
229.73	100.81
229.964	100.81
230.199	87.81
230.433	84.81
230.667	72.81
230.901	73.81
231.136	84.81
231.37	78.81
231.604	65.81
231.838	71.81
232.072	71.81
232.306	88.81
232.541	92.81
232.775	94.81
233.009	70.81
233.243	87.81
233.477	81.81
233.711	103.81
233.945	84.81
234.179	93.81
234.413	80.81
234.647	87.81
234.881	95.81
235.115	88.81
235.349	83.81
235.583	52.81
235.817	73.81
236.051	87.81
236.285	68.81
236.519	82.81
236.753	67.81
236.987	76.81
237.221	90.81
237.455	105.81
237.689	89.81
237.922	84.81
238.156	88.81
238.39	83.81
238.624	68.81
238.858	89.81
239.091	82.81
239.325	81.81
239.559	81.81
239.793	94.81
240.027	69.81
240.26	91.81
240.494	88.81
240.728	90.81
240.961	74.81
241.195	92.81
241.429	99.81
241.662	76.81
241.896	83.81
242.13	89.81
242.363	82.81
242.597	83.81
242.83	71.81
243.064	80.81
243.298	84.81
243.531	88.81
243.765	93.81
243.998	86.81
244.232	72.81
244.465	97.81
244.699	92.81
244.932	92.81
245.166	89.81
245.399	98.81
245.633	69.81
245.866	85.81
246.099	89.81
246.333	87.81
246.566	86.81
246.8	96.81
247.033	97.81
247.266	96.81
247.5	87.81
247.733	91.81
247.966	99.81
248.2	95.81
248.433	90.81
248.666	91.81
248.899	75.81
249.133	96.81
249.366	114.81
249.599	113.81
249.832	105.81
250.066	105.81
250.299	92.81
250.532	91.81
250.765	91.81
250.998	81.81
251.231	81.81
251.465	83.81
251.698	88.81
251.931	88.81
252.164	77.81
252.397	87.81
252.63	77.81
252.863	87.81
253.096	76.81
253.329	84.81
253.562	86.81
253.795	93.81
254.028	93.81
254.261	76.81
254.494	72.81
254.727	60.81
254.96	79.81
255.193	89.81
255.426	81.81
255.659	99.81
255.892	100.81
256.124	100.81
256.357	90.81
256.59	97.81
256.823	92.81
257.056	97.81
257.289	92.81
257.521	93.81
257.754	91.81
257.987	84.81
258.22	112.81
258.452	114.81
258.685	108.81
258.918	97.81
259.151	90.81
259.383	89.81
259.616	98.81
259.849	92.81
260.081	90.81
260.314	92.81
260.547	109.81
260.779	100.81
261.012	132.81
261.244	145.81
261.477	130.81
261.71	116.81
261.942	146.81
262.175	171.81
262.407	110.81
262.64	87.81
262.872	80.81
263.105	99.81
263.337	84.81
263.57	102.81
263.802	94.81
264.035	82.81
264.267	80.81
264.499	90.81
264.732	80.81
264.964	88.81
265.197	89.81
265.429	90.81
265.661	83.81
265.894	80.81
266.126	89.81
266.358	83.81
266.591	90.81
266.823	80.81
267.055	87.81
267.287	85.81
267.52	99.81
267.752	92.81
267.984	74.81
268.216	81.81
268.448	73.81
268.681	87.81
268.913	76.81
269.145	97.81
269.377	91.81
269.609	83.81
269.841	90.81
270.073	90.81
270.306	100.81
270.538	95.81
270.77	101.81
271.002	107.81
271.234	107.81
271.466	103.81
271.698	101.81
271.93	90.81
272.162	97.81
272.394	99.81
272.626	97.81
272.858	101.81
273.09	82.81
273.322	98.81
273.553	84.81
273.785	100.81
274.017	89.81
274.249	93.81
274.481	89.81
274.713	106.81
274.945	98.81
275.176	101.81
275.408	114.81
275.64	146.81
275.872	163.81
276.104	135.81
276.335	107.81
276.567	135.81
276.799	201.81
277.031	244.81
277.262	287.81
277.494	227.81
277.726	120.81
277.957	103.81
278.189	96.81
278.421	98.81
278.652	103.81
278.884	91.81
279.115	103.81
279.347	88.81
279.579	111.81
279.81	175.81
280.042	303.81
280.273	439.81
280.505	281.81
280.736	135.81
280.968	95.81
281.199	96.81
281.431	96.81
281.662	99.81
281.894	96.81
282.125	124.81
282.356	165.81
282.588	202.81
282.819	159.81
283.051	119.81
283.282	92.81
283.513	96.81
283.745	105.81
283.976	99.81
284.207	95.81
284.439	101.81
284.67	96.81
284.901	89.81
285.132	99.81
285.364	89.81
285.595	85.81
285.826	93.81
286.057	83.81
286.288	95.81
286.52	99.81
286.751	86.81
286.982	85.81
287.213	97.81
287.444	105.81
287.675	111.81
287.906	107.81
288.138	76.81
288.369	104.81
288.6	89.81
288.831	101.81
289.062	98.81
289.293	113.81
289.524	99.81
289.755	86.81
289.986	99.81
290.217	92.81
290.448	79.81
290.679	101.81
290.91	83.81
291.141	94.81
291.371	91.81
291.602	100.81
291.833	107.81
292.064	104.81
292.295	101.81
292.526	101.81
292.757	94.81
292.987	101.81
293.218	91.81
293.449	99.81
293.68	88.81
293.91	91.81
294.141	103.81
294.372	83.81
294.603	92.81
294.833	92.81
295.064	94.81
295.295	91.81
295.525	108.81
295.756	128.81
295.987	147.81
296.217	197.81
296.448	173.81
296.679	109.81
296.909	110.81
297.14	91.81
297.37	93.81
297.601	88.81
297.831	78.81
298.062	97.81
298.292	97.81
298.523	94.81
298.753	83.81
298.984	97.81
299.214	88.81
299.445	110.81
299.675	98.81
299.905	108.81
300.136	118.81
300.366	88.81
300.597	82.81
300.827	90.81
301.057	112.81
301.288	116.81
301.518	110.81
301.748	123.81
301.979	138.81
302.209	113.81
302.439	105.81
302.669	102.81
302.9	94.81
303.13	112.81
303.36	114.81
303.59	161.81
303.82	206.81
304.051	115.81
304.281	111.81
304.511	95.81
304.741	89.81
304.971	95.81
305.201	96.81
305.431	100.81
305.661	101.81
305.891	93.81
306.121	109.81
306.352	108.81
306.582	132.81
306.812	108.81
307.042	158.81
307.272	220.81
307.502	271.81
307.731	236.81
307.961	171.81
308.191	114.81
308.421	103.81
308.651	95.81
308.881	91.81
309.111	107.81
309.341	102.81
309.571	126.81
309.8	117.81
310.03	109.81
310.26	115.81
310.49	97.81
310.72	100.81
310.949	141.81
311.179	132.81
311.409	106.81
311.639	117.81
311.868	116.81
312.098	109.81
312.328	119.81
312.557	106.81
312.787	135.81
313.017	125.81
313.246	107.81
313.476	112.81
313.706	102.81
313.935	104.81
314.165	115.81
314.394	131.81
314.624	116.81
314.853	112.81
315.083	109.81
315.312	90.81
315.542	107.81
315.771	94.81
316.001	91.81
316.23	97.81
316.46	93.81
316.689	106.81
316.919	111.81
317.148	124.81
317.377	105.81
317.607	99.81
317.836	94.81
318.065	114.81
318.295	96.81
318.524	113.81
318.753	99.81
318.983	100.81
319.212	111.81
319.441	143.81
319.67	138.81
319.9	105.81
320.129	107.81
320.358	89.81
320.587	115.81
320.816	119.81
321.046	127.81
321.275	103.81
321.504	108.81
321.733	112.81
321.962	125.81
322.191	120.81
322.42	135.81
322.649	135.81
322.878	127.81
323.108	148.81
323.337	161.81
323.566	180.81
323.795	221.81
324.024	279.81
324.253	613.81
324.482	1336.81
324.71	2913.81
324.939	3895.81
325.168	1356.81
325.397	380.81
325.626	205.81
325.855	165.81
326.084	170.81
326.313	178.81
326.542	210.81
326.77	315.81
326.999	660.81
327.228	1457.81
327.457	2748.81
327.686	2201.81
327.914	795.81
328.143	890.81
328.372	1180.81
328.6	609.81
328.829	260.81
329.058	237.81
329.287	275.81
329.515	243.81
329.744	382.81
329.972	810.81
330.201	1793.81
330.43	2706.81
330.658	1096.81
330.887	437.81
331.115	260.81
331.344	166.81
331.572	145.81
331.801	147.81
332.03	153.81
332.258	144.81
332.486	124.81
332.715	127.81
332.943	130.81
333.172	129.81
333.4	162.81
333.629	216.81
333.857	349.81
334.085	718.81
334.314	1603.81
334.542	3266.81
334.771	3096.81
334.999	715.81
335.227	243.81
335.455	169.81
335.684	135.81
335.912	119.81
336.14	126.81
336.369	119.81
336.597	117.81
336.825	122.81
337.053	114.81
337.281	111.81
337.51	105.81
337.738	100.81
337.966	120.81
338.194	129.81
338.422	114.81
338.65	101.81
338.878	105.81
339.106	88.81
339.334	114.81
339.562	109.81
339.79	96.81
340.018	89.81
340.246	111.81
340.474	124.81
340.702	108.81
340.93	100.81
341.158	116.81
341.386	99.81
341.614	112.81
341.842	113.81
342.07	91.81
342.298	100.81
342.526	101.81
342.754	83.81
342.981	91.81
343.209	86.81
343.437	107.81
343.665	92.81
343.893	98.81
344.12	105.81
344.348	94.81
344.576	103.81
344.804	89.81
345.031	122.81
345.259	131.81
345.487	101.81
345.714	117.81
345.942	114.81
346.17	110.81
346.397	100.81
346.625	97.81
346.853	101.81
347.08	111.81
347.308	118.81
347.535	125.81
347.763	116.81
347.99	122.81
348.218	114.81
348.445	122.81
348.673	135.81
348.9	108.81
349.128	98.81
349.355	102.81
349.583	99.81
349.81	107.81
350.037	99.81
350.265	101.81
350.492	96.81
350.72	104.81
350.947	108.81
351.174	128.81
351.402	131.81
351.629	118.81
351.856	122.81
352.083	117.81
352.311	137.81
352.538	137.81
352.765	123.81
352.992	127.81
353.22	124.81
353.447	120.81
353.674	118.81
353.901	107.81
354.128	94.81
354.355	95.81
354.583	108.81
354.81	112.81
355.037	89.81
355.264	109.81
355.491	105.81
355.718	101.81
355.945	93.81
356.172	90.81
356.399	93.81
356.626	94.81
356.853	87.81
357.08	76.81
357.307	98.81
357.534	100.81
357.761	98.81
357.988	87.81
358.215	97.81
358.441	89.81
358.668	101.81
358.895	105.81
359.122	90.81
359.349	102.81
359.576	115.81
359.802	114.81
360.029	161.81
360.256	172.81
360.483	134.81
360.709	92.81
360.936	107.81
361.163	100.81
361.39	121.81
361.616	119.81
361.843	106.81
362.07	112.81
362.296	110.81
362.523	111.81
362.749	93.81
362.976	103.81
363.203	108.81
363.429	94.81
363.656	97.81
363.882	95.81
364.109	120.81
364.335	94.81
364.562	113.81
364.788	96.81
365.015	110.81
365.241	107.81
365.468	123.81
365.694	129.81
365.92	118.81
366.147	108.81
366.373	98.81
366.599	95.81
366.826	105.81
367.052	92.81
367.278	90.81
367.505	100.81
367.731	104.81
367.957	98.81
368.184	99.81
368.41	116.81
368.636	153.81
368.862	143.81
369.089	138.81
369.315	123.81
369.541	108.81
369.767	109.81
369.993	101.81
370.219	110.81
370.445	91.81
370.672	89.81
370.898	92.81
371.124	89.81
371.35	91.81
371.576	94.81
371.802	96.81
372.028	96.81
372.254	94.81
372.48	92.81
372.706	95.81
372.932	89.81
373.158	88.81
373.384	105.81
373.61	99.81
373.835	99.81
374.061	89.81
374.287	108.81
374.513	93.81
374.739	83.81
374.965	90.81
375.191	96.81
375.416	87.81
375.642	95.81
375.868	87.81
376.094	97.81
376.319	94.81
376.545	81.81
376.771	95.81
376.997	104.81
377.222	95.81
377.448	92.81
377.674	91.81
377.899	80.81
378.125	88.81
378.35	97.81
378.576	81.81
378.802	100.81
379.027	101.81
379.253	87.81
379.478	100.81
379.704	107.81
379.929	96.81
380.155	100.81
380.38	117.81
380.606	85.81
380.831	95.81
381.057	113.81
381.282	97.81
381.507	101.81
381.733	103.81
381.958	92.81
382.184	107.81
382.409	118.81
382.634	98.81
382.86	101.81
383.085	92.81
383.31	92.81
383.535	107.81
383.761	90.81
383.986	100.81
384.211	104.81
384.436	100.81
384.662	93.81
384.887	103.81
385.112	97.81
385.337	111.81
385.562	100.81
385.787	101.81
386.013	123.81
386.238	126.81
386.463	115.81
386.688	110.81
386.913	88.81
387.138	118.81
387.363	88.81
387.588	100.81
387.813	95.81
388.038	101.81
388.263	105.81
388.488	107.81
388.713	92.81
388.938	104.81
389.163	90.81
389.387	98.81
389.612	86.81
389.837	95.81
390.062	88.81
390.287	95.81
390.512	92.81
390.736	94.81
390.961	94.81
391.186	99.81
391.411	97.81
391.636	103.81
391.86	97.81
392.085	70.81
392.31	95.81
392.534	83.81
392.759	92.81
392.984	84.81
393.208	97.81
393.433	97.81
393.658	82.81
393.882	82.81
394.107	97.81
394.331	90.81
394.556	70.81
394.78	90.81
395.005	85.81
395.229	97.81
395.454	93.81
395.678	87.81
395.903	89.81
396.127	92.81
396.352	87.81
396.576	76.81
396.801	99.81
397.025	95.81
397.249	97.81
397.474	97.81
397.698	104.81
397.922	85.81
398.147	77.81
398.371	89.81
398.595	92.81
398.82	77.81
399.044	103.81
399.268	100.81
399.492	106.81
399.717	87.81
399.941	88.81
400.165	102.81
400.389	107.81
400.613	97.81
400.837	107.81
401.062	98.81
401.286	107.81
401.51	106.81
401.734	104.81
401.958	122.81
402.182	157.81
402.406	240.81
402.63	177.81
402.854	108.81
403.078	91.81
403.302	86.81
403.526	98.81
403.75	108.81
403.974	83.81
404.198	89.81
404.422	91.81
404.645	95.81
404.869	121.81
405.093	139.81
405.317	175.81
405.541	162.81
405.765	147.81
405.988	157.81
406.212	261.81
406.436	373.81
406.66	245.81
406.883	138.81
407.107	101.81
407.331	101.81
407.555	104.81
407.778	107.81
408.002	99.81
408.226	105.81
408.449	103.81
408.673	98.81
408.896	94.81
409.12	115.81
409.344	96.81
409.567	83.81
409.791	96.81
410.014	96.81
410.238	97.81
410.461	95.81
410.685	111.81
410.908	111.81
411.132	114.81
411.355	115.81
411.578	89.81
411.802	89.81
412.025	93.81
412.249	103.81
412.472	117.81
412.695	163.81
412.919	138.81
413.142	106.81
413.365	82.81
413.589	79.81
413.812	98.81
414.035	84.81
414.258	97.81
414.482	89.81
414.705	102.81
414.928	104.81
415.151	88.81
415.374	97.81
415.597	105.81
415.821	95.81
416.044	102.81
416.267	103.81
416.49	91.81
416.713	91.81
416.936	81.81
417.159	99.81
417.382	115.81
417.605	121.81
417.828	125.81
418.051	112.81
418.274	103.81
418.497	97.81
418.72	97.81
418.943	100.81
419.166	104.81
419.389	100.81
419.611	84.81
419.834	91.81
420.057	96.81
420.28	105.81
420.503	96.81
420.726	101.81
420.948	100.81
421.171	104.81
421.394	103.81
421.617	95.81
421.839	97.81
422.062	88.81
422.285	106.81
422.507	104.81
422.73	115.81
422.953	105.81
423.175	92.81
423.398	100.81
423.621	73.81
423.843	92.81
424.066	87.81
424.288	99.81
424.511	111.81
424.733	116.81
424.956	135.81
425.178	126.81
425.401	116.81
425.623	96.81
425.846	87.81
426.068	115.81
426.291	97.81
426.513	98.81
426.735	116.81
426.958	107.81
427.18	140.81
427.402	216.81
427.625	334.81
427.847	322.81
428.069	303.81
428.292	164.81
428.514	117.81
428.736	104.81
428.958	78.81
429.181	114.81
429.403	89.81
429.625	89.81
429.847	108.81
430.069	126.81
430.292	104.81
430.514	82.81
430.736	97.81
430.958	88.81
431.18	85.81
431.402	96.81
431.624	82.81
431.846	100.81
432.068	95.81
432.29	109.81
432.512	110.81
432.734	96.81
432.956	101.81
433.178	108.81
433.4	114.81
433.622	88.81
433.844	103.81
434.066	88.81
434.287	92.81
434.509	113.81
434.731	105.81
434.953	100.81
435.175	96.81
435.397	101.81
435.618	120.81
435.84	114.81
436.062	143.81
436.284	142.81
436.505	125.81
436.727	111.81
436.949	78.81
437.17	80.81
437.392	98.81
437.614	123.81
437.835	143.81
438.057	176.81
438.278	140.81
438.5	125.81
438.721	162.81
438.943	114.81
439.165	103.81
439.386	107.81
439.608	97.81
439.829	111.81
440.05	169.81
440.272	243.81
440.493	121.81
440.715	100.81
440.936	104.81
441.158	94.81
441.379	108.81
441.6	107.81
441.822	112.81
442.043	122.81
442.264	123.81
442.486	124.81
442.707	112.81
442.928	141.81
443.149	217.81
443.371	189.81
443.592	152.81
443.813	158.81
444.034	137.81
444.255	95.81
444.476	95.81
444.698	104.81
444.919	103.81
445.14	148.81
445.361	167.81
445.582	166.81
445.803	217.81
446.024	210.81
446.245	188.81
446.466	142.81
446.687	101.81
446.908	99.81
447.129	91.81
447.35	98.81
447.571	98.81
447.792	104.81
448.013	121.81
448.234	148.81
448.455	113.81
448.675	141.81
448.896	141.81
449.117	111.81
449.338	115.81
449.559	172.81
449.779	177.81
450	90.81
450.221	107.81
450.442	105.81
450.662	110.81
450.883	159.81
451.104	151.81
451.324	115.81
451.545	109.81
451.766	97.81
451.986	81.81
452.207	96.81
452.428	88.81
452.648	110.81
452.869	151.81
453.089	171.81
453.31	153.81
453.53	103.81
453.751	105.81
453.971	137.81
454.192	143.81
454.412	107.81
454.633	82.81
454.853	95.81
455.073	97.81
455.294	84.81
455.514	120.81
455.734	105.81
455.955	85.81
456.175	111.81
456.395	84.81
456.616	85.81
456.836	94.81
457.056	85.81
457.276	83.81
457.497	72.81
457.717	92.81
457.937	93.81
458.157	98.81
458.377	111.81
458.598	141.81
458.818	263.81
459.038	303.81
459.258	186.81
459.478	110.81
459.698	98.81
459.918	93.81
460.138	82.81
460.358	88.81
460.578	82.81
460.798	100.81
461.018	105.81
461.238	89.81
461.458	92.81
461.678	98.81
461.898	95.81
462.118	84.81
462.338	100.81
462.558	90.81
462.777	97.81
462.997	112.81
463.217	148.81
463.437	120.81
463.657	108.81
463.876	107.81
464.096	92.81
464.316	101.81
464.536	110.81
464.755	114.81
464.975	144.81
465.195	297.81
465.414	305.81
465.634	123.81
465.854	95.81
466.073	111.81
466.293	104.81
466.512	109.81
466.732	93.81
466.951	105.81
467.171	112.81
467.391	127.81
467.61	189.81
467.829	331.81
468.049	1062.81
468.268	1643.81
468.488	346.81
468.707	130.81
468.927	117.81
469.146	104.81
469.365	102.81
469.585	99.81
469.804	125.81
470.023	124.81
470.243	105.81
470.462	156.81
470.681	178.81
470.901	123.81
471.12	112.81
471.339	121.81
471.558	163.81
471.777	216.81
471.997	490.81
472.216	2057.81
472.435	4842.81
472.654	1031.81
472.873	242.81
473.092	143.81
473.311	114.81
473.53	99.81
473.749	109.81
473.968	105.81
474.187	153.81
474.406	113.81
474.625	89.81
474.844	89.81
475.063	90.81
475.282	93.81
475.501	99.81
475.72	87.81
475.939	95.81
476.158	101.81
476.377	103.81
476.596	104.81
476.814	118.81
477.033	122.81
477.252	102.81
477.471	92.81
477.69	107.81
477.908	106.81
478.127	99.81
478.346	94.81
478.564	111.81
478.783	119.81
479.002	137.81
479.22	138.81
479.439	162.81
479.658	170.81
479.876	142.81
480.095	151.81
480.313	179.81
480.532	241.81
480.751	456.81
480.969	1819.81
481.188	8051.81
481.406	4538.81
481.624	571.81
481.843	192.81
482.061	142.81
482.28	132.81
482.498	113.81
482.717	93.81
482.935	116.81
483.153	101.81
483.372	108.81
483.59	99.81
483.808	104.81
484.027	98.81
484.245	94.81
484.463	98.81
484.681	95.81
484.9	95.81
485.118	92.81
485.336	106.81
485.554	93.81
485.772	107.81
485.99	109.81
486.209	126.81
486.427	128.81
486.645	130.81
486.863	157.81
487.081	125.81
487.299	91.81
487.517	95.81
487.735	96.81
487.953	97.81
488.171	102.81
488.389	94.81
488.607	124.81
488.825	109.81
489.043	101.81
489.261	92.81
489.479	101.81
489.696	97.81
489.914	100.81
490.132	95.81
490.35	100.81
490.568	97.81
490.786	103.81
491.003	98.81
491.221	105.81
491.439	114.81
491.657	97.81
491.874	99.81
492.092	101.81
492.31	121.81
492.527	104.81
492.745	96.81
492.963	98.81
493.18	108.81
493.398	100.81
493.615	101.81
493.833	111.81
494.05	86.81
494.268	99.81
494.485	96.81
494.703	96.81
494.92	97.81
495.138	99.81
495.355	99.81
495.573	95.81
495.79	85.81
496.008	112.81
496.225	89.81
496.442	97.81
496.66	100.81
496.877	83.81
497.094	97.81
497.312	91.81
497.529	95.81
497.746	118.81
497.963	94.81
498.181	105.81
498.398	108.81
498.615	123.81
498.832	121.81
499.049	94.81
499.267	98.81
499.484	96.81
499.701	92.81
499.918	98.81
500.135	95.81
500.352	100.81
500.569	114.81
500.786	115.81
501.003	91.81
501.22	95.81
501.437	97.81
501.654	113.81
501.871	143.81
502.088	109.81
502.305	115.81
502.522	96.81
502.739	94.81
502.956	99.81
503.172	105.81
503.389	123.81
503.606	148.81
503.823	103.81
504.04	97.81
504.256	98.81
504.473	92.81
504.69	98.81
504.907	101.81
505.123	88.81
505.34	93.81
505.557	100.81
505.773	100.81
505.99	97.81
506.207	107.81
506.423	98.81
506.64	83.81
506.856	95.81
507.073	98.81
507.289	107.81
507.506	116.81
507.722	161.81
507.939	143.81
508.155	114.81
508.372	116.81
508.588	93.81
508.805	119.81
509.021	94.81
509.238	98.81
509.454	112.81
509.67	115.81
509.887	128.81
510.103	167.81
