Data from Circ_1998_H10_HRD10591_00013.txt Node
Date: Wed Jan 03 11:26:51 EST 2024
User: Yrep
Spectrometer: HR+D1059
Trigger mode: 1
Integration Time (sec): 1.000000E-1
Scans to average: 1
Electric dark correction enabled: true
Nonlinearity correction enabled: false
Boxcar width: 0
XAxis mode: Wavelengths
Number of Pixels in Spectrum: 2048
>>>>>Begin Spectral Data<<<<<
223.165	-19.06
223.4	-19.06
223.635	-19.06
223.869	-26.06
224.104	-22.06
224.338	-11.06
224.573	-9.06
224.808	-13.06
225.042	-2.06
225.277	-21.06
225.511	-18.06
225.746	5.94
225.98	10.94
226.215	11.94
226.449	24.94
226.683	17.94
226.918	30.94
227.152	38.94
227.387	32.94
227.621	41.94
227.856	41.94
228.09	46.94
228.324	60.94
228.559	63.94
228.793	64.94
229.027	68.94
229.262	70.94
229.496	83.94
229.73	97.94
229.964	100.94
230.199	87.94
230.433	70.94
230.667	79.94
230.901	77.94
231.136	69.94
231.37	85.94
231.604	81.94
231.838	86.94
232.072	84.94
232.306	91.94
232.541	74.94
232.775	87.94
233.009	90.94
233.243	87.94
233.477	79.94
233.711	89.94
233.945	78.94
234.179	93.94
234.413	86.94
234.647	68.94
234.881	81.94
235.115	89.94
235.349	81.94
235.583	96.94
235.817	77.94
236.051	81.94
236.285	88.94
236.519	83.94
236.753	80.94
236.987	82.94
237.221	86.94
237.455	82.94
237.689	69.94
237.922	73.94
238.156	75.94
238.39	72.94
238.624	85.94
238.858	76.94
239.091	87.94
239.325	72.94
239.559	86.94
239.793	96.94
240.027	96.94
240.26	82.94
240.494	78.94
240.728	81.94
240.961	85.94
241.195	95.94
241.429	84.94
241.662	89.94
241.896	80.94
242.13	76.94
242.363	85.94
242.597	85.94
242.83	104.94
243.064	73.94
243.298	85.94
243.531	83.94
243.765	90.94
243.998	69.94
244.232	76.94
244.465	84.94
244.699	92.94
244.932	69.94
245.166	83.94
245.399	77.94
245.633	79.94
245.866	74.94
246.099	67.94
246.333	80.94
246.566	86.94
246.8	85.94
247.033	82.94
247.266	72.94
247.5	81.94
247.733	79.94
247.966	75.94
248.2	88.94
248.433	77.94
248.666	83.94
248.899	98.94
249.133	92.94
249.366	107.94
249.599	115.94
249.832	90.94
250.066	88.94
250.299	76.94
250.532	80.94
250.765	84.94
250.998	88.94
251.231	81.94
251.465	89.94
251.698	82.94
251.931	92.94
252.164	84.94
252.397	82.94
252.63	76.94
252.863	85.94
253.096	83.94
253.329	83.94
253.562	98.94
253.795	88.94
254.028	83.94
254.261	67.94
254.494	79.94
254.727	92.94
254.96	84.94
255.193	90.94
255.426	80.94
255.659	94.94
255.892	93.94
256.124	94.94
256.357	87.94
256.59	88.94
256.823	79.94
257.056	81.94
257.289	93.94
257.521	96.94
257.754	82.94
257.987	84.94
258.22	99.94
258.452	109.94
258.685	86.94
258.918	78.94
259.151	86.94
259.383	72.94
259.616	92.94
259.849	88.94
260.081	82.94
260.314	83.94
260.547	89.94
260.779	94.94
261.012	115.94
261.244	107.94
261.477	109.94
261.71	106.94
261.942	126.94
262.175	130.94
262.407	91.94
262.64	94.94
262.872	86.94
263.105	82.94
263.337	93.94
263.57	88.94
263.802	97.94
264.035	96.94
264.267	79.94
264.499	83.94
264.732	81.94
264.964	89.94
265.197	77.94
265.429	86.94
265.661	88.94
265.894	102.94
266.126	80.94
266.358	76.94
266.591	81.94
266.823	82.94
267.055	92.94
267.287	91.94
267.52	101.94
267.752	100.94
267.984	97.94
268.216	87.94
268.448	96.94
268.681	54.94
268.913	85.94
269.145	87.94
269.377	91.94
269.609	78.94
269.841	100.94
270.073	72.94
270.306	84.94
270.538	88.94
270.77	90.94
271.002	93.94
271.234	109.94
271.466	84.94
271.698	106.94
271.93	87.94
272.162	91.94
272.394	85.94
272.626	101.94
272.858	92.94
273.09	93.94
273.322	88.94
273.553	86.94
273.785	94.94
274.017	94.94
274.249	90.94
274.481	81.94
274.713	95.94
274.945	94.94
275.176	93.94
275.408	103.94
275.64	109.94
275.872	114.94
276.104	99.94
276.335	102.94
276.567	117.94
276.799	128.94
277.031	148.94
277.262	172.94
277.494	131.94
277.726	102.94
277.957	88.94
278.189	77.94
278.421	86.94
278.652	104.94
278.884	93.94
279.115	83.94
279.347	105.94
279.579	93.94
279.81	122.94
280.042	197.94
280.273	234.94
280.505	172.94
280.736	102.94
280.968	92.94
281.199	106.94
281.431	87.94
281.662	96.94
281.894	97.94
282.125	118.94
282.356	139.94
282.588	172.94
282.819	117.94
283.051	103.94
283.282	90.94
283.513	97.94
283.745	87.94
283.976	88.94
284.207	89.94
284.439	103.94
284.67	102.94
284.901	82.94
285.132	96.94
285.364	93.94
285.595	109.94
285.826	89.94
286.057	91.94
286.288	92.94
286.52	92.94
286.751	93.94
286.982	93.94
287.213	90.94
287.444	84.94
287.675	97.94
287.906	97.94
288.138	93.94
288.369	106.94
288.6	97.94
288.831	90.94
289.062	95.94
289.293	99.94
289.524	102.94
289.755	94.94
289.986	89.94
290.217	94.94
290.448	83.94
290.679	102.94
290.91	84.94
291.141	82.94
291.371	88.94
291.602	97.94
291.833	92.94
292.064	97.94
292.295	94.94
292.526	114.94
292.757	107.94
292.987	93.94
293.218	92.94
293.449	88.94
293.68	87.94
293.91	72.94
294.141	93.94
294.372	87.94
294.603	93.94
294.833	101.94
295.064	99.94
295.295	83.94
295.525	91.94
295.756	99.94
295.987	132.94
296.217	166.94
296.448	142.94
296.679	116.94
296.909	101.94
297.14	91.94
297.37	81.94
297.601	94.94
297.831	91.94
298.062	93.94
298.292	93.94
298.523	105.94
298.753	89.94
298.984	88.94
299.214	108.94
299.445	85.94
299.675	80.94
299.905	99.94
300.136	98.94
300.366	94.94
300.597	93.94
300.827	115.94
301.057	115.94
301.288	116.94
301.518	102.94
301.748	102.94
301.979	120.94
302.209	100.94
302.439	97.94
302.669	102.94
302.9	86.94
303.13	96.94
303.36	106.94
303.59	136.94
303.82	142.94
304.051	121.94
304.281	93.94
304.511	92.94
304.741	94.94
304.971	93.94
305.201	98.94
305.431	98.94
305.661	86.94
305.891	97.94
306.121	102.94
306.352	113.94
306.582	126.94
306.812	110.94
307.042	126.94
307.272	154.94
307.502	161.94
307.731	157.94
307.961	135.94
308.191	105.94
308.421	99.94
308.651	100.94
308.881	97.94
309.111	94.94
309.341	108.94
309.571	105.94
309.8	108.94
310.03	86.94
310.26	92.94
310.49	100.94
310.72	112.94
310.949	105.94
311.179	126.94
311.409	83.94
311.639	116.94
311.868	98.94
312.098	112.94
312.328	103.94
312.557	102.94
312.787	108.94
313.017	113.94
313.246	94.94
313.476	95.94
313.706	107.94
313.935	102.94
314.165	111.94
314.394	114.94
314.624	113.94
314.853	105.94
315.083	96.94
315.312	105.94
315.542	101.94
315.771	90.94
316.001	115.94
316.23	94.94
316.46	114.94
316.689	116.94
316.919	106.94
317.148	97.94
317.377	94.94
317.607	106.94
317.836	89.94
318.065	96.94
318.295	86.94
318.524	80.94
318.753	101.94
318.983	108.94
319.212	112.94
319.441	135.94
319.67	118.94
319.9	94.94
320.129	100.94
320.358	103.94
320.587	94.94
320.816	89.94
321.046	116.94
321.275	113.94
321.504	96.94
321.733	102.94
321.962	112.94
322.191	120.94
322.42	127.94
322.649	119.94
322.878	124.94
323.108	127.94
323.337	145.94
323.566	158.94
323.795	186.94
324.024	253.94
324.253	536.94
324.482	1179.94
324.71	2458.94
324.939	3257.94
325.168	1162.94
325.397	312.94
325.626	185.94
325.855	147.94
326.084	166.94
326.313	162.94
326.542	170.94
326.77	292.94
326.999	610.94
327.228	1299.94
327.457	2386.94
327.686	1884.94
327.914	628.94
328.143	529.94
328.372	672.94
328.6	358.94
328.829	193.94
329.058	166.94
329.287	187.94
329.515	181.94
329.744	245.94
329.972	474.94
330.201	953.94
330.43	1345.94
330.658	619.94
330.887	272.94
331.115	186.94
331.344	141.94
331.572	122.94
331.801	124.94
332.03	125.94
332.258	107.94
332.486	108.94
332.715	113.94
332.943	94.94
333.172	111.94
333.4	136.94
333.629	164.94
333.857	235.94
334.085	437.94
334.314	886.94
334.542	1745.94
334.771	1638.94
334.999	424.94
335.227	172.94
335.455	136.94
335.684	115.94
335.912	124.94
336.14	110.94
336.369	102.94
336.597	113.94
336.825	123.94
337.053	117.94
337.281	100.94
337.51	94.94
337.738	114.94
337.966	95.94
338.194	104.94
338.422	115.94
338.65	94.94
338.878	97.94
339.106	94.94
339.334	96.94
339.562	106.94
339.79	92.94
340.018	98.94
340.246	99.94
340.474	105.94
340.702	100.94
340.93	94.94
341.158	94.94
341.386	102.94
341.614	100.94
341.842	115.94
342.07	102.94
342.298	94.94
342.526	99.94
342.754	96.94
342.981	100.94
343.209	89.94
343.437	111.94
343.665	96.94
343.893	98.94
344.12	108.94
344.348	93.94
344.576	102.94
344.804	112.94
345.031	103.94
345.259	112.94
345.487	98.94
345.714	103.94
345.942	93.94
346.17	97.94
346.397	92.94
346.625	112.94
346.853	78.94
347.08	93.94
347.308	95.94
347.535	125.94
347.763	104.94
347.99	102.94
348.218	119.94
348.445	125.94
348.673	120.94
348.9	101.94
349.128	102.94
349.355	102.94
349.583	92.94
349.81	85.94
350.037	95.94
350.265	101.94
350.492	102.94
350.72	110.94
350.947	96.94
351.174	111.94
351.402	124.94
351.629	121.94
351.856	104.94
352.083	106.94
352.311	98.94
352.538	113.94
352.765	109.94
352.992	116.94
353.22	113.94
353.447	124.94
353.674	96.94
353.901	115.94
354.128	104.94
354.355	106.94
354.583	101.94
354.81	97.94
355.037	95.94
355.264	100.94
355.491	90.94
355.718	99.94
355.945	100.94
356.172	105.94
356.399	101.94
356.626	102.94
356.853	99.94
357.08	95.94
357.307	94.94
357.534	96.94
357.761	93.94
357.988	91.94
358.215	104.94
358.441	94.94
358.668	93.94
358.895	85.94
359.122	98.94
359.349	91.94
359.576	88.94
359.802	112.94
360.029	147.94
360.256	138.94
360.483	102.94
360.709	100.94
360.936	98.94
361.163	101.94
361.39	99.94
361.616	121.94
361.843	97.94
362.07	99.94
362.296	102.94
362.523	97.94
362.749	102.94
362.976	99.94
363.203	93.94
363.429	90.94
363.656	108.94
363.882	108.94
364.109	94.94
364.335	106.94
364.562	83.94
364.788	110.94
365.015	92.94
365.241	107.94
365.468	106.94
365.694	115.94
365.92	101.94
366.147	100.94
366.373	99.94
366.599	90.94
366.826	106.94
367.052	98.94
367.278	81.94
367.505	100.94
367.731	102.94
367.957	96.94
368.184	93.94
368.41	101.94
368.636	118.94
368.862	139.94
369.089	123.94
369.315	97.94
369.541	103.94
369.767	93.94
369.993	105.94
370.219	108.94
370.445	97.94
370.672	93.94
370.898	100.94
371.124	93.94
371.35	86.94
371.576	101.94
371.802	89.94
372.028	91.94
372.254	89.94
372.48	83.94
372.706	92.94
372.932	89.94
373.158	88.94
373.384	86.94
373.61	99.94
373.835	96.94
374.061	99.94
374.287	101.94
374.513	83.94
374.739	74.94
374.965	84.94
375.191	74.94
375.416	94.94
375.642	89.94
375.868	99.94
376.094	90.94
376.319	96.94
376.545	108.94
376.771	88.94
376.997	96.94
377.222	98.94
377.448	107.94
377.674	99.94
377.899	85.94
378.125	101.94
378.35	95.94
378.576	95.94
378.802	75.94
379.027	89.94
379.253	97.94
379.478	100.94
379.704	100.94
379.929	94.94
380.155	91.94
380.38	99.94
380.606	84.94
380.831	80.94
381.057	114.94
381.282	118.94
381.507	106.94
381.733	90.94
381.958	108.94
382.184	113.94
382.409	109.94
382.634	101.94
382.86	112.94
383.085	94.94
383.31	108.94
383.535	100.94
383.761	107.94
383.986	105.94
384.211	106.94
384.436	102.94
384.662	104.94
384.887	115.94
385.112	121.94
385.337	132.94
385.562	125.94
385.787	125.94
386.013	134.94
386.238	141.94
386.463	114.94
386.688	118.94
386.913	128.94
387.138	110.94
387.363	106.94
387.588	114.94
387.813	108.94
388.038	116.94
388.263	129.94
388.488	125.94
388.713	110.94
388.938	100.94
389.163	97.94
389.387	101.94
389.612	93.94
389.837	92.94
390.062	97.94
390.287	96.94
390.512	80.94
390.736	89.94
390.961	105.94
391.186	87.94
391.411	93.94
391.636	92.94
391.86	87.94
392.085	85.94
392.31	86.94
392.534	87.94
392.759	88.94
392.984	97.94
393.208	104.94
393.433	91.94
393.658	96.94
393.882	95.94
394.107	100.94
394.331	80.94
394.556	94.94
394.78	108.94
395.005	91.94
395.229	99.94
395.454	88.94
395.678	81.94
395.903	96.94
396.127	97.94
396.352	85.94
396.576	82.94
396.801	97.94
397.025	106.94
397.249	93.94
397.474	98.94
397.698	99.94
397.922	85.94
398.147	94.94
398.371	91.94
398.595	97.94
398.82	91.94
399.044	78.94
399.268	105.94
399.492	89.94
399.717	93.94
399.941	107.94
400.165	111.94
400.389	104.94
400.613	93.94
400.837	89.94
401.062	102.94
401.286	95.94
401.51	98.94
401.734	92.94
401.958	96.94
402.182	145.94
402.406	180.94
402.63	144.94
402.854	115.94
403.078	98.94
403.302	94.94
403.526	91.94
403.75	92.94
403.974	93.94
404.198	79.94
404.422	93.94
404.645	92.94
404.869	99.94
405.093	124.94
405.317	146.94
405.541	125.94
405.765	126.94
405.988	128.94
406.212	197.94
406.436	313.94
406.66	181.94
406.883	123.94
407.107	104.94
407.331	101.94
407.555	108.94
407.778	124.94
408.002	96.94
408.226	109.94
408.449	91.94
408.673	91.94
408.896	107.94
409.12	102.94
409.344	92.94
409.567	92.94
409.791	97.94
410.014	93.94
410.238	102.94
410.461	101.94
410.685	94.94
410.908	106.94
411.132	113.94
411.355	113.94
411.578	97.94
411.802	87.94
412.025	105.94
412.249	109.94
412.472	125.94
412.695	134.94
412.919	120.94
413.142	101.94
413.365	80.94
413.589	87.94
413.812	98.94
414.035	90.94
414.258	98.94
414.482	85.94
414.705	102.94
414.928	88.94
415.151	94.94
415.374	101.94
415.597	99.94
415.821	85.94
416.044	93.94
416.267	104.94
416.49	94.94
416.713	107.94
416.936	94.94
417.159	83.94
417.382	124.94
417.605	113.94
417.828	100.94
418.051	105.94
418.274	90.94
418.497	100.94
418.72	95.94
418.943	77.94
419.166	82.94
419.389	90.94
419.611	93.94
419.834	80.94
420.057	93.94
420.28	90.94
420.503	81.94
420.726	91.94
420.948	102.94
421.171	97.94
421.394	109.94
421.617	108.94
421.839	88.94
422.062	100.94
422.285	94.94
422.507	90.94
422.73	126.94
422.953	94.94
423.175	102.94
423.398	93.94
423.621	96.94
423.843	88.94
424.066	93.94
424.288	95.94
424.511	97.94
424.733	110.94
424.956	123.94
425.178	109.94
425.401	102.94
425.623	101.94
425.846	85.94
426.068	110.94
426.291	103.94
426.513	111.94
426.735	104.94
426.958	102.94
427.18	124.94
427.402	183.94
427.625	266.94
427.847	241.94
428.069	238.94
428.292	137.94
428.514	117.94
428.736	107.94
428.958	102.94
429.181	100.94
429.403	75.94
429.625	90.94
429.847	108.94
430.069	117.94
430.292	107.94
430.514	111.94
430.736	91.94
430.958	96.94
431.18	77.94
431.402	98.94
431.624	83.94
431.846	99.94
432.068	93.94
432.29	88.94
432.512	96.94
432.734	87.94
432.956	80.94
433.178	98.94
433.4	112.94
433.622	81.94
433.844	87.94
434.066	96.94
434.287	109.94
434.509	99.94
434.731	94.94
434.953	99.94
435.175	100.94
435.397	94.94
435.618	89.94
435.84	120.94
436.062	141.94
436.284	145.94
436.505	117.94
436.727	116.94
436.949	96.94
437.17	89.94
437.392	80.94
437.614	74.94
437.835	123.94
438.057	157.94
438.278	129.94
438.5	130.94
438.721	144.94
438.943	103.94
439.165	108.94
439.386	93.94
439.608	90.94
439.829	127.94
440.05	151.94
440.272	195.94
440.493	119.94
440.715	86.94
440.936	82.94
441.158	91.94
441.379	95.94
441.6	106.94
441.822	110.94
442.043	123.94
442.264	120.94
442.486	105.94
442.707	100.94
442.928	122.94
443.149	172.94
443.371	156.94
443.592	149.94
443.813	133.94
444.034	140.94
444.255	102.94
444.476	94.94
444.698	100.94
444.919	95.94
445.14	138.94
445.361	151.94
445.582	149.94
445.803	199.94
446.024	175.94
446.245	179.94
446.466	139.94
446.687	96.94
446.908	67.94
447.129	87.94
447.35	94.94
447.571	107.94
447.792	97.94
448.013	110.94
448.234	124.94
448.455	114.94
448.675	115.94
448.896	141.94
449.117	114.94
449.338	117.94
449.559	150.94
449.779	168.94
450	110.94
450.221	109.94
450.442	106.94
450.662	98.94
450.883	123.94
451.104	131.94
451.324	110.94
451.545	109.94
451.766	93.94
451.986	102.94
452.207	95.94
452.428	95.94
452.648	100.94
452.869	127.94
453.089	114.94
453.31	133.94
453.53	110.94
453.751	107.94
453.971	114.94
454.192	129.94
454.412	114.94
454.633	110.94
454.853	93.94
455.073	100.94
455.294	100.94
455.514	106.94
455.734	90.94
455.955	103.94
456.175	91.94
456.395	82.94
456.616	88.94
456.836	90.94
457.056	84.94
457.276	82.94
457.497	93.94
457.717	86.94
457.937	97.94
458.157	101.94
458.377	102.94
458.598	140.94
458.818	190.94
459.038	223.94
459.258	150.94
459.478	97.94
459.698	103.94
459.918	94.94
460.138	72.94
460.358	69.94
460.578	96.94
460.798	94.94
461.018	98.94
461.238	94.94
461.458	94.94
461.678	78.94
461.898	95.94
462.118	90.94
462.338	93.94
462.558	114.94
462.777	89.94
462.997	89.94
463.217	99.94
463.437	105.94
463.657	89.94
463.876	97.94
464.096	93.94
464.316	97.94
464.536	104.94
464.755	100.94
464.975	133.94
465.195	238.94
465.414	252.94
465.634	107.94
465.854	99.94
466.073	90.94
466.293	100.94
466.512	96.94
466.732	89.94
466.951	98.94
467.171	100.94
467.391	109.94
467.61	151.94
467.829	216.94
468.049	553.94
468.268	798.94
468.488	225.94
468.707	128.94
468.927	90.94
469.146	95.94
469.365	95.94
469.585	96.94
469.804	120.94
470.023	112.94
470.243	113.94
470.462	123.94
470.681	136.94
470.901	116.94
471.12	94.94
471.339	106.94
471.558	121.94
471.777	164.94
471.997	319.94
472.216	1108.94
472.435	2497.94
472.654	574.94
472.873	150.94
473.092	121.94
473.311	105.94
473.53	102.94
473.749	89.94
473.968	104.94
474.187	124.94
474.406	125.94
474.625	95.94
474.844	107.94
475.063	80.94
475.282	101.94
475.501	92.94
475.72	89.94
475.939	92.94
476.158	85.94
476.377	91.94
476.596	112.94
476.814	106.94
477.033	108.94
477.252	97.94
477.471	94.94
477.69	87.94
477.908	100.94
478.127	92.94
478.346	100.94
478.564	96.94
478.783	117.94
479.002	105.94
479.22	113.94
479.439	110.94
479.658	129.94
479.876	122.94
480.095	132.94
480.313	141.94
480.532	204.94
480.751	297.94
480.969	1006.94
481.188	4334.94
481.406	2443.94
481.624	355.94
481.843	138.94
482.061	98.94
482.28	94.94
482.498	101.94
482.717	105.94
482.935	92.94
483.153	86.94
483.372	89.94
483.59	90.94
483.808	105.94
484.027	109.94
484.245	104.94
484.463	112.94
484.681	94.94
484.9	105.94
485.118	104.94
485.336	102.94
485.554	107.94
485.772	106.94
485.99	104.94
486.209	97.94
486.427	121.94
486.645	129.94
486.863	133.94
487.081	107.94
487.299	102.94
487.517	108.94
487.735	96.94
487.953	97.94
488.171	103.94
488.389	109.94
488.607	109.94
488.825	98.94
489.043	95.94
489.261	93.94
489.479	102.94
489.696	113.94
489.914	95.94
490.132	86.94
490.35	97.94
490.568	78.94
490.786	100.94
491.003	85.94
491.221	90.94
491.439	96.94
491.657	92.94
491.874	104.94
492.092	95.94
492.31	88.94
492.527	88.94
492.745	105.94
492.963	94.94
493.18	100.94
493.398	100.94
493.615	91.94
493.833	100.94
494.05	100.94
494.268	90.94
494.485	94.94
494.703	99.94
494.92	90.94
495.138	106.94
495.355	94.94
495.573	104.94
495.79	92.94
496.008	106.94
496.225	90.94
496.442	105.94
496.66	83.94
496.877	90.94
497.094	97.94
497.312	92.94
497.529	106.94
497.746	106.94
497.963	90.94
498.181	93.94
498.398	102.94
498.615	124.94
498.832	125.94
499.049	90.94
499.267	93.94
499.484	100.94
499.701	90.94
499.918	91.94
500.135	91.94
500.352	93.94
500.569	106.94
500.786	91.94
501.003	99.94
501.22	97.94
501.437	93.94
501.654	104.94
501.871	130.94
502.088	95.94
502.305	96.94
502.522	84.94
502.739	87.94
502.956	101.94
503.172	94.94
503.389	108.94
503.606	139.94
503.823	103.94
504.04	112.94
504.256	89.94
504.473	90.94
504.69	88.94
504.907	91.94
505.123	90.94
505.34	85.94
505.557	90.94
505.773	109.94
505.99	95.94
506.207	110.94
506.423	102.94
506.64	94.94
506.856	105.94
507.073	92.94
507.289	110.94
507.506	120.94
507.722	128.94
507.939	125.94
508.155	97.94
508.372	90.94
508.588	98.94
508.805	99.94
509.021	94.94
509.238	106.94
509.454	95.94
509.67	108.94
509.887	122.94
510.103	157.94
510.319	250.94
510.536	938.94
510.752	3384.94
510.968	898.94
511.184	197.94
511.401	139.94
