Data from Circ_1998_H10_HRD10591_00057.txt Node
Date: Wed Jan 03 11:27:00 EST 2024
User: Yrep
Spectrometer: HR+D1059
Trigger mode: 1
Integration Time (sec): 1.000000E-1
Scans to average: 1
Electric dark correction enabled: true
Nonlinearity correction enabled: false
Boxcar width: 0
XAxis mode: Wavelengths
Number of Pixels in Spectrum: 2048
>>>>>Begin Spectral Data<<<<<
223.165	-40.12
223.4	-40.12
223.635	-40.12
223.869	-32.12
224.104	-22.12
224.338	-9.12
224.573	-4.12
224.808	-13.12
225.042	-8.12
225.277	-12.12
225.511	1.88
225.746	11.88
225.98	9.88
226.215	21.88
226.449	10.88
226.683	33.88
226.918	20.88
227.152	29.88
227.387	43.88
227.621	27.88
227.856	53.88
228.09	49.88
228.324	38.88
228.559	50.88
228.793	49.88
229.027	77.88
229.262	69.88
229.496	76.88
229.73	101.88
229.964	116.88
230.199	59.88
230.433	79.88
230.667	84.88
230.901	87.88
231.136	60.88
231.37	78.88
231.604	91.88
231.838	71.88
232.072	88.88
232.306	84.88
232.541	75.88
232.775	82.88
233.009	75.88
233.243	75.88
233.477	79.88
233.711	87.88
233.945	75.88
234.179	71.88
234.413	74.88
234.647	93.88
234.881	80.88
235.115	71.88
235.349	80.88
235.583	73.88
235.817	75.88
236.051	74.88
236.285	95.88
236.519	76.88
236.753	59.88
236.987	82.88
237.221	105.88
237.455	97.88
237.689	88.88
237.922	69.88
238.156	71.88
238.39	81.88
238.624	77.88
238.858	81.88
239.091	90.88
239.325	90.88
239.559	89.88
239.793	93.88
240.027	90.88
240.26	89.88
240.494	80.88
240.728	80.88
240.961	78.88
241.195	90.88
241.429	73.88
241.662	92.88
241.896	81.88
242.13	63.88
242.363	75.88
242.597	91.88
242.83	80.88
243.064	88.88
243.298	86.88
243.531	83.88
243.765	67.88
243.998	61.88
244.232	77.88
244.465	81.88
244.699	78.88
244.932	91.88
245.166	78.88
245.399	69.88
245.633	62.88
245.866	79.88
246.099	62.88
246.333	79.88
246.566	87.88
246.8	70.88
247.033	84.88
247.266	85.88
247.5	97.88
247.733	84.88
247.966	71.88
248.2	88.88
248.433	77.88
248.666	78.88
248.899	92.88
249.133	78.88
249.366	113.88
249.599	105.88
249.832	84.88
250.066	93.88
250.299	79.88
250.532	99.88
250.765	82.88
250.998	81.88
251.231	88.88
251.465	84.88
251.698	97.88
251.931	101.88
252.164	73.88
252.397	69.88
252.63	62.88
252.863	85.88
253.096	78.88
253.329	99.88
253.562	90.88
253.795	81.88
254.028	69.88
254.261	81.88
254.494	81.88
254.727	77.88
254.96	67.88
255.193	75.88
255.426	79.88
255.659	89.88
255.892	99.88
256.124	108.88
256.357	108.88
256.59	78.88
256.823	76.88
257.056	98.88
257.289	91.88
257.521	94.88
257.754	97.88
257.987	85.88
258.22	96.88
258.452	114.88
258.685	101.88
258.918	82.88
259.151	76.88
259.383	83.88
259.616	87.88
259.849	89.88
260.081	97.88
260.314	96.88
260.547	94.88
260.779	104.88
261.012	117.88
261.244	119.88
261.477	104.88
261.71	123.88
261.942	165.88
262.175	173.88
262.407	97.88
262.64	82.88
262.872	76.88
263.105	91.88
263.337	81.88
263.57	86.88
263.802	82.88
264.035	80.88
264.267	90.88
264.499	76.88
264.732	81.88
264.964	70.88
265.197	92.88
265.429	97.88
265.661	76.88
265.894	80.88
266.126	78.88
266.358	82.88
266.591	89.88
266.823	81.88
267.055	90.88
267.287	81.88
267.52	87.88
267.752	94.88
267.984	85.88
268.216	85.88
268.448	70.88
268.681	76.88
268.913	81.88
269.145	91.88
269.377	79.88
269.609	94.88
269.841	81.88
270.073	83.88
270.306	84.88
270.538	86.88
270.77	76.88
271.002	95.88
271.234	108.88
271.466	91.88
271.698	93.88
271.93	83.88
272.162	97.88
272.394	90.88
272.626	78.88
272.858	85.88
273.09	74.88
273.322	96.88
273.553	104.88
273.785	86.88
274.017	82.88
274.249	81.88
274.481	88.88
274.713	82.88
274.945	87.88
275.176	109.88
275.408	91.88
275.64	130.88
275.872	156.88
276.104	107.88
276.335	108.88
276.567	122.88
276.799	186.88
277.031	263.88
277.262	309.88
277.494	211.88
277.726	113.88
277.957	93.88
278.189	93.88
278.421	100.88
278.652	90.88
278.884	94.88
279.115	92.88
279.347	113.88
279.579	121.88
279.81	178.88
280.042	301.88
280.273	439.88
280.505	284.88
280.736	145.88
280.968	108.88
281.199	99.88
281.431	98.88
281.662	113.88
281.894	94.88
282.125	103.88
282.356	152.88
282.588	215.88
282.819	149.88
283.051	103.88
283.282	84.88
283.513	92.88
283.745	93.88
283.976	90.88
284.207	84.88
284.439	91.88
284.67	84.88
284.901	82.88
285.132	92.88
285.364	79.88
285.595	110.88
285.826	77.88
286.057	85.88
286.288	74.88
286.52	91.88
286.751	87.88
286.982	79.88
287.213	89.88
287.444	89.88
287.675	82.88
287.906	99.88
288.138	87.88
288.369	109.88
288.6	88.88
288.831	93.88
289.062	81.88
289.293	85.88
289.524	89.88
289.755	85.88
289.986	90.88
290.217	88.88
290.448	83.88
290.679	57.88
290.91	81.88
291.141	83.88
291.371	91.88
291.602	90.88
291.833	114.88
292.064	87.88
292.295	97.88
292.526	91.88
292.757	90.88
292.987	83.88
293.218	77.88
293.449	74.88
293.68	101.88
293.91	90.88
294.141	82.88
294.372	84.88
294.603	100.88
294.833	85.88
295.064	79.88
295.295	79.88
295.525	96.88
295.756	105.88
295.987	129.88
296.217	215.88
296.448	183.88
296.679	116.88
296.909	77.88
297.14	82.88
297.37	90.88
297.601	91.88
297.831	91.88
298.062	105.88
298.292	91.88
298.523	99.88
298.753	93.88
298.984	88.88
299.214	82.88
299.445	92.88
299.675	90.88
299.905	118.88
300.136	98.88
300.366	86.88
300.597	90.88
300.827	99.88
301.057	88.88
301.288	117.88
301.518	113.88
301.748	104.88
301.979	120.88
302.209	112.88
302.439	95.88
302.669	98.88
302.9	91.88
303.13	97.88
303.36	118.88
303.59	183.88
303.82	183.88
304.051	118.88
304.281	105.88
304.511	97.88
304.741	83.88
304.971	81.88
305.201	100.88
305.431	81.88
305.661	81.88
305.891	106.88
306.121	111.88
306.352	110.88
306.582	133.88
306.812	110.88
307.042	153.88
307.272	236.88
307.502	246.88
307.731	234.88
307.961	173.88
308.191	131.88
308.421	103.88
308.651	97.88
308.881	85.88
309.111	94.88
309.341	116.88
309.571	104.88
309.8	93.88
310.03	118.88
310.26	113.88
310.49	109.88
310.72	106.88
310.949	136.88
311.179	134.88
311.409	95.88
311.639	98.88
311.868	103.88
312.098	106.88
312.328	101.88
312.557	136.88
312.787	149.88
313.017	120.88
313.246	103.88
313.476	92.88
313.706	88.88
313.935	93.88
314.165	116.88
314.394	128.88
314.624	102.88
314.853	117.88
315.083	99.88
315.312	100.88
315.542	91.88
315.771	87.88
316.001	90.88
316.23	90.88
316.46	90.88
316.689	102.88
316.919	108.88
317.148	109.88
317.377	105.88
317.607	94.88
317.836	118.88
318.065	113.88
318.295	110.88
318.524	83.88
318.753	86.88
318.983	92.88
319.212	108.88
319.441	134.88
319.67	121.88
319.9	93.88
320.129	90.88
320.358	95.88
320.587	107.88
320.816	118.88
321.046	119.88
321.275	128.88
321.504	102.88
321.733	91.88
321.962	106.88
322.191	119.88
322.42	139.88
322.649	135.88
322.878	133.88
323.108	146.88
323.337	163.88
323.566	197.88
323.795	229.88
324.024	315.88
324.253	641.88
324.482	1389.88
324.71	2931.88
324.939	3933.88
325.168	1426.88
325.397	393.88
325.626	224.88
325.855	169.88
326.084	174.88
326.313	177.88
326.542	199.88
326.77	331.88
326.999	677.88
327.228	1451.88
327.457	2729.88
327.686	2220.88
327.914	830.88
328.143	929.88
328.372	1236.88
328.6	651.88
328.829	260.88
329.058	262.88
329.287	285.88
329.515	271.88
329.744	420.88
329.972	880.88
330.201	1917.88
330.43	2841.88
330.658	1170.88
330.887	439.88
331.115	270.88
331.344	154.88
331.572	154.88
331.801	164.88
332.03	156.88
332.258	131.88
332.486	120.88
332.715	135.88
332.943	125.88
333.172	147.88
333.4	163.88
333.629	214.88
333.857	342.88
334.085	753.88
334.314	1749.88
334.542	3503.88
334.771	3203.88
334.999	747.88
335.227	254.88
335.455	169.88
335.684	134.88
335.912	117.88
336.14	98.88
336.369	107.88
336.597	127.88
336.825	131.88
337.053	102.88
337.281	103.88
337.51	99.88
337.738	100.88
337.966	88.88
338.194	103.88
338.422	117.88
338.65	101.88
338.878	105.88
339.106	97.88
339.334	87.88
339.562	94.88
339.79	103.88
340.018	94.88
340.246	109.88
340.474	100.88
340.702	89.88
340.93	98.88
341.158	92.88
341.386	114.88
341.614	105.88
341.842	116.88
342.07	89.88
342.298	104.88
342.526	89.88
342.754	95.88
342.981	75.88
343.209	92.88
343.437	98.88
343.665	88.88
343.893	82.88
344.12	94.88
344.348	85.88
344.576	85.88
344.804	108.88
345.031	102.88
345.259	119.88
345.487	107.88
345.714	109.88
345.942	101.88
346.17	90.88
346.397	102.88
346.625	104.88
346.853	109.88
347.08	89.88
347.308	103.88
347.535	98.88
347.763	114.88
347.99	102.88
348.218	121.88
348.445	134.88
348.673	131.88
348.9	94.88
349.128	105.88
349.355	103.88
349.583	100.88
349.81	113.88
350.037	98.88
350.265	109.88
350.492	91.88
350.72	88.88
350.947	109.88
351.174	120.88
351.402	138.88
351.629	129.88
351.856	109.88
352.083	122.88
352.311	143.88
352.538	130.88
352.765	141.88
352.992	130.88
353.22	129.88
353.447	119.88
353.674	114.88
353.901	99.88
354.128	93.88
354.355	88.88
354.583	110.88
354.81	78.88
355.037	96.88
355.264	85.88
355.491	81.88
355.718	101.88
355.945	90.88
356.172	90.88
356.399	95.88
356.626	83.88
356.853	81.88
357.08	84.88
357.307	92.88
357.534	87.88
357.761	84.88
357.988	97.88
358.215	90.88
358.441	93.88
358.668	99.88
358.895	95.88
359.122	81.88
359.349	83.88
359.576	107.88
359.802	133.88
360.029	173.88
360.256	161.88
360.483	136.88
360.709	88.88
360.936	108.88
361.163	92.88
361.39	109.88
361.616	114.88
361.843	95.88
362.07	103.88
362.296	115.88
362.523	110.88
362.749	118.88
362.976	96.88
363.203	95.88
363.429	78.88
363.656	113.88
363.882	81.88
364.109	86.88
364.335	86.88
364.562	89.88
364.788	103.88
365.015	105.88
365.241	109.88
365.468	131.88
365.694	131.88
365.92	110.88
366.147	106.88
366.373	98.88
366.599	85.88
366.826	98.88
367.052	103.88
367.278	101.88
367.505	95.88
367.731	109.88
367.957	114.88
368.184	114.88
368.41	107.88
368.636	127.88
368.862	150.88
369.089	133.88
369.315	97.88
369.541	109.88
369.767	91.88
369.993	103.88
370.219	89.88
370.445	92.88
370.672	94.88
370.898	100.88
371.124	81.88
371.35	84.88
371.576	81.88
371.802	96.88
372.028	76.88
372.254	93.88
372.48	82.88
372.706	84.88
372.932	89.88
373.158	87.88
373.384	88.88
373.61	82.88
373.835	104.88
374.061	89.88
374.287	105.88
374.513	87.88
374.739	81.88
374.965	89.88
375.191	87.88
375.416	95.88
375.642	91.88
375.868	90.88
376.094	81.88
376.319	83.88
376.545	94.88
376.771	82.88
376.997	84.88
377.222	93.88
377.448	99.88
377.674	91.88
377.899	80.88
378.125	88.88
378.35	85.88
378.576	79.88
378.802	89.88
379.027	105.88
379.253	97.88
379.478	90.88
379.704	90.88
379.929	90.88
380.155	95.88
380.38	90.88
380.606	97.88
380.831	94.88
381.057	88.88
381.282	86.88
381.507	102.88
381.733	105.88
381.958	83.88
382.184	86.88
382.409	98.88
382.634	105.88
382.86	102.88
383.085	99.88
383.31	95.88
383.535	95.88
383.761	105.88
383.986	96.88
384.211	87.88
384.436	92.88
384.662	89.88
384.887	87.88
385.112	97.88
385.337	103.88
385.562	98.88
385.787	93.88
386.013	117.88
386.238	121.88
386.463	110.88
386.688	104.88
386.913	96.88
387.138	102.88
387.363	107.88
387.588	110.88
387.813	86.88
388.038	94.88
388.263	100.88
388.488	91.88
388.713	85.88
388.938	88.88
389.163	88.88
389.387	95.88
389.612	97.88
389.837	86.88
390.062	97.88
390.287	75.88
390.512	87.88
390.736	91.88
390.961	85.88
391.186	95.88
391.411	89.88
391.636	71.88
391.86	75.88
392.085	93.88
392.31	81.88
392.534	91.88
392.759	81.88
392.984	89.88
393.208	82.88
393.433	92.88
393.658	105.88
393.882	83.88
394.107	73.88
394.331	75.88
394.556	83.88
394.78	76.88
395.005	89.88
395.229	97.88
395.454	82.88
395.678	85.88
395.903	92.88
396.127	63.88
396.352	80.88
396.576	92.88
396.801	86.88
397.025	87.88
397.249	94.88
397.474	80.88
397.698	81.88
397.922	76.88
398.147	81.88
398.371	87.88
398.595	77.88
398.82	89.88
399.044	80.88
399.268	79.88
399.492	89.88
399.717	77.88
399.941	95.88
400.165	108.88
400.389	89.88
400.613	87.88
400.837	80.88
401.062	90.88
401.286	105.88
401.51	97.88
401.734	98.88
401.958	109.88
402.182	181.88
402.406	272.88
402.63	181.88
402.854	118.88
403.078	98.88
403.302	93.88
403.526	88.88
403.75	88.88
403.974	90.88
404.198	91.88
404.422	73.88
404.645	99.88
404.869	100.88
405.093	139.88
405.317	174.88
405.541	164.88
405.765	136.88
405.988	163.88
406.212	277.88
406.436	435.88
406.66	260.88
406.883	153.88
407.107	115.88
407.331	119.88
407.555	103.88
407.778	129.88
408.002	94.88
408.226	89.88
408.449	90.88
408.673	95.88
408.896	107.88
409.12	103.88
409.344	95.88
409.567	92.88
409.791	94.88
410.014	95.88
410.238	91.88
410.461	86.88
410.685	100.88
410.908	101.88
411.132	89.88
411.355	106.88
411.578	86.88
411.802	88.88
412.025	97.88
412.249	114.88
412.472	130.88
412.695	158.88
412.919	119.88
413.142	95.88
413.365	82.88
413.589	90.88
413.812	70.88
414.035	89.88
414.258	95.88
414.482	100.88
414.705	90.88
414.928	94.88
415.151	86.88
415.374	79.88
415.597	92.88
415.821	101.88
416.044	79.88
416.267	106.88
416.49	90.88
416.713	85.88
416.936	101.88
417.159	74.88
417.382	97.88
417.605	127.88
417.828	116.88
418.051	106.88
418.274	98.88
418.497	86.88
418.72	100.88
418.943	91.88
419.166	91.88
419.389	88.88
419.611	86.88
419.834	81.88
420.057	99.88
420.28	103.88
420.503	96.88
420.726	86.88
420.948	87.88
421.171	116.88
421.394	103.88
421.617	92.88
421.839	82.88
422.062	90.88
422.285	89.88
422.507	110.88
422.73	118.88
422.953	102.88
423.175	79.88
423.398	83.88
423.621	83.88
423.843	85.88
424.066	92.88
424.288	94.88
424.511	95.88
424.733	95.88
424.956	124.88
425.178	114.88
425.401	126.88
425.623	99.88
425.846	90.88
426.068	108.88
426.291	82.88
426.513	104.88
426.735	96.88
426.958	111.88
427.18	133.88
427.402	227.88
427.625	357.88
427.847	332.88
428.069	310.88
428.292	158.88
428.514	95.88
428.736	91.88
428.958	101.88
429.181	90.88
429.403	85.88
429.625	81.88
429.847	102.88
430.069	127.88
430.292	109.88
430.514	91.88
430.736	99.88
430.958	77.88
431.18	99.88
431.402	87.88
431.624	76.88
431.846	81.88
432.068	86.88
432.29	85.88
432.512	93.88
432.734	90.88
432.956	81.88
433.178	110.88
433.4	103.88
433.622	97.88
433.844	91.88
434.066	95.88
434.287	83.88
434.509	102.88
434.731	94.88
434.953	94.88
435.175	105.88
435.397	94.88
435.618	94.88
435.84	119.88
436.062	168.88
436.284	149.88
436.505	107.88
436.727	116.88
436.949	97.88
437.17	87.88
437.392	93.88
437.614	116.88
437.835	139.88
438.057	183.88
438.278	151.88
438.5	120.88
438.721	157.88
438.943	123.88
439.165	94.88
439.386	79.88
439.608	95.88
439.829	121.88
440.05	196.88
440.272	229.88
440.493	117.88
440.715	98.88
440.936	91.88
441.158	85.88
441.379	107.88
441.6	113.88
441.822	109.88
442.043	105.88
442.264	117.88
442.486	121.88
442.707	118.88
442.928	144.88
443.149	214.88
443.371	211.88
443.592	147.88
443.813	152.88
444.034	143.88
444.255	98.88
444.476	94.88
444.698	83.88
444.919	87.88
445.14	130.88
445.361	130.88
445.582	154.88
445.803	227.88
446.024	226.88
446.245	211.88
446.466	145.88
446.687	115.88
446.908	105.88
447.129	89.88
447.35	92.88
447.571	95.88
447.792	101.88
448.013	120.88
448.234	146.88
448.455	122.88
448.675	152.88
448.896	151.88
449.117	119.88
449.338	131.88
449.559	159.88
449.779	182.88
450	109.88
450.221	87.88
450.442	91.88
450.662	118.88
450.883	142.88
451.104	166.88
451.324	101.88
451.545	95.88
451.766	98.88
451.986	96.88
452.207	87.88
452.428	112.88
452.648	104.88
452.869	145.88
453.089	150.88
453.31	171.88
453.53	110.88
453.751	105.88
453.971	137.88
454.192	153.88
454.412	91.88
454.633	80.88
454.853	98.88
455.073	92.88
455.294	103.88
455.514	116.88
455.734	90.88
455.955	94.88
456.175	89.88
456.395	96.88
456.616	84.88
456.836	89.88
457.056	67.88
457.276	93.88
457.497	94.88
457.717	101.88
457.937	81.88
458.157	90.88
458.377	110.88
458.598	135.88
458.818	285.88
459.038	307.88
459.258	189.88
459.478	110.88
459.698	88.88
459.918	85.88
460.138	90.88
460.358	77.88
460.578	80.88
460.798	91.88
461.018	92.88
461.238	91.88
461.458	92.88
461.678	83.88
461.898	74.88
462.118	97.88
462.338	99.88
462.558	99.88
462.777	94.88
462.997	116.88
463.217	133.88
463.437	114.88
463.657	95.88
463.876	92.88
464.096	113.88
464.316	117.88
464.536	113.88
464.755	110.88
464.975	153.88
465.195	332.88
465.414	337.88
465.634	123.88
465.854	102.88
466.073	108.88
466.293	97.88
466.512	97.88
466.732	102.88
466.951	98.88
467.171	113.88
467.391	122.88
467.61	195.88
467.829	333.88
468.049	1088.88
468.268	1686.88
468.488	377.88
468.707	129.88
468.927	92.88
469.146	104.88
469.365	93.88
469.585	88.88
469.804	129.88
470.023	129.88
470.243	126.88
470.462	141.88
470.681	187.88
470.901	131.88
471.12	116.88
471.339	112.88
471.558	143.88
471.777	213.88
471.997	507.88
472.216	2152.88
472.435	4976.88
472.654	1043.88
472.873	241.88
473.092	124.88
473.311	110.88
473.53	106.88
473.749	103.88
473.968	111.88
474.187	147.88
474.406	121.88
474.625	85.88
474.844	93.88
475.063	103.88
475.282	82.88
475.501	102.88
475.72	96.88
475.939	83.88
476.158	92.88
476.377	105.88
476.596	90.88
476.814	108.88
477.033	105.88
477.252	106.88
477.471	102.88
477.69	97.88
477.908	94.88
478.127	95.88
478.346	89.88
478.564	107.88
478.783	134.88
479.002	112.88
479.22	114.88
479.439	154.88
479.658	167.88
479.876	147.88
480.095	153.88
480.313	179.88
480.532	232.88
480.751	480.88
480.969	1866.88
481.188	8391.88
481.406	4749.88
481.624	607.88
481.843	192.88
482.061	129.88
482.28	117.88
482.498	89.88
482.717	76.88
482.935	110.88
483.153	89.88
483.372	78.88
483.59	95.88
483.808	99.88
484.027	94.88
484.245	95.88
484.463	92.88
484.681	89.88
484.9	98.88
485.118	105.88
485.336	99.88
485.554	90.88
485.772	90.88
485.99	104.88
486.209	98.88
486.427	122.88
486.645	137.88
486.863	150.88
487.081	115.88
487.299	116.88
487.517	94.88
487.735	91.88
487.953	100.88
488.171	88.88
488.389	110.88
488.607	109.88
488.825	89.88
489.043	91.88
489.261	95.88
489.479	77.88
489.696	89.88
489.914	92.88
490.132	97.88
490.35	92.88
490.568	72.88
490.786	90.88
491.003	85.88
491.221	102.88
491.439	101.88
491.657	92.88
491.874	88.88
492.092	84.88
492.31	91.88
492.527	104.88
492.745	93.88
492.963	107.88
493.18	106.88
493.398	90.88
493.615	97.88
493.833	89.88
494.05	90.88
494.268	82.88
494.485	69.88
494.703	82.88
494.92	85.88
495.138	73.88
495.355	103.88
495.573	98.88
495.79	83.88
496.008	89.88
496.225	87.88
496.442	102.88
496.66	90.88
496.877	84.88
497.094	100.88
497.312	93.88
497.529	98.88
497.746	86.88
497.963	95.88
498.181	99.88
498.398	108.88
498.615	145.88
498.832	117.88
499.049	92.88
499.267	94.88
499.484	79.88
499.701	74.88
499.918	99.88
500.135	94.88
500.352	97.88
500.569	97.88
500.786	92.88
501.003	87.88
501.22	74.88
501.437	93.88
501.654	99.88
501.871	154.88
502.088	97.88
502.305	90.88
502.522	97.88
502.739	98.88
502.956	101.88
503.172	95.88
503.389	124.88
503.606	150.88
503.823	117.88
504.04	106.88
504.256	106.88
504.473	90.88
504.69	81.88
504.907	75.88
505.123	83.88
505.34	99.88
505.557	104.88
505.773	86.88
505.99	65.88
506.207	82.88
506.423	90.88
506.64	95.88
506.856	95.88
507.073	97.88
507.289	86.88
507.506	123.88
507.722	159.88
507.939	161.88
508.155	103.88
508.372	112.88
508.588	105.88
508.805	90.88
509.021	101.88
509.238	101.88
509.454	110.88
509.67	103.88
509.887	115.88
510.103	172.88
510.319	311.88
510.536	1248.88
510.752	4621.88
510.968	1184.88
511.184	217.88
511.401	134.88
511.617	121.88
511.833	135.88
512.049	123.88
