Data from Circ_1998_H10_HRD10591_00048.txt Node
Date: Wed Jan 03 11:26:58 EST 2024
User: Yrep
Spectrometer: HR+D1059
Trigger mode: 1
Integration Time (sec): 1.000000E-1
Scans to average: 1
Electric dark correction enabled: true
Nonlinearity correction enabled: false
Boxcar width: 0
XAxis mode: Wavelengths
Number of Pixels in Spectrum: 2048
>>>>>Begin Spectral Data<<<<<
223.165	-24.81
223.4	-24.81
223.635	-24.81
223.869	-22.81
224.104	-21.81
224.338	-20.81
224.573	-5.81
224.808	-0.81
225.042	-9.81
225.277	1.19
225.511	-17.81
225.746	13.19
225.98	1.19
226.215	14.19
226.449	17.19
226.683	14.19
226.918	33.19
227.152	30.19
227.387	32.19
227.621	33.19
227.856	39.19
228.09	40.19
228.324	37.19
228.559	58.19
228.793	59.19
229.027	71.19
229.262	64.19
229.496	75.19
229.73	97.19
229.964	85.19
230.199	73.19
230.433	73.19
230.667	64.19
230.901	75.19
231.136	78.19
231.37	93.19
231.604	74.19
231.838	83.19
232.072	95.19
232.306	83.19
232.541	83.19
232.775	96.19
233.009	80.19
233.243	88.19
233.477	89.19
233.711	82.19
233.945	85.19
234.179	75.19
234.413	88.19
234.647	80.19
234.881	84.19
235.115	71.19
235.349	80.19
235.583	88.19
235.817	77.19
236.051	77.19
236.285	80.19
236.519	76.19
236.753	82.19
236.987	79.19
237.221	97.19
237.455	91.19
237.689	77.19
237.922	80.19
238.156	65.19
238.39	69.19
238.624	80.19
238.858	76.19
239.091	73.19
239.325	73.19
239.559	93.19
239.793	91.19
240.027	95.19
240.26	80.19
240.494	90.19
240.728	98.19
240.961	86.19
241.195	70.19
241.429	79.19
241.662	69.19
241.896	79.19
242.13	62.19
242.363	79.19
242.597	76.19
242.83	82.19
243.064	80.19
243.298	76.19
243.531	78.19
243.765	82.19
243.998	88.19
244.232	79.19
244.465	90.19
244.699	87.19
244.932	93.19
245.166	100.19
245.399	87.19
245.633	64.19
245.866	79.19
246.099	85.19
246.333	83.19
246.566	92.19
246.8	77.19
247.033	77.19
247.266	89.19
247.5	74.19
247.733	69.19
247.966	73.19
248.2	88.19
248.433	83.19
248.666	94.19
248.899	93.19
249.133	111.19
249.366	117.19
249.599	120.19
249.832	91.19
250.066	73.19
250.299	79.19
250.532	90.19
250.765	88.19
250.998	85.19
251.231	89.19
251.465	91.19
251.698	91.19
251.931	89.19
252.164	82.19
252.397	73.19
252.63	63.19
252.863	76.19
253.096	96.19
253.329	94.19
253.562	74.19
253.795	79.19
254.028	64.19
254.261	84.19
254.494	81.19
254.727	94.19
254.96	72.19
255.193	90.19
255.426	86.19
255.659	88.19
255.892	100.19
256.124	98.19
256.357	90.19
256.59	99.19
256.823	83.19
257.056	94.19
257.289	90.19
257.521	98.19
257.754	89.19
257.987	83.19
258.22	93.19
258.452	117.19
258.685	110.19
258.918	91.19
259.151	92.19
259.383	94.19
259.616	92.19
259.849	87.19
260.081	92.19
260.314	95.19
260.547	103.19
260.779	111.19
261.012	120.19
261.244	128.19
261.477	109.19
261.71	115.19
261.942	149.19
262.175	151.19
262.407	102.19
262.64	81.19
262.872	98.19
263.105	102.19
263.337	82.19
263.57	80.19
263.802	84.19
264.035	94.19
264.267	79.19
264.499	80.19
264.732	87.19
264.964	87.19
265.197	94.19
265.429	85.19
265.661	71.19
265.894	86.19
266.126	79.19
266.358	97.19
266.591	88.19
266.823	82.19
267.055	90.19
267.287	106.19
267.52	101.19
267.752	100.19
267.984	82.19
268.216	87.19
268.448	99.19
268.681	87.19
268.913	81.19
269.145	96.19
269.377	87.19
269.609	82.19
269.841	97.19
270.073	86.19
270.306	93.19
270.538	94.19
270.77	102.19
271.002	92.19
271.234	95.19
271.466	96.19
271.698	104.19
271.93	73.19
272.162	93.19
272.394	94.19
272.626	88.19
272.858	92.19
273.09	95.19
273.322	77.19
273.553	84.19
273.785	78.19
274.017	82.19
274.249	80.19
274.481	95.19
274.713	91.19
274.945	105.19
275.176	95.19
275.408	113.19
275.64	125.19
275.872	145.19
276.104	117.19
276.335	112.19
276.567	111.19
276.799	156.19
277.031	221.19
277.262	272.19
277.494	181.19
277.726	126.19
277.957	93.19
278.189	101.19
278.421	91.19
278.652	89.19
278.884	89.19
279.115	96.19
279.347	93.19
279.579	107.19
279.81	161.19
280.042	256.19
280.273	374.19
280.505	246.19
280.736	114.19
280.968	101.19
281.199	109.19
281.431	93.19
281.662	96.19
281.894	95.19
282.125	104.19
282.356	155.19
282.588	201.19
282.819	155.19
283.051	100.19
283.282	95.19
283.513	98.19
283.745	69.19
283.976	74.19
284.207	91.19
284.439	104.19
284.67	109.19
284.901	86.19
285.132	95.19
285.364	84.19
285.595	87.19
285.826	94.19
286.057	77.19
286.288	89.19
286.52	88.19
286.751	79.19
286.982	78.19
287.213	82.19
287.444	102.19
287.675	98.19
287.906	83.19
288.138	93.19
288.369	104.19
288.6	95.19
288.831	101.19
289.062	97.19
289.293	96.19
289.524	90.19
289.755	95.19
289.986	96.19
290.217	87.19
290.448	88.19
290.679	99.19
290.91	90.19
291.141	88.19
291.371	83.19
291.602	97.19
291.833	89.19
292.064	95.19
292.295	86.19
292.526	94.19
292.757	100.19
292.987	77.19
293.218	94.19
293.449	85.19
293.68	92.19
293.91	98.19
294.141	99.19
294.372	94.19
294.603	75.19
294.833	89.19
295.064	73.19
295.295	107.19
295.525	110.19
295.756	108.19
295.987	138.19
296.217	188.19
296.448	157.19
296.679	93.19
296.909	88.19
297.14	101.19
297.37	104.19
297.601	94.19
297.831	97.19
298.062	99.19
298.292	106.19
298.523	87.19
298.753	81.19
298.984	95.19
299.214	85.19
299.445	103.19
299.675	103.19
299.905	113.19
300.136	73.19
300.366	83.19
300.597	88.19
300.827	95.19
301.057	117.19
301.288	120.19
301.518	106.19
301.748	107.19
301.979	131.19
302.209	118.19
302.439	101.19
302.669	82.19
302.9	99.19
303.13	99.19
303.36	124.19
303.59	160.19
303.82	167.19
304.051	128.19
304.281	107.19
304.511	107.19
304.741	95.19
304.971	90.19
305.201	88.19
305.431	99.19
305.661	92.19
305.891	96.19
306.121	99.19
306.352	121.19
306.582	131.19
306.812	118.19
307.042	156.19
307.272	218.19
307.502	233.19
307.731	219.19
307.961	146.19
308.191	93.19
308.421	92.19
308.651	82.19
308.881	94.19
309.111	109.19
309.341	104.19
309.571	109.19
309.8	112.19
310.03	119.19
310.26	123.19
310.49	82.19
310.72	107.19
310.949	131.19
311.179	107.19
311.409	106.19
311.639	101.19
311.868	106.19
312.098	115.19
312.328	117.19
312.557	119.19
312.787	125.19
313.017	124.19
313.246	103.19
313.476	93.19
313.706	88.19
313.935	98.19
314.165	115.19
314.394	131.19
314.624	104.19
314.853	109.19
315.083	95.19
315.312	94.19
315.542	99.19
315.771	96.19
316.001	93.19
316.23	110.19
316.46	88.19
316.689	94.19
316.919	107.19
317.148	109.19
317.377	100.19
317.607	101.19
317.836	97.19
318.065	97.19
318.295	109.19
318.524	103.19
318.753	97.19
318.983	84.19
319.212	114.19
319.441	131.19
319.67	122.19
319.9	104.19
320.129	105.19
320.358	97.19
320.587	105.19
320.816	112.19
321.046	126.19
321.275	100.19
321.504	92.19
321.733	94.19
321.962	106.19
322.191	130.19
322.42	128.19
322.649	130.19
322.878	144.19
323.108	149.19
323.337	173.19
323.566	191.19
323.795	223.19
324.024	295.19
324.253	635.19
324.482	1401.19
324.71	3025.19
324.939	4090.19
325.168	1432.19
325.397	379.19
325.626	210.19
325.855	171.19
326.084	150.19
326.313	177.19
326.542	219.19
326.77	342.19
326.999	697.19
327.228	1537.19
327.457	2865.19
327.686	2343.19
327.914	785.19
328.143	795.19
328.372	1076.19
328.6	563.19
328.829	252.19
329.058	233.19
329.287	245.19
329.515	237.19
329.744	375.19
329.972	742.19
330.201	1634.19
330.43	2370.19
330.658	993.19
330.887	405.19
331.115	248.19
331.344	147.19
331.572	133.19
331.801	141.19
332.03	144.19
332.258	133.19
332.486	123.19
332.715	131.19
332.943	120.19
333.172	139.19
333.4	164.19
333.629	210.19
333.857	303.19
334.085	668.19
334.314	1467.19
334.542	3017.19
334.771	2777.19
334.999	665.19
335.227	239.19
335.455	167.19
335.684	133.19
335.912	120.19
336.14	107.19
336.369	122.19
336.597	123.19
336.825	114.19
337.053	108.19
337.281	82.19
337.51	114.19
337.738	104.19
337.966	112.19
338.194	122.19
338.422	99.19
338.65	96.19
338.878	102.19
339.106	89.19
339.334	102.19
339.562	105.19
339.79	103.19
340.018	117.19
340.246	99.19
340.474	106.19
340.702	94.19
340.93	105.19
341.158	95.19
341.386	93.19
341.614	107.19
341.842	114.19
342.07	105.19
342.298	98.19
342.526	86.19
342.754	105.19
342.981	88.19
343.209	84.19
343.437	99.19
343.665	107.19
343.893	89.19
344.12	93.19
344.348	102.19
344.576	104.19
344.804	96.19
345.031	119.19
345.259	119.19
345.487	99.19
345.714	114.19
345.942	92.19
346.17	90.19
346.397	110.19
346.625	121.19
346.853	97.19
347.08	98.19
347.308	95.19
347.535	111.19
347.763	123.19
347.99	109.19
348.218	115.19
348.445	125.19
348.673	110.19
348.9	112.19
349.128	104.19
349.355	105.19
349.583	107.19
349.81	96.19
350.037	109.19
350.265	97.19
350.492	118.19
350.72	103.19
350.947	102.19
351.174	124.19
351.402	123.19
351.629	110.19
351.856	110.19
352.083	120.19
352.311	113.19
352.538	119.19
352.765	107.19
352.992	121.19
353.22	118.19
353.447	122.19
353.674	108.19
353.901	82.19
354.128	95.19
354.355	89.19
354.583	102.19
354.81	99.19
355.037	95.19
355.264	96.19
355.491	110.19
355.718	99.19
355.945	92.19
356.172	107.19
356.399	101.19
356.626	87.19
356.853	99.19
357.08	79.19
357.307	99.19
357.534	96.19
357.761	106.19
357.988	87.19
358.215	96.19
358.441	90.19
358.668	85.19
358.895	90.19
359.122	83.19
359.349	97.19
359.576	110.19
359.802	136.19
360.029	162.19
360.256	169.19
360.483	131.19
360.709	87.19
360.936	89.19
361.163	113.19
361.39	109.19
361.616	119.19
361.843	102.19
362.07	107.19
362.296	114.19
362.523	99.19
362.749	96.19
362.976	116.19
363.203	101.19
363.429	91.19
363.656	98.19
363.882	94.19
364.109	96.19
364.335	89.19
364.562	89.19
364.788	95.19
365.015	111.19
365.241	117.19
365.468	126.19
365.694	119.19
365.92	105.19
366.147	97.19
366.373	108.19
366.599	100.19
366.826	98.19
367.052	99.19
367.278	103.19
367.505	90.19
367.731	98.19
367.957	105.19
368.184	114.19
368.41	118.19
368.636	135.19
368.862	164.19
369.089	129.19
369.315	117.19
369.541	96.19
369.767	108.19
369.993	101.19
370.219	95.19
370.445	94.19
370.672	93.19
370.898	67.19
371.124	91.19
371.35	92.19
371.576	78.19
371.802	82.19
372.028	97.19
372.254	95.19
372.48	83.19
372.706	79.19
372.932	101.19
373.158	89.19
373.384	91.19
373.61	102.19
373.835	90.19
374.061	104.19
374.287	101.19
374.513	97.19
374.739	97.19
374.965	112.19
375.191	87.19
375.416	93.19
375.642	96.19
375.868	91.19
376.094	91.19
376.319	89.19
376.545	89.19
376.771	83.19
376.997	104.19
377.222	90.19
377.448	95.19
377.674	83.19
377.899	97.19
378.125	92.19
378.35	99.19
378.576	88.19
378.802	73.19
379.027	96.19
379.253	79.19
379.478	82.19
379.704	88.19
379.929	100.19
380.155	104.19
380.38	92.19
380.606	88.19
380.831	99.19
381.057	100.19
381.282	95.19
381.507	99.19
381.733	110.19
381.958	95.19
382.184	110.19
382.409	95.19
382.634	108.19
382.86	114.19
383.085	94.19
383.31	106.19
383.535	99.19
383.761	107.19
383.986	94.19
384.211	98.19
384.436	99.19
384.662	88.19
384.887	105.19
385.112	102.19
385.337	109.19
385.562	103.19
385.787	105.19
386.013	112.19
386.238	140.19
386.463	120.19
386.688	97.19
386.913	101.19
387.138	120.19
387.363	108.19
387.588	106.19
387.813	103.19
388.038	94.19
388.263	101.19
388.488	98.19
388.713	102.19
388.938	98.19
389.163	102.19
389.387	90.19
389.612	86.19
389.837	85.19
390.062	90.19
390.287	91.19
390.512	85.19
390.736	92.19
390.961	88.19
391.186	94.19
391.411	108.19
391.636	92.19
391.86	66.19
392.085	75.19
392.31	87.19
392.534	87.19
392.759	103.19
392.984	99.19
393.208	103.19
393.433	103.19
393.658	96.19
393.882	104.19
394.107	98.19
394.331	79.19
394.556	88.19
394.78	78.19
395.005	87.19
395.229	95.19
395.454	87.19
395.678	93.19
395.903	87.19
396.127	102.19
396.352	88.19
396.576	86.19
396.801	101.19
397.025	95.19
397.249	89.19
397.474	87.19
397.698	84.19
397.922	94.19
398.147	94.19
398.371	87.19
398.595	88.19
398.82	98.19
399.044	83.19
399.268	93.19
399.492	83.19
399.717	101.19
399.941	88.19
400.165	111.19
400.389	98.19
400.613	89.19
400.837	103.19
401.062	102.19
401.286	99.19
401.51	93.19
401.734	91.19
401.958	116.19
402.182	177.19
402.406	224.19
402.63	160.19
402.854	122.19
403.078	102.19
403.302	98.19
403.526	82.19
403.75	100.19
403.974	96.19
404.198	110.19
404.422	94.19
404.645	99.19
404.869	118.19
405.093	125.19
405.317	151.19
405.541	168.19
405.765	138.19
405.988	145.19
406.212	248.19
406.436	380.19
406.66	247.19
406.883	138.19
407.107	117.19
407.331	111.19
407.555	120.19
407.778	117.19
408.002	101.19
408.226	96.19
408.449	110.19
408.673	90.19
408.896	96.19
409.12	103.19
409.344	87.19
409.567	95.19
409.791	98.19
410.014	106.19
410.238	90.19
410.461	92.19
410.685	94.19
410.908	107.19
411.132	109.19
411.355	108.19
411.578	99.19
411.802	97.19
412.025	90.19
412.249	106.19
412.472	113.19
412.695	140.19
412.919	123.19
413.142	91.19
413.365	100.19
413.589	106.19
413.812	87.19
414.035	96.19
414.258	111.19
414.482	104.19
414.705	93.19
414.928	94.19
415.151	105.19
415.374	89.19
415.597	89.19
415.821	84.19
416.044	113.19
416.267	104.19
416.49	109.19
416.713	82.19
416.936	93.19
417.159	102.19
417.382	107.19
417.605	118.19
417.828	134.19
418.051	115.19
418.274	101.19
418.497	85.19
418.72	91.19
418.943	101.19
419.166	96.19
419.389	83.19
419.611	89.19
419.834	98.19
420.057	96.19
420.28	108.19
420.503	88.19
420.726	94.19
420.948	108.19
421.171	112.19
421.394	103.19
421.617	93.19
421.839	99.19
422.062	81.19
422.285	101.19
422.507	110.19
422.73	128.19
422.953	105.19
423.175	106.19
423.398	89.19
423.621	98.19
423.843	88.19
424.066	89.19
424.288	83.19
424.511	109.19
424.733	117.19
424.956	121.19
425.178	116.19
425.401	123.19
425.623	111.19
425.846	92.19
426.068	104.19
426.291	91.19
426.513	94.19
426.735	95.19
426.958	118.19
427.18	143.19
427.402	226.19
427.625	321.19
427.847	355.19
428.069	316.19
428.292	172.19
428.514	104.19
428.736	85.19
428.958	77.19
429.181	95.19
429.403	102.19
429.625	103.19
429.847	95.19
430.069	126.19
430.292	109.19
430.514	92.19
430.736	88.19
430.958	95.19
431.18	90.19
431.402	85.19
431.624	103.19
431.846	85.19
432.068	85.19
432.29	86.19
432.512	81.19
432.734	90.19
432.956	83.19
433.178	112.19
433.4	101.19
433.622	98.19
433.844	97.19
434.066	87.19
434.287	91.19
434.509	98.19
434.731	100.19
434.953	86.19
435.175	86.19
435.397	92.19
435.618	88.19
435.84	118.19
436.062	169.19
436.284	145.19
436.505	122.19
436.727	121.19
436.949	101.19
437.17	84.19
437.392	84.19
437.614	97.19
437.835	150.19
438.057	191.19
438.278	129.19
438.5	120.19
438.721	155.19
438.943	117.19
439.165	92.19
439.386	109.19
439.608	109.19
439.829	137.19
440.05	195.19
440.272	229.19
440.493	129.19
440.715	98.19
440.936	101.19
441.158	93.19
441.379	95.19
441.6	104.19
441.822	119.19
442.043	110.19
442.264	125.19
442.486	118.19
442.707	115.19
442.928	141.19
443.149	223.19
443.371	211.19
443.592	157.19
443.813	147.19
444.034	130.19
444.255	114.19
444.476	91.19
444.698	92.19
444.919	85.19
445.14	158.19
445.361	150.19
445.582	157.19
445.803	219.19
446.024	227.19
446.245	205.19
446.466	127.19
446.687	101.19
446.908	99.19
447.129	86.19
447.35	93.19
447.571	110.19
447.792	108.19
448.013	98.19
448.234	122.19
448.455	127.19
448.675	151.19
448.896	162.19
449.117	117.19
449.338	123.19
449.559	182.19
449.779	182.19
450	100.19
450.221	80.19
450.442	95.19
450.662	117.19
450.883	125.19
451.104	140.19
451.324	122.19
451.545	100.19
451.766	93.19
451.986	94.19
452.207	103.19
452.428	94.19
452.648	130.19
452.869	148.19
453.089	161.19
453.31	158.19
453.53	117.19
453.751	105.19
453.971	128.19
454.192	157.19
454.412	110.19
454.633	82.19
454.853	81.19
455.073	95.19
455.294	107.19
455.514	124.19
455.734	92.19
455.955	86.19
456.175	86.19
456.395	81.19
456.616	80.19
456.836	99.19
457.056	94.19
457.276	86.19
457.497	89.19
457.717	84.19
457.937	95.19
458.157	97.19
458.377	103.19
458.598	148.19
458.818	274.19
459.038	285.19
459.258	180.19
459.478	98.19
459.698	106.19
459.918	85.19
460.138	94.19
460.358	95.19
460.578	89.19
460.798	99.19
461.018	90.19
461.238	87.19
461.458	88.19
461.678	92.19
461.898	88.19
462.118	103.19
462.338	89.19
462.558	92.19
462.777	98.19
462.997	105.19
463.217	112.19
463.437	113.19
463.657	97.19
463.876	95.19
464.096	95.19
464.316	118.19
464.536	106.19
464.755	109.19
464.975	130.19
465.195	307.19
465.414	282.19
465.634	121.19
465.854	103.19
466.073	101.19
466.293	96.19
466.512	89.19
466.732	81.19
466.951	89.19
467.171	110.19
467.391	122.19
467.61	195.19
467.829	301.19
468.049	905.19
468.268	1426.19
468.488	333.19
468.707	133.19
468.927	110.19
469.146	89.19
469.365	99.19
469.585	108.19
469.804	119.19
470.023	125.19
470.243	109.19
470.462	122.19
470.681	159.19
470.901	118.19
471.12	113.19
471.339	123.19
471.558	149.19
471.777	204.19
471.997	439.19
472.216	1797.19
472.435	4283.19
472.654	917.19
472.873	218.19
473.092	122.19
473.311	101.19
473.53	104.19
473.749	108.19
473.968	98.19
474.187	137.19
474.406	120.19
474.625	99.19
474.844	105.19
475.063	96.19
475.282	89.19
475.501	83.19
475.72	116.19
475.939	87.19
476.158	103.19
476.377	96.19
476.596	104.19
476.814	110.19
477.033	117.19
477.252	81.19
477.471	105.19
477.69	107.19
477.908	117.19
478.127	96.19
478.346	103.19
478.564	96.19
478.783	107.19
479.002	131.19
479.22	114.19
479.439	131.19
479.658	150.19
479.876	144.19
480.095	154.19
480.313	185.19
480.532	224.19
480.751	413.19
480.969	1616.19
481.188	7292.19
481.406	4050.19
481.624	525.19
481.843	163.19
482.061	141.19
482.28	123.19
482.498	93.19
482.717	89.19
482.935	98.19
483.153	101.19
483.372	94.19
483.59	100.19
483.808	99.19
484.027	101.19
484.245	107.19
484.463	99.19
484.681	96.19
484.9	117.19
485.118	111.19
485.336	87.19
485.554	134.19
485.772	115.19
485.99	108.19
486.209	111.19
486.427	130.19
486.645	127.19
486.863	148.19
487.081	105.19
487.299	99.19
487.517	102.19
487.735	93.19
487.953	102.19
488.171	103.19
488.389	98.19
488.607	113.19
488.825	78.19
489.043	89.19
489.261	95.19
489.479	70.19
489.696	105.19
489.914	93.19
490.132	89.19
490.35	104.19
490.568	76.19
490.786	117.19
491.003	94.19
491.221	101.19
491.439	114.19
491.657	95.19
491.874	99.19
492.092	105.19
492.31	101.19
492.527	112.19
492.745	113.19
492.963	97.19
493.18	100.19
493.398	91.19
493.615	90.19
493.833	110.19
494.05	96.19
494.268	106.19
494.485	105.19
494.703	97.19
494.92	82.19
495.138	96.19
495.355	108.19
495.573	87.19
495.79	86.19
496.008	97.19
496.225	88.19
496.442	90.19
496.66	106.19
496.877	99.19
497.094	109.19
497.312	111.19
497.529	111.19
497.746	99.19
497.963	106.19
498.181	102.19
498.398	105.19
498.615	127.19
498.832	130.19
499.049	95.19
499.267	99.19
499.484	91.19
499.701	87.19
499.918	77.19
500.135	91.19
500.352	92.19
500.569	118.19
500.786	106.19
501.003	93.19
501.22	90.19
501.437	94.19
501.654	97.19
501.871	154.19
502.088	107.19
502.305	95.19
502.522	94.19
502.739	97.19
502.956	98.19
503.172	82.19
503.389	109.19
503.606	160.19
503.823	109.19
504.04	93.19
504.256	91.19
504.473	90.19
504.69	94.19
504.907	92.19
505.123	86.19
505.34	81.19
505.557	95.19
505.773	89.19
505.99	89.19
506.207	86.19
506.423	87.19
506.64	87.19
506.856	98.19
507.073	91.19
507.289	94.19
507.506	112.19
507.722	152.19
507.939	157.19
508.155	99.19
508.372	104.19
508.588	92.19
508.805	86.19
509.021	105.19
509.238	115.19
509.454	101.19
509.67	117.19
509.887	118.19
510.103	162.19
510.319	294.19
510.536	1178.19
510.752	4111.19
510.968	1072.19
511.184	209.19
