Data from Circ_1998_H10_HRD10591_00004.txt Node
Date: Wed Jan 03 11:26:49 EST 2024
User: Yrep
Spectrometer: HR+D1059
Trigger mode: 1
Integration Time (sec): 1.000000E-1
Scans to average: 1
Electric dark correction enabled: true
Nonlinearity correction enabled: false
Boxcar width: 0
XAxis mode: Wavelengths
Number of Pixels in Spectrum: 2048
>>>>>Begin Spectral Data<<<<<
223.165	-16.94
223.4	-16.94
223.635	-16.94
223.869	-31.94
224.104	-16.94
224.338	-19.94
224.573	-9.94
224.808	-9.94
225.042	6.06
225.277	-13.94
225.511	-13.94
225.746	4.06
225.98	17.06
226.215	16.06
226.449	20.06
226.683	19.06
226.918	18.06
227.152	33.06
227.387	35.06
227.621	49.06
227.856	37.06
228.09	44.06
228.324	52.06
228.559	51.06
228.793	64.06
229.027	67.06
229.262	66.06
229.496	87.06
229.73	111.06
229.964	90.06
230.199	75.06
230.433	80.06
230.667	82.06
230.901	77.06
231.136	83.06
231.37	82.06
231.604	80.06
231.838	77.06
232.072	90.06
232.306	102.06
232.541	99.06
232.775	87.06
233.009	86.06
233.243	97.06
233.477	85.06
233.711	74.06
233.945	84.06
234.179	77.06
234.413	86.06
234.647	89.06
234.881	83.06
235.115	88.06
235.349	69.06
235.583	81.06
235.817	90.06
236.051	79.06
236.285	101.06
236.519	85.06
236.753	89.06
236.987	96.06
237.221	84.06
237.455	97.06
237.689	91.06
237.922	84.06
238.156	77.06
238.39	85.06
238.624	74.06
238.858	88.06
239.091	81.06
239.325	73.06
239.559	86.06
239.793	82.06
240.027	70.06
240.26	78.06
240.494	92.06
240.728	82.06
240.961	88.06
241.195	78.06
241.429	80.06
241.662	85.06
241.896	91.06
242.13	73.06
242.363	77.06
242.597	76.06
242.83	81.06
243.064	81.06
243.298	76.06
243.531	79.06
243.765	84.06
243.998	77.06
244.232	73.06
244.465	110.06
244.699	89.06
244.932	87.06
245.166	74.06
245.399	82.06
245.633	85.06
245.866	94.06
246.099	81.06
246.333	84.06
246.566	104.06
246.8	103.06
247.033	79.06
247.266	69.06
247.5	72.06
247.733	96.06
247.966	89.06
248.2	80.06
248.433	74.06
248.666	86.06
248.899	84.06
249.133	86.06
249.366	115.06
249.599	120.06
249.832	81.06
250.066	80.06
250.299	86.06
250.532	80.06
250.765	80.06
250.998	85.06
251.231	86.06
251.465	101.06
251.698	78.06
251.931	67.06
252.164	100.06
252.397	103.06
252.63	88.06
252.863	75.06
253.096	74.06
253.329	88.06
253.562	78.06
253.795	80.06
254.028	88.06
254.261	88.06
254.494	88.06
254.727	94.06
254.96	84.06
255.193	87.06
255.426	85.06
255.659	76.06
255.892	83.06
256.124	85.06
256.357	88.06
256.59	84.06
256.823	99.06
257.056	114.06
257.289	96.06
257.521	84.06
257.754	95.06
257.987	84.06
258.22	104.06
258.452	95.06
258.685	98.06
258.918	83.06
259.151	91.06
259.383	107.06
259.616	79.06
259.849	83.06
260.081	73.06
260.314	98.06
260.547	88.06
260.779	107.06
261.012	110.06
261.244	105.06
261.477	102.06
261.71	105.06
261.942	136.06
262.175	146.06
262.407	95.06
262.64	91.06
262.872	94.06
263.105	104.06
263.337	93.06
263.57	85.06
263.802	97.06
264.035	93.06
264.267	85.06
264.499	100.06
264.732	90.06
264.964	105.06
265.197	90.06
265.429	96.06
265.661	82.06
265.894	88.06
266.126	73.06
266.358	83.06
266.591	98.06
266.823	96.06
267.055	97.06
267.287	88.06
267.52	91.06
267.752	97.06
267.984	90.06
268.216	94.06
268.448	91.06
268.681	88.06
268.913	93.06
269.145	88.06
269.377	93.06
269.609	93.06
269.841	87.06
270.073	92.06
270.306	91.06
270.538	93.06
270.77	94.06
271.002	106.06
271.234	77.06
271.466	100.06
271.698	114.06
271.93	98.06
272.162	76.06
272.394	89.06
272.626	92.06
272.858	81.06
273.09	93.06
273.322	89.06
273.553	95.06
273.785	94.06
274.017	77.06
274.249	77.06
274.481	73.06
274.713	102.06
274.945	86.06
275.176	94.06
275.408	103.06
275.64	105.06
275.872	117.06
276.104	93.06
276.335	95.06
276.567	122.06
276.799	162.06
277.031	147.06
277.262	185.06
277.494	147.06
277.726	102.06
277.957	87.06
278.189	89.06
278.421	91.06
278.652	92.06
278.884	89.06
279.115	91.06
279.347	102.06
279.579	108.06
279.81	128.06
280.042	187.06
280.273	244.06
280.505	170.06
280.736	115.06
280.968	107.06
281.199	104.06
281.431	111.06
281.662	86.06
281.894	85.06
282.125	119.06
282.356	132.06
282.588	168.06
282.819	134.06
283.051	100.06
283.282	86.06
283.513	102.06
283.745	80.06
283.976	76.06
284.207	92.06
284.439	96.06
284.67	96.06
284.901	101.06
285.132	77.06
285.364	85.06
285.595	85.06
285.826	91.06
286.057	93.06
286.288	92.06
286.52	84.06
286.751	92.06
286.982	100.06
287.213	97.06
287.444	91.06
287.675	86.06
287.906	91.06
288.138	86.06
288.369	99.06
288.6	104.06
288.831	95.06
289.062	94.06
289.293	78.06
289.524	90.06
289.755	73.06
289.986	102.06
290.217	90.06
290.448	93.06
290.679	113.06
290.91	90.06
291.141	96.06
291.371	98.06
291.602	92.06
291.833	78.06
292.064	83.06
292.295	88.06
292.526	93.06
292.757	72.06
292.987	84.06
293.218	86.06
293.449	89.06
293.68	79.06
293.91	97.06
294.141	102.06
294.372	91.06
294.603	96.06
294.833	97.06
295.064	83.06
295.295	78.06
295.525	103.06
295.756	109.06
295.987	138.06
296.217	168.06
296.448	141.06
296.679	106.06
296.909	97.06
297.14	92.06
297.37	100.06
297.601	92.06
297.831	91.06
298.062	91.06
298.292	92.06
298.523	91.06
298.753	93.06
298.984	102.06
299.214	98.06
299.445	104.06
299.675	112.06
299.905	99.06
300.136	98.06
300.366	97.06
300.597	106.06
300.827	102.06
301.057	116.06
301.288	117.06
301.518	112.06
301.748	108.06
301.979	112.06
302.209	102.06
302.439	95.06
302.669	94.06
302.9	96.06
303.13	104.06
303.36	105.06
303.59	131.06
303.82	146.06
304.051	110.06
304.281	109.06
304.511	90.06
304.741	96.06
304.971	107.06
305.201	95.06
305.431	110.06
305.661	90.06
305.891	96.06
306.121	100.06
306.352	122.06
306.582	115.06
306.812	117.06
307.042	139.06
307.272	158.06
307.502	178.06
307.731	163.06
307.961	119.06
308.191	101.06
308.421	87.06
308.651	84.06
308.881	96.06
309.111	105.06
309.341	106.06
309.571	111.06
309.8	104.06
310.03	100.06
310.26	114.06
310.49	100.06
310.72	107.06
310.949	127.06
311.179	120.06
311.409	92.06
311.639	111.06
311.868	116.06
312.098	99.06
312.328	102.06
312.557	121.06
312.787	130.06
313.017	121.06
313.246	108.06
313.476	96.06
313.706	113.06
313.935	111.06
314.165	124.06
314.394	115.06
314.624	100.06
314.853	109.06
315.083	112.06
315.312	98.06
315.542	97.06
315.771	90.06
316.001	93.06
316.23	86.06
316.46	96.06
316.689	105.06
316.919	98.06
317.148	100.06
317.377	104.06
317.607	105.06
317.836	97.06
318.065	102.06
318.295	94.06
318.524	100.06
318.753	103.06
318.983	97.06
319.212	114.06
319.441	116.06
319.67	116.06
319.9	93.06
320.129	97.06
320.358	108.06
320.587	102.06
320.816	105.06
321.046	110.06
321.275	99.06
321.504	108.06
321.733	111.06
321.962	105.06
322.191	117.06
322.42	114.06
322.649	129.06
322.878	122.06
323.108	143.06
323.337	161.06
323.566	174.06
323.795	191.06
324.024	265.06
324.253	584.06
324.482	1313.06
324.71	2841.06
324.939	3849.06
325.168	1345.06
325.397	363.06
325.626	197.06
325.855	157.06
326.084	141.06
326.313	173.06
326.542	205.06
326.77	338.06
326.999	683.06
327.228	1502.06
327.457	2858.06
327.686	2301.06
327.914	670.06
328.143	546.06
328.372	682.06
328.6	384.06
328.829	211.06
329.058	208.06
329.287	212.06
329.515	189.06
329.744	270.06
329.972	458.06
330.201	944.06
330.43	1413.06
330.658	620.06
330.887	288.06
331.115	198.06
331.344	139.06
331.572	136.06
331.801	133.06
332.03	131.06
332.258	106.06
332.486	108.06
332.715	121.06
332.943	112.06
333.172	118.06
333.4	137.06
333.629	174.06
333.857	230.06
334.085	443.06
334.314	924.06
334.542	1818.06
334.771	1706.06
334.999	440.06
335.227	188.06
335.455	137.06
335.684	113.06
335.912	95.06
336.14	108.06
336.369	115.06
336.597	116.06
336.825	109.06
337.053	113.06
337.281	99.06
337.51	121.06
337.738	101.06
337.966	110.06
338.194	108.06
338.422	105.06
338.65	109.06
338.878	102.06
339.106	92.06
339.334	88.06
339.562	94.06
339.79	105.06
340.018	89.06
340.246	107.06
340.474	106.06
340.702	114.06
340.93	98.06
341.158	101.06
341.386	105.06
341.614	100.06
341.842	100.06
342.07	83.06
342.298	96.06
342.526	85.06
342.754	101.06
342.981	96.06
343.209	93.06
343.437	94.06
343.665	81.06
343.893	90.06
344.12	90.06
344.348	101.06
344.576	106.06
344.804	101.06
345.031	114.06
345.259	120.06
345.487	104.06
345.714	107.06
345.942	105.06
346.17	93.06
346.397	100.06
346.625	90.06
346.853	101.06
347.08	103.06
347.308	110.06
347.535	109.06
347.763	108.06
347.99	100.06
348.218	111.06
348.445	132.06
348.673	116.06
348.9	107.06
349.128	85.06
349.355	105.06
349.583	95.06
349.81	97.06
350.037	106.06
350.265	83.06
350.492	112.06
350.72	96.06
350.947	109.06
351.174	108.06
351.402	148.06
351.629	129.06
351.856	124.06
352.083	114.06
352.311	114.06
352.538	132.06
352.765	146.06
352.992	120.06
353.22	119.06
353.447	124.06
353.674	109.06
353.901	113.06
354.128	102.06
354.355	94.06
354.583	112.06
354.81	103.06
355.037	97.06
355.264	106.06
355.491	91.06
355.718	98.06
355.945	90.06
356.172	107.06
356.399	98.06
356.626	100.06
356.853	101.06
357.08	109.06
357.307	101.06
357.534	96.06
357.761	107.06
357.988	88.06
358.215	98.06
358.441	100.06
358.668	124.06
358.895	106.06
359.122	106.06
359.349	101.06
359.576	119.06
359.802	111.06
360.029	149.06
360.256	139.06
360.483	121.06
360.709	89.06
360.936	107.06
361.163	88.06
361.39	99.06
361.616	107.06
361.843	97.06
362.07	104.06
362.296	96.06
362.523	105.06
362.749	91.06
362.976	99.06
363.203	106.06
363.429	101.06
363.656	94.06
363.882	91.06
364.109	105.06
364.335	94.06
364.562	98.06
364.788	108.06
365.015	110.06
365.241	118.06
365.468	135.06
365.694	117.06
365.92	111.06
366.147	103.06
366.373	95.06
366.599	106.06
366.826	88.06
367.052	90.06
367.278	93.06
367.505	85.06
367.731	99.06
367.957	105.06
368.184	110.06
368.41	116.06
368.636	123.06
368.862	128.06
369.089	119.06
369.315	96.06
369.541	96.06
369.767	99.06
369.993	103.06
370.219	92.06
370.445	87.06
370.672	93.06
370.898	95.06
371.124	105.06
371.35	98.06
371.576	83.06
371.802	99.06
372.028	83.06
372.254	106.06
372.48	88.06
372.706	92.06
372.932	98.06
373.158	85.06
373.384	97.06
373.61	94.06
373.835	89.06
374.061	105.06
374.287	104.06
374.513	85.06
374.739	92.06
374.965	93.06
375.191	94.06
375.416	112.06
375.642	98.06
375.868	93.06
376.094	90.06
376.319	93.06
376.545	91.06
376.771	83.06
376.997	90.06
377.222	100.06
377.448	88.06
377.674	85.06
377.899	92.06
378.125	97.06
378.35	100.06
378.576	101.06
378.802	88.06
379.027	90.06
379.253	97.06
379.478	109.06
379.704	109.06
379.929	117.06
380.155	105.06
380.38	97.06
380.606	95.06
380.831	111.06
381.057	120.06
381.282	100.06
381.507	105.06
381.733	118.06
381.958	106.06
382.184	121.06
382.409	127.06
382.634	121.06
382.86	124.06
383.085	120.06
383.31	133.06
383.535	115.06
383.761	117.06
383.986	122.06
384.211	116.06
384.436	115.06
384.662	128.06
384.887	134.06
385.112	141.06
385.337	152.06
385.562	122.06
385.787	121.06
386.013	137.06
386.238	171.06
386.463	143.06
386.688	137.06
386.913	126.06
387.138	152.06
387.363	140.06
387.588	115.06
387.813	126.06
388.038	129.06
388.263	172.06
388.488	150.06
388.713	121.06
388.938	90.06
389.163	99.06
389.387	101.06
389.612	86.06
389.837	92.06
390.062	93.06
390.287	87.06
390.512	79.06
390.736	94.06
390.961	82.06
391.186	85.06
391.411	91.06
391.636	85.06
391.86	96.06
392.085	85.06
392.31	101.06
392.534	72.06
392.759	94.06
392.984	84.06
393.208	92.06
393.433	113.06
393.658	111.06
393.882	91.06
394.107	97.06
394.331	95.06
394.556	86.06
394.78	98.06
395.005	84.06
395.229	80.06
395.454	107.06
395.678	84.06
395.903	94.06
396.127	103.06
396.352	92.06
396.576	93.06
396.801	97.06
397.025	94.06
397.249	90.06
397.474	91.06
397.698	97.06
397.922	96.06
398.147	88.06
398.371	85.06
398.595	101.06
398.82	82.06
399.044	91.06
399.268	82.06
399.492	72.06
399.717	77.06
399.941	95.06
400.165	115.06
400.389	100.06
400.613	90.06
400.837	96.06
401.062	96.06
401.286	97.06
401.51	102.06
401.734	92.06
401.958	110.06
402.182	148.06
402.406	180.06
402.63	158.06
402.854	111.06
403.078	99.06
403.302	101.06
403.526	103.06
403.75	93.06
403.974	108.06
404.198	90.06
404.422	89.06
404.645	93.06
404.869	107.06
405.093	139.06
405.317	141.06
405.541	153.06
405.765	131.06
405.988	138.06
406.212	234.06
406.436	301.06
406.66	197.06
406.883	132.06
407.107	106.06
407.331	115.06
407.555	127.06
407.778	113.06
408.002	99.06
408.226	95.06
408.449	104.06
408.673	98.06
408.896	94.06
409.12	105.06
409.344	103.06
409.567	99.06
409.791	85.06
410.014	108.06
410.238	99.06
410.461	88.06
410.685	105.06
410.908	85.06
411.132	120.06
411.355	113.06
411.578	94.06
411.802	109.06
412.025	113.06
412.249	99.06
412.472	128.06
412.695	134.06
412.919	99.06
413.142	114.06
413.365	95.06
413.589	88.06
413.812	84.06
414.035	97.06
414.258	102.06
414.482	103.06
414.705	90.06
414.928	91.06
415.151	81.06
415.374	103.06
415.597	92.06
415.821	118.06
416.044	92.06
416.267	86.06
416.49	86.06
416.713	91.06
416.936	86.06
417.159	101.06
417.382	101.06
417.605	101.06
417.828	123.06
418.051	106.06
418.274	109.06
418.497	94.06
418.72	106.06
418.943	107.06
419.166	85.06
419.389	87.06
419.611	91.06
419.834	105.06
420.057	97.06
420.28	98.06
420.503	91.06
420.726	95.06
420.948	102.06
421.171	109.06
421.394	96.06
421.617	103.06
421.839	92.06
422.062	106.06
422.285	88.06
422.507	113.06
422.73	117.06
422.953	111.06
423.175	99.06
423.398	92.06
423.621	83.06
423.843	95.06
424.066	85.06
424.288	84.06
424.511	99.06
424.733	116.06
424.956	117.06
425.178	105.06
425.401	114.06
425.623	113.06
425.846	102.06
426.068	106.06
426.291	101.06
426.513	110.06
426.735	96.06
426.958	96.06
427.18	125.06
427.402	195.06
427.625	287.06
427.847	276.06
428.069	269.06
428.292	136.06
428.514	100.06
428.736	106.06
428.958	91.06
429.181	88.06
429.403	88.06
429.625	105.06
429.847	105.06
430.069	107.06
430.292	85.06
430.514	93.06
430.736	95.06
430.958	101.06
431.18	91.06
431.402	83.06
431.624	110.06
431.846	85.06
432.068	88.06
432.29	82.06
432.512	98.06
432.734	85.06
432.956	84.06
433.178	110.06
433.4	116.06
433.622	100.06
433.844	102.06
434.066	94.06
434.287	100.06
434.509	92.06
434.731	82.06
434.953	91.06
435.175	95.06
435.397	103.06
435.618	102.06
435.84	120.06
436.062	155.06
436.284	161.06
436.505	117.06
436.727	127.06
436.949	98.06
437.17	116.06
437.392	104.06
437.614	107.06
437.835	141.06
438.057	164.06
438.278	140.06
438.5	129.06
438.721	154.06
438.943	124.06
439.165	102.06
439.386	101.06
439.608	99.06
439.829	122.06
440.05	177.06
440.272	224.06
440.493	130.06
440.715	113.06
440.936	101.06
441.158	97.06
441.379	99.06
441.6	116.06
441.822	107.06
442.043	112.06
442.264	133.06
442.486	134.06
442.707	100.06
442.928	130.06
443.149	184.06
443.371	175.06
443.592	148.06
443.813	132.06
444.034	120.06
444.255	100.06
444.476	95.06
444.698	105.06
444.919	90.06
445.14	166.06
445.361	166.06
445.582	159.06
445.803	225.06
446.024	212.06
446.245	191.06
446.466	152.06
446.687	101.06
446.908	104.06
447.129	104.06
447.35	109.06
447.571	101.06
447.792	111.06
448.013	115.06
448.234	103.06
448.455	124.06
448.675	139.06
448.896	147.06
449.117	114.06
449.338	121.06
449.559	156.06
449.779	187.06
450	110.06
450.221	110.06
450.442	91.06
450.662	102.06
450.883	125.06
451.104	137.06
451.324	113.06
451.545	97.06
451.766	90.06
451.986	94.06
452.207	96.06
452.428	104.06
452.648	92.06
452.869	138.06
453.089	140.06
453.31	163.06
453.53	120.06
453.751	99.06
453.971	129.06
454.192	138.06
454.412	102.06
454.633	104.06
454.853	96.06
455.073	106.06
455.294	108.06
455.514	115.06
455.734	107.06
455.955	99.06
456.175	97.06
456.395	88.06
456.616	93.06
456.836	79.06
457.056	86.06
457.276	97.06
457.497	90.06
457.717	84.06
457.937	91.06
458.157	103.06
458.377	94.06
458.598	154.06
458.818	227.06
459.038	228.06
459.258	172.06
459.478	105.06
459.698	100.06
459.918	101.06
460.138	80.06
460.358	98.06
460.578	78.06
460.798	96.06
461.018	110.06
461.238	86.06
461.458	95.06
461.678	91.06
461.898	101.06
462.118	91.06
462.338	109.06
462.558	95.06
462.777	94.06
462.997	96.06
463.217	118.06
463.437	97.06
463.657	100.06
463.876	84.06
464.096	85.06
464.316	113.06
464.536	116.06
464.755	113.06
464.975	127.06
465.195	242.06
465.414	257.06
465.634	118.06
465.854	96.06
466.073	94.06
466.293	100.06
466.512	74.06
466.732	86.06
466.951	97.06
467.171	96.06
467.391	115.06
467.61	141.06
467.829	218.06
468.049	552.06
468.268	832.06
468.488	223.06
468.707	109.06
468.927	100.06
469.146	94.06
469.365	105.06
469.585	104.06
469.804	113.06
470.023	126.06
470.243	114.06
470.462	121.06
470.681	132.06
470.901	98.06
471.12	92.06
471.339	102.06
471.558	136.06
471.777	156.06
471.997	301.06
472.216	1090.06
472.435	2456.06
472.654	588.06
472.873	163.06
473.092	120.06
473.311	106.06
473.53	96.06
473.749	94.06
473.968	120.06
474.187	113.06
474.406	96.06
474.625	104.06
474.844	85.06
475.063	92.06
475.282	90.06
475.501	93.06
475.72	93.06
475.939	98.06
476.158	96.06
476.377	88.06
476.596	100.06
476.814	99.06
477.033	86.06
477.252	99.06
477.471	99.06
477.69	93.06
477.908	108.06
478.127	96.06
478.346	91.06
478.564	100.06
478.783	112.06
479.002	102.06
479.22	112.06
479.439	134.06
479.658	139.06
479.876	123.06
480.095	125.06
480.313	130.06
480.532	166.06
480.751	287.06
480.969	1004.06
481.188	4410.06
481.406	2492.06
481.624	356.06
481.843	136.06
482.061	102.06
482.28	110.06
482.498	94.06
482.717	94.06
482.935	103.06
483.153	97.06
483.372	101.06
483.59	107.06
483.808	97.06
484.027	106.06
484.245	99.06
484.463	96.06
484.681	104.06
484.9	103.06
485.118	100.06
485.336	118.06
485.554	101.06
485.772	113.06
485.99	124.06
486.209	112.06
486.427	129.06
486.645	130.06
486.863	125.06
487.081	129.06
487.299	102.06
487.517	109.06
487.735	88.06
487.953	91.06
488.171	97.06
488.389	109.06
488.607	106.06
488.825	101.06
489.043	93.06
489.261	104.06
489.479	97.06
489.696	78.06
489.914	88.06
490.132	91.06
490.35	97.06
490.568	94.06
490.786	104.06
491.003	84.06
491.221	107.06
491.439	102.06
491.657	97.06
491.874	110.06
492.092	92.06
492.31	94.06
492.527	113.06
492.745	113.06
492.963	97.06
493.18	106.06
493.398	96.06
493.615	107.06
493.833	99.06
494.05	88.06
494.268	88.06
494.485	102.06
494.703	105.06
494.92	99.06
495.138	92.06
495.355	97.06
495.573	93.06
495.79	99.06
496.008	100.06
496.225	97.06
496.442	72.06
496.66	102.06
496.877	102.06
497.094	89.06
497.312	95.06
497.529	89.06
497.746	93.06
497.963	87.06
498.181	91.06
498.398	99.06
498.615	127.06
498.832	110.06
499.049	94.06
499.267	100.06
499.484	97.06
499.701	106.06
499.918	102.06
500.135	101.06
500.352	98.06
500.569	101.06
500.786	111.06
501.003	93.06
501.22	87.06
501.437	90.06
501.654	107.06
501.871	137.06
502.088	100.06
502.305	96.06
502.522	100.06
502.739	111.06
502.956	98.06
503.172	93.06
503.389	99.06
503.606	131.06
503.823	125.06
504.04	115.06
504.256	96.06
504.473	88.06
504.69	92.06
504.907	96.06
505.123	84.06
505.34	102.06
505.557	113.06
505.773	88.06
505.99	93.06
506.207	91.06
506.423	104.06
506.64	100.06
506.856	77.06
507.073	94.06
507.289	114.06
507.506	103.06
507.722	127.06
507.939	126.06
508.155	115.06
508.372	113.06
508.588	91.06
508.805	92.06
509.021	114.06
509.238	100.06
509.454	99.06
509.67	101.06
509.887	123.06
510.103	140.06
510.319	260.06
510.536	931.06
