Data from Circ_1998_H10_HRD10591_00030.txt Node
Date: Wed Jan 03 11:26:54 EST 2024
User: Yrep
Spectrometer: HR+D1059
Trigger mode: 1
Integration Time (sec): 1.000000E-1
Scans to average: 1
Electric dark correction enabled: true
Nonlinearity correction enabled: false
Boxcar width: 0
XAxis mode: Wavelengths
Number of Pixels in Spectrum: 2048
>>>>>Begin Spectral Data<<<<<
223.165	-24.56
223.4	-24.56
223.635	-24.56
223.869	-23.56
224.104	-4.56
224.338	-8.56
224.573	-5.56
224.808	-8.56
225.042	-16.56
225.277	-7.56
225.511	-11.56
225.746	-0.56
225.98	4.44
226.215	20.44
226.449	21.44
226.683	24.44
226.918	16.44
227.152	24.44
227.387	36.44
227.621	33.44
227.856	43.44
228.09	49.44
228.324	52.44
228.559	51.44
228.793	42.44
229.027	67.44
229.262	64.44
229.496	74.44
229.73	81.44
229.964	96.44
230.199	66.44
230.433	79.44
230.667	74.44
230.901	71.44
231.136	66.44
231.37	89.44
231.604	76.44
231.838	81.44
232.072	63.44
232.306	85.44
232.541	74.44
232.775	74.44
233.009	82.44
233.243	85.44
233.477	71.44
233.711	82.44
233.945	81.44
234.179	79.44
234.413	76.44
234.647	75.44
234.881	70.44
235.115	81.44
235.349	85.44
235.583	96.44
235.817	74.44
236.051	79.44
236.285	86.44
236.519	84.44
236.753	71.44
236.987	84.44
237.221	90.44
237.455	93.44
237.689	101.44
237.922	74.44
238.156	84.44
238.39	87.44
238.624	78.44
238.858	90.44
239.091	83.44
239.325	92.44
239.559	81.44
239.793	91.44
240.027	75.44
240.26	65.44
240.494	88.44
240.728	79.44
240.961	61.44
241.195	97.44
241.429	81.44
241.662	82.44
241.896	71.44
242.13	76.44
242.363	74.44
242.597	75.44
242.83	82.44
243.064	71.44
243.298	64.44
243.531	79.44
243.765	70.44
243.998	86.44
244.232	89.44
244.465	81.44
244.699	83.44
244.932	84.44
245.166	80.44
245.399	81.44
245.633	78.44
245.866	76.44
246.099	71.44
246.333	88.44
246.566	83.44
246.8	67.44
247.033	89.44
247.266	73.44
247.5	88.44
247.733	78.44
247.966	78.44
248.2	87.44
248.433	76.44
248.666	81.44
248.899	86.44
249.133	92.44
249.366	113.44
249.599	110.44
249.832	85.44
250.066	81.44
250.299	86.44
250.532	95.44
250.765	80.44
250.998	71.44
251.231	81.44
251.465	77.44
251.698	85.44
251.931	79.44
252.164	85.44
252.397	88.44
252.63	89.44
252.863	74.44
253.096	82.44
253.329	100.44
253.562	76.44
253.795	72.44
254.028	96.44
254.261	88.44
254.494	79.44
254.727	91.44
254.96	65.44
255.193	78.44
255.426	80.44
255.659	73.44
255.892	89.44
256.124	102.44
256.357	80.44
256.59	92.44
256.823	80.44
257.056	102.44
257.289	85.44
257.521	93.44
257.754	80.44
257.987	82.44
258.22	91.44
258.452	105.44
258.685	102.44
258.918	81.44
259.151	84.44
259.383	80.44
259.616	87.44
259.849	91.44
260.081	94.44
260.314	95.44
260.547	90.44
260.779	119.44
261.012	116.44
261.244	132.44
261.477	95.44
261.71	95.44
261.942	137.44
262.175	158.44
262.407	100.44
262.64	89.44
262.872	86.44
263.105	79.44
263.337	90.44
263.57	85.44
263.802	86.44
264.035	87.44
264.267	95.44
264.499	82.44
264.732	80.44
264.964	69.44
265.197	80.44
265.429	82.44
265.661	80.44
265.894	96.44
266.126	74.44
266.358	60.44
266.591	89.44
266.823	80.44
267.055	88.44
267.287	97.44
267.52	84.44
267.752	92.44
267.984	86.44
268.216	84.44
268.448	96.44
268.681	79.44
268.913	87.44
269.145	80.44
269.377	85.44
269.609	80.44
269.841	98.44
270.073	89.44
270.306	71.44
270.538	74.44
270.77	80.44
271.002	103.44
271.234	97.44
271.466	95.44
271.698	93.44
271.93	116.44
272.162	89.44
272.394	85.44
272.626	90.44
272.858	87.44
273.09	90.44
273.322	62.44
273.553	81.44
273.785	75.44
274.017	93.44
274.249	89.44
274.481	83.44
274.713	95.44
274.945	85.44
275.176	97.44
275.408	107.44
275.64	112.44
275.872	148.44
276.104	105.44
276.335	101.44
276.567	122.44
276.799	134.44
277.031	188.44
277.262	225.44
277.494	167.44
277.726	93.44
277.957	101.44
278.189	72.44
278.421	86.44
278.652	86.44
278.884	97.44
279.115	90.44
279.347	95.44
279.579	118.44
279.81	132.44
280.042	223.44
280.273	319.44
280.505	232.44
280.736	113.44
280.968	100.44
281.199	86.44
281.431	85.44
281.662	85.44
281.894	92.44
282.125	103.44
282.356	130.44
282.588	179.44
282.819	130.44
283.051	92.44
283.282	93.44
283.513	102.44
283.745	74.44
283.976	77.44
284.207	95.44
284.439	92.44
284.67	104.44
284.901	92.44
285.132	89.44
285.364	86.44
285.595	100.44
285.826	88.44
286.057	89.44
286.288	89.44
286.52	93.44
286.751	72.44
286.982	89.44
287.213	102.44
287.444	76.44
287.675	89.44
287.906	104.44
288.138	98.44
288.369	88.44
288.6	106.44
288.831	85.44
289.062	95.44
289.293	94.44
289.524	98.44
289.755	94.44
289.986	93.44
290.217	93.44
290.448	89.44
290.679	80.44
290.91	92.44
291.141	93.44
291.371	98.44
291.602	80.44
291.833	90.44
292.064	98.44
292.295	85.44
292.526	78.44
292.757	84.44
292.987	96.44
293.218	98.44
293.449	88.44
293.68	80.44
293.91	98.44
294.141	97.44
294.372	96.44
294.603	109.44
294.833	92.44
295.064	103.44
295.295	89.44
295.525	92.44
295.756	106.44
295.987	132.44
296.217	181.44
296.448	158.44
296.679	88.44
296.909	82.44
297.14	89.44
297.37	87.44
297.601	82.44
297.831	97.44
298.062	79.44
298.292	97.44
298.523	88.44
298.753	87.44
298.984	80.44
299.214	98.44
299.445	96.44
299.675	86.44
299.905	102.44
300.136	79.44
300.366	96.44
300.597	93.44
300.827	103.44
301.057	111.44
301.288	120.44
301.518	105.44
301.748	113.44
301.979	111.44
302.209	106.44
302.439	105.44
302.669	94.44
302.9	98.44
303.13	78.44
303.36	91.44
303.59	150.44
303.82	166.44
304.051	93.44
304.281	87.44
304.511	82.44
304.741	90.44
304.971	93.44
305.201	87.44
305.431	79.44
305.661	80.44
305.891	93.44
306.121	93.44
306.352	125.44
306.582	112.44
306.812	104.44
307.042	138.44
307.272	200.44
307.502	215.44
307.731	209.44
307.961	150.44
308.191	97.44
308.421	106.44
308.651	91.44
308.881	103.44
309.111	92.44
309.341	95.44
309.571	89.44
309.8	110.44
310.03	104.44
310.26	104.44
310.49	110.44
310.72	118.44
310.949	123.44
311.179	113.44
311.409	105.44
311.639	92.44
311.868	103.44
312.098	96.44
312.328	109.44
312.557	117.44
312.787	126.44
313.017	121.44
313.246	102.44
313.476	90.44
313.706	111.44
313.935	108.44
314.165	124.44
314.394	120.44
314.624	96.44
314.853	110.44
315.083	107.44
315.312	98.44
315.542	86.44
315.771	94.44
316.001	98.44
316.23	85.44
316.46	94.44
316.689	105.44
316.919	100.44
317.148	105.44
317.377	93.44
317.607	96.44
317.836	96.44
318.065	76.44
318.295	93.44
318.524	107.44
318.753	91.44
318.983	104.44
319.212	95.44
319.441	113.44
319.67	119.44
319.9	111.44
320.129	110.44
320.358	91.44
320.587	91.44
320.816	107.44
321.046	96.44
321.275	109.44
321.504	95.44
321.733	98.44
321.962	95.44
322.191	110.44
322.42	120.44
322.649	122.44
322.878	155.44
323.108	134.44
323.337	152.44
323.566	176.44
323.795	189.44
324.024	276.44
324.253	553.44
324.482	1197.44
324.71	2539.44
324.939	3304.44
325.168	1184.44
325.397	328.44
325.626	183.44
325.855	155.44
326.084	152.44
326.313	153.44
326.542	197.44
326.77	286.44
326.999	577.44
327.228	1277.44
327.457	2328.44
327.686	1898.44
327.914	684.44
328.143	688.44
328.372	846.44
328.6	456.44
328.829	223.44
329.058	222.44
329.287	221.44
329.515	226.44
329.744	310.44
329.972	643.44
330.201	1329.44
330.43	1941.44
330.658	823.44
330.887	337.44
331.115	216.44
331.344	159.44
331.572	135.44
331.801	134.44
332.03	146.44
332.258	116.44
332.486	112.44
332.715	112.44
332.943	129.44
333.172	115.44
333.4	147.44
333.629	186.44
333.857	289.44
334.085	556.44
334.314	1224.44
334.542	2419.44
334.771	2227.44
334.999	547.44
335.227	209.44
335.455	136.44
335.684	116.44
335.912	103.44
336.14	117.44
336.369	106.44
336.597	114.44
336.825	101.44
337.053	97.44
337.281	101.44
337.51	91.44
337.738	116.44
337.966	122.44
338.194	109.44
338.422	114.44
338.65	101.44
338.878	104.44
339.106	84.44
339.334	106.44
339.562	97.44
339.79	106.44
340.018	101.44
340.246	104.44
340.474	114.44
340.702	102.44
340.93	98.44
341.158	109.44
341.386	104.44
341.614	118.44
341.842	102.44
342.07	106.44
342.298	107.44
342.526	91.44
342.754	88.44
342.981	94.44
343.209	80.44
343.437	98.44
343.665	94.44
343.893	89.44
344.12	93.44
344.348	101.44
344.576	87.44
344.804	83.44
345.031	118.44
345.259	125.44
345.487	105.44
345.714	98.44
345.942	93.44
346.17	81.44
346.397	103.44
346.625	106.44
346.853	98.44
347.08	93.44
347.308	104.44
347.535	100.44
347.763	99.44
347.99	119.44
348.218	105.44
348.445	130.44
348.673	113.44
348.9	77.44
349.128	92.44
349.355	82.44
349.583	106.44
349.81	101.44
350.037	89.44
350.265	105.44
350.492	101.44
350.72	98.44
350.947	98.44
351.174	116.44
351.402	117.44
351.629	122.44
351.856	120.44
352.083	123.44
352.311	121.44
352.538	131.44
352.765	112.44
352.992	124.44
353.22	119.44
353.447	117.44
353.674	110.44
353.901	93.44
354.128	103.44
354.355	92.44
354.583	86.44
354.81	109.44
355.037	89.44
355.264	89.44
355.491	76.44
355.718	82.44
355.945	92.44
356.172	102.44
356.399	95.44
356.626	104.44
356.853	90.44
357.08	96.44
357.307	77.44
357.534	87.44
357.761	80.44
357.988	101.44
358.215	89.44
358.441	90.44
358.668	69.44
358.895	93.44
359.122	101.44
359.349	93.44
359.576	96.44
359.802	118.44
360.029	144.44
360.256	150.44
360.483	124.44
360.709	92.44
360.936	93.44
361.163	102.44
361.39	96.44
361.616	97.44
361.843	111.44
362.07	89.44
362.296	88.44
362.523	89.44
362.749	88.44
362.976	111.44
363.203	101.44
363.429	86.44
363.656	86.44
363.882	100.44
364.109	101.44
364.335	91.44
364.562	95.44
364.788	95.44
365.015	87.44
365.241	107.44
365.468	116.44
365.694	140.44
365.92	100.44
366.147	87.44
366.373	113.44
366.599	99.44
366.826	99.44
367.052	86.44
367.278	85.44
367.505	103.44
367.731	90.44
367.957	103.44
368.184	118.44
368.41	103.44
368.636	123.44
368.862	132.44
369.089	146.44
369.315	119.44
369.541	98.44
369.767	68.44
369.993	97.44
370.219	95.44
370.445	90.44
370.672	78.44
370.898	105.44
371.124	84.44
371.35	95.44
371.576	107.44
371.802	93.44
372.028	79.44
372.254	100.44
372.48	86.44
372.706	80.44
372.932	90.44
373.158	94.44
373.384	79.44
373.61	98.44
373.835	110.44
374.061	98.44
374.287	103.44
374.513	90.44
374.739	102.44
374.965	99.44
375.191	79.44
375.416	83.44
375.642	80.44
375.868	93.44
376.094	82.44
376.319	94.44
376.545	92.44
376.771	84.44
376.997	95.44
377.222	95.44
377.448	90.44
377.674	99.44
377.899	91.44
378.125	82.44
378.35	89.44
378.576	88.44
378.802	92.44
379.027	80.44
379.253	90.44
379.478	99.44
379.704	100.44
379.929	79.44
380.155	74.44
380.38	102.44
380.606	87.44
380.831	76.44
381.057	99.44
381.282	89.44
381.507	88.44
381.733	94.44
381.958	95.44
382.184	105.44
382.409	102.44
382.634	106.44
382.86	105.44
383.085	98.44
383.31	108.44
383.535	98.44
383.761	99.44
383.986	101.44
384.211	85.44
384.436	88.44
384.662	106.44
384.887	113.44
385.112	109.44
385.337	104.44
385.562	114.44
385.787	103.44
386.013	113.44
386.238	109.44
386.463	114.44
386.688	113.44
386.913	101.44
387.138	102.44
387.363	110.44
387.588	101.44
387.813	106.44
388.038	114.44
388.263	105.44
388.488	109.44
388.713	108.44
388.938	105.44
389.163	99.44
389.387	98.44
389.612	89.44
389.837	91.44
390.062	92.44
390.287	96.44
390.512	75.44
390.736	93.44
390.961	99.44
391.186	90.44
391.411	93.44
391.636	102.44
391.86	84.44
392.085	91.44
392.31	91.44
392.534	82.44
392.759	80.44
392.984	88.44
393.208	92.44
393.433	78.44
393.658	85.44
393.882	71.44
394.107	78.44
394.331	96.44
394.556	101.44
394.78	97.44
395.005	102.44
395.229	86.44
395.454	71.44
395.678	92.44
395.903	97.44
396.127	89.44
396.352	88.44
396.576	85.44
396.801	104.44
397.025	91.44
397.249	87.44
397.474	93.44
397.698	88.44
397.922	75.44
398.147	82.44
398.371	91.44
398.595	87.44
398.82	89.44
399.044	81.44
399.268	87.44
399.492	81.44
399.717	88.44
399.941	82.44
400.165	106.44
400.389	109.44
400.613	95.44
400.837	82.44
401.062	101.44
401.286	93.44
401.51	104.44
401.734	101.44
401.958	117.44
402.182	155.44
402.406	223.44
402.63	159.44
402.854	115.44
403.078	94.44
403.302	95.44
403.526	93.44
403.75	89.44
403.974	87.44
404.198	97.44
404.422	89.44
404.645	92.44
404.869	108.44
405.093	127.44
405.317	157.44
405.541	150.44
405.765	135.44
405.988	150.44
406.212	240.44
406.436	371.44
406.66	237.44
406.883	143.44
407.107	115.44
407.331	108.44
407.555	106.44
407.778	118.44
408.002	96.44
408.226	94.44
408.449	100.44
408.673	103.44
408.896	85.44
409.12	112.44
409.344	102.44
409.567	80.44
409.791	82.44
410.014	90.44
410.238	88.44
410.461	98.44
410.685	104.44
410.908	98.44
411.132	113.44
411.355	110.44
411.578	96.44
411.802	76.44
412.025	87.44
412.249	113.44
412.472	113.44
412.695	143.44
412.919	122.44
413.142	85.44
413.365	85.44
413.589	102.44
413.812	95.44
414.035	87.44
414.258	92.44
414.482	88.44
414.705	91.44
414.928	90.44
415.151	102.44
415.374	112.44
415.597	75.44
415.821	91.44
416.044	90.44
416.267	80.44
416.49	85.44
416.713	90.44
416.936	85.44
417.159	89.44
417.382	91.44
417.605	113.44
417.828	110.44
418.051	102.44
418.274	86.44
418.497	89.44
418.72	89.44
418.943	89.44
419.166	75.44
419.389	97.44
419.611	82.44
419.834	98.44
420.057	91.44
420.28	104.44
420.503	96.44
420.726	84.44
420.948	100.44
421.171	101.44
421.394	99.44
421.617	93.44
421.839	87.44
422.062	94.44
422.285	92.44
422.507	112.44
422.73	117.44
422.953	93.44
423.175	94.44
423.398	89.44
423.621	82.44
423.843	84.44
424.066	77.44
424.288	77.44
424.511	101.44
424.733	103.44
424.956	118.44
425.178	117.44
425.401	112.44
425.623	102.44
425.846	102.44
426.068	113.44
426.291	106.44
426.513	95.44
426.735	88.44
426.958	97.44
427.18	132.44
427.402	207.44
427.625	297.44
427.847	286.44
428.069	257.44
428.292	151.44
428.514	102.44
428.736	97.44
428.958	83.44
429.181	90.44
429.403	70.44
429.625	104.44
429.847	94.44
430.069	132.44
430.292	119.44
430.514	80.44
430.736	81.44
430.958	84.44
431.18	85.44
431.402	75.44
431.624	80.44
431.846	76.44
432.068	88.44
432.29	83.44
432.512	100.44
432.734	73.44
432.956	80.44
433.178	95.44
433.4	109.44
433.622	101.44
433.844	97.44
434.066	88.44
434.287	96.44
434.509	99.44
434.731	88.44
434.953	96.44
435.175	91.44
435.397	88.44
435.618	105.44
435.84	113.44
436.062	152.44
436.284	141.44
436.505	108.44
436.727	104.44
436.949	93.44
437.17	88.44
437.392	104.44
437.614	98.44
437.835	134.44
438.057	162.44
438.278	136.44
438.5	128.44
438.721	114.44
438.943	100.44
439.165	89.44
439.386	92.44
439.608	119.44
439.829	121.44
440.05	160.44
440.272	205.44
440.493	122.44
440.715	81.44
440.936	80.44
441.158	87.44
441.379	101.44
441.6	89.44
441.822	104.44
442.043	99.44
442.264	113.44
442.486	103.44
442.707	113.44
442.928	125.44
443.149	198.44
443.371	189.44
443.592	142.44
443.813	152.44
444.034	118.44
444.255	94.44
444.476	85.44
444.698	91.44
444.919	99.44
445.14	139.44
445.361	133.44
445.582	144.44
445.803	203.44
446.024	193.44
446.245	184.44
446.466	137.44
446.687	102.44
446.908	92.44
447.129	95.44
447.35	108.44
447.571	92.44
447.792	112.44
448.013	104.44
448.234	125.44
448.455	118.44
448.675	144.44
448.896	135.44
449.117	113.44
449.338	117.44
449.559	161.44
449.779	177.44
450	94.44
450.221	88.44
450.442	88.44
450.662	105.44
450.883	143.44
451.104	132.44
451.324	119.44
451.545	96.44
451.766	90.44
451.986	92.44
452.207	72.44
452.428	86.44
452.648	118.44
452.869	148.44
453.089	158.44
453.31	171.44
453.53	113.44
453.751	101.44
453.971	136.44
454.192	146.44
454.412	122.44
454.633	81.44
454.853	91.44
455.073	88.44
455.294	94.44
455.514	109.44
455.734	96.44
455.955	81.44
456.175	96.44
456.395	84.44
456.616	82.44
456.836	84.44
457.056	88.44
457.276	96.44
457.497	108.44
457.717	103.44
457.937	95.44
458.157	105.44
458.377	94.44
458.598	118.44
458.818	234.44
459.038	248.44
459.258	158.44
459.478	104.44
459.698	86.44
459.918	72.44
460.138	81.44
460.358	89.44
460.578	103.44
460.798	96.44
461.018	90.44
461.238	94.44
461.458	86.44
461.678	98.44
461.898	91.44
462.118	96.44
462.338	96.44
462.558	97.44
462.777	94.44
462.997	95.44
463.217	116.44
463.437	99.44
463.657	102.44
463.876	100.44
464.096	94.44
464.316	106.44
464.536	107.44
464.755	98.44
464.975	148.44
465.195	265.44
465.414	262.44
465.634	129.44
465.854	102.44
466.073	84.44
466.293	101.44
466.512	93.44
466.732	104.44
466.951	90.44
467.171	111.44
467.391	119.44
467.61	165.44
467.829	287.44
468.049	757.44
468.268	1150.44
468.488	272.44
468.707	119.44
468.927	96.44
469.146	90.44
469.365	94.44
469.585	104.44
469.804	118.44
470.023	102.44
470.243	116.44
470.462	121.44
470.681	159.44
470.901	108.44
471.12	116.44
471.339	107.44
471.558	138.44
471.777	181.44
471.997	396.44
472.216	1563.44
472.435	3568.44
472.654	781.44
472.873	192.44
473.092	114.44
473.311	101.44
473.53	87.44
473.749	94.44
473.968	117.44
474.187	130.44
474.406	114.44
474.625	115.44
474.844	90.44
475.063	76.44
475.282	91.44
475.501	87.44
475.72	89.44
475.939	87.44
476.158	89.44
476.377	84.44
476.596	93.44
476.814	94.44
477.033	99.44
477.252	105.44
477.471	103.44
477.69	101.44
477.908	108.44
478.127	96.44
478.346	106.44
478.564	101.44
478.783	117.44
479.002	109.44
479.22	118.44
479.439	117.44
479.658	152.44
479.876	132.44
480.095	124.44
480.313	145.44
480.532	218.44
480.751	383.44
480.969	1351.44
481.188	6128.44
481.406	3325.44
481.624	461.44
481.843	155.44
482.061	109.44
482.28	105.44
482.498	99.44
482.717	109.44
482.935	98.44
483.153	98.44
483.372	97.44
483.59	96.44
483.808	94.44
484.027	99.44
484.245	85.44
484.463	98.44
484.681	102.44
484.9	94.44
485.118	108.44
485.336	97.44
485.554	97.44
485.772	120.44
485.99	116.44
486.209	101.44
486.427	105.44
486.645	132.44
486.863	135.44
487.081	123.44
487.299	104.44
487.517	101.44
487.735	96.44
487.953	92.44
488.171	92.44
488.389	94.44
488.607	106.44
488.825	90.44
489.043	91.44
489.261	86.44
489.479	86.44
489.696	93.44
489.914	90.44
490.132	94.44
490.35	95.44
490.568	93.44
490.786	80.44
491.003	80.44
491.221	94.44
491.439	95.44
491.657	96.44
491.874	104.44
492.092	90.44
492.31	94.44
492.527	104.44
492.745	100.44
492.963	97.44
493.18	102.44
493.398	88.44
493.615	100.44
493.833	102.44
494.05	96.44
494.268	93.44
494.485	97.44
494.703	101.44
494.92	86.44
495.138	95.44
495.355	87.44
495.573	104.44
495.79	91.44
496.008	90.44
496.225	84.44
496.442	85.44
496.66	84.44
496.877	84.44
497.094	106.44
497.312	86.44
497.529	92.44
497.746	97.44
497.963	88.44
498.181	103.44
498.398	98.44
498.615	126.44
498.832	124.44
499.049	96.44
499.267	89.44
499.484	87.44
499.701	95.44
499.918	92.44
500.135	89.44
500.352	102.44
500.569	106.44
500.786	85.44
501.003	94.44
501.22	99.44
501.437	105.44
501.654	100.44
501.871	130.44
502.088	106.44
502.305	88.44
502.522	96.44
502.739	104.44
502.956	90.44
503.172	98.44
503.389	115.44
503.606	137.44
503.823	121.44
504.04	104.44
504.256	103.44
504.473	95.44
504.69	94.44
504.907	96.44
505.123	96.44
505.34	96.44
505.557	87.44
505.773	95.44
505.99	87.44
506.207	97.44
506.423	94.44
506.64	86.44
506.856	98.44
507.073	100.44
507.289	101.44
507.506	106.44
507.722	146.44
507.939	141.44
508.155	102.44
508.372	114.44
508.588	103.44
508.805	95.44
509.021	105.44
509.238	109.44
509.454	97.44
509.67	100.44
509.887	121.44
510.103	161.44
510.319	305.44
510.536	1096.44
510.752	4086.44
510.968	1040.44
511.184	202.44
511.401	129.44
511.617	126.44
511.833	120.44
512.049	105.44
