Data from Circ_1998_H10_HRD10591_00002.txt Node
Date: Wed Jan 03 11:26:49 EST 2024
User: Yrep
Spectrometer: HR+D1059
Trigger mode: 1
Integration Time (sec): 1.000000E-1
Scans to average: 1
Electric dark correction enabled: true
Nonlinearity correction enabled: false
Boxcar width: 0
XAxis mode: Wavelengths
Number of Pixels in Spectrum: 2048
>>>>>Begin Spectral Data<<<<<
223.165	-15.19
223.4	-15.19
223.635	-15.19
223.869	-26.19
224.104	-23.19
224.338	-15.19
224.573	-10.19
224.808	-24.19
225.042	-15.19
225.277	5.81
225.511	-7.19
225.746	-0.19
225.98	9.81
226.215	13.81
226.449	20.81
226.683	24.81
226.918	23.81
227.152	37.81
227.387	36.81
227.621	45.81
227.856	43.81
228.09	46.81
228.324	53.81
228.559	47.81
228.793	49.81
229.027	61.81
229.262	53.81
229.496	78.81
229.73	98.81
229.964	87.81
230.199	73.81
230.433	73.81
230.667	78.81
230.901	72.81
231.136	84.81
231.37	68.81
231.604	70.81
231.838	87.81
232.072	70.81
232.306	77.81
232.541	82.81
232.775	84.81
233.009	73.81
233.243	79.81
233.477	80.81
233.711	70.81
233.945	80.81
234.179	74.81
234.413	88.81
234.647	90.81
234.881	85.81
235.115	79.81
235.349	78.81
235.583	62.81
235.817	78.81
236.051	82.81
236.285	72.81
236.519	91.81
236.753	82.81
236.987	77.81
237.221	86.81
237.455	86.81
237.689	80.81
237.922	80.81
238.156	81.81
238.39	89.81
238.624	87.81
238.858	87.81
239.091	79.81
239.325	90.81
239.559	85.81
239.793	71.81
240.027	71.81
240.26	71.81
240.494	65.81
240.728	68.81
240.961	79.81
241.195	73.81
241.429	86.81
241.662	82.81
241.896	76.81
242.13	75.81
242.363	76.81
242.597	65.81
242.83	68.81
243.064	80.81
243.298	92.81
243.531	76.81
243.765	66.81
243.998	77.81
244.232	83.81
244.465	87.81
244.699	85.81
244.932	81.81
245.166	74.81
245.399	98.81
245.633	88.81
245.866	71.81
246.099	72.81
246.333	77.81
246.566	83.81
246.8	83.81
247.033	76.81
247.266	80.81
247.5	73.81
247.733	79.81
247.966	81.81
248.2	77.81
248.433	71.81
248.666	78.81
248.899	66.81
249.133	89.81
249.366	96.81
249.599	100.81
249.832	87.81
250.066	90.81
250.299	87.81
250.532	89.81
250.765	69.81
250.998	80.81
251.231	75.81
251.465	80.81
251.698	79.81
251.931	80.81
252.164	104.81
252.397	85.81
252.63	76.81
252.863	78.81
253.096	76.81
253.329	70.81
253.562	77.81
253.795	69.81
254.028	109.81
254.261	80.81
254.494	72.81
254.727	79.81
254.96	78.81
255.193	76.81
255.426	82.81
255.659	82.81
255.892	88.81
256.124	85.81
256.357	86.81
256.59	75.81
256.823	79.81
257.056	78.81
257.289	90.81
257.521	84.81
257.754	74.81
257.987	78.81
258.22	71.81
258.452	92.81
258.685	90.81
258.918	85.81
259.151	81.81
259.383	80.81
259.616	94.81
259.849	81.81
260.081	81.81
260.314	81.81
260.547	77.81
260.779	85.81
261.012	89.81
261.244	101.81
261.477	88.81
261.71	92.81
261.942	107.81
262.175	133.81
262.407	102.81
262.64	80.81
262.872	77.81
263.105	95.81
263.337	99.81
263.57	82.81
263.802	82.81
264.035	74.81
264.267	66.81
264.499	88.81
264.732	91.81
264.964	97.81
265.197	99.81
265.429	90.81
265.661	80.81
265.894	80.81
266.126	82.81
266.358	91.81
266.591	80.81
266.823	89.81
267.055	66.81
267.287	79.81
267.52	69.81
267.752	87.81
267.984	81.81
268.216	80.81
268.448	82.81
268.681	78.81
268.913	93.81
269.145	88.81
269.377	74.81
269.609	82.81
269.841	89.81
270.073	86.81
270.306	83.81
270.538	86.81
270.77	79.81
271.002	78.81
271.234	80.81
271.466	91.81
271.698	80.81
271.93	77.81
272.162	74.81
272.394	92.81
272.626	86.81
272.858	98.81
273.09	85.81
273.322	84.81
273.553	79.81
273.785	92.81
274.017	75.81
274.249	89.81
274.481	79.81
274.713	88.81
274.945	110.81
275.176	92.81
275.408	103.81
275.64	103.81
275.872	101.81
276.104	101.81
276.335	89.81
276.567	113.81
276.799	133.81
277.031	152.81
277.262	156.81
277.494	122.81
277.726	106.81
277.957	92.81
278.189	84.81
278.421	76.81
278.652	88.81
278.884	87.81
279.115	90.81
279.347	92.81
279.579	100.81
279.81	126.81
280.042	163.81
280.273	207.81
280.505	140.81
280.736	97.81
280.968	86.81
281.199	84.81
281.431	93.81
281.662	87.81
281.894	98.81
282.125	99.81
282.356	120.81
282.588	153.81
282.819	122.81
283.051	80.81
283.282	78.81
283.513	97.81
283.745	78.81
283.976	67.81
284.207	76.81
284.439	89.81
284.67	83.81
284.901	92.81
285.132	82.81
285.364	79.81
285.595	81.81
285.826	89.81
286.057	89.81
286.288	73.81
286.52	92.81
286.751	83.81
286.982	85.81
287.213	101.81
287.444	94.81
287.675	87.81
287.906	96.81
288.138	101.81
288.369	102.81
288.6	85.81
288.831	89.81
289.062	92.81
289.293	78.81
289.524	81.81
289.755	87.81
289.986	89.81
290.217	87.81
290.448	101.81
290.679	76.81
290.91	96.81
291.141	83.81
291.371	84.81
291.602	93.81
291.833	88.81
292.064	101.81
292.295	99.81
292.526	68.81
292.757	91.81
292.987	98.81
293.218	88.81
293.449	83.81
293.68	92.81
293.91	70.81
294.141	76.81
294.372	89.81
294.603	79.81
294.833	90.81
295.064	79.81
295.295	90.81
295.525	84.81
295.756	98.81
295.987	124.81
296.217	148.81
296.448	144.81
296.679	93.81
296.909	104.81
297.14	88.81
297.37	85.81
297.601	80.81
297.831	91.81
298.062	80.81
298.292	96.81
298.523	89.81
298.753	85.81
298.984	82.81
299.214	91.81
299.445	98.81
299.675	92.81
299.905	97.81
300.136	82.81
300.366	85.81
300.597	88.81
300.827	98.81
301.057	113.81
301.288	112.81
301.518	118.81
301.748	98.81
301.979	118.81
302.209	98.81
302.439	94.81
302.669	96.81
302.9	83.81
303.13	90.81
303.36	93.81
303.59	116.81
303.82	129.81
304.051	91.81
304.281	81.81
304.511	90.81
304.741	91.81
304.971	95.81
305.201	99.81
305.431	98.81
305.661	95.81
305.891	87.81
306.121	93.81
306.352	120.81
306.582	118.81
306.812	98.81
307.042	112.81
307.272	138.81
307.502	169.81
307.731	162.81
307.961	111.81
308.191	100.81
308.421	86.81
308.651	89.81
308.881	97.81
309.111	89.81
309.341	82.81
309.571	92.81
309.8	95.81
310.03	92.81
310.26	97.81
310.49	90.81
310.72	117.81
310.949	125.81
311.179	104.81
311.409	100.81
311.639	110.81
311.868	103.81
312.098	107.81
312.328	97.81
312.557	109.81
312.787	117.81
313.017	115.81
313.246	94.81
313.476	92.81
313.706	98.81
313.935	108.81
314.165	92.81
314.394	110.81
314.624	111.81
314.853	102.81
315.083	90.81
315.312	96.81
315.542	101.81
315.771	97.81
316.001	98.81
316.23	83.81
316.46	98.81
316.689	105.81
316.919	97.81
317.148	86.81
317.377	101.81
317.607	95.81
317.836	102.81
318.065	96.81
318.295	86.81
318.524	88.81
318.753	86.81
318.983	90.81
319.212	95.81
319.441	112.81
319.67	112.81
319.9	97.81
320.129	101.81
320.358	95.81
320.587	106.81
320.816	107.81
321.046	106.81
321.275	101.81
321.504	80.81
321.733	102.81
321.962	110.81
322.191	116.81
322.42	118.81
322.649	121.81
322.878	118.81
323.108	111.81
323.337	160.81
323.566	140.81
323.795	178.81
324.024	241.81
324.253	489.81
324.482	1065.81
324.71	2261.81
324.939	3054.81
325.168	1096.81
325.397	292.81
325.626	153.81
325.855	129.81
326.084	128.81
326.313	152.81
326.542	168.81
326.77	265.81
326.999	559.81
327.228	1191.81
327.457	2235.81
327.686	1786.81
327.914	534.81
328.143	429.81
328.372	504.81
328.6	284.81
328.829	172.81
329.058	175.81
329.287	160.81
329.515	153.81
329.744	196.81
329.972	370.81
330.201	718.81
330.43	1058.81
330.658	512.81
330.887	255.81
331.115	178.81
331.344	118.81
331.572	132.81
331.801	118.81
332.03	114.81
332.258	107.81
332.486	97.81
332.715	116.81
332.943	108.81
333.172	102.81
333.4	124.81
333.629	143.81
333.857	186.81
334.085	327.81
334.314	676.81
334.542	1327.81
334.771	1283.81
334.999	332.81
335.227	154.81
335.455	120.81
335.684	93.81
335.912	107.81
336.14	93.81
336.369	81.81
336.597	107.81
336.825	104.81
337.053	106.81
337.281	97.81
337.51	72.81
337.738	84.81
337.966	102.81
338.194	104.81
338.422	110.81
338.65	98.81
338.878	102.81
339.106	96.81
339.334	88.81
339.562	89.81
339.79	91.81
340.018	80.81
340.246	105.81
340.474	107.81
340.702	84.81
340.93	99.81
341.158	100.81
341.386	106.81
341.614	108.81
341.842	96.81
342.07	86.81
342.298	86.81
342.526	98.81
342.754	82.81
342.981	85.81
343.209	94.81
343.437	100.81
343.665	89.81
343.893	96.81
344.12	82.81
344.348	97.81
344.576	96.81
344.804	96.81
345.031	96.81
345.259	102.81
345.487	92.81
345.714	89.81
345.942	84.81
346.17	92.81
346.397	73.81
346.625	102.81
346.853	92.81
347.08	86.81
347.308	107.81
347.535	95.81
347.763	95.81
347.99	81.81
348.218	103.81
348.445	89.81
348.673	97.81
348.9	95.81
349.128	106.81
349.355	89.81
349.583	99.81
349.81	94.81
350.037	91.81
350.265	109.81
350.492	94.81
350.72	98.81
350.947	102.81
351.174	120.81
351.402	117.81
351.629	103.81
351.856	117.81
352.083	100.81
352.311	101.81
352.538	129.81
352.765	133.81
352.992	124.81
353.22	113.81
353.447	110.81
353.674	97.81
353.901	99.81
354.128	97.81
354.355	97.81
354.583	102.81
354.81	96.81
355.037	86.81
355.264	79.81
355.491	90.81
355.718	93.81
355.945	103.81
356.172	94.81
356.399	106.81
356.626	84.81
356.853	78.81
357.08	94.81
357.307	97.81
357.534	95.81
357.761	103.81
357.988	93.81
358.215	104.81
358.441	113.81
358.668	103.81
358.895	109.81
359.122	92.81
359.349	88.81
359.576	86.81
359.802	103.81
360.029	135.81
360.256	136.81
360.483	113.81
360.709	89.81
360.936	85.81
361.163	100.81
361.39	93.81
361.616	98.81
361.843	96.81
362.07	98.81
362.296	105.81
362.523	93.81
362.749	98.81
362.976	101.81
363.203	77.81
363.429	73.81
363.656	97.81
363.882	87.81
364.109	106.81
364.335	90.81
364.562	100.81
364.788	94.81
365.015	94.81
365.241	96.81
365.468	121.81
365.694	124.81
365.92	102.81
366.147	98.81
366.373	86.81
366.599	91.81
366.826	96.81
367.052	92.81
367.278	93.81
367.505	93.81
367.731	98.81
367.957	104.81
368.184	93.81
368.41	104.81
368.636	102.81
368.862	118.81
369.089	116.81
369.315	108.81
369.541	87.81
369.767	92.81
369.993	86.81
370.219	82.81
370.445	93.81
370.672	89.81
370.898	85.81
371.124	85.81
371.35	86.81
371.576	102.81
371.802	76.81
372.028	78.81
372.254	75.81
372.48	81.81
372.706	89.81
372.932	86.81
373.158	86.81
373.384	94.81
373.61	89.81
373.835	80.81
374.061	89.81
374.287	102.81
374.513	106.81
374.739	84.81
374.965	88.81
375.191	96.81
375.416	100.81
375.642	93.81
375.868	92.81
376.094	93.81
376.319	91.81
376.545	91.81
376.771	83.81
376.997	110.81
377.222	104.81
377.448	100.81
377.674	84.81
377.899	84.81
378.125	92.81
378.35	95.81
378.576	85.81
378.802	97.81
379.027	88.81
379.253	97.81
379.478	83.81
379.704	94.81
379.929	95.81
380.155	97.81
380.38	97.81
380.606	102.81
380.831	97.81
381.057	113.81
381.282	112.81
381.507	109.81
381.733	108.81
381.958	108.81
382.184	111.81
382.409	103.81
382.634	105.81
382.86	113.81
383.085	126.81
383.31	124.81
383.535	116.81
383.761	109.81
383.986	122.81
384.211	120.81
384.436	129.81
384.662	132.81
384.887	128.81
385.112	150.81
385.337	148.81
385.562	127.81
385.787	123.81
386.013	147.81
386.238	145.81
386.463	129.81
386.688	144.81
386.913	146.81
387.138	141.81
387.363	124.81
387.588	108.81
387.813	125.81
388.038	136.81
388.263	154.81
388.488	141.81
388.713	112.81
388.938	108.81
389.163	87.81
389.387	81.81
389.612	79.81
389.837	91.81
390.062	95.81
390.287	94.81
390.512	93.81
390.736	88.81
390.961	73.81
391.186	84.81
391.411	81.81
391.636	101.81
391.86	89.81
392.085	88.81
392.31	88.81
392.534	78.81
392.759	82.81
392.984	93.81
393.208	106.81
393.433	99.81
393.658	106.81
393.882	78.81
394.107	104.81
394.331	81.81
394.556	88.81
394.78	95.81
395.005	89.81
395.229	98.81
395.454	97.81
395.678	72.81
395.903	82.81
396.127	88.81
396.352	91.81
396.576	77.81
396.801	99.81
397.025	92.81
397.249	80.81
397.474	89.81
397.698	80.81
397.922	89.81
398.147	95.81
398.371	82.81
398.595	76.81
398.82	89.81
399.044	91.81
399.268	57.81
399.492	95.81
399.717	88.81
399.941	97.81
400.165	89.81
400.389	104.81
400.613	87.81
400.837	92.81
401.062	78.81
401.286	96.81
401.51	94.81
401.734	89.81
401.958	96.81
402.182	130.81
402.406	193.81
402.63	144.81
402.854	93.81
403.078	97.81
403.302	63.81
403.526	103.81
403.75	86.81
403.974	89.81
404.198	77.81
404.422	78.81
404.645	86.81
404.869	95.81
405.093	116.81
405.317	136.81
405.541	125.81
405.765	116.81
405.988	128.81
406.212	205.81
406.436	305.81
406.66	187.81
406.883	115.81
407.107	103.81
407.331	102.81
407.555	106.81
407.778	94.81
408.002	101.81
408.226	90.81
408.449	90.81
408.673	88.81
408.896	102.81
409.12	104.81
409.344	83.81
409.567	101.81
409.791	82.81
410.014	88.81
410.238	94.81
410.461	93.81
410.685	91.81
410.908	103.81
411.132	113.81
411.355	101.81
411.578	80.81
411.802	76.81
412.025	94.81
412.249	86.81
412.472	111.81
412.695	131.81
412.919	108.81
413.142	70.81
413.365	98.81
413.589	97.81
413.812	101.81
414.035	95.81
414.258	88.81
414.482	97.81
414.705	104.81
414.928	84.81
415.151	81.81
415.374	96.81
415.597	93.81
415.821	100.81
416.044	105.81
416.267	91.81
416.49	90.81
416.713	92.81
416.936	70.81
417.159	91.81
417.382	87.81
417.605	88.81
417.828	101.81
418.051	88.81
418.274	76.81
418.497	81.81
418.72	98.81
418.943	100.81
419.166	100.81
419.389	91.81
419.611	77.81
419.834	96.81
420.057	100.81
420.28	98.81
420.503	74.81
420.726	91.81
420.948	82.81
421.171	104.81
421.394	101.81
421.617	80.81
421.839	88.81
422.062	88.81
422.285	86.81
422.507	106.81
422.73	124.81
422.953	108.81
423.175	94.81
423.398	87.81
423.621	81.81
423.843	79.81
424.066	86.81
424.288	95.81
424.511	85.81
424.733	99.81
424.956	112.81
425.178	106.81
425.401	103.81
425.623	117.81
425.846	93.81
426.068	88.81
426.291	93.81
426.513	89.81
426.735	105.81
426.958	96.81
427.18	116.81
427.402	174.81
427.625	230.81
427.847	213.81
428.069	228.81
428.292	101.81
428.514	78.81
428.736	97.81
428.958	95.81
429.181	78.81
429.403	77.81
429.625	92.81
429.847	95.81
430.069	111.81
430.292	86.81
430.514	87.81
430.736	77.81
430.958	84.81
431.18	86.81
431.402	68.81
431.624	89.81
431.846	96.81
432.068	91.81
432.29	83.81
432.512	94.81
432.734	79.81
432.956	92.81
433.178	93.81
433.4	94.81
433.622	104.81
433.844	100.81
434.066	87.81
434.287	96.81
434.509	87.81
434.731	96.81
434.953	102.81
435.175	89.81
435.397	97.81
435.618	103.81
435.84	98.81
436.062	146.81
436.284	142.81
436.505	114.81
436.727	114.81
436.949	105.81
437.17	103.81
437.392	85.81
437.614	106.81
437.835	119.81
438.057	145.81
438.278	112.81
438.5	108.81
438.721	151.81
438.943	112.81
439.165	107.81
439.386	100.81
439.608	98.81
439.829	99.81
440.05	152.81
440.272	170.81
440.493	114.81
440.715	86.81
440.936	81.81
441.158	91.81
441.379	77.81
441.6	96.81
441.822	114.81
442.043	97.81
442.264	119.81
442.486	111.81
442.707	91.81
442.928	136.81
443.149	171.81
443.371	168.81
443.592	122.81
443.813	115.81
444.034	109.81
444.255	86.81
444.476	84.81
444.698	80.81
444.919	81.81
445.14	153.81
445.361	130.81
445.582	137.81
445.803	176.81
446.024	174.81
446.245	174.81
446.466	125.81
446.687	100.81
446.908	98.81
447.129	90.81
447.35	106.81
447.571	103.81
447.792	100.81
448.013	106.81
448.234	105.81
448.455	101.81
448.675	149.81
448.896	139.81
449.117	111.81
449.338	117.81
449.559	127.81
449.779	155.81
450	103.81
450.221	100.81
450.442	79.81
450.662	111.81
450.883	127.81
451.104	128.81
451.324	95.81
451.545	89.81
451.766	92.81
451.986	86.81
452.207	94.81
452.428	90.81
452.648	92.81
452.869	116.81
453.089	124.81
453.31	131.81
453.53	107.81
453.751	96.81
453.971	116.81
454.192	127.81
454.412	109.81
454.633	98.81
454.853	77.81
455.073	92.81
455.294	96.81
455.514	111.81
455.734	100.81
455.955	90.81
456.175	91.81
456.395	80.81
456.616	89.81
456.836	88.81
457.056	80.81
457.276	90.81
457.497	78.81
457.717	84.81
457.937	79.81
458.157	104.81
458.377	90.81
458.598	110.81
458.818	190.81
459.038	206.81
459.258	149.81
459.478	82.81
459.698	88.81
459.918	91.81
460.138	86.81
460.358	73.81
460.578	91.81
460.798	98.81
461.018	80.81
461.238	98.81
461.458	72.81
461.678	81.81
461.898	78.81
462.118	79.81
462.338	85.81
462.558	91.81
462.777	89.81
462.997	92.81
463.217	102.81
463.437	103.81
463.657	85.81
463.876	93.81
464.096	92.81
464.316	87.81
464.536	104.81
464.755	88.81
464.975	117.81
465.195	223.81
465.414	208.81
465.634	107.81
465.854	84.81
466.073	91.81
466.293	84.81
466.512	88.81
466.732	85.81
466.951	75.81
467.171	100.81
467.391	108.81
467.61	130.81
467.829	180.81
468.049	404.81
468.268	600.81
468.488	178.81
468.707	97.81
468.927	77.81
469.146	89.81
469.365	96.81
469.585	104.81
469.804	90.81
470.023	101.81
470.243	104.81
470.462	114.81
470.681	135.81
470.901	97.81
471.12	104.81
471.339	107.81
471.558	110.81
471.777	119.81
471.997	234.81
472.216	852.81
472.435	1845.81
472.654	453.81
472.873	151.81
473.092	92.81
473.311	102.81
473.53	76.81
473.749	80.81
473.968	89.81
474.187	124.81
474.406	98.81
474.625	101.81
474.844	82.81
475.063	92.81
475.282	89.81
475.501	82.81
475.72	90.81
475.939	91.81
476.158	88.81
476.377	94.81
476.596	91.81
476.814	92.81
477.033	92.81
477.252	93.81
477.471	96.81
477.69	91.81
477.908	98.81
478.127	91.81
478.346	89.81
478.564	87.81
478.783	90.81
479.002	105.81
479.22	93.81
479.439	128.81
479.658	126.81
479.876	117.81
480.095	111.81
480.313	121.81
480.532	134.81
480.751	221.81
480.969	789.81
481.188	3291.81
481.406	1921.81
481.624	304.81
481.843	143.81
482.061	111.81
482.28	97.81
482.498	98.81
482.717	97.81
482.935	88.81
483.153	80.81
483.372	103.81
483.59	95.81
483.808	84.81
484.027	88.81
484.245	98.81
484.463	94.81
484.681	92.81
484.9	77.81
485.118	100.81
485.336	105.81
485.554	100.81
485.772	103.81
485.99	105.81
486.209	97.81
486.427	109.81
486.645	104.81
486.863	108.81
487.081	117.81
487.299	99.81
487.517	75.81
487.735	82.81
487.953	89.81
488.171	78.81
488.389	106.81
488.607	96.81
488.825	91.81
489.043	103.81
489.261	93.81
489.479	87.81
489.696	72.81
489.914	81.81
490.132	85.81
490.35	89.81
490.568	81.81
490.786	91.81
491.003	78.81
491.221	102.81
491.439	90.81
491.657	84.81
491.874	84.81
492.092	92.81
492.31	96.81
492.527	104.81
492.745	106.81
492.963	102.81
493.18	76.81
493.398	80.81
493.615	97.81
493.833	102.81
494.05	88.81
494.268	98.81
494.485	84.81
494.703	93.81
494.92	89.81
495.138	85.81
495.355	95.81
495.573	77.81
495.79	101.81
496.008	95.81
496.225	81.81
496.442	87.81
496.66	89.81
496.877	89.81
497.094	80.81
497.312	97.81
497.529	98.81
497.746	93.81
497.963	87.81
498.181	93.81
498.398	95.81
498.615	116.81
498.832	109.81
499.049	92.81
499.267	89.81
499.484	84.81
499.701	104.81
499.918	104.81
500.135	90.81
500.352	89.81
500.569	95.81
500.786	80.81
501.003	78.81
501.22	96.81
501.437	97.81
501.654	89.81
501.871	113.81
502.088	87.81
502.305	89.81
502.522	89.81
502.739	80.81
502.956	96.81
503.172	86.81
503.389	103.81
503.606	115.81
503.823	108.81
504.04	93.81
504.256	81.81
504.473	84.81
504.69	75.81
504.907	87.81
505.123	85.81
505.34	97.81
505.557	92.81
505.773	80.81
505.99	84.81
506.207	85.81
506.423	91.81
506.64	109.81
506.856	91.81
507.073	89.81
507.289	93.81
507.506	111.81
507.722	114.81
507.939	130.81
508.155	90.81
508.372	103.81
508.588	98.81
508.805	93.81
509.021	93.81
509.238	97.81
509.454	102.81
509.67	101.81
509.887	108.81
510.103	118.81
510.319	233.81
510.536	883.81
510.752	3167.81
510.968	814.81
511.184	168.81
511.401	134.81
511.617	113.81
511.833	117.81
512.049	86.81
512.265	97.81
512.481	83.81
512.698	101.81
512.914	103.81
513.13	90.81
513.346	94.81
513.562	97.81
