Data from Circ_1998_H10_HRD10591_00055.txt Node
Date: Wed Jan 03 11:26:59 EST 2024
User: Yrep
Spectrometer: HR+D1059
Trigger mode: 1
Integration Time (sec): 1.000000E-1
Scans to average: 1
Electric dark correction enabled: true
Nonlinearity correction enabled: false
Boxcar width: 0
XAxis mode: Wavelengths
Number of Pixels in Spectrum: 2048
>>>>>Begin Spectral Data<<<<<
223.165	-19.44
223.4	-19.44
223.635	-19.44
223.869	-15.44
224.104	-13.44
224.338	-19.44
224.573	-15.44
224.808	-9.44
225.042	-2.44
225.277	-10.44
225.511	2.56
225.746	4.56
225.98	2.56
226.215	20.56
226.449	12.56
226.683	26.56
226.918	16.56
227.152	19.56
227.387	30.56
227.621	34.56
227.856	55.56
228.09	34.56
228.324	33.56
228.559	36.56
228.793	68.56
229.027	67.56
229.262	69.56
229.496	76.56
229.73	94.56
229.964	101.56
230.199	85.56
230.433	92.56
230.667	82.56
230.901	82.56
231.136	75.56
231.37	74.56
231.604	74.56
231.838	61.56
232.072	86.56
232.306	95.56
232.541	70.56
232.775	68.56
233.009	75.56
233.243	80.56
233.477	73.56
233.711	86.56
233.945	64.56
234.179	57.56
234.413	82.56
234.647	74.56
234.881	86.56
235.115	89.56
235.349	78.56
235.583	79.56
235.817	80.56
236.051	70.56
236.285	61.56
236.519	73.56
236.753	73.56
236.987	80.56
237.221	83.56
237.455	93.56
237.689	82.56
237.922	94.56
238.156	74.56
238.39	67.56
238.624	85.56
238.858	75.56
239.091	64.56
239.325	70.56
239.559	83.56
239.793	73.56
240.027	69.56
240.26	74.56
240.494	74.56
240.728	84.56
240.961	91.56
241.195	88.56
241.429	76.56
241.662	66.56
241.896	70.56
242.13	98.56
242.363	59.56
242.597	72.56
242.83	67.56
243.064	77.56
243.298	84.56
243.531	94.56
243.765	81.56
243.998	79.56
244.232	91.56
244.465	71.56
244.699	81.56
244.932	73.56
245.166	68.56
245.399	79.56
245.633	68.56
245.866	82.56
246.099	74.56
246.333	70.56
246.566	80.56
246.8	81.56
247.033	89.56
247.266	69.56
247.5	64.56
247.733	81.56
247.966	87.56
248.2	61.56
248.433	66.56
248.666	68.56
248.899	68.56
249.133	100.56
249.366	114.56
249.599	112.56
249.832	78.56
250.066	92.56
250.299	89.56
250.532	91.56
250.765	79.56
250.998	76.56
251.231	78.56
251.465	71.56
251.698	92.56
251.931	87.56
252.164	74.56
252.397	67.56
252.63	76.56
252.863	74.56
253.096	80.56
253.329	68.56
253.562	81.56
253.795	71.56
254.028	82.56
254.261	73.56
254.494	75.56
254.727	83.56
254.96	84.56
255.193	82.56
255.426	71.56
255.659	86.56
255.892	92.56
256.124	99.56
256.357	72.56
256.59	70.56
256.823	86.56
257.056	87.56
257.289	85.56
257.521	96.56
257.754	64.56
257.987	61.56
258.22	95.56
258.452	104.56
258.685	90.56
258.918	84.56
259.151	65.56
259.383	88.56
259.616	81.56
259.849	76.56
260.081	93.56
260.314	89.56
260.547	84.56
260.779	102.56
261.012	86.56
261.244	106.56
261.477	106.56
261.71	94.56
261.942	147.56
262.175	132.56
262.407	97.56
262.64	90.56
262.872	92.56
263.105	90.56
263.337	96.56
263.57	77.56
263.802	83.56
264.035	76.56
264.267	78.56
264.499	93.56
264.732	78.56
264.964	78.56
265.197	82.56
265.429	75.56
265.661	82.56
265.894	73.56
266.126	82.56
266.358	75.56
266.591	77.56
266.823	94.56
267.055	77.56
267.287	77.56
267.52	83.56
267.752	83.56
267.984	70.56
268.216	72.56
268.448	83.56
268.681	80.56
268.913	69.56
269.145	75.56
269.377	67.56
269.609	74.56
269.841	93.56
270.073	76.56
270.306	84.56
270.538	78.56
270.77	71.56
271.002	76.56
271.234	90.56
271.466	105.56
271.698	94.56
271.93	78.56
272.162	74.56
272.394	72.56
272.626	84.56
272.858	79.56
273.09	88.56
273.322	91.56
273.553	77.56
273.785	80.56
274.017	72.56
274.249	83.56
274.481	86.56
274.713	99.56
274.945	78.56
275.176	83.56
275.408	105.56
275.64	112.56
275.872	118.56
276.104	103.56
276.335	92.56
276.567	115.56
276.799	154.56
277.031	189.56
277.262	219.56
277.494	161.56
277.726	92.56
277.957	90.56
278.189	77.56
278.421	78.56
278.652	96.56
278.884	81.56
279.115	80.56
279.347	81.56
279.579	102.56
279.81	153.56
280.042	214.56
280.273	296.56
280.505	182.56
280.736	105.56
280.968	90.56
281.199	80.56
281.431	69.56
281.662	81.56
281.894	90.56
282.125	118.56
282.356	144.56
282.588	158.56
282.819	119.56
283.051	85.56
283.282	71.56
283.513	77.56
283.745	75.56
283.976	81.56
284.207	78.56
284.439	74.56
284.67	85.56
284.901	76.56
285.132	87.56
285.364	83.56
285.595	78.56
285.826	86.56
286.057	87.56
286.288	78.56
286.52	95.56
286.751	70.56
286.982	85.56
287.213	77.56
287.444	87.56
287.675	81.56
287.906	88.56
288.138	94.56
288.369	94.56
288.6	86.56
288.831	82.56
289.062	74.56
289.293	71.56
289.524	78.56
289.755	83.56
289.986	75.56
290.217	87.56
290.448	91.56
290.679	81.56
290.91	85.56
291.141	87.56
291.371	98.56
291.602	91.56
291.833	84.56
292.064	91.56
292.295	99.56
292.526	92.56
292.757	80.56
292.987	88.56
293.218	81.56
293.449	92.56
293.68	88.56
293.91	80.56
294.141	90.56
294.372	82.56
294.603	86.56
294.833	75.56
295.064	82.56
295.295	99.56
295.525	101.56
295.756	97.56
295.987	124.56
296.217	164.56
296.448	142.56
296.679	84.56
296.909	77.56
297.14	79.56
297.37	91.56
297.601	74.56
297.831	70.56
298.062	93.56
298.292	95.56
298.523	78.56
298.753	78.56
298.984	84.56
299.214	85.56
299.445	93.56
299.675	98.56
299.905	113.56
300.136	90.56
300.366	96.56
300.597	91.56
300.827	91.56
301.057	92.56
301.288	109.56
301.518	93.56
301.748	102.56
301.979	105.56
302.209	96.56
302.439	83.56
302.669	85.56
302.9	81.56
303.13	91.56
303.36	95.56
303.59	117.56
303.82	158.56
304.051	119.56
304.281	93.56
304.511	93.56
304.741	85.56
304.971	84.56
305.201	97.56
305.431	88.56
305.661	80.56
305.891	81.56
306.121	95.56
306.352	108.56
306.582	113.56
306.812	118.56
307.042	130.56
307.272	176.56
307.502	189.56
307.731	198.56
307.961	122.56
308.191	88.56
308.421	90.56
308.651	93.56
308.881	78.56
309.111	82.56
309.341	93.56
309.571	87.56
309.8	92.56
310.03	89.56
310.26	102.56
310.49	96.56
310.72	105.56
310.949	120.56
311.179	115.56
311.409	84.56
311.639	87.56
311.868	104.56
312.098	99.56
312.328	106.56
312.557	110.56
312.787	120.56
313.017	115.56
313.246	86.56
313.476	87.56
313.706	97.56
313.935	90.56
314.165	99.56
314.394	97.56
314.624	91.56
314.853	90.56
315.083	96.56
315.312	82.56
315.542	91.56
315.771	93.56
316.001	94.56
316.23	88.56
316.46	94.56
316.689	91.56
316.919	96.56
317.148	84.56
317.377	95.56
317.607	94.56
317.836	99.56
318.065	85.56
318.295	98.56
318.524	91.56
318.753	96.56
318.983	96.56
319.212	95.56
319.441	117.56
319.67	105.56
319.9	101.56
320.129	89.56
320.358	73.56
320.587	86.56
320.816	106.56
321.046	110.56
321.275	90.56
321.504	91.56
321.733	86.56
321.962	98.56
322.191	110.56
322.42	115.56
322.649	128.56
322.878	125.56
323.108	120.56
323.337	151.56
323.566	154.56
323.795	195.56
324.024	267.56
324.253	528.56
324.482	1201.56
324.71	2483.56
324.939	3307.56
325.168	1165.56
325.397	303.56
325.626	172.56
325.855	148.56
326.084	147.56
326.313	139.56
326.542	180.56
326.77	286.56
326.999	572.56
327.228	1289.56
327.457	2393.56
327.686	1960.56
327.914	643.56
328.143	632.56
328.372	789.56
328.6	427.56
328.829	202.56
329.058	186.56
329.287	202.56
329.515	188.56
329.744	293.56
329.972	586.56
330.201	1262.56
330.43	1802.56
330.658	761.56
330.887	295.56
331.115	180.56
331.344	119.56
331.572	138.56
331.801	133.56
332.03	120.56
332.258	110.56
332.486	112.56
332.715	111.56
332.943	116.56
333.172	123.56
333.4	146.56
333.629	167.56
333.857	258.56
334.085	519.56
334.314	1114.56
334.542	2306.56
334.771	2091.56
334.999	520.56
335.227	202.56
335.455	130.56
335.684	111.56
335.912	111.56
336.14	110.56
336.369	111.56
336.597	109.56
336.825	114.56
337.053	92.56
337.281	95.56
337.51	88.56
337.738	86.56
337.966	96.56
338.194	96.56
338.422	97.56
338.65	92.56
338.878	88.56
339.106	81.56
339.334	97.56
339.562	96.56
339.79	104.56
340.018	97.56
340.246	92.56
340.474	86.56
340.702	96.56
340.93	85.56
341.158	91.56
341.386	95.56
341.614	85.56
341.842	80.56
342.07	89.56
342.298	84.56
342.526	79.56
342.754	81.56
342.981	79.56
343.209	84.56
343.437	91.56
343.665	86.56
343.893	92.56
344.12	83.56
344.348	85.56
344.576	94.56
344.804	94.56
345.031	88.56
345.259	88.56
345.487	98.56
345.714	97.56
345.942	80.56
346.17	105.56
346.397	81.56
346.625	86.56
346.853	92.56
347.08	84.56
347.308	99.56
347.535	94.56
347.763	108.56
347.99	108.56
348.218	115.56
348.445	122.56
348.673	97.56
348.9	87.56
349.128	89.56
349.355	76.56
349.583	86.56
349.81	83.56
350.037	86.56
350.265	101.56
350.492	91.56
350.72	112.56
350.947	96.56
351.174	107.56
351.402	128.56
351.629	90.56
351.856	95.56
352.083	102.56
352.311	115.56
352.538	117.56
352.765	108.56
352.992	126.56
353.22	111.56
353.447	108.56
353.674	92.56
353.901	82.56
354.128	91.56
354.355	82.56
354.583	105.56
354.81	96.56
355.037	90.56
355.264	83.56
355.491	84.56
355.718	84.56
355.945	86.56
356.172	76.56
356.399	80.56
356.626	80.56
356.853	91.56
357.08	92.56
357.307	88.56
357.534	83.56
357.761	92.56
357.988	80.56
358.215	85.56
358.441	88.56
358.668	84.56
358.895	77.56
359.122	82.56
359.349	99.56
359.576	89.56
359.802	103.56
360.029	143.56
360.256	131.56
360.483	101.56
360.709	93.56
360.936	85.56
361.163	94.56
361.39	93.56
361.616	101.56
361.843	98.56
362.07	100.56
362.296	97.56
362.523	98.56
362.749	94.56
362.976	84.56
363.203	97.56
363.429	90.56
363.656	89.56
363.882	85.56
364.109	84.56
364.335	97.56
364.562	89.56
364.788	94.56
365.015	79.56
365.241	107.56
365.468	110.56
365.694	125.56
365.92	93.56
366.147	102.56
366.373	80.56
366.599	93.56
366.826	90.56
367.052	89.56
367.278	93.56
367.505	108.56
367.731	98.56
367.957	92.56
368.184	96.56
368.41	98.56
368.636	109.56
368.862	137.56
369.089	101.56
369.315	87.56
369.541	95.56
369.767	93.56
369.993	87.56
370.219	92.56
370.445	85.56
370.672	85.56
370.898	96.56
371.124	84.56
371.35	90.56
371.576	83.56
371.802	79.56
372.028	85.56
372.254	88.56
372.48	86.56
372.706	85.56
372.932	85.56
373.158	83.56
373.384	84.56
373.61	80.56
373.835	85.56
374.061	75.56
374.287	104.56
374.513	92.56
374.739	79.56
374.965	84.56
375.191	91.56
375.416	91.56
375.642	89.56
375.868	98.56
376.094	88.56
376.319	85.56
376.545	80.56
376.771	92.56
376.997	88.56
377.222	101.56
377.448	87.56
377.674	78.56
377.899	93.56
378.125	88.56
378.35	89.56
378.576	90.56
378.802	83.56
379.027	86.56
379.253	87.56
379.478	80.56
379.704	84.56
379.929	97.56
380.155	74.56
380.38	72.56
380.606	93.56
380.831	101.56
381.057	89.56
381.282	102.56
381.507	96.56
381.733	92.56
381.958	92.56
382.184	81.56
382.409	83.56
382.634	84.56
382.86	89.56
383.085	78.56
383.31	89.56
383.535	94.56
383.761	85.56
383.986	92.56
384.211	85.56
384.436	95.56
384.662	96.56
384.887	84.56
385.112	94.56
385.337	92.56
385.562	93.56
385.787	83.56
386.013	97.56
386.238	101.56
386.463	106.56
386.688	100.56
386.913	82.56
387.138	104.56
387.363	98.56
387.588	85.56
387.813	97.56
388.038	106.56
388.263	113.56
388.488	89.56
388.713	92.56
388.938	93.56
389.163	102.56
389.387	88.56
389.612	98.56
389.837	87.56
390.062	81.56
390.287	90.56
390.512	91.56
390.736	80.56
390.961	81.56
391.186	92.56
391.411	97.56
391.636	76.56
391.86	85.56
392.085	81.56
392.31	90.56
392.534	69.56
392.759	74.56
392.984	93.56
393.208	87.56
393.433	76.56
393.658	89.56
393.882	84.56
394.107	90.56
394.331	74.56
394.556	88.56
394.78	93.56
395.005	97.56
395.229	85.56
395.454	76.56
395.678	78.56
395.903	84.56
396.127	99.56
396.352	85.56
396.576	85.56
396.801	92.56
397.025	77.56
397.249	85.56
397.474	74.56
397.698	80.56
397.922	69.56
398.147	82.56
398.371	84.56
398.595	79.56
398.82	76.56
399.044	74.56
399.268	81.56
399.492	79.56
399.717	81.56
399.941	94.56
400.165	72.56
400.389	88.56
400.613	81.56
400.837	73.56
401.062	88.56
401.286	88.56
401.51	88.56
401.734	84.56
401.958	104.56
402.182	146.56
402.406	198.56
402.63	137.56
402.854	110.56
403.078	83.56
403.302	98.56
403.526	100.56
403.75	86.56
403.974	72.56
404.198	83.56
404.422	73.56
404.645	87.56
404.869	99.56
405.093	94.56
405.317	159.56
405.541	134.56
405.765	125.56
405.988	130.56
406.212	222.56
406.436	292.56
406.66	198.56
406.883	120.56
407.107	105.56
407.331	119.56
407.555	108.56
407.778	108.56
408.002	90.56
408.226	88.56
408.449	85.56
408.673	80.56
408.896	73.56
409.12	105.56
409.344	94.56
409.567	83.56
409.791	78.56
410.014	88.56
410.238	89.56
410.461	98.56
410.685	109.56
410.908	89.56
411.132	102.56
411.355	93.56
411.578	90.56
411.802	92.56
412.025	76.56
412.249	100.56
412.472	119.56
412.695	138.56
412.919	105.56
413.142	97.56
413.365	100.56
413.589	84.56
413.812	75.56
414.035	86.56
414.258	82.56
414.482	81.56
414.705	71.56
414.928	89.56
415.151	86.56
415.374	83.56
415.597	99.56
415.821	89.56
416.044	95.56
416.267	85.56
416.49	92.56
416.713	98.56
416.936	72.56
417.159	94.56
417.382	98.56
417.605	98.56
417.828	105.56
418.051	85.56
418.274	89.56
418.497	84.56
418.72	79.56
418.943	82.56
419.166	90.56
419.389	80.56
419.611	89.56
419.834	98.56
420.057	76.56
420.28	97.56
420.503	92.56
420.726	82.56
420.948	101.56
421.171	104.56
421.394	101.56
421.617	90.56
421.839	90.56
422.062	85.56
422.285	93.56
422.507	93.56
422.73	115.56
422.953	90.56
423.175	78.56
423.398	78.56
423.621	85.56
423.843	80.56
424.066	91.56
424.288	84.56
424.511	92.56
424.733	91.56
424.956	123.56
425.178	117.56
425.401	112.56
425.623	104.56
425.846	90.56
426.068	87.56
426.291	98.56
426.513	95.56
426.735	103.56
426.958	110.56
427.18	135.56
427.402	192.56
427.625	287.56
427.847	258.56
428.069	254.56
428.292	131.56
428.514	99.56
428.736	92.56
428.958	101.56
429.181	84.56
429.403	87.56
429.625	72.56
429.847	94.56
430.069	100.56
430.292	98.56
430.514	90.56
430.736	74.56
430.958	90.56
431.18	68.56
431.402	84.56
431.624	74.56
431.846	79.56
432.068	100.56
432.29	87.56
432.512	76.56
432.734	83.56
432.956	97.56
433.178	112.56
433.4	112.56
433.622	100.56
433.844	83.56
434.066	83.56
434.287	86.56
434.509	93.56
434.731	85.56
434.953	77.56
435.175	85.56
435.397	86.56
435.618	89.56
435.84	109.56
436.062	148.56
436.284	140.56
436.505	110.56
436.727	116.56
436.949	78.56
437.17	85.56
437.392	81.56
437.614	99.56
437.835	136.56
438.057	157.56
438.278	110.56
438.5	117.56
438.721	146.56
438.943	112.56
439.165	96.56
439.386	91.56
439.608	102.56
439.829	113.56
440.05	151.56
440.272	196.56
440.493	122.56
440.715	88.56
440.936	94.56
441.158	93.56
441.379	101.56
441.6	89.56
441.822	93.56
442.043	105.56
442.264	111.56
442.486	110.56
442.707	103.56
442.928	134.56
443.149	172.56
443.371	187.56
443.592	136.56
443.813	128.56
444.034	126.56
444.255	95.56
444.476	108.56
444.698	94.56
444.919	94.56
445.14	130.56
445.361	120.56
445.582	144.56
445.803	197.56
446.024	178.56
446.245	184.56
446.466	141.56
446.687	82.56
446.908	83.56
447.129	76.56
447.35	84.56
447.571	74.56
447.792	99.56
448.013	88.56
448.234	135.56
448.455	102.56
448.675	134.56
448.896	131.56
449.117	110.56
449.338	109.56
449.559	158.56
449.779	150.56
450	81.56
450.221	99.56
450.442	99.56
450.662	97.56
450.883	122.56
451.104	134.56
451.324	95.56
451.545	80.56
451.766	76.56
451.986	87.56
452.207	102.56
452.428	94.56
452.648	110.56
452.869	130.56
453.089	122.56
453.31	139.56
453.53	96.56
453.751	100.56
453.971	113.56
454.192	120.56
454.412	93.56
454.633	94.56
454.853	85.56
455.073	101.56
455.294	98.56
455.514	115.56
455.734	90.56
455.955	82.56
456.175	87.56
456.395	70.56
456.616	82.56
456.836	88.56
457.056	81.56
457.276	93.56
457.497	82.56
457.717	92.56
457.937	91.56
458.157	92.56
458.377	78.56
458.598	119.56
458.818	197.56
459.038	222.56
459.258	158.56
459.478	101.56
459.698	98.56
459.918	82.56
460.138	97.56
460.358	93.56
460.578	82.56
460.798	82.56
461.018	86.56
461.238	90.56
461.458	88.56
461.678	86.56
461.898	79.56
462.118	80.56
462.338	82.56
462.558	88.56
462.777	97.56
462.997	105.56
463.217	106.56
463.437	97.56
463.657	91.56
463.876	77.56
464.096	90.56
464.316	84.56
464.536	101.56
464.755	99.56
464.975	129.56
465.195	225.56
465.414	233.56
465.634	115.56
465.854	77.56
466.073	90.56
466.293	89.56
466.512	93.56
466.732	83.56
466.951	93.56
467.171	103.56
467.391	114.56
467.61	144.56
467.829	246.56
468.049	716.56
468.268	1062.56
468.488	259.56
468.707	113.56
468.927	100.56
469.146	89.56
469.365	96.56
469.585	100.56
469.804	98.56
470.023	119.56
470.243	115.56
470.462	107.56
470.681	138.56
470.901	107.56
471.12	106.56
471.339	101.56
471.558	116.56
471.777	180.56
471.997	394.56
472.216	1485.56
472.435	3378.56
472.654	738.56
472.873	181.56
473.092	106.56
473.311	97.56
473.53	83.56
473.749	101.56
473.968	102.56
474.187	112.56
474.406	132.56
474.625	86.56
474.844	91.56
475.063	98.56
475.282	88.56
475.501	95.56
475.72	96.56
475.939	86.56
476.158	92.56
476.377	89.56
476.596	75.56
476.814	98.56
477.033	84.56
477.252	105.56
477.471	81.56
477.69	96.56
477.908	90.56
478.127	98.56
478.346	105.56
478.564	88.56
478.783	117.56
479.002	122.56
479.22	101.56
479.439	118.56
479.658	125.56
479.876	115.56
480.095	120.56
480.313	149.56
480.532	181.56
480.751	350.56
480.969	1346.56
481.188	5794.56
481.406	3181.56
481.624	433.56
481.843	134.56
482.061	123.56
482.28	93.56
482.498	92.56
482.717	90.56
482.935	100.56
483.153	88.56
483.372	94.56
483.59	92.56
483.808	116.56
484.027	97.56
484.245	88.56
484.463	104.56
484.681	93.56
484.9	80.56
485.118	88.56
485.336	105.56
485.554	99.56
485.772	91.56
485.99	94.56
486.209	95.56
486.427	79.56
486.645	113.56
486.863	116.56
487.081	90.56
487.299	100.56
487.517	103.56
487.735	94.56
487.953	95.56
488.171	112.56
488.389	89.56
488.607	99.56
488.825	94.56
489.043	83.56
489.261	84.56
489.479	77.56
489.696	99.56
489.914	86.56
490.132	93.56
490.35	84.56
490.568	84.56
490.786	91.56
491.003	88.56
491.221	100.56
491.439	100.56
491.657	88.56
491.874	73.56
492.092	95.56
492.31	101.56
492.527	104.56
492.745	101.56
492.963	90.56
493.18	92.56
493.398	94.56
493.615	99.56
493.833	103.56
494.05	87.56
494.268	77.56
494.485	82.56
494.703	76.56
494.92	97.56
495.138	83.56
495.355	100.56
495.573	88.56
495.79	96.56
496.008	102.56
496.225	91.56
496.442	80.56
496.66	86.56
496.877	87.56
497.094	90.56
497.312	102.56
497.529	87.56
497.746	87.56
497.963	82.56
498.181	91.56
498.398	105.56
498.615	128.56
498.832	108.56
499.049	99.56
499.267	88.56
499.484	82.56
499.701	88.56
499.918	82.56
500.135	85.56
500.352	95.56
500.569	105.56
500.786	99.56
501.003	87.56
501.22	93.56
501.437	93.56
501.654	105.56
501.871	119.56
502.088	103.56
502.305	103.56
502.522	84.56
502.739	103.56
502.956	84.56
503.172	102.56
503.389	98.56
503.606	105.56
503.823	106.56
504.04	99.56
504.256	86.56
504.473	84.56
504.69	94.56
504.907	97.56
505.123	93.56
505.34	80.56
505.557	89.56
505.773	99.56
505.99	92.56
506.207	94.56
506.423	86.56
506.64	71.56
506.856	82.56
507.073	87.56
507.289	85.56
507.506	98.56
507.722	112.56
507.939	124.56
508.155	102.56
508.372	88.56
508.588	96.56
508.805	73.56
509.021	105.56
509.238	106.56
509.454	103.56
509.67	110.56
509.887	126.56
510.103	153.56
510.319	268.56
510.536	1027.56
510.752	3563.56
510.968	918.56
511.184	192.56
511.401	118.56
511.617	101.56
511.833	108.56
512.049	86.56
512.265	83.56
512.481	87.56
512.698	85.56
512.914	103.56
513.13	73.56
513.346	90.56
513.562	99.56
513.778	96.56
513.994	104.56
514.21	119.56
514.426	144.56
