Data from Circ_1998_H10_HRD10591_00044.txt Node
Date: Wed Jan 03 11:26:57 EST 2024
User: Yrep
Spectrometer: HR+D1059
Trigger mode: 1
Integration Time (sec): 1.000000E-1
Scans to average: 1
Electric dark correction enabled: true
Nonlinearity correction enabled: false
Boxcar width: 0
XAxis mode: Wavelengths
Number of Pixels in Spectrum: 2048
>>>>>Begin Spectral Data<<<<<
223.165	-16.06
223.4	-16.06
223.635	-16.06
223.869	-18.06
224.104	-16.06
224.338	-11.06
224.573	-12.06
224.808	-7.06
225.042	-8.06
225.277	-3.06
225.511	-10.06
225.746	-3.06
225.98	3.94
226.215	13.94
226.449	19.94
226.683	13.94
226.918	28.94
227.152	23.94
227.387	11.94
227.621	37.94
227.856	45.94
228.09	42.94
228.324	45.94
228.559	63.94
228.793	51.94
229.027	61.94
229.262	69.94
229.496	78.94
229.73	77.94
229.964	98.94
230.199	69.94
230.433	72.94
230.667	83.94
230.901	82.94
231.136	76.94
231.37	80.94
231.604	72.94
231.838	60.94
232.072	80.94
232.306	81.94
232.541	76.94
232.775	93.94
233.009	92.94
233.243	91.94
233.477	73.94
233.711	69.94
233.945	90.94
234.179	91.94
234.413	84.94
234.647	77.94
234.881	78.94
235.115	81.94
235.349	77.94
235.583	73.94
235.817	73.94
236.051	75.94
236.285	79.94
236.519	70.94
236.753	88.94
236.987	67.94
237.221	93.94
237.455	83.94
237.689	79.94
237.922	79.94
238.156	70.94
238.39	76.94
238.624	62.94
238.858	81.94
239.091	79.94
239.325	73.94
239.559	75.94
239.793	80.94
240.027	84.94
240.26	84.94
240.494	74.94
240.728	71.94
240.961	88.94
241.195	87.94
241.429	85.94
241.662	62.94
241.896	74.94
242.13	79.94
242.363	62.94
242.597	78.94
242.83	72.94
243.064	68.94
243.298	76.94
243.531	84.94
243.765	77.94
243.998	87.94
244.232	84.94
244.465	70.94
244.699	79.94
244.932	83.94
245.166	78.94
245.399	60.94
245.633	83.94
245.866	75.94
246.099	83.94
246.333	64.94
246.566	83.94
246.8	84.94
247.033	78.94
247.266	77.94
247.5	85.94
247.733	77.94
247.966	83.94
248.2	81.94
248.433	83.94
248.666	88.94
248.899	77.94
249.133	88.94
249.366	108.94
249.599	99.94
249.832	85.94
250.066	68.94
250.299	78.94
250.532	88.94
250.765	75.94
250.998	78.94
251.231	77.94
251.465	79.94
251.698	78.94
251.931	90.94
252.164	75.94
252.397	82.94
252.63	80.94
252.863	71.94
253.096	61.94
253.329	84.94
253.562	80.94
253.795	70.94
254.028	80.94
254.261	87.94
254.494	84.94
254.727	78.94
254.96	88.94
255.193	67.94
255.426	86.94
255.659	87.94
255.892	88.94
256.124	92.94
256.357	93.94
256.59	89.94
256.823	96.94
257.056	88.94
257.289	90.94
257.521	85.94
257.754	78.94
257.987	83.94
258.22	93.94
258.452	93.94
258.685	87.94
258.918	103.94
259.151	88.94
259.383	83.94
259.616	91.94
259.849	72.94
260.081	91.94
260.314	83.94
260.547	92.94
260.779	92.94
261.012	107.94
261.244	97.94
261.477	103.94
261.71	102.94
261.942	137.94
262.175	144.94
262.407	87.94
262.64	88.94
262.872	84.94
263.105	77.94
263.337	85.94
263.57	94.94
263.802	92.94
264.035	81.94
264.267	73.94
264.499	74.94
264.732	83.94
264.964	95.94
265.197	75.94
265.429	95.94
265.661	84.94
265.894	93.94
266.126	96.94
266.358	78.94
266.591	69.94
266.823	86.94
267.055	93.94
267.287	79.94
267.52	91.94
267.752	69.94
267.984	65.94
268.216	90.94
268.448	75.94
268.681	95.94
268.913	91.94
269.145	88.94
269.377	78.94
269.609	79.94
269.841	85.94
270.073	75.94
270.306	92.94
270.538	92.94
270.77	86.94
271.002	96.94
271.234	93.94
271.466	97.94
271.698	93.94
271.93	103.94
272.162	99.94
272.394	92.94
272.626	81.94
272.858	94.94
273.09	93.94
273.322	91.94
273.553	88.94
273.785	73.94
274.017	87.94
274.249	75.94
274.481	85.94
274.713	85.94
274.945	96.94
275.176	72.94
275.408	91.94
275.64	107.94
275.872	125.94
276.104	101.94
276.335	89.94
276.567	118.94
276.799	155.94
277.031	166.94
277.262	200.94
277.494	165.94
277.726	97.94
277.957	100.94
278.189	84.94
278.421	104.94
278.652	99.94
278.884	92.94
279.115	96.94
279.347	95.94
279.579	106.94
279.81	131.94
280.042	188.94
280.273	273.94
280.505	177.94
280.736	109.94
280.968	96.94
281.199	91.94
281.431	92.94
281.662	82.94
281.894	81.94
282.125	84.94
282.356	128.94
282.588	172.94
282.819	116.94
283.051	96.94
283.282	89.94
283.513	90.94
283.745	83.94
283.976	84.94
284.207	90.94
284.439	75.94
284.67	90.94
284.901	89.94
285.132	84.94
285.364	82.94
285.595	88.94
285.826	91.94
286.057	85.94
286.288	87.94
286.52	85.94
286.751	86.94
286.982	91.94
287.213	95.94
287.444	87.94
287.675	87.94
287.906	94.94
288.138	96.94
288.369	90.94
288.6	108.94
288.831	99.94
289.062	96.94
289.293	83.94
289.524	94.94
289.755	78.94
289.986	91.94
290.217	89.94
290.448	86.94
290.679	67.94
290.91	72.94
291.141	80.94
291.371	84.94
291.602	85.94
291.833	85.94
292.064	76.94
292.295	87.94
292.526	85.94
292.757	80.94
292.987	98.94
293.218	86.94
293.449	74.94
293.68	87.94
293.91	76.94
294.141	92.94
294.372	93.94
294.603	77.94
294.833	82.94
295.064	84.94
295.295	76.94
295.525	77.94
295.756	101.94
295.987	134.94
296.217	154.94
296.448	145.94
296.679	101.94
296.909	91.94
297.14	90.94
297.37	89.94
297.601	79.94
297.831	91.94
298.062	87.94
298.292	84.94
298.523	82.94
298.753	95.94
298.984	86.94
299.214	85.94
299.445	95.94
299.675	85.94
299.905	92.94
300.136	73.94
300.366	77.94
300.597	85.94
300.827	79.94
301.057	122.94
301.288	122.94
301.518	100.94
301.748	97.94
301.979	101.94
302.209	99.94
302.439	80.94
302.669	87.94
302.9	96.94
303.13	86.94
303.36	114.94
303.59	129.94
303.82	132.94
304.051	105.94
304.281	92.94
304.511	85.94
304.741	96.94
304.971	93.94
305.201	87.94
305.431	81.94
305.661	86.94
305.891	85.94
306.121	88.94
306.352	127.94
306.582	124.94
306.812	106.94
307.042	124.94
307.272	155.94
307.502	191.94
307.731	191.94
307.961	138.94
308.191	93.94
308.421	95.94
308.651	96.94
308.881	93.94
309.111	97.94
309.341	106.94
309.571	114.94
309.8	101.94
310.03	93.94
310.26	95.94
310.49	105.94
310.72	112.94
310.949	111.94
311.179	97.94
311.409	112.94
311.639	114.94
311.868	108.94
312.098	98.94
312.328	103.94
312.557	107.94
312.787	127.94
313.017	113.94
313.246	104.94
313.476	92.94
313.706	101.94
313.935	97.94
314.165	118.94
314.394	107.94
314.624	98.94
314.853	92.94
315.083	99.94
315.312	86.94
315.542	85.94
315.771	89.94
316.001	88.94
316.23	86.94
316.46	86.94
316.689	99.94
316.919	101.94
317.148	94.94
317.377	103.94
317.607	117.94
317.836	100.94
318.065	93.94
318.295	83.94
318.524	80.94
318.753	92.94
318.983	96.94
319.212	112.94
319.441	112.94
319.67	107.94
319.9	83.94
320.129	90.94
320.358	93.94
320.587	88.94
320.816	100.94
321.046	110.94
321.275	108.94
321.504	93.94
321.733	88.94
321.962	106.94
322.191	99.94
322.42	112.94
322.649	119.94
322.878	136.94
323.108	130.94
323.337	135.94
323.566	161.94
323.795	193.94
324.024	268.94
324.253	503.94
324.482	1135.94
324.71	2400.94
324.939	3145.94
325.168	1125.94
325.397	319.94
325.626	171.94
325.855	154.94
326.084	153.94
326.313	155.94
326.542	179.94
326.77	273.94
326.999	583.94
327.228	1310.94
327.457	2293.94
327.686	1882.94
327.914	632.94
328.143	579.94
328.372	725.94
328.6	396.94
328.829	202.94
329.058	169.94
329.287	188.94
329.515	172.94
329.744	273.94
329.972	542.94
330.201	1120.94
330.43	1608.94
330.658	703.94
330.887	281.94
331.115	201.94
331.344	121.94
331.572	116.94
331.801	118.94
332.03	135.94
332.258	126.94
332.486	103.94
332.715	117.94
332.943	128.94
333.172	117.94
333.4	121.94
333.629	174.94
333.857	260.94
334.085	496.94
334.314	1057.94
334.542	2057.94
334.771	1898.94
334.999	472.94
335.227	181.94
335.455	142.94
335.684	125.94
335.912	116.94
336.14	116.94
336.369	121.94
336.597	110.94
336.825	109.94
337.053	98.94
337.281	96.94
337.51	90.94
337.738	97.94
337.966	94.94
338.194	107.94
338.422	107.94
338.65	77.94
338.878	92.94
339.106	89.94
339.334	93.94
339.562	94.94
339.79	98.94
340.018	92.94
340.246	89.94
340.474	94.94
340.702	99.94
340.93	92.94
341.158	99.94
341.386	101.94
341.614	99.94
341.842	93.94
342.07	76.94
342.298	91.94
342.526	90.94
342.754	87.94
342.981	89.94
343.209	94.94
343.437	97.94
343.665	94.94
343.893	91.94
344.12	101.94
344.348	89.94
344.576	83.94
344.804	97.94
345.031	113.94
345.259	95.94
345.487	111.94
345.714	91.94
345.942	91.94
346.17	76.94
346.397	92.94
346.625	105.94
346.853	95.94
347.08	95.94
347.308	99.94
347.535	90.94
347.763	107.94
347.99	91.94
348.218	104.94
348.445	95.94
348.673	105.94
348.9	97.94
349.128	108.94
349.355	81.94
349.583	108.94
349.81	87.94
350.037	97.94
350.265	96.94
350.492	97.94
350.72	104.94
350.947	101.94
351.174	117.94
351.402	125.94
351.629	124.94
351.856	112.94
352.083	117.94
352.311	123.94
352.538	136.94
352.765	109.94
352.992	125.94
353.22	107.94
353.447	128.94
353.674	91.94
353.901	84.94
354.128	110.94
354.355	101.94
354.583	90.94
354.81	87.94
355.037	98.94
355.264	87.94
355.491	87.94
355.718	87.94
355.945	87.94
356.172	96.94
356.399	90.94
356.626	94.94
356.853	78.94
357.08	106.94
357.307	101.94
357.534	98.94
357.761	89.94
357.988	73.94
358.215	81.94
358.441	104.94
358.668	87.94
358.895	89.94
359.122	84.94
359.349	87.94
359.576	95.94
359.802	129.94
360.029	147.94
360.256	120.94
360.483	113.94
360.709	104.94
360.936	92.94
361.163	95.94
361.39	113.94
361.616	112.94
361.843	99.94
362.07	103.94
362.296	89.94
362.523	87.94
362.749	83.94
362.976	96.94
363.203	95.94
363.429	94.94
363.656	104.94
363.882	106.94
364.109	112.94
364.335	94.94
364.562	94.94
364.788	92.94
365.015	79.94
365.241	108.94
365.468	122.94
365.694	121.94
365.92	108.94
366.147	105.94
366.373	85.94
366.599	93.94
366.826	77.94
367.052	91.94
367.278	95.94
367.505	84.94
367.731	105.94
367.957	97.94
368.184	111.94
368.41	95.94
368.636	118.94
368.862	141.94
369.089	136.94
369.315	88.94
369.541	105.94
369.767	86.94
369.993	90.94
370.219	94.94
370.445	87.94
370.672	69.94
370.898	84.94
371.124	81.94
371.35	86.94
371.576	86.94
371.802	82.94
372.028	84.94
372.254	83.94
372.48	84.94
372.706	81.94
372.932	91.94
373.158	93.94
373.384	94.94
373.61	94.94
373.835	97.94
374.061	83.94
374.287	82.94
374.513	86.94
374.739	95.94
374.965	96.94
375.191	91.94
375.416	96.94
375.642	85.94
375.868	79.94
376.094	81.94
376.319	93.94
376.545	86.94
376.771	91.94
376.997	85.94
377.222	92.94
377.448	100.94
377.674	90.94
377.899	94.94
378.125	98.94
378.35	85.94
378.576	85.94
378.802	100.94
379.027	93.94
379.253	87.94
379.478	112.94
379.704	75.94
379.929	95.94
380.155	93.94
380.38	83.94
380.606	97.94
380.831	93.94
381.057	85.94
381.282	84.94
381.507	87.94
381.733	91.94
381.958	98.94
382.184	103.94
382.409	91.94
382.634	105.94
382.86	83.94
383.085	103.94
383.31	105.94
383.535	106.94
383.761	88.94
383.986	100.94
384.211	89.94
384.436	86.94
384.662	87.94
384.887	98.94
385.112	96.94
385.337	102.94
385.562	86.94
385.787	94.94
386.013	117.94
386.238	120.94
386.463	122.94
386.688	110.94
386.913	87.94
387.138	108.94
387.363	97.94
387.588	88.94
387.813	93.94
388.038	102.94
388.263	106.94
388.488	97.94
388.713	97.94
388.938	98.94
389.163	84.94
389.387	86.94
389.612	93.94
389.837	92.94
390.062	87.94
390.287	81.94
390.512	99.94
390.736	85.94
390.961	97.94
391.186	72.94
391.411	75.94
391.636	76.94
391.86	78.94
392.085	81.94
392.31	75.94
392.534	112.94
392.759	88.94
392.984	87.94
393.208	106.94
393.433	92.94
393.658	86.94
393.882	69.94
394.107	85.94
394.331	84.94
394.556	86.94
394.78	77.94
395.005	83.94
395.229	83.94
395.454	93.94
395.678	96.94
395.903	93.94
396.127	90.94
396.352	89.94
396.576	89.94
396.801	80.94
397.025	87.94
397.249	87.94
397.474	95.94
397.698	88.94
397.922	73.94
398.147	86.94
398.371	95.94
398.595	74.94
398.82	78.94
399.044	85.94
399.268	91.94
399.492	87.94
399.717	99.94
399.941	85.94
400.165	105.94
400.389	86.94
400.613	79.94
400.837	98.94
401.062	100.94
401.286	89.94
401.51	106.94
401.734	99.94
401.958	107.94
402.182	148.94
402.406	201.94
402.63	135.94
402.854	97.94
403.078	87.94
403.302	86.94
403.526	80.94
403.75	76.94
403.974	85.94
404.198	77.94
404.422	72.94
404.645	95.94
404.869	100.94
405.093	99.94
405.317	148.94
405.541	137.94
405.765	112.94
405.988	123.94
406.212	208.94
406.436	299.94
406.66	204.94
406.883	115.94
407.107	102.94
407.331	115.94
407.555	109.94
407.778	103.94
408.002	81.94
408.226	88.94
408.449	95.94
408.673	87.94
408.896	88.94
409.12	104.94
409.344	81.94
409.567	89.94
409.791	94.94
410.014	102.94
410.238	87.94
410.461	85.94
410.685	103.94
410.908	102.94
411.132	104.94
411.355	102.94
411.578	85.94
411.802	89.94
412.025	94.94
412.249	102.94
412.472	113.94
412.695	151.94
412.919	106.94
413.142	101.94
413.365	106.94
413.589	97.94
413.812	78.94
414.035	93.94
414.258	101.94
414.482	103.94
414.705	93.94
414.928	75.94
415.151	83.94
415.374	94.94
415.597	89.94
415.821	77.94
416.044	87.94
416.267	103.94
416.49	96.94
416.713	81.94
416.936	80.94
417.159	89.94
417.382	116.94
417.605	104.94
417.828	105.94
418.051	110.94
418.274	95.94
418.497	80.94
418.72	91.94
418.943	80.94
419.166	79.94
419.389	95.94
419.611	99.94
419.834	95.94
420.057	96.94
420.28	91.94
420.503	77.94
420.726	81.94
420.948	97.94
421.171	113.94
421.394	108.94
421.617	81.94
421.839	73.94
422.062	86.94
422.285	90.94
422.507	100.94
422.73	129.94
422.953	85.94
423.175	93.94
423.398	85.94
423.621	88.94
423.843	86.94
424.066	89.94
424.288	80.94
424.511	94.94
424.733	107.94
424.956	115.94
425.178	94.94
425.401	107.94
425.623	116.94
425.846	99.94
426.068	106.94
426.291	98.94
426.513	100.94
426.735	105.94
426.958	105.94
427.18	120.94
427.402	182.94
427.625	249.94
427.847	244.94
428.069	227.94
428.292	124.94
428.514	117.94
428.736	85.94
428.958	88.94
429.181	85.94
429.403	92.94
429.625	95.94
429.847	107.94
430.069	112.94
430.292	100.94
430.514	85.94
430.736	84.94
430.958	75.94
431.18	67.94
431.402	72.94
431.624	80.94
431.846	76.94
432.068	80.94
432.29	84.94
432.512	88.94
432.734	93.94
432.956	91.94
433.178	102.94
433.4	105.94
433.622	93.94
433.844	90.94
434.066	103.94
434.287	98.94
434.509	89.94
434.731	86.94
434.953	82.94
435.175	82.94
435.397	92.94
435.618	103.94
435.84	101.94
436.062	131.94
436.284	124.94
436.505	110.94
436.727	110.94
436.949	91.94
437.17	90.94
437.392	82.94
437.614	93.94
437.835	126.94
438.057	154.94
438.278	127.94
438.5	105.94
438.721	118.94
438.943	121.94
439.165	96.94
439.386	71.94
439.608	99.94
439.829	123.94
440.05	142.94
440.272	194.94
440.493	112.94
440.715	107.94
440.936	86.94
441.158	97.94
441.379	84.94
441.6	93.94
441.822	95.94
442.043	100.94
442.264	116.94
442.486	104.94
442.707	104.94
442.928	113.94
443.149	136.94
443.371	163.94
443.592	127.94
443.813	131.94
444.034	112.94
444.255	97.94
444.476	72.94
444.698	90.94
444.919	90.94
445.14	143.94
445.361	136.94
445.582	144.94
445.803	202.94
446.024	187.94
446.245	158.94
446.466	115.94
446.687	96.94
446.908	97.94
447.129	95.94
447.35	103.94
447.571	104.94
447.792	87.94
448.013	95.94
448.234	117.94
448.455	105.94
448.675	131.94
448.896	142.94
449.117	99.94
449.338	117.94
449.559	155.94
449.779	172.94
450	92.94
450.221	89.94
450.442	100.94
450.662	94.94
450.883	121.94
451.104	126.94
451.324	90.94
451.545	87.94
451.766	95.94
451.986	90.94
452.207	83.94
452.428	84.94
452.648	103.94
452.869	117.94
453.089	118.94
453.31	132.94
453.53	85.94
453.751	88.94
453.971	115.94
454.192	115.94
454.412	95.94
454.633	93.94
454.853	90.94
455.073	88.94
455.294	102.94
455.514	103.94
455.734	99.94
455.955	93.94
456.175	76.94
456.395	67.94
456.616	100.94
456.836	85.94
457.056	91.94
457.276	81.94
457.497	88.94
457.717	89.94
457.937	88.94
458.157	98.94
458.377	91.94
458.598	134.94
458.818	190.94
459.038	215.94
459.258	149.94
459.478	106.94
459.698	79.94
459.918	75.94
460.138	84.94
460.358	77.94
460.578	74.94
460.798	104.94
461.018	96.94
461.238	91.94
461.458	87.94
461.678	76.94
461.898	87.94
462.118	75.94
462.338	83.94
462.558	87.94
462.777	84.94
462.997	101.94
463.217	110.94
463.437	87.94
463.657	92.94
463.876	71.94
464.096	85.94
464.316	93.94
464.536	118.94
464.755	97.94
464.975	117.94
465.195	225.94
465.414	228.94
465.634	105.94
465.854	81.94
466.073	88.94
466.293	95.94
466.512	101.94
466.732	99.94
466.951	80.94
467.171	94.94
467.391	110.94
467.61	151.94
467.829	243.94
468.049	643.94
468.268	961.94
468.488	243.94
468.707	116.94
468.927	107.94
469.146	90.94
469.365	98.94
469.585	82.94
469.804	98.94
470.023	106.94
470.243	108.94
470.462	128.94
470.681	140.94
470.901	103.94
471.12	98.94
471.339	111.94
471.558	134.94
471.777	173.94
471.997	337.94
472.216	1303.94
472.435	2955.94
472.654	671.94
472.873	170.94
473.092	110.94
473.311	101.94
473.53	89.94
473.749	95.94
473.968	102.94
474.187	119.94
474.406	117.94
474.625	83.94
474.844	90.94
475.063	81.94
475.282	87.94
475.501	93.94
475.72	84.94
475.939	80.94
476.158	64.94
476.377	96.94
476.596	84.94
476.814	96.94
477.033	100.94
477.252	96.94
477.471	86.94
477.69	99.94
477.908	101.94
478.127	92.94
478.346	97.94
478.564	104.94
478.783	111.94
479.002	97.94
479.22	116.94
479.439	119.94
479.658	148.94
479.876	124.94
480.095	121.94
480.313	129.94
480.532	169.94
480.751	332.94
480.969	1199.94
481.188	5157.94
481.406	2849.94
481.624	399.94
481.843	141.94
482.061	108.94
482.28	109.94
482.498	83.94
482.717	96.94
482.935	93.94
483.153	93.94
483.372	93.94
483.59	103.94
483.808	101.94
484.027	91.94
484.245	92.94
484.463	86.94
484.681	97.94
484.9	92.94
485.118	95.94
485.336	92.94
485.554	93.94
485.772	108.94
485.99	91.94
486.209	104.94
486.427	115.94
486.645	117.94
486.863	124.94
487.081	105.94
487.299	99.94
487.517	99.94
487.735	108.94
487.953	93.94
488.171	97.94
488.389	111.94
488.607	102.94
488.825	86.94
489.043	95.94
489.261	85.94
489.479	77.94
489.696	86.94
489.914	88.94
490.132	83.94
490.35	105.94
490.568	97.94
490.786	87.94
491.003	81.94
491.221	94.94
491.439	105.94
491.657	105.94
491.874	86.94
492.092	96.94
492.31	81.94
492.527	88.94
492.745	104.94
492.963	88.94
493.18	83.94
493.398	89.94
493.615	104.94
493.833	85.94
494.05	83.94
494.268	101.94
494.485	90.94
494.703	101.94
494.92	88.94
495.138	84.94
495.355	86.94
495.573	97.94
495.79	87.94
496.008	103.94
496.225	81.94
496.442	83.94
496.66	96.94
496.877	100.94
497.094	87.94
497.312	97.94
497.529	95.94
497.746	88.94
497.963	93.94
498.181	89.94
498.398	88.94
498.615	133.94
498.832	121.94
499.049	105.94
499.267	83.94
499.484	91.94
499.701	93.94
499.918	90.94
500.135	85.94
500.352	99.94
500.569	108.94
500.786	91.94
501.003	102.94
501.22	87.94
501.437	81.94
501.654	91.94
501.871	119.94
502.088	98.94
502.305	92.94
502.522	105.94
502.739	98.94
502.956	93.94
503.172	116.94
503.389	113.94
503.606	119.94
503.823	103.94
504.04	91.94
504.256	105.94
504.473	96.94
504.69	80.94
504.907	79.94
505.123	100.94
505.34	93.94
505.557	106.94
505.773	90.94
505.99	82.94
506.207	88.94
506.423	86.94
506.64	89.94
506.856	92.94
507.073	83.94
507.289	78.94
507.506	96.94
507.722	125.94
507.939	144.94
508.155	102.94
508.372	103.94
508.588	108.94
508.805	108.94
509.021	100.94
509.238	104.94
509.454	90.94
509.67	109.94
509.887	114.94
510.103	133.94
510.319	227.94
510.536	948.94
510.752	3261.94
510.968	871.94
511.184	188.94
511.401	115.94
511.617	99.94
511.833	113.94
512.049	101.94
512.265	104.94
512.481	97.94
512.698	104.94
512.914	91.94
513.13	99.94
513.346	103.94
513.562	87.94
