Data from Circ_1998_H10_HRD10591_00072.txt Node
Date: Wed Jan 03 11:27:03 EST 2024
User: Yrep
Spectrometer: HR+D1059
Trigger mode: 1
Integration Time (sec): 1.000000E-1
Scans to average: 1
Electric dark correction enabled: true
Nonlinearity correction enabled: false
Boxcar width: 0
XAxis mode: Wavelengths
Number of Pixels in Spectrum: 2048
>>>>>Begin Spectral Data<<<<<
223.165	-16.81
223.4	-16.81
223.635	-16.81
223.869	-10.81
224.104	-15.81
224.338	-19.81
224.573	-16.81
224.808	-9.81
225.042	4.19
225.277	-5.81
225.511	5.19
225.746	4.19
225.98	-9.81
226.215	14.19
226.449	15.19
226.683	9.19
226.918	25.19
227.152	28.19
227.387	17.19
227.621	35.19
227.856	40.19
228.09	39.19
228.324	39.19
228.559	57.19
228.793	68.19
229.027	69.19
229.262	63.19
229.496	88.19
229.73	115.19
229.964	95.19
230.199	76.19
230.433	77.19
230.667	80.19
230.901	47.19
231.136	66.19
231.37	80.19
231.604	77.19
231.838	78.19
232.072	78.19
232.306	93.19
232.541	78.19
232.775	71.19
233.009	88.19
233.243	80.19
233.477	78.19
233.711	68.19
233.945	93.19
234.179	78.19
234.413	88.19
234.647	88.19
234.881	81.19
235.115	84.19
235.349	68.19
235.583	92.19
235.817	82.19
236.051	86.19
236.285	81.19
236.519	95.19
236.753	82.19
236.987	87.19
237.221	94.19
237.455	98.19
237.689	74.19
237.922	89.19
238.156	90.19
238.39	82.19
238.624	80.19
238.858	74.19
239.091	88.19
239.325	76.19
239.559	89.19
239.793	84.19
240.027	77.19
240.26	92.19
240.494	78.19
240.728	96.19
240.961	91.19
241.195	75.19
241.429	80.19
241.662	82.19
241.896	71.19
242.13	92.19
242.363	74.19
242.597	83.19
242.83	90.19
243.064	64.19
243.298	70.19
243.531	85.19
243.765	77.19
243.998	77.19
244.232	101.19
244.465	87.19
244.699	83.19
244.932	91.19
245.166	73.19
245.399	82.19
245.633	86.19
245.866	72.19
246.099	91.19
246.333	84.19
246.566	71.19
246.8	97.19
247.033	89.19
247.266	84.19
247.5	76.19
247.733	88.19
247.966	90.19
248.2	86.19
248.433	82.19
248.666	91.19
248.899	80.19
249.133	94.19
249.366	118.19
249.599	126.19
249.832	72.19
250.066	88.19
250.299	79.19
250.532	92.19
250.765	82.19
250.998	83.19
251.231	76.19
251.465	97.19
251.698	83.19
251.931	84.19
252.164	96.19
252.397	77.19
252.63	67.19
252.863	77.19
253.096	92.19
253.329	92.19
253.562	86.19
253.795	65.19
254.028	78.19
254.261	89.19
254.494	79.19
254.727	81.19
254.96	90.19
255.193	79.19
255.426	80.19
255.659	102.19
255.892	100.19
256.124	113.19
256.357	95.19
256.59	81.19
256.823	86.19
257.056	84.19
257.289	92.19
257.521	83.19
257.754	88.19
257.987	70.19
258.22	92.19
258.452	106.19
258.685	105.19
258.918	85.19
259.151	87.19
259.383	70.19
259.616	87.19
259.849	88.19
260.081	78.19
260.314	97.19
260.547	99.19
260.779	104.19
261.012	123.19
261.244	134.19
261.477	104.19
261.71	95.19
261.942	152.19
262.175	180.19
262.407	104.19
262.64	94.19
262.872	96.19
263.105	77.19
263.337	84.19
263.57	91.19
263.802	76.19
264.035	82.19
264.267	81.19
264.499	88.19
264.732	57.19
264.964	84.19
265.197	72.19
265.429	96.19
265.661	68.19
265.894	90.19
266.126	88.19
266.358	91.19
266.591	78.19
266.823	79.19
267.055	86.19
267.287	89.19
267.52	85.19
267.752	95.19
267.984	66.19
268.216	72.19
268.448	78.19
268.681	91.19
268.913	92.19
269.145	81.19
269.377	83.19
269.609	81.19
269.841	84.19
270.073	85.19
270.306	94.19
270.538	82.19
270.77	89.19
271.002	89.19
271.234	105.19
271.466	109.19
271.698	87.19
271.93	97.19
272.162	90.19
272.394	104.19
272.626	69.19
272.858	86.19
273.09	88.19
273.322	78.19
273.553	85.19
273.785	88.19
274.017	80.19
274.249	85.19
274.481	104.19
274.713	75.19
274.945	106.19
275.176	95.19
275.408	119.19
275.64	130.19
275.872	160.19
276.104	135.19
276.335	100.19
276.567	136.19
276.799	193.19
277.031	234.19
277.262	279.19
277.494	206.19
277.726	126.19
277.957	106.19
278.189	95.19
278.421	94.19
278.652	96.19
278.884	91.19
279.115	105.19
279.347	100.19
279.579	125.19
279.81	169.19
280.042	272.19
280.273	409.19
280.505	261.19
280.736	132.19
280.968	103.19
281.199	101.19
281.431	87.19
281.662	94.19
281.894	98.19
282.125	101.19
282.356	153.19
282.588	217.19
282.819	161.19
283.051	103.19
283.282	84.19
283.513	76.19
283.745	96.19
283.976	104.19
284.207	76.19
284.439	81.19
284.67	81.19
284.901	88.19
285.132	74.19
285.364	87.19
285.595	90.19
285.826	90.19
286.057	74.19
286.288	82.19
286.52	88.19
286.751	97.19
286.982	87.19
287.213	83.19
287.444	102.19
287.675	81.19
287.906	81.19
288.138	93.19
288.369	106.19
288.6	105.19
288.831	95.19
289.062	87.19
289.293	87.19
289.524	93.19
289.755	104.19
289.986	86.19
290.217	90.19
290.448	97.19
290.679	77.19
290.91	103.19
291.141	98.19
291.371	96.19
291.602	80.19
291.833	85.19
292.064	79.19
292.295	85.19
292.526	100.19
292.757	96.19
292.987	89.19
293.218	78.19
293.449	94.19
293.68	89.19
293.91	73.19
294.141	91.19
294.372	79.19
294.603	93.19
294.833	102.19
295.064	93.19
295.295	91.19
295.525	105.19
295.756	108.19
295.987	148.19
296.217	182.19
296.448	166.19
296.679	99.19
296.909	96.19
297.14	93.19
297.37	99.19
297.601	96.19
297.831	92.19
298.062	111.19
298.292	104.19
298.523	95.19
298.753	100.19
298.984	86.19
299.214	84.19
299.445	102.19
299.675	92.19
299.905	105.19
300.136	89.19
300.366	96.19
300.597	87.19
300.827	91.19
301.057	110.19
301.288	110.19
301.518	115.19
301.748	104.19
301.979	123.19
302.209	113.19
302.439	98.19
302.669	97.19
302.9	93.19
303.13	103.19
303.36	121.19
303.59	170.19
303.82	191.19
304.051	125.19
304.281	84.19
304.511	90.19
304.741	104.19
304.971	100.19
305.201	101.19
305.431	91.19
305.661	91.19
305.891	95.19
306.121	91.19
306.352	105.19
306.582	130.19
306.812	122.19
307.042	165.19
307.272	223.19
307.502	261.19
307.731	229.19
307.961	167.19
308.191	110.19
308.421	97.19
308.651	102.19
308.881	100.19
309.111	97.19
309.341	108.19
309.571	106.19
309.8	111.19
310.03	127.19
310.26	112.19
310.49	96.19
310.72	97.19
310.949	129.19
311.179	136.19
311.409	99.19
311.639	113.19
311.868	107.19
312.098	110.19
312.328	112.19
312.557	122.19
312.787	138.19
313.017	128.19
313.246	105.19
313.476	108.19
313.706	108.19
313.935	117.19
314.165	114.19
314.394	121.19
314.624	114.19
314.853	117.19
315.083	97.19
315.312	96.19
315.542	106.19
315.771	101.19
316.001	86.19
316.23	80.19
316.46	88.19
316.689	100.19
316.919	110.19
317.148	102.19
317.377	97.19
317.607	113.19
317.836	92.19
318.065	105.19
318.295	93.19
318.524	100.19
318.753	97.19
318.983	101.19
319.212	128.19
319.441	146.19
319.67	123.19
319.9	101.19
320.129	108.19
320.358	106.19
320.587	112.19
320.816	111.19
321.046	128.19
321.275	108.19
321.504	107.19
321.733	95.19
321.962	111.19
322.191	122.19
322.42	119.19
322.649	147.19
322.878	140.19
323.108	152.19
323.337	172.19
323.566	193.19
323.795	229.19
324.024	313.19
324.253	666.19
324.482	1529.19
324.71	3187.19
324.939	4317.19
325.168	1467.19
325.397	377.19
325.626	214.19
325.855	177.19
326.084	172.19
326.313	177.19
326.542	203.19
326.77	355.19
326.999	738.19
327.228	1625.19
327.457	3077.19
327.686	2464.19
327.914	829.19
328.143	888.19
328.372	1192.19
328.6	608.19
328.829	269.19
329.058	267.19
329.287	271.19
329.515	256.19
329.744	404.19
329.972	861.19
330.201	1835.19
330.43	2753.19
330.658	1136.19
330.887	437.19
331.115	270.19
331.344	160.19
331.572	154.19
331.801	162.19
332.03	157.19
332.258	141.19
332.486	132.19
332.715	127.19
332.943	132.19
333.172	158.19
333.4	168.19
333.629	232.19
333.857	341.19
334.085	726.19
334.314	1726.19
334.542	3505.19
334.771	3117.19
334.999	724.19
335.227	260.19
335.455	166.19
335.684	127.19
335.912	114.19
336.14	136.19
336.369	111.19
336.597	119.19
336.825	119.19
337.053	112.19
337.281	90.19
337.51	101.19
337.738	98.19
337.966	105.19
338.194	112.19
338.422	106.19
338.65	104.19
338.878	96.19
339.106	100.19
339.334	102.19
339.562	109.19
339.79	105.19
340.018	111.19
340.246	111.19
340.474	125.19
340.702	102.19
340.93	94.19
341.158	98.19
341.386	103.19
341.614	129.19
341.842	117.19
342.07	100.19
342.298	107.19
342.526	101.19
342.754	96.19
342.981	94.19
343.209	85.19
343.437	105.19
343.665	98.19
343.893	96.19
344.12	97.19
344.348	84.19
344.576	97.19
344.804	107.19
345.031	127.19
345.259	110.19
345.487	118.19
345.714	105.19
345.942	95.19
346.17	92.19
346.397	96.19
346.625	101.19
346.853	98.19
347.08	110.19
347.308	108.19
347.535	121.19
347.763	132.19
347.99	123.19
348.218	109.19
348.445	131.19
348.673	115.19
348.9	110.19
349.128	102.19
349.355	99.19
349.583	99.19
349.81	108.19
350.037	92.19
350.265	98.19
350.492	85.19
350.72	91.19
350.947	123.19
351.174	120.19
351.402	129.19
351.629	105.19
351.856	118.19
352.083	106.19
352.311	127.19
352.538	143.19
352.765	129.19
352.992	129.19
353.22	120.19
353.447	117.19
353.674	100.19
353.901	88.19
354.128	102.19
354.355	100.19
354.583	97.19
354.81	100.19
355.037	95.19
355.264	96.19
355.491	88.19
355.718	99.19
355.945	89.19
356.172	97.19
356.399	79.19
356.626	92.19
356.853	96.19
357.08	79.19
357.307	94.19
357.534	97.19
357.761	96.19
357.988	84.19
358.215	97.19
358.441	101.19
358.668	108.19
358.895	100.19
359.122	97.19
359.349	105.19
359.576	104.19
359.802	145.19
360.029	171.19
360.256	164.19
360.483	134.19
360.709	105.19
360.936	103.19
361.163	108.19
361.39	116.19
361.616	113.19
361.843	93.19
362.07	96.19
362.296	113.19
362.523	101.19
362.749	116.19
362.976	102.19
363.203	100.19
363.429	101.19
363.656	92.19
363.882	99.19
364.109	97.19
364.335	101.19
364.562	108.19
364.788	99.19
365.015	99.19
365.241	108.19
365.468	150.19
365.694	124.19
365.92	132.19
366.147	110.19
366.373	102.19
366.599	97.19
366.826	91.19
367.052	102.19
367.278	101.19
367.505	113.19
367.731	96.19
367.957	102.19
368.184	111.19
368.41	115.19
368.636	140.19
368.862	157.19
369.089	140.19
369.315	116.19
369.541	100.19
369.767	104.19
369.993	104.19
370.219	113.19
370.445	100.19
370.672	90.19
370.898	90.19
371.124	97.19
371.35	97.19
371.576	85.19
371.802	105.19
372.028	80.19
372.254	101.19
372.48	78.19
372.706	86.19
372.932	75.19
373.158	88.19
373.384	105.19
373.61	102.19
373.835	98.19
374.061	93.19
374.287	89.19
374.513	104.19
374.739	97.19
374.965	79.19
375.191	82.19
375.416	78.19
375.642	106.19
375.868	96.19
376.094	98.19
376.319	96.19
376.545	82.19
376.771	96.19
376.997	102.19
377.222	100.19
377.448	90.19
377.674	84.19
377.899	85.19
378.125	98.19
378.35	101.19
378.576	84.19
378.802	91.19
379.027	93.19
379.253	88.19
379.478	81.19
379.704	88.19
379.929	88.19
380.155	78.19
380.38	88.19
380.606	91.19
380.831	96.19
381.057	117.19
381.282	101.19
381.507	89.19
381.733	97.19
381.958	96.19
382.184	102.19
382.409	102.19
382.634	106.19
382.86	114.19
383.085	104.19
383.31	97.19
383.535	89.19
383.761	101.19
383.986	91.19
384.211	94.19
384.436	97.19
384.662	94.19
384.887	103.19
385.112	103.19
385.337	105.19
385.562	103.19
385.787	106.19
386.013	120.19
386.238	116.19
386.463	104.19
386.688	109.19
386.913	94.19
387.138	95.19
387.363	119.19
387.588	83.19
387.813	74.19
388.038	105.19
388.263	107.19
388.488	102.19
388.713	102.19
388.938	90.19
389.163	80.19
389.387	92.19
389.612	94.19
389.837	89.19
390.062	111.19
390.287	78.19
390.512	92.19
390.736	91.19
390.961	90.19
391.186	88.19
391.411	91.19
391.636	94.19
391.86	65.19
392.085	78.19
392.31	101.19
392.534	104.19
392.759	97.19
392.984	92.19
393.208	81.19
393.433	98.19
393.658	92.19
393.882	86.19
394.107	88.19
394.331	97.19
394.556	102.19
394.78	66.19
395.005	84.19
395.229	84.19
395.454	111.19
395.678	96.19
395.903	90.19
396.127	99.19
396.352	85.19
396.576	107.19
396.801	99.19
397.025	86.19
397.249	105.19
397.474	80.19
397.698	87.19
397.922	85.19
398.147	93.19
398.371	102.19
398.595	98.19
398.82	59.19
399.044	85.19
399.268	86.19
399.492	97.19
399.717	93.19
399.941	94.19
400.165	96.19
400.389	96.19
400.613	86.19
400.837	93.19
401.062	101.19
401.286	86.19
401.51	107.19
401.734	91.19
401.958	119.19
402.182	174.19
402.406	234.19
402.63	173.19
402.854	115.19
403.078	101.19
403.302	105.19
403.526	84.19
403.75	87.19
403.974	101.19
404.198	98.19
404.422	100.19
404.645	101.19
404.869	117.19
405.093	139.19
405.317	181.19
405.541	169.19
405.765	135.19
405.988	158.19
406.212	256.19
406.436	396.19
406.66	265.19
406.883	135.19
407.107	121.19
407.331	122.19
407.555	119.19
407.778	117.19
408.002	99.19
408.226	98.19
408.449	89.19
408.673	107.19
408.896	95.19
409.12	114.19
409.344	89.19
409.567	82.19
409.791	102.19
410.014	101.19
410.238	95.19
410.461	99.19
410.685	98.19
410.908	93.19
411.132	104.19
411.355	113.19
411.578	93.19
411.802	86.19
412.025	109.19
412.249	115.19
412.472	126.19
412.695	176.19
412.919	125.19
413.142	108.19
413.365	100.19
413.589	88.19
413.812	94.19
414.035	98.19
414.258	96.19
414.482	88.19
414.705	107.19
414.928	95.19
415.151	85.19
415.374	87.19
415.597	95.19
415.821	94.19
416.044	101.19
416.267	92.19
416.49	78.19
416.713	95.19
416.936	103.19
417.159	97.19
417.382	116.19
417.605	137.19
417.828	129.19
418.051	118.19
418.274	96.19
418.497	86.19
418.72	98.19
418.943	88.19
419.166	85.19
419.389	89.19
419.611	90.19
419.834	98.19
420.057	100.19
420.28	110.19
420.503	108.19
420.726	90.19
420.948	120.19
421.171	134.19
421.394	110.19
421.617	103.19
421.839	86.19
422.062	97.19
422.285	95.19
422.507	107.19
422.73	121.19
422.953	81.19
423.175	104.19
423.398	92.19
423.621	90.19
423.843	87.19
424.066	88.19
424.288	91.19
424.511	111.19
424.733	112.19
424.956	133.19
425.178	115.19
425.401	123.19
425.623	128.19
425.846	107.19
426.068	118.19
426.291	106.19
426.513	120.19
426.735	92.19
426.958	105.19
427.18	156.19
427.402	237.19
427.625	363.19
427.847	374.19
428.069	327.19
428.292	168.19
428.514	113.19
428.736	105.19
428.958	89.19
429.181	101.19
429.403	85.19
429.625	100.19
429.847	119.19
430.069	130.19
430.292	104.19
430.514	80.19
430.736	95.19
430.958	88.19
431.18	82.19
431.402	85.19
431.624	89.19
431.846	96.19
432.068	89.19
432.29	81.19
432.512	80.19
432.734	71.19
432.956	104.19
433.178	102.19
433.4	108.19
433.622	94.19
433.844	109.19
434.066	83.19
434.287	89.19
434.509	96.19
434.731	87.19
434.953	89.19
435.175	98.19
435.397	92.19
435.618	95.19
435.84	117.19
436.062	155.19
436.284	148.19
436.505	138.19
436.727	117.19
436.949	103.19
437.17	92.19
437.392	86.19
437.614	105.19
437.835	139.19
438.057	177.19
438.278	137.19
438.5	137.19
438.721	155.19
438.943	128.19
439.165	97.19
439.386	94.19
439.608	95.19
439.829	127.19
440.05	184.19
440.272	236.19
440.493	126.19
440.715	105.19
440.936	93.19
441.158	110.19
441.379	96.19
441.6	118.19
441.822	113.19
442.043	115.19
442.264	126.19
442.486	131.19
442.707	115.19
442.928	143.19
443.149	235.19
443.371	222.19
443.592	155.19
443.813	148.19
444.034	147.19
444.255	107.19
444.476	95.19
444.698	107.19
444.919	96.19
445.14	155.19
445.361	152.19
445.582	172.19
445.803	231.19
446.024	212.19
446.245	226.19
446.466	162.19
446.687	120.19
446.908	97.19
447.129	104.19
447.35	105.19
447.571	92.19
447.792	101.19
448.013	110.19
448.234	136.19
448.455	108.19
448.675	141.19
448.896	157.19
449.117	102.19
449.338	153.19
449.559	190.19
449.779	187.19
450	110.19
450.221	100.19
450.442	102.19
450.662	116.19
450.883	152.19
451.104	197.19
451.324	118.19
451.545	106.19
451.766	95.19
451.986	100.19
452.207	106.19
452.428	107.19
452.648	118.19
452.869	148.19
453.089	158.19
453.31	162.19
453.53	117.19
453.751	98.19
453.971	130.19
454.192	161.19
454.412	112.19
454.633	95.19
454.853	108.19
455.073	93.19
455.294	100.19
455.514	125.19
455.734	99.19
455.955	101.19
456.175	85.19
456.395	95.19
456.616	105.19
456.836	77.19
457.056	93.19
457.276	102.19
457.497	102.19
457.717	84.19
457.937	88.19
458.157	96.19
458.377	95.19
458.598	154.19
458.818	274.19
459.038	310.19
459.258	182.19
459.478	121.19
459.698	69.19
459.918	95.19
460.138	95.19
460.358	84.19
460.578	92.19
460.798	98.19
461.018	98.19
461.238	90.19
461.458	77.19
461.678	97.19
461.898	89.19
462.118	97.19
462.338	86.19
462.558	98.19
462.777	96.19
462.997	105.19
463.217	138.19
463.437	119.19
463.657	100.19
463.876	105.19
464.096	105.19
464.316	105.19
464.536	123.19
464.755	117.19
464.975	133.19
465.195	303.19
465.414	298.19
465.634	134.19
465.854	95.19
466.073	111.19
466.293	97.19
466.512	89.19
466.732	84.19
466.951	83.19
467.171	110.19
467.391	134.19
467.61	186.19
467.829	312.19
468.049	1011.19
468.268	1584.19
468.488	361.19
468.707	135.19
468.927	108.19
469.146	105.19
469.365	92.19
469.585	108.19
469.804	119.19
470.023	135.19
470.243	100.19
470.462	125.19
470.681	187.19
470.901	124.19
471.12	126.19
471.339	121.19
471.558	135.19
471.777	209.19
471.997	488.19
472.216	2043.19
472.435	4778.19
472.654	1040.19
472.873	212.19
473.092	125.19
473.311	119.19
473.53	89.19
473.749	109.19
473.968	117.19
474.187	142.19
474.406	119.19
474.625	100.19
474.844	92.19
475.063	86.19
475.282	87.19
475.501	98.19
475.72	91.19
475.939	84.19
476.158	98.19
476.377	109.19
476.596	100.19
476.814	106.19
477.033	107.19
477.252	78.19
477.471	97.19
477.69	108.19
477.908	106.19
478.127	91.19
478.346	105.19
478.564	122.19
478.783	137.19
479.002	126.19
479.22	114.19
479.439	140.19
479.658	173.19
479.876	144.19
480.095	160.19
480.313	191.19
480.532	238.19
480.751	486.19
480.969	1824.19
481.188	8119.19
481.406	4578.19
481.624	599.19
481.843	186.19
482.061	125.19
482.28	116.19
482.498	92.19
482.717	98.19
482.935	111.19
483.153	101.19
483.372	116.19
483.59	94.19
483.808	96.19
484.027	108.19
484.245	102.19
484.463	98.19
484.681	108.19
484.9	101.19
485.118	105.19
485.336	120.19
485.554	102.19
485.772	109.19
485.99	99.19
486.209	106.19
486.427	116.19
486.645	147.19
486.863	138.19
487.081	119.19
487.299	101.19
487.517	92.19
487.735	104.19
487.953	99.19
488.171	102.19
488.389	101.19
488.607	114.19
488.825	93.19
489.043	95.19
489.261	96.19
489.479	98.19
489.696	98.19
489.914	85.19
490.132	93.19
490.35	87.19
490.568	98.19
490.786	90.19
491.003	102.19
491.221	95.19
491.439	108.19
491.657	96.19
491.874	92.19
492.092	102.19
492.31	89.19
492.527	104.19
492.745	112.19
492.963	103.19
493.18	110.19
493.398	92.19
493.615	89.19
493.833	100.19
494.05	93.19
494.268	84.19
494.485	92.19
494.703	81.19
494.92	91.19
495.138	92.19
495.355	104.19
495.573	94.19
495.79	85.19
496.008	93.19
496.225	89.19
496.442	104.19
496.66	101.19
496.877	112.19
497.094	100.19
497.312	96.19
497.529	101.19
497.746	102.19
497.963	105.19
498.181	94.19
498.398	118.19
498.615	132.19
498.832	126.19
499.049	103.19
499.267	104.19
499.484	93.19
499.701	98.19
499.918	95.19
500.135	105.19
500.352	92.19
500.569	95.19
500.786	96.19
501.003	85.19
501.22	87.19
501.437	100.19
501.654	108.19
501.871	141.19
502.088	107.19
502.305	94.19
502.522	103.19
502.739	118.19
502.956	101.19
503.172	106.19
503.389	116.19
503.606	138.19
503.823	116.19
504.04	100.19
504.256	104.19
504.473	89.19
504.69	100.19
504.907	90.19
505.123	97.19
505.34	95.19
505.557	94.19
505.773	88.19
505.99	91.19
506.207	92.19
506.423	89.19
506.64	90.19
506.856	98.19
507.073	93.19
507.289	104.19
507.506	106.19
507.722	162.19
507.939	145.19
508.155	97.19
508.372	85.19
508.588	108.19
508.805	105.19
509.021	129.19
509.238	104.19
509.454	113.19
509.67	122.19
509.887	117.19
510.103	169.19
510.319	297.19
510.536	1208.19
