Data from Circ_1998_H10_HRD10591_00016.txt Node
Date: Wed Jan 03 11:26:52 EST 2024
User: Yrep
Spectrometer: HR+D1059
Trigger mode: 1
Integration Time (sec): 1.000000E-1
Scans to average: 1
Electric dark correction enabled: true
Nonlinearity correction enabled: false
Boxcar width: 0
XAxis mode: Wavelengths
Number of Pixels in Spectrum: 2048
>>>>>Begin Spectral Data<<<<<
223.165	-24.38
223.4	-24.38
223.635	-24.38
223.869	-14.38
224.104	-20.38
224.338	-17.38
224.573	-16.38
224.808	-17.38
225.042	-2.38
225.277	2.62
225.511	2.62
225.746	-7.38
225.98	5.62
226.215	17.62
226.449	23.62
226.683	19.62
226.918	24.62
227.152	23.62
227.387	37.62
227.621	37.62
227.856	23.62
228.09	47.62
228.324	41.62
228.559	69.62
228.793	52.62
229.027	55.62
229.262	78.62
229.496	85.62
229.73	105.62
229.964	93.62
230.199	91.62
230.433	81.62
230.667	85.62
230.901	76.62
231.136	75.62
231.37	86.62
231.604	92.62
231.838	60.62
232.072	82.62
232.306	97.62
232.541	85.62
232.775	87.62
233.009	79.62
233.243	75.62
233.477	82.62
233.711	84.62
233.945	69.62
234.179	61.62
234.413	82.62
234.647	77.62
234.881	87.62
235.115	87.62
235.349	71.62
235.583	87.62
235.817	91.62
236.051	80.62
236.285	81.62
236.519	85.62
236.753	85.62
236.987	73.62
237.221	91.62
237.455	89.62
237.689	88.62
237.922	75.62
238.156	78.62
238.39	71.62
238.624	87.62
238.858	90.62
239.091	88.62
239.325	80.62
239.559	78.62
239.793	84.62
240.027	78.62
240.26	64.62
240.494	67.62
240.728	74.62
240.961	84.62
241.195	106.62
241.429	79.62
241.662	80.62
241.896	79.62
242.13	77.62
242.363	68.62
242.597	62.62
242.83	74.62
243.064	85.62
243.298	82.62
243.531	86.62
243.765	66.62
243.998	88.62
244.232	71.62
244.465	93.62
244.699	77.62
244.932	88.62
245.166	67.62
245.399	79.62
245.633	88.62
245.866	81.62
246.099	71.62
246.333	76.62
246.566	74.62
246.8	74.62
247.033	93.62
247.266	94.62
247.5	67.62
247.733	67.62
247.966	89.62
248.2	76.62
248.433	89.62
248.666	81.62
248.899	78.62
249.133	90.62
249.366	120.62
249.599	118.62
249.832	99.62
250.066	89.62
250.299	82.62
250.532	81.62
250.765	95.62
250.998	75.62
251.231	76.62
251.465	88.62
251.698	73.62
251.931	91.62
252.164	82.62
252.397	83.62
252.63	85.62
252.863	80.62
253.096	88.62
253.329	81.62
253.562	81.62
253.795	82.62
254.028	91.62
254.261	93.62
254.494	90.62
254.727	79.62
254.96	66.62
255.193	89.62
255.426	93.62
255.659	85.62
255.892	95.62
256.124	103.62
256.357	86.62
256.59	73.62
256.823	92.62
257.056	79.62
257.289	98.62
257.521	96.62
257.754	77.62
257.987	94.62
258.22	101.62
258.452	99.62
258.685	106.62
258.918	75.62
259.151	85.62
259.383	79.62
259.616	69.62
259.849	83.62
260.081	75.62
260.314	71.62
260.547	82.62
260.779	83.62
261.012	123.62
261.244	118.62
261.477	102.62
261.71	107.62
261.942	129.62
262.175	159.62
262.407	113.62
262.64	79.62
262.872	96.62
263.105	94.62
263.337	89.62
263.57	83.62
263.802	87.62
264.035	89.62
264.267	86.62
264.499	90.62
264.732	77.62
264.964	94.62
265.197	90.62
265.429	80.62
265.661	73.62
265.894	74.62
266.126	95.62
266.358	94.62
266.591	81.62
266.823	95.62
267.055	73.62
267.287	85.62
267.52	97.62
267.752	96.62
267.984	65.62
268.216	82.62
268.448	87.62
268.681	80.62
268.913	99.62
269.145	72.62
269.377	86.62
269.609	94.62
269.841	107.62
270.073	71.62
270.306	80.62
270.538	85.62
270.77	96.62
271.002	83.62
271.234	90.62
271.466	87.62
271.698	76.62
271.93	90.62
272.162	87.62
272.394	72.62
272.626	103.62
272.858	85.62
273.09	80.62
273.322	80.62
273.553	76.62
273.785	93.62
274.017	94.62
274.249	83.62
274.481	80.62
274.713	89.62
274.945	87.62
275.176	113.62
275.408	104.62
275.64	119.62
275.872	127.62
276.104	96.62
276.335	90.62
276.567	122.62
276.799	152.62
277.031	194.62
277.262	200.62
277.494	163.62
277.726	103.62
277.957	94.62
278.189	94.62
278.421	93.62
278.652	77.62
278.884	94.62
279.115	91.62
279.347	93.62
279.579	114.62
279.81	136.62
280.042	213.62
280.273	283.62
280.505	183.62
280.736	106.62
280.968	89.62
281.199	91.62
281.431	92.62
281.662	87.62
281.894	94.62
282.125	105.62
282.356	141.62
282.588	169.62
282.819	141.62
283.051	95.62
283.282	96.62
283.513	90.62
283.745	98.62
283.976	93.62
284.207	92.62
284.439	94.62
284.67	84.62
284.901	81.62
285.132	101.62
285.364	98.62
285.595	80.62
285.826	82.62
286.057	102.62
286.288	81.62
286.52	108.62
286.751	95.62
286.982	89.62
287.213	89.62
287.444	82.62
287.675	96.62
287.906	90.62
288.138	100.62
288.369	103.62
288.6	98.62
288.831	101.62
289.062	81.62
289.293	89.62
289.524	83.62
289.755	86.62
289.986	86.62
290.217	101.62
290.448	96.62
290.679	64.62
290.91	83.62
291.141	97.62
291.371	93.62
291.602	98.62
291.833	69.62
292.064	83.62
292.295	85.62
292.526	91.62
292.757	83.62
292.987	84.62
293.218	88.62
293.449	86.62
293.68	88.62
293.91	98.62
294.141	78.62
294.372	82.62
294.603	94.62
294.833	96.62
295.064	91.62
295.295	91.62
295.525	99.62
295.756	90.62
295.987	125.62
296.217	183.62
296.448	168.62
296.679	90.62
296.909	84.62
297.14	95.62
297.37	94.62
297.601	77.62
297.831	90.62
298.062	92.62
298.292	102.62
298.523	86.62
298.753	91.62
298.984	88.62
299.214	92.62
299.445	102.62
299.675	101.62
299.905	102.62
300.136	74.62
300.366	88.62
300.597	83.62
300.827	103.62
301.057	114.62
301.288	128.62
301.518	118.62
301.748	100.62
301.979	120.62
302.209	103.62
302.439	101.62
302.669	89.62
302.9	99.62
303.13	97.62
303.36	118.62
303.59	149.62
303.82	155.62
304.051	125.62
304.281	86.62
304.511	87.62
304.741	89.62
304.971	98.62
305.201	114.62
305.431	94.62
305.661	88.62
305.891	103.62
306.121	100.62
306.352	118.62
306.582	136.62
306.812	96.62
307.042	124.62
307.272	164.62
307.502	195.62
307.731	192.62
307.961	146.62
308.191	100.62
308.421	92.62
308.651	100.62
308.881	102.62
309.111	95.62
309.341	116.62
309.571	112.62
309.8	98.62
310.03	96.62
310.26	94.62
310.49	109.62
310.72	114.62
310.949	110.62
311.179	104.62
311.409	100.62
311.639	96.62
311.868	103.62
312.098	108.62
312.328	102.62
312.557	116.62
312.787	126.62
313.017	126.62
313.246	111.62
313.476	97.62
313.706	88.62
313.935	100.62
314.165	121.62
314.394	110.62
314.624	101.62
314.853	119.62
315.083	104.62
315.312	81.62
315.542	99.62
315.771	97.62
316.001	102.62
316.23	104.62
316.46	94.62
316.689	77.62
316.919	119.62
317.148	103.62
317.377	100.62
317.607	112.62
317.836	94.62
318.065	107.62
318.295	95.62
318.524	89.62
318.753	103.62
318.983	99.62
319.212	103.62
319.441	134.62
319.67	129.62
319.9	112.62
320.129	94.62
320.358	92.62
320.587	99.62
320.816	118.62
321.046	112.62
321.275	103.62
321.504	117.62
321.733	103.62
321.962	114.62
322.191	107.62
322.42	123.62
322.649	132.62
322.878	137.62
323.108	134.62
323.337	162.62
323.566	172.62
323.795	215.62
324.024	274.62
324.253	568.62
324.482	1251.62
324.71	2654.62
324.939	3582.62
325.168	1247.62
325.397	339.62
325.626	208.62
325.855	161.62
326.084	136.62
326.313	172.62
326.542	205.62
326.77	311.62
326.999	611.62
327.228	1371.62
327.457	2569.62
327.686	2050.62
327.914	675.62
328.143	625.62
328.372	795.62
328.6	440.62
328.829	226.62
329.058	208.62
329.287	226.62
329.515	204.62
329.744	305.62
329.972	567.62
330.201	1182.62
330.43	1767.62
330.658	777.62
330.887	345.62
331.115	225.62
331.344	146.62
331.572	128.62
331.801	138.62
332.03	154.62
332.258	119.62
332.486	103.62
332.715	99.62
332.943	110.62
333.172	109.62
333.4	153.62
333.629	170.62
333.857	265.62
334.085	497.62
334.314	1065.62
334.542	2170.62
334.771	2046.62
334.999	525.62
335.227	208.62
335.455	130.62
335.684	126.62
335.912	117.62
336.14	127.62
336.369	115.62
336.597	109.62
336.825	103.62
337.053	106.62
337.281	97.62
337.51	95.62
337.738	91.62
337.966	94.62
338.194	105.62
338.422	117.62
338.65	90.62
338.878	93.62
339.106	97.62
339.334	88.62
339.562	108.62
339.79	97.62
340.018	102.62
340.246	103.62
340.474	99.62
340.702	119.62
340.93	95.62
341.158	102.62
341.386	115.62
341.614	108.62
341.842	118.62
342.07	104.62
342.298	95.62
342.526	100.62
342.754	92.62
342.981	97.62
343.209	85.62
343.437	98.62
343.665	85.62
343.893	93.62
344.12	90.62
344.348	86.62
344.576	96.62
344.804	102.62
345.031	97.62
345.259	115.62
345.487	118.62
345.714	91.62
345.942	95.62
346.17	96.62
346.397	95.62
346.625	99.62
346.853	95.62
347.08	97.62
347.308	107.62
347.535	108.62
347.763	114.62
347.99	113.62
348.218	111.62
348.445	115.62
348.673	105.62
348.9	107.62
349.128	100.62
349.355	91.62
349.583	97.62
349.81	91.62
350.037	106.62
350.265	95.62
350.492	96.62
350.72	119.62
350.947	112.62
351.174	119.62
351.402	127.62
351.629	112.62
351.856	104.62
352.083	125.62
352.311	126.62
352.538	131.62
352.765	121.62
352.992	135.62
353.22	127.62
353.447	119.62
353.674	119.62
353.901	118.62
354.128	80.62
354.355	97.62
354.583	106.62
354.81	84.62
355.037	90.62
355.264	105.62
355.491	96.62
355.718	84.62
355.945	90.62
356.172	97.62
356.399	105.62
356.626	99.62
356.853	88.62
357.08	101.62
357.307	90.62
357.534	98.62
357.761	94.62
357.988	95.62
358.215	99.62
358.441	101.62
358.668	92.62
358.895	101.62
359.122	99.62
359.349	91.62
359.576	103.62
359.802	114.62
360.029	150.62
360.256	140.62
360.483	123.62
360.709	90.62
360.936	95.62
361.163	101.62
361.39	108.62
361.616	108.62
361.843	103.62
362.07	121.62
362.296	108.62
362.523	84.62
362.749	100.62
362.976	108.62
363.203	114.62
363.429	83.62
363.656	98.62
363.882	79.62
364.109	94.62
364.335	94.62
364.562	92.62
364.788	91.62
365.015	93.62
365.241	116.62
365.468	135.62
365.694	143.62
365.92	120.62
366.147	90.62
366.373	88.62
366.599	89.62
366.826	102.62
367.052	94.62
367.278	94.62
367.505	101.62
367.731	107.62
367.957	111.62
368.184	90.62
368.41	110.62
368.636	128.62
368.862	148.62
369.089	131.62
369.315	108.62
369.541	93.62
369.767	92.62
369.993	98.62
370.219	95.62
370.445	82.62
370.672	86.62
370.898	103.62
371.124	94.62
371.35	99.62
371.576	91.62
371.802	90.62
372.028	104.62
372.254	94.62
372.48	85.62
372.706	93.62
372.932	89.62
373.158	101.62
373.384	91.62
373.61	88.62
373.835	89.62
374.061	98.62
374.287	96.62
374.513	103.62
374.739	87.62
374.965	92.62
375.191	99.62
375.416	89.62
375.642	96.62
375.868	86.62
376.094	93.62
376.319	109.62
376.545	75.62
376.771	85.62
376.997	89.62
377.222	89.62
377.448	102.62
377.674	78.62
377.899	101.62
378.125	89.62
378.35	97.62
378.576	96.62
378.802	94.62
379.027	83.62
379.253	98.62
379.478	88.62
379.704	100.62
379.929	97.62
380.155	92.62
380.38	98.62
380.606	96.62
380.831	99.62
381.057	94.62
381.282	94.62
381.507	99.62
381.733	97.62
381.958	98.62
382.184	95.62
382.409	102.62
382.634	114.62
382.86	106.62
383.085	97.62
383.31	87.62
383.535	107.62
383.761	99.62
383.986	103.62
384.211	109.62
384.436	95.62
384.662	115.62
384.887	107.62
385.112	110.62
385.337	117.62
385.562	120.62
385.787	102.62
386.013	131.62
386.238	136.62
386.463	118.62
386.688	109.62
386.913	115.62
387.138	110.62
387.363	104.62
387.588	103.62
387.813	123.62
388.038	115.62
388.263	119.62
388.488	111.62
388.713	74.62
388.938	91.62
389.163	99.62
389.387	83.62
389.612	98.62
389.837	101.62
390.062	95.62
390.287	90.62
390.512	87.62
390.736	83.62
390.961	92.62
391.186	85.62
391.411	102.62
391.636	78.62
391.86	80.62
392.085	95.62
392.31	69.62
392.534	93.62
392.759	81.62
392.984	97.62
393.208	103.62
393.433	98.62
393.658	103.62
393.882	99.62
394.107	80.62
394.331	92.62
394.556	77.62
394.78	87.62
395.005	87.62
395.229	95.62
395.454	87.62
395.678	89.62
395.903	85.62
396.127	90.62
396.352	97.62
396.576	92.62
396.801	92.62
397.025	84.62
397.249	82.62
397.474	94.62
397.698	91.62
397.922	99.62
398.147	72.62
398.371	77.62
398.595	96.62
398.82	79.62
399.044	75.62
399.268	99.62
399.492	89.62
399.717	85.62
399.941	90.62
400.165	95.62
400.389	92.62
400.613	87.62
400.837	91.62
401.062	96.62
401.286	84.62
401.51	106.62
401.734	95.62
401.958	115.62
402.182	155.62
402.406	211.62
402.63	159.62
402.854	114.62
403.078	109.62
403.302	85.62
403.526	89.62
403.75	92.62
403.974	98.62
404.198	76.62
404.422	99.62
404.645	106.62
404.869	109.62
405.093	124.62
405.317	159.62
405.541	144.62
405.765	121.62
405.988	141.62
406.212	240.62
406.436	346.62
406.66	230.62
406.883	125.62
407.107	111.62
407.331	106.62
407.555	126.62
407.778	120.62
408.002	95.62
408.226	101.62
408.449	91.62
408.673	102.62
408.896	93.62
409.12	91.62
409.344	87.62
409.567	89.62
409.791	88.62
410.014	97.62
410.238	98.62
410.461	94.62
410.685	100.62
410.908	113.62
411.132	114.62
411.355	109.62
411.578	95.62
411.802	92.62
412.025	105.62
412.249	103.62
412.472	117.62
412.695	134.62
412.919	106.62
413.142	95.62
413.365	94.62
413.589	91.62
413.812	92.62
414.035	95.62
414.258	98.62
414.482	94.62
414.705	83.62
414.928	93.62
415.151	97.62
415.374	100.62
415.597	87.62
415.821	98.62
416.044	104.62
416.267	97.62
416.49	88.62
416.713	90.62
416.936	88.62
417.159	93.62
417.382	98.62
417.605	113.62
417.828	118.62
418.051	96.62
418.274	85.62
418.497	100.62
418.72	86.62
418.943	97.62
419.166	91.62
419.389	82.62
419.611	88.62
419.834	86.62
420.057	84.62
420.28	108.62
420.503	91.62
420.726	101.62
420.948	101.62
421.171	106.62
421.394	110.62
421.617	93.62
421.839	87.62
422.062	97.62
422.285	105.62
422.507	113.62
422.73	120.62
422.953	116.62
423.175	83.62
423.398	82.62
423.621	88.62
423.843	92.62
424.066	79.62
424.288	83.62
424.511	90.62
424.733	92.62
424.956	112.62
425.178	116.62
425.401	125.62
425.623	106.62
425.846	93.62
426.068	105.62
426.291	105.62
426.513	110.62
426.735	97.62
426.958	88.62
427.18	138.62
427.402	197.62
427.625	303.62
427.847	254.62
428.069	257.62
428.292	127.62
428.514	124.62
428.736	98.62
428.958	89.62
429.181	81.62
429.403	89.62
429.625	100.62
429.847	102.62
430.069	112.62
430.292	114.62
430.514	84.62
430.736	90.62
430.958	88.62
431.18	85.62
431.402	78.62
431.624	94.62
431.846	87.62
432.068	93.62
432.29	91.62
432.512	91.62
432.734	96.62
432.956	83.62
433.178	110.62
433.4	100.62
433.622	93.62
433.844	88.62
434.066	83.62
434.287	91.62
434.509	87.62
434.731	97.62
434.953	74.62
435.175	90.62
435.397	88.62
435.618	94.62
435.84	119.62
436.062	156.62
436.284	125.62
436.505	117.62
436.727	107.62
436.949	97.62
437.17	93.62
437.392	84.62
437.614	117.62
437.835	129.62
438.057	152.62
438.278	134.62
438.5	129.62
438.721	148.62
438.943	105.62
439.165	94.62
439.386	90.62
439.608	105.62
439.829	110.62
440.05	183.62
440.272	216.62
440.493	129.62
440.715	106.62
440.936	86.62
441.158	82.62
441.379	102.62
441.6	98.62
441.822	119.62
442.043	107.62
442.264	117.62
442.486	104.62
442.707	110.62
442.928	120.62
443.149	188.62
443.371	191.62
443.592	152.62
443.813	149.62
444.034	126.62
444.255	108.62
444.476	93.62
444.698	93.62
444.919	89.62
445.14	155.62
445.361	136.62
445.582	149.62
445.803	216.62
446.024	201.62
446.245	185.62
446.466	138.62
446.687	98.62
446.908	83.62
447.129	103.62
447.35	92.62
447.571	96.62
447.792	106.62
448.013	112.62
448.234	118.62
448.455	106.62
448.675	149.62
448.896	141.62
449.117	117.62
449.338	117.62
449.559	154.62
449.779	161.62
450	97.62
450.221	85.62
450.442	97.62
450.662	95.62
450.883	142.62
451.104	149.62
451.324	120.62
451.545	97.62
451.766	89.62
451.986	103.62
452.207	94.62
452.428	96.62
452.648	105.62
452.869	124.62
453.089	141.62
453.31	149.62
453.53	96.62
453.751	102.62
453.971	133.62
454.192	147.62
454.412	115.62
454.633	92.62
454.853	89.62
455.073	97.62
455.294	96.62
455.514	106.62
455.734	104.62
455.955	98.62
456.175	102.62
456.395	82.62
456.616	77.62
456.836	79.62
457.056	95.62
457.276	98.62
457.497	94.62
457.717	99.62
457.937	88.62
458.157	88.62
458.377	82.62
458.598	154.62
458.818	234.62
459.038	273.62
459.258	153.62
459.478	117.62
459.698	85.62
459.918	87.62
460.138	86.62
460.358	79.62
460.578	92.62
460.798	96.62
461.018	94.62
461.238	83.62
461.458	96.62
461.678	86.62
461.898	74.62
462.118	85.62
462.338	80.62
462.558	98.62
462.777	84.62
462.997	97.62
463.217	112.62
463.437	99.62
463.657	94.62
463.876	80.62
464.096	93.62
464.316	104.62
464.536	99.62
464.755	114.62
464.975	133.62
465.195	283.62
465.414	277.62
465.634	110.62
465.854	97.62
466.073	89.62
466.293	83.62
466.512	88.62
466.732	75.62
466.951	97.62
467.171	94.62
467.391	119.62
467.61	162.62
467.829	248.62
468.049	678.62
468.268	1004.62
468.488	265.62
468.707	105.62
468.927	109.62
469.146	86.62
469.365	97.62
469.585	102.62
469.804	112.62
470.023	117.62
470.243	100.62
470.462	121.62
470.681	158.62
470.901	113.62
471.12	97.62
471.339	116.62
471.558	133.62
471.777	169.62
471.997	339.62
472.216	1314.62
472.435	3064.62
472.654	690.62
472.873	191.62
473.092	116.62
473.311	104.62
473.53	96.62
473.749	104.62
473.968	106.62
474.187	141.62
474.406	113.62
474.625	100.62
474.844	91.62
475.063	93.62
475.282	93.62
475.501	81.62
475.72	74.62
475.939	89.62
476.158	97.62
476.377	89.62
476.596	106.62
476.814	107.62
477.033	102.62
477.252	92.62
477.471	105.62
477.69	91.62
477.908	98.62
478.127	103.62
478.346	90.62
478.564	101.62
478.783	114.62
479.002	120.62
479.22	116.62
479.439	135.62
479.658	145.62
479.876	123.62
480.095	125.62
480.313	153.62
480.532	175.62
480.751	314.62
480.969	1209.62
481.188	5298.62
481.406	3008.62
481.624	432.62
481.843	151.62
482.061	109.62
482.28	113.62
482.498	107.62
482.717	98.62
482.935	97.62
483.153	94.62
483.372	95.62
483.59	95.62
483.808	93.62
484.027	108.62
484.245	98.62
484.463	90.62
484.681	106.62
484.9	98.62
485.118	103.62
485.336	108.62
485.554	98.62
485.772	89.62
485.99	122.62
486.209	117.62
486.427	120.62
486.645	124.62
486.863	131.62
487.081	109.62
487.299	101.62
487.517	100.62
487.735	98.62
487.953	90.62
488.171	99.62
488.389	104.62
488.607	104.62
488.825	90.62
489.043	81.62
489.261	92.62
489.479	82.62
489.696	85.62
489.914	91.62
490.132	81.62
490.35	89.62
490.568	83.62
490.786	102.62
491.003	91.62
491.221	91.62
491.439	90.62
491.657	113.62
491.874	112.62
492.092	93.62
492.31	105.62
492.527	101.62
492.745	87.62
492.963	101.62
493.18	93.62
493.398	107.62
493.615	100.62
493.833	93.62
494.05	90.62
494.268	93.62
494.485	73.62
494.703	79.62
494.92	89.62
495.138	99.62
495.355	89.62
495.573	93.62
495.79	103.62
496.008	94.62
496.225	89.62
496.442	88.62
496.66	103.62
496.877	90.62
497.094	99.62
497.312	81.62
497.529	92.62
497.746	82.62
497.963	98.62
498.181	96.62
498.398	94.62
498.615	117.62
498.832	125.62
499.049	96.62
499.267	90.62
499.484	91.62
499.701	87.62
499.918	100.62
500.135	99.62
500.352	80.62
500.569	90.62
500.786	106.62
501.003	91.62
501.22	91.62
501.437	98.62
501.654	108.62
501.871	135.62
502.088	97.62
502.305	97.62
502.522	106.62
502.739	93.62
502.956	81.62
503.172	98.62
503.389	118.62
503.606	136.62
503.823	115.62
504.04	107.62
504.256	96.62
504.473	93.62
504.69	93.62
504.907	77.62
505.123	85.62
505.34	105.62
505.557	87.62
505.773	74.62
505.99	87.62
506.207	96.62
506.423	80.62
506.64	105.62
506.856	82.62
507.073	92.62
507.289	92.62
507.506	118.62
507.722	133.62
507.939	138.62
508.155	96.62
508.372	94.62
508.588	111.62
508.805	104.62
509.021	101.62
509.238	103.62
509.454	102.62
509.67	107.62
509.887	108.62
510.103	142.62
510.319	263.62
510.536	1073.62
510.752	3961.62
510.968	1037.62
511.184	201.62
511.401	124.62
511.617	120.62
511.833	119.62
512.049	110.62
