Data from Circ_1998_H10_HRD10591_00054.txt Node
Date: Wed Jan 03 11:26:59 EST 2024
User: Yrep
Spectrometer: HR+D1059
Trigger mode: 1
Integration Time (sec): 1.000000E-1
Scans to average: 1
Electric dark correction enabled: true
Nonlinearity correction enabled: false
Boxcar width: 0
XAxis mode: Wavelengths
Number of Pixels in Spectrum: 2048
>>>>>Begin Spectral Data<<<<<
223.165	-20.25
223.4	-20.25
223.635	-20.25
223.869	-16.25
224.104	-23.25
224.338	0.75
224.573	-10.25
224.808	-21.25
225.042	-15.25
225.277	-6.25
225.511	-8.25
225.746	16.75
225.98	-6.25
226.215	12.75
226.449	10.75
226.683	14.75
226.918	28.75
227.152	42.75
227.387	39.75
227.621	46.75
227.856	54.75
228.09	53.75
228.324	49.75
228.559	58.75
228.793	58.75
229.027	59.75
229.262	55.75
229.496	89.75
229.73	102.75
229.964	90.75
230.199	96.75
230.433	76.75
230.667	92.75
230.901	81.75
231.136	80.75
231.37	88.75
231.604	81.75
231.838	87.75
232.072	86.75
232.306	72.75
232.541	89.75
232.775	88.75
233.009	80.75
233.243	73.75
233.477	76.75
233.711	75.75
233.945	90.75
234.179	86.75
234.413	78.75
234.647	91.75
234.881	81.75
235.115	84.75
235.349	91.75
235.583	86.75
235.817	87.75
236.051	90.75
236.285	94.75
236.519	66.75
236.753	75.75
236.987	71.75
237.221	96.75
237.455	107.75
237.689	79.75
237.922	86.75
238.156	82.75
238.39	72.75
238.624	79.75
238.858	84.75
239.091	82.75
239.325	72.75
239.559	84.75
239.793	90.75
240.027	88.75
240.26	96.75
240.494	95.75
240.728	90.75
240.961	79.75
241.195	76.75
241.429	90.75
241.662	74.75
241.896	80.75
242.13	67.75
242.363	89.75
242.597	87.75
242.83	78.75
243.064	78.75
243.298	80.75
243.531	78.75
243.765	80.75
243.998	64.75
244.232	76.75
244.465	98.75
244.699	78.75
244.932	80.75
245.166	70.75
245.399	89.75
245.633	78.75
245.866	85.75
246.099	85.75
246.333	75.75
246.566	98.75
246.8	87.75
247.033	87.75
247.266	87.75
247.5	95.75
247.733	81.75
247.966	80.75
248.2	86.75
248.433	78.75
248.666	88.75
248.899	79.75
249.133	95.75
249.366	113.75
249.599	116.75
249.832	74.75
250.066	90.75
250.299	90.75
250.532	86.75
250.765	76.75
250.998	78.75
251.231	97.75
251.465	84.75
251.698	93.75
251.931	95.75
252.164	88.75
252.397	83.75
252.63	90.75
252.863	82.75
253.096	83.75
253.329	78.75
253.562	83.75
253.795	83.75
254.028	90.75
254.261	80.75
254.494	82.75
254.727	93.75
254.96	82.75
255.193	72.75
255.426	94.75
255.659	90.75
255.892	98.75
256.124	107.75
256.357	74.75
256.59	84.75
256.823	89.75
257.056	98.75
257.289	91.75
257.521	80.75
257.754	95.75
257.987	81.75
258.22	99.75
258.452	95.75
258.685	96.75
258.918	91.75
259.151	82.75
259.383	94.75
259.616	87.75
259.849	79.75
260.081	99.75
260.314	92.75
260.547	80.75
260.779	95.75
261.012	115.75
261.244	119.75
261.477	119.75
261.71	103.75
261.942	138.75
262.175	140.75
262.407	105.75
262.64	91.75
262.872	93.75
263.105	89.75
263.337	86.75
263.57	89.75
263.802	95.75
264.035	77.75
264.267	81.75
264.499	79.75
264.732	89.75
264.964	79.75
265.197	89.75
265.429	88.75
265.661	78.75
265.894	82.75
266.126	86.75
266.358	90.75
266.591	80.75
266.823	88.75
267.055	100.75
267.287	95.75
267.52	75.75
267.752	90.75
267.984	95.75
268.216	86.75
268.448	90.75
268.681	90.75
268.913	86.75
269.145	91.75
269.377	78.75
269.609	91.75
269.841	90.75
270.073	91.75
270.306	89.75
270.538	82.75
270.77	94.75
271.002	84.75
271.234	99.75
271.466	102.75
271.698	94.75
271.93	96.75
272.162	88.75
272.394	98.75
272.626	98.75
272.858	86.75
273.09	87.75
273.322	79.75
273.553	80.75
273.785	90.75
274.017	86.75
274.249	79.75
274.481	89.75
274.713	84.75
274.945	78.75
275.176	99.75
275.408	106.75
275.64	114.75
275.872	126.75
276.104	108.75
276.335	109.75
276.567	137.75
276.799	164.75
277.031	193.75
277.262	238.75
277.494	174.75
277.726	104.75
277.957	94.75
278.189	96.75
278.421	91.75
278.652	96.75
278.884	95.75
279.115	93.75
279.347	90.75
279.579	116.75
279.81	150.75
280.042	228.75
280.273	329.75
280.505	215.75
280.736	117.75
280.968	105.75
281.199	98.75
281.431	103.75
281.662	94.75
281.894	93.75
282.125	105.75
282.356	141.75
282.588	186.75
282.819	158.75
283.051	100.75
283.282	99.75
283.513	100.75
283.745	97.75
283.976	105.75
284.207	85.75
284.439	83.75
284.67	91.75
284.901	88.75
285.132	89.75
285.364	97.75
285.595	82.75
285.826	93.75
286.057	92.75
286.288	91.75
286.52	83.75
286.751	93.75
286.982	85.75
287.213	83.75
287.444	100.75
287.675	99.75
287.906	97.75
288.138	92.75
288.369	110.75
288.6	104.75
288.831	104.75
289.062	100.75
289.293	106.75
289.524	101.75
289.755	82.75
289.986	80.75
290.217	85.75
290.448	70.75
290.679	97.75
290.91	103.75
291.141	99.75
291.371	86.75
291.602	89.75
291.833	91.75
292.064	96.75
292.295	76.75
292.526	96.75
292.757	100.75
292.987	95.75
293.218	90.75
293.449	93.75
293.68	103.75
293.91	92.75
294.141	96.75
294.372	93.75
294.603	100.75
294.833	92.75
295.064	92.75
295.295	98.75
295.525	110.75
295.756	95.75
295.987	121.75
296.217	158.75
296.448	143.75
296.679	115.75
296.909	95.75
297.14	93.75
297.37	99.75
297.601	88.75
297.831	97.75
298.062	97.75
298.292	82.75
298.523	97.75
298.753	91.75
298.984	90.75
299.214	90.75
299.445	80.75
299.675	90.75
299.905	93.75
300.136	76.75
300.366	93.75
300.597	88.75
300.827	96.75
301.057	110.75
301.288	119.75
301.518	107.75
301.748	97.75
301.979	115.75
302.209	108.75
302.439	98.75
302.669	96.75
302.9	94.75
303.13	107.75
303.36	93.75
303.59	143.75
303.82	164.75
304.051	120.75
304.281	93.75
304.511	99.75
304.741	82.75
304.971	102.75
305.201	97.75
305.431	98.75
305.661	99.75
305.891	104.75
306.121	111.75
306.352	113.75
306.582	137.75
306.812	131.75
307.042	132.75
307.272	182.75
307.502	214.75
307.731	202.75
307.961	140.75
308.191	103.75
308.421	95.75
308.651	89.75
308.881	92.75
309.111	98.75
309.341	113.75
309.571	97.75
309.8	91.75
310.03	98.75
310.26	112.75
310.49	88.75
310.72	119.75
310.949	118.75
311.179	119.75
311.409	111.75
311.639	106.75
311.868	110.75
312.098	100.75
312.328	110.75
312.557	123.75
312.787	131.75
313.017	109.75
313.246	109.75
313.476	100.75
313.706	94.75
313.935	97.75
314.165	114.75
314.394	114.75
314.624	109.75
314.853	117.75
315.083	106.75
315.312	100.75
315.542	109.75
315.771	97.75
316.001	91.75
316.23	104.75
316.46	93.75
316.689	104.75
316.919	107.75
317.148	114.75
317.377	111.75
317.607	112.75
317.836	91.75
318.065	79.75
318.295	99.75
318.524	91.75
318.753	104.75
318.983	97.75
319.212	105.75
319.441	128.75
319.67	110.75
319.9	99.75
320.129	103.75
320.358	88.75
320.587	102.75
320.816	131.75
321.046	134.75
321.275	108.75
321.504	110.75
321.733	103.75
321.962	116.75
322.191	127.75
322.42	131.75
322.649	120.75
322.878	137.75
323.108	134.75
323.337	153.75
323.566	180.75
323.795	193.75
324.024	255.75
324.253	535.75
324.482	1149.75
324.71	2480.75
324.939	3338.75
325.168	1179.75
325.397	302.75
325.626	185.75
325.855	147.75
326.084	141.75
326.313	156.75
326.542	186.75
326.77	302.75
326.999	608.75
327.228	1281.75
327.457	2362.75
327.686	1913.75
327.914	639.75
328.143	677.75
328.372	866.75
328.6	460.75
328.829	213.75
329.058	235.75
329.287	216.75
329.515	200.75
329.744	297.75
329.972	608.75
330.201	1279.75
330.43	1928.75
330.658	796.75
330.887	328.75
331.115	225.75
331.344	146.75
331.572	137.75
331.801	146.75
332.03	135.75
332.258	131.75
332.486	114.75
332.715	121.75
332.943	130.75
333.172	140.75
333.4	129.75
333.629	189.75
333.857	277.75
334.085	548.75
334.314	1210.75
334.542	2417.75
334.771	2248.75
334.999	544.75
335.227	216.75
335.455	143.75
335.684	135.75
335.912	107.75
336.14	114.75
336.369	119.75
336.597	134.75
336.825	105.75
337.053	98.75
337.281	87.75
337.51	98.75
337.738	102.75
337.966	115.75
338.194	132.75
338.422	119.75
338.65	93.75
338.878	96.75
339.106	100.75
339.334	97.75
339.562	102.75
339.79	105.75
340.018	87.75
340.246	105.75
340.474	114.75
340.702	116.75
340.93	97.75
341.158	111.75
341.386	93.75
341.614	103.75
341.842	102.75
342.07	115.75
342.298	101.75
342.526	98.75
342.754	98.75
342.981	96.75
343.209	97.75
343.437	100.75
343.665	94.75
343.893	99.75
344.12	96.75
344.348	100.75
344.576	93.75
344.804	104.75
345.031	110.75
345.259	106.75
345.487	109.75
345.714	108.75
345.942	94.75
346.17	86.75
346.397	98.75
346.625	110.75
346.853	94.75
347.08	107.75
347.308	114.75
347.535	106.75
347.763	101.75
347.99	109.75
348.218	97.75
348.445	130.75
348.673	99.75
348.9	107.75
349.128	99.75
349.355	87.75
349.583	85.75
349.81	103.75
350.037	87.75
350.265	90.75
350.492	90.75
350.72	108.75
350.947	126.75
351.174	119.75
351.402	121.75
351.629	110.75
351.856	91.75
352.083	114.75
352.311	114.75
352.538	132.75
352.765	134.75
352.992	126.75
353.22	123.75
353.447	116.75
353.674	110.75
353.901	90.75
354.128	103.75
354.355	103.75
354.583	91.75
354.81	106.75
355.037	110.75
355.264	92.75
355.491	96.75
355.718	100.75
355.945	86.75
356.172	87.75
356.399	89.75
356.626	90.75
356.853	100.75
357.08	86.75
357.307	95.75
357.534	99.75
357.761	108.75
357.988	94.75
358.215	103.75
358.441	94.75
358.668	99.75
358.895	96.75
359.122	104.75
359.349	90.75
359.576	109.75
359.802	115.75
360.029	161.75
360.256	154.75
360.483	121.75
360.709	100.75
360.936	105.75
361.163	118.75
361.39	118.75
361.616	113.75
361.843	96.75
362.07	110.75
362.296	104.75
362.523	99.75
362.749	88.75
362.976	115.75
363.203	90.75
363.429	98.75
363.656	88.75
363.882	84.75
364.109	79.75
364.335	110.75
364.562	97.75
364.788	101.75
365.015	103.75
365.241	114.75
365.468	120.75
365.694	115.75
365.92	121.75
366.147	100.75
366.373	106.75
366.599	111.75
366.826	101.75
367.052	94.75
367.278	94.75
367.505	106.75
367.731	103.75
367.957	100.75
368.184	111.75
368.41	106.75
368.636	141.75
368.862	133.75
369.089	128.75
369.315	114.75
369.541	86.75
369.767	91.75
369.993	103.75
370.219	100.75
370.445	88.75
370.672	89.75
370.898	103.75
371.124	86.75
371.35	97.75
371.576	102.75
371.802	91.75
372.028	84.75
372.254	97.75
372.48	94.75
372.706	81.75
372.932	99.75
373.158	106.75
373.384	82.75
373.61	94.75
373.835	76.75
374.061	99.75
374.287	105.75
374.513	111.75
374.739	90.75
374.965	95.75
375.191	96.75
375.416	88.75
375.642	93.75
375.868	79.75
376.094	90.75
376.319	101.75
376.545	86.75
376.771	87.75
376.997	99.75
377.222	101.75
377.448	111.75
377.674	91.75
377.899	97.75
378.125	88.75
378.35	88.75
378.576	93.75
378.802	92.75
379.027	103.75
379.253	101.75
379.478	98.75
379.704	98.75
379.929	108.75
380.155	109.75
380.38	95.75
380.606	108.75
380.831	93.75
381.057	90.75
381.282	102.75
381.507	106.75
381.733	116.75
381.958	85.75
382.184	94.75
382.409	99.75
382.634	106.75
382.86	99.75
383.085	99.75
383.31	95.75
383.535	100.75
383.761	90.75
383.986	97.75
384.211	104.75
384.436	99.75
384.662	90.75
384.887	100.75
385.112	97.75
385.337	96.75
385.562	109.75
385.787	90.75
386.013	110.75
386.238	114.75
386.463	112.75
386.688	120.75
386.913	96.75
387.138	107.75
387.363	106.75
387.588	113.75
387.813	103.75
388.038	114.75
388.263	123.75
388.488	112.75
388.713	94.75
388.938	89.75
389.163	103.75
389.387	101.75
389.612	96.75
389.837	103.75
390.062	91.75
390.287	93.75
390.512	104.75
390.736	104.75
390.961	80.75
391.186	79.75
391.411	86.75
391.636	100.75
391.86	92.75
392.085	99.75
392.31	86.75
392.534	87.75
392.759	95.75
392.984	82.75
393.208	77.75
393.433	97.75
393.658	84.75
393.882	88.75
394.107	80.75
394.331	88.75
394.556	72.75
394.78	87.75
395.005	96.75
395.229	80.75
395.454	90.75
395.678	92.75
395.903	92.75
396.127	91.75
396.352	98.75
396.576	94.75
396.801	93.75
397.025	87.75
397.249	105.75
397.474	88.75
397.698	95.75
397.922	76.75
398.147	89.75
398.371	94.75
398.595	72.75
398.82	87.75
399.044	95.75
399.268	80.75
399.492	68.75
399.717	76.75
399.941	94.75
400.165	97.75
400.389	112.75
400.613	101.75
400.837	93.75
401.062	95.75
401.286	98.75
401.51	104.75
401.734	102.75
401.958	112.75
402.182	160.75
402.406	202.75
402.63	148.75
402.854	111.75
403.078	104.75
403.302	92.75
403.526	82.75
403.75	95.75
403.974	94.75
404.198	95.75
404.422	92.75
404.645	103.75
404.869	109.75
405.093	119.75
405.317	151.75
405.541	146.75
405.765	108.75
405.988	139.75
406.212	229.75
406.436	314.75
406.66	209.75
406.883	120.75
407.107	102.75
407.331	106.75
407.555	105.75
407.778	102.75
408.002	85.75
408.226	97.75
408.449	102.75
408.673	94.75
408.896	120.75
409.12	115.75
409.344	90.75
409.567	81.75
409.791	93.75
410.014	99.75
410.238	79.75
410.461	96.75
410.685	103.75
410.908	108.75
411.132	102.75
411.355	107.75
411.578	102.75
411.802	102.75
412.025	108.75
412.249	105.75
412.472	114.75
412.695	145.75
412.919	129.75
413.142	95.75
413.365	103.75
413.589	81.75
413.812	92.75
414.035	101.75
414.258	98.75
414.482	92.75
414.705	91.75
414.928	83.75
415.151	94.75
415.374	85.75
415.597	74.75
415.821	100.75
416.044	100.75
416.267	111.75
416.49	111.75
416.713	91.75
416.936	94.75
417.159	91.75
417.382	114.75
417.605	132.75
417.828	116.75
418.051	120.75
418.274	96.75
418.497	82.75
418.72	88.75
418.943	80.75
419.166	83.75
419.389	95.75
419.611	99.75
419.834	91.75
420.057	90.75
420.28	102.75
420.503	97.75
420.726	88.75
420.948	104.75
421.171	96.75
421.394	97.75
421.617	98.75
421.839	81.75
422.062	99.75
422.285	103.75
422.507	95.75
422.73	116.75
422.953	97.75
423.175	92.75
423.398	90.75
423.621	94.75
423.843	88.75
424.066	92.75
424.288	76.75
424.511	95.75
424.733	124.75
424.956	126.75
425.178	109.75
425.401	126.75
425.623	114.75
425.846	116.75
426.068	102.75
426.291	101.75
426.513	106.75
426.735	91.75
426.958	115.75
427.18	132.75
427.402	194.75
427.625	275.75
427.847	275.75
428.069	256.75
428.292	140.75
428.514	99.75
428.736	82.75
428.958	81.75
429.181	83.75
429.403	79.75
429.625	91.75
429.847	87.75
430.069	109.75
430.292	107.75
430.514	88.75
430.736	90.75
430.958	96.75
431.18	82.75
431.402	77.75
431.624	100.75
431.846	91.75
432.068	88.75
432.29	93.75
432.512	92.75
432.734	87.75
432.956	90.75
433.178	99.75
433.4	102.75
433.622	94.75
433.844	93.75
434.066	116.75
434.287	79.75
434.509	94.75
434.731	98.75
434.953	94.75
435.175	77.75
435.397	87.75
435.618	93.75
435.84	122.75
436.062	143.75
436.284	150.75
436.505	118.75
436.727	127.75
436.949	106.75
437.17	102.75
437.392	91.75
437.614	93.75
437.835	125.75
438.057	157.75
438.278	132.75
438.5	119.75
438.721	133.75
438.943	107.75
439.165	82.75
439.386	93.75
439.608	94.75
439.829	98.75
440.05	154.75
440.272	206.75
440.493	102.75
440.715	98.75
440.936	87.75
441.158	96.75
441.379	87.75
441.6	104.75
441.822	103.75
442.043	102.75
442.264	130.75
442.486	111.75
442.707	105.75
442.928	137.75
443.149	202.75
443.371	191.75
443.592	114.75
443.813	132.75
444.034	115.75
444.255	101.75
444.476	96.75
444.698	94.75
444.919	95.75
445.14	143.75
445.361	138.75
445.582	151.75
445.803	208.75
446.024	188.75
446.245	176.75
446.466	131.75
446.687	96.75
446.908	88.75
447.129	98.75
447.35	88.75
447.571	98.75
447.792	103.75
448.013	114.75
448.234	120.75
448.455	109.75
448.675	148.75
448.896	138.75
449.117	133.75
449.338	115.75
449.559	153.75
449.779	148.75
450	98.75
450.221	87.75
450.442	99.75
450.662	113.75
450.883	124.75
451.104	150.75
451.324	103.75
451.545	112.75
451.766	89.75
451.986	90.75
452.207	89.75
452.428	97.75
452.648	107.75
452.869	119.75
453.089	144.75
453.31	144.75
453.53	111.75
453.751	96.75
453.971	114.75
454.192	140.75
454.412	118.75
454.633	89.75
454.853	96.75
455.073	82.75
455.294	79.75
455.514	126.75
455.734	98.75
455.955	96.75
456.175	90.75
456.395	98.75
456.616	94.75
456.836	76.75
457.056	86.75
457.276	74.75
457.497	72.75
457.717	85.75
457.937	94.75
458.157	101.75
458.377	108.75
458.598	140.75
458.818	215.75
459.038	247.75
459.258	168.75
459.478	96.75
459.698	85.75
459.918	91.75
460.138	104.75
460.358	84.75
460.578	97.75
460.798	91.75
461.018	96.75
461.238	83.75
461.458	96.75
461.678	86.75
461.898	106.75
462.118	95.75
462.338	70.75
462.558	88.75
462.777	96.75
462.997	100.75
463.217	106.75
463.437	102.75
463.657	100.75
463.876	84.75
464.096	100.75
464.316	104.75
464.536	102.75
464.755	107.75
464.975	129.75
465.195	260.75
465.414	226.75
465.634	108.75
465.854	105.75
466.073	99.75
466.293	92.75
466.512	98.75
466.732	100.75
466.951	103.75
467.171	108.75
467.391	117.75
467.61	164.75
467.829	274.75
468.049	746.75
468.268	1124.75
468.488	270.75
468.707	118.75
468.927	109.75
469.146	92.75
469.365	103.75
469.585	92.75
469.804	119.75
470.023	115.75
470.243	127.75
470.462	125.75
470.681	163.75
470.901	105.75
471.12	101.75
471.339	104.75
471.558	141.75
471.777	184.75
471.997	386.75
472.216	1489.75
472.435	3443.75
472.654	754.75
472.873	179.75
473.092	114.75
473.311	100.75
473.53	97.75
473.749	114.75
473.968	114.75
474.187	132.75
474.406	115.75
474.625	87.75
474.844	107.75
475.063	87.75
475.282	98.75
475.501	88.75
475.72	90.75
475.939	90.75
476.158	105.75
476.377	79.75
476.596	86.75
476.814	111.75
477.033	96.75
477.252	89.75
477.471	101.75
477.69	88.75
477.908	90.75
478.127	92.75
478.346	100.75
478.564	84.75
478.783	95.75
479.002	129.75
479.22	99.75
479.439	139.75
479.658	152.75
479.876	137.75
480.095	146.75
480.313	138.75
480.532	195.75
480.751	360.75
480.969	1334.75
481.188	5983.75
481.406	3290.75
481.624	442.75
481.843	163.75
482.061	118.75
482.28	112.75
482.498	108.75
482.717	92.75
482.935	106.75
483.153	86.75
483.372	96.75
483.59	91.75
483.808	105.75
484.027	104.75
484.245	112.75
484.463	98.75
484.681	107.75
484.9	101.75
485.118	120.75
485.336	114.75
485.554	103.75
485.772	91.75
485.99	113.75
486.209	102.75
486.427	112.75
486.645	136.75
486.863	145.75
487.081	101.75
487.299	111.75
487.517	98.75
487.735	106.75
487.953	88.75
488.171	91.75
488.389	89.75
488.607	107.75
488.825	89.75
489.043	94.75
489.261	105.75
489.479	91.75
489.696	92.75
489.914	92.75
490.132	93.75
490.35	88.75
490.568	77.75
490.786	98.75
491.003	95.75
491.221	105.75
491.439	100.75
491.657	81.75
491.874	102.75
492.092	93.75
492.31	78.75
492.527	109.75
492.745	95.75
492.963	86.75
493.18	88.75
493.398	104.75
493.615	83.75
493.833	96.75
494.05	80.75
494.268	84.75
494.485	108.75
494.703	100.75
494.92	83.75
495.138	103.75
495.355	101.75
495.573	91.75
495.79	101.75
496.008	107.75
496.225	92.75
496.442	99.75
496.66	97.75
496.877	98.75
497.094	96.75
497.312	105.75
497.529	95.75
497.746	106.75
497.963	101.75
498.181	106.75
498.398	96.75
498.615	134.75
498.832	110.75
499.049	96.75
499.267	90.75
499.484	94.75
499.701	103.75
499.918	95.75
500.135	110.75
500.352	93.75
500.569	97.75
500.786	102.75
501.003	102.75
501.22	75.75
501.437	99.75
501.654	91.75
501.871	116.75
502.088	90.75
502.305	93.75
502.522	92.75
502.739	86.75
502.956	83.75
503.172	88.75
503.389	115.75
503.606	134.75
503.823	115.75
504.04	105.75
504.256	91.75
504.473	91.75
504.69	96.75
504.907	83.75
505.123	99.75
505.34	100.75
505.557	98.75
505.773	92.75
505.99	83.75
506.207	84.75
506.423	90.75
506.64	95.75
506.856	83.75
507.073	93.75
507.289	90.75
507.506	92.75
507.722	143.75
507.939	134.75
508.155	104.75
508.372	93.75
508.588	95.75
508.805	93.75
509.021	88.75
509.238	95.75
509.454	106.75
509.67	102.75
509.887	113.75
510.103	139.75
510.319	247.75
510.536	952.75
510.752	3440.75
510.968	924.75
511.184	200.75
511.401	123.75
511.617	113.75
