Data from Circ_1998_H10_HRD10591_00060.txt Node
Date: Wed Jan 03 11:27:00 EST 2024
User: Yrep
Spectrometer: HR+D1059
Trigger mode: 1
Integration Time (sec): 1.000000E-1
Scans to average: 1
Electric dark correction enabled: true
Nonlinearity correction enabled: false
Boxcar width: 0
XAxis mode: Wavelengths
Number of Pixels in Spectrum: 2048
>>>>>Begin Spectral Data<<<<<
223.165	-12.19
223.4	-12.19
223.635	-12.19
223.869	-8.19
224.104	-29.19
224.338	-16.19
224.573	-14.19
224.808	-9.19
225.042	-3.19
225.277	-14.19
225.511	17.81
225.746	-0.19
225.98	-1.19
226.215	11.81
226.449	4.81
226.683	17.81
226.918	25.81
227.152	29.81
227.387	37.81
227.621	47.81
227.856	42.81
228.09	50.81
228.324	44.81
228.559	64.81
228.793	58.81
229.027	77.81
229.262	77.81
229.496	89.81
229.73	113.81
229.964	111.81
230.199	72.81
230.433	67.81
230.667	83.81
230.901	91.81
231.136	89.81
231.37	77.81
231.604	77.81
231.838	92.81
232.072	84.81
232.306	91.81
232.541	80.81
232.775	78.81
233.009	91.81
233.243	79.81
233.477	85.81
233.711	95.81
233.945	92.81
234.179	91.81
234.413	91.81
234.647	85.81
234.881	77.81
235.115	84.81
235.349	67.81
235.583	83.81
235.817	90.81
236.051	85.81
236.285	78.81
236.519	77.81
236.753	73.81
236.987	95.81
237.221	91.81
237.455	108.81
237.689	90.81
237.922	84.81
238.156	70.81
238.39	65.81
238.624	73.81
238.858	79.81
239.091	71.81
239.325	78.81
239.559	73.81
239.793	95.81
240.027	92.81
240.26	88.81
240.494	73.81
240.728	79.81
240.961	76.81
241.195	67.81
241.429	84.81
241.662	87.81
241.896	74.81
242.13	83.81
242.363	84.81
242.597	76.81
242.83	70.81
243.064	63.81
243.298	84.81
243.531	79.81
243.765	89.81
243.998	90.81
244.232	83.81
244.465	79.81
244.699	83.81
244.932	83.81
245.166	72.81
245.399	85.81
245.633	73.81
245.866	80.81
246.099	77.81
246.333	85.81
246.566	112.81
246.8	89.81
247.033	85.81
247.266	85.81
247.5	89.81
247.733	86.81
247.966	92.81
248.2	95.81
248.433	87.81
248.666	85.81
248.899	87.81
249.133	99.81
249.366	120.81
249.599	121.81
249.832	92.81
250.066	77.81
250.299	77.81
250.532	96.81
250.765	77.81
250.998	79.81
251.231	85.81
251.465	82.81
251.698	79.81
251.931	87.81
252.164	94.81
252.397	83.81
252.63	83.81
252.863	80.81
253.096	83.81
253.329	80.81
253.562	88.81
253.795	78.81
254.028	79.81
254.261	81.81
254.494	74.81
254.727	103.81
254.96	83.81
255.193	82.81
255.426	79.81
255.659	105.81
255.892	98.81
256.124	107.81
256.357	87.81
256.59	95.81
256.823	84.81
257.056	96.81
257.289	89.81
257.521	92.81
257.754	84.81
257.987	83.81
258.22	92.81
258.452	108.81
258.685	92.81
258.918	82.81
259.151	90.81
259.383	92.81
259.616	94.81
259.849	81.81
260.081	103.81
260.314	101.81
260.547	105.81
260.779	96.81
261.012	124.81
261.244	118.81
261.477	94.81
261.71	117.81
261.942	152.81
262.175	155.81
262.407	99.81
262.64	90.81
262.872	79.81
263.105	89.81
263.337	93.81
263.57	91.81
263.802	89.81
264.035	77.81
264.267	74.81
264.499	89.81
264.732	93.81
264.964	83.81
265.197	81.81
265.429	77.81
265.661	75.81
265.894	78.81
266.126	86.81
266.358	83.81
266.591	79.81
266.823	90.81
267.055	83.81
267.287	90.81
267.52	101.81
267.752	82.81
267.984	99.81
268.216	91.81
268.448	74.81
268.681	91.81
268.913	82.81
269.145	79.81
269.377	89.81
269.609	92.81
269.841	80.81
270.073	98.81
270.306	96.81
270.538	79.81
270.77	99.81
271.002	94.81
271.234	77.81
271.466	95.81
271.698	87.81
271.93	100.81
272.162	98.81
272.394	87.81
272.626	79.81
272.858	86.81
273.09	84.81
273.322	88.81
273.553	83.81
273.785	98.81
274.017	103.81
274.249	85.81
274.481	105.81
274.713	85.81
274.945	85.81
275.176	85.81
275.408	101.81
275.64	113.81
275.872	146.81
276.104	107.81
276.335	112.81
276.567	136.81
276.799	172.81
277.031	211.81
277.262	247.81
277.494	178.81
277.726	112.81
277.957	97.81
278.189	98.81
278.421	91.81
278.652	75.81
278.884	84.81
279.115	95.81
279.347	90.81
279.579	112.81
279.81	153.81
280.042	256.81
280.273	333.81
280.505	226.81
280.736	116.81
280.968	98.81
281.199	89.81
281.431	94.81
281.662	98.81
281.894	95.81
282.125	113.81
282.356	137.81
282.588	193.81
282.819	145.81
283.051	92.81
283.282	91.81
283.513	94.81
283.745	96.81
283.976	86.81
284.207	89.81
284.439	95.81
284.67	84.81
284.901	85.81
285.132	88.81
285.364	82.81
285.595	108.81
285.826	96.81
286.057	97.81
286.288	81.81
286.52	99.81
286.751	99.81
286.982	86.81
287.213	89.81
287.444	95.81
287.675	95.81
287.906	96.81
288.138	109.81
288.369	88.81
288.6	105.81
288.831	83.81
289.062	92.81
289.293	93.81
289.524	83.81
289.755	91.81
289.986	109.81
290.217	95.81
290.448	83.81
290.679	83.81
290.91	98.81
291.141	94.81
291.371	101.81
291.602	82.81
291.833	73.81
292.064	89.81
292.295	97.81
292.526	96.81
292.757	92.81
292.987	98.81
293.218	89.81
293.449	90.81
293.68	101.81
293.91	96.81
294.141	82.81
294.372	87.81
294.603	98.81
294.833	96.81
295.064	94.81
295.295	91.81
295.525	100.81
295.756	115.81
295.987	137.81
296.217	180.81
296.448	161.81
296.679	91.81
296.909	107.81
297.14	107.81
297.37	86.81
297.601	71.81
297.831	93.81
298.062	98.81
298.292	98.81
298.523	107.81
298.753	100.81
298.984	85.81
299.214	102.81
299.445	100.81
299.675	103.81
299.905	94.81
300.136	101.81
300.366	103.81
300.597	109.81
300.827	108.81
301.057	103.81
301.288	120.81
301.518	108.81
301.748	89.81
301.979	127.81
302.209	114.81
302.439	89.81
302.669	95.81
302.9	92.81
303.13	97.81
303.36	107.81
303.59	153.81
303.82	171.81
304.051	131.81
304.281	81.81
304.511	79.81
304.741	99.81
304.971	99.81
305.201	94.81
305.431	80.81
305.661	88.81
305.891	86.81
306.121	113.81
306.352	110.81
306.582	129.81
306.812	130.81
307.042	141.81
307.272	176.81
307.502	223.81
307.731	227.81
307.961	141.81
308.191	109.81
308.421	101.81
308.651	107.81
308.881	95.81
309.111	94.81
309.341	90.81
309.571	111.81
309.8	100.81
310.03	119.81
310.26	98.81
310.49	99.81
310.72	119.81
310.949	121.81
311.179	128.81
311.409	111.81
311.639	108.81
311.868	112.81
312.098	92.81
312.328	102.81
312.557	119.81
312.787	124.81
313.017	120.81
313.246	100.81
313.476	100.81
313.706	98.81
313.935	98.81
314.165	110.81
314.394	119.81
314.624	107.81
314.853	113.81
315.083	101.81
315.312	89.81
315.542	101.81
315.771	100.81
316.001	101.81
316.23	90.81
316.46	98.81
316.689	111.81
316.919	99.81
317.148	115.81
317.377	112.81
317.607	106.81
317.836	100.81
318.065	87.81
318.295	105.81
318.524	98.81
318.753	91.81
318.983	99.81
319.212	99.81
319.441	109.81
319.67	109.81
319.9	99.81
320.129	95.81
320.358	96.81
320.587	96.81
320.816	96.81
321.046	119.81
321.275	100.81
321.504	101.81
321.733	104.81
321.962	112.81
322.191	109.81
322.42	120.81
322.649	129.81
322.878	137.81
323.108	129.81
323.337	139.81
323.566	169.81
323.795	191.81
324.024	260.81
324.253	559.81
324.482	1268.81
324.71	2580.81
324.939	3481.81
325.168	1236.81
325.397	333.81
325.626	187.81
325.855	164.81
326.084	151.81
326.313	178.81
326.542	206.81
326.77	322.81
326.999	633.81
327.228	1313.81
327.457	2523.81
327.686	2001.81
327.914	712.81
328.143	741.81
328.372	934.81
328.6	483.81
328.829	239.81
329.058	220.81
329.287	238.81
329.515	229.81
329.744	322.81
329.972	698.81
330.201	1464.81
330.43	2137.81
330.658	908.81
330.887	354.81
331.115	214.81
331.344	155.81
331.572	120.81
331.801	145.81
332.03	124.81
332.258	127.81
332.486	128.81
332.715	124.81
332.943	148.81
333.172	129.81
333.4	163.81
333.629	190.81
333.857	299.81
334.085	602.81
334.314	1392.81
334.542	2765.81
334.771	2434.81
334.999	583.81
335.227	228.81
335.455	153.81
335.684	130.81
335.912	119.81
336.14	112.81
336.369	115.81
336.597	121.81
336.825	116.81
337.053	112.81
337.281	84.81
337.51	113.81
337.738	104.81
337.966	108.81
338.194	110.81
338.422	108.81
338.65	111.81
338.878	107.81
339.106	100.81
339.334	94.81
339.562	81.81
339.79	110.81
340.018	107.81
340.246	97.81
340.474	117.81
340.702	104.81
340.93	86.81
341.158	99.81
341.386	116.81
341.614	113.81
341.842	116.81
342.07	95.81
342.298	89.81
342.526	90.81
342.754	90.81
342.981	95.81
343.209	85.81
343.437	87.81
343.665	91.81
343.893	89.81
344.12	88.81
344.348	90.81
344.576	100.81
344.804	100.81
345.031	111.81
345.259	121.81
345.487	98.81
345.714	112.81
345.942	93.81
346.17	98.81
346.397	94.81
346.625	117.81
346.853	111.81
347.08	104.81
347.308	116.81
347.535	108.81
347.763	107.81
347.99	103.81
348.218	104.81
348.445	129.81
348.673	114.81
348.9	97.81
349.128	113.81
349.355	100.81
349.583	92.81
349.81	97.81
350.037	100.81
350.265	101.81
350.492	110.81
350.72	98.81
350.947	106.81
351.174	123.81
351.402	135.81
351.629	109.81
351.856	112.81
352.083	113.81
352.311	123.81
352.538	122.81
352.765	113.81
352.992	128.81
353.22	123.81
353.447	127.81
353.674	116.81
353.901	90.81
354.128	86.81
354.355	89.81
354.583	106.81
354.81	97.81
355.037	89.81
355.264	77.81
355.491	92.81
355.718	97.81
355.945	99.81
356.172	97.81
356.399	83.81
356.626	104.81
356.853	98.81
357.08	91.81
357.307	91.81
357.534	85.81
357.761	87.81
357.988	100.81
358.215	98.81
358.441	96.81
358.668	92.81
358.895	86.81
359.122	91.81
359.349	110.81
359.576	99.81
359.802	123.81
360.029	156.81
360.256	136.81
360.483	121.81
360.709	91.81
360.936	102.81
361.163	98.81
361.39	96.81
361.616	112.81
361.843	115.81
362.07	93.81
362.296	110.81
362.523	101.81
362.749	95.81
362.976	103.81
363.203	102.81
363.429	107.81
363.656	105.81
363.882	104.81
364.109	104.81
364.335	112.81
364.562	96.81
364.788	96.81
365.015	99.81
365.241	112.81
365.468	121.81
365.694	137.81
365.92	110.81
366.147	88.81
366.373	99.81
366.599	107.81
366.826	98.81
367.052	86.81
367.278	93.81
367.505	100.81
367.731	98.81
367.957	96.81
368.184	107.81
368.41	108.81
368.636	120.81
368.862	140.81
369.089	117.81
369.315	101.81
369.541	108.81
369.767	104.81
369.993	100.81
370.219	106.81
370.445	90.81
370.672	84.81
370.898	89.81
371.124	86.81
371.35	90.81
371.576	96.81
371.802	89.81
372.028	91.81
372.254	92.81
372.48	74.81
372.706	87.81
372.932	94.81
373.158	88.81
373.384	96.81
373.61	90.81
373.835	95.81
374.061	88.81
374.287	98.81
374.513	95.81
374.739	90.81
374.965	101.81
375.191	86.81
375.416	86.81
375.642	101.81
375.868	103.81
376.094	111.81
376.319	106.81
376.545	101.81
376.771	103.81
376.997	108.81
377.222	95.81
377.448	80.81
377.674	87.81
377.899	91.81
378.125	80.81
378.35	85.81
378.576	74.81
378.802	83.81
379.027	86.81
379.253	84.81
379.478	106.81
379.704	115.81
379.929	100.81
380.155	96.81
380.38	90.81
380.606	112.81
380.831	92.81
381.057	89.81
381.282	91.81
381.507	95.81
381.733	98.81
381.958	103.81
382.184	89.81
382.409	113.81
382.634	112.81
382.86	92.81
383.085	98.81
383.31	112.81
383.535	94.81
383.761	98.81
383.986	104.81
384.211	91.81
384.436	124.81
384.662	90.81
384.887	106.81
385.112	106.81
385.337	97.81
385.562	93.81
385.787	109.81
386.013	123.81
386.238	116.81
386.463	104.81
386.688	117.81
386.913	114.81
387.138	92.81
387.363	100.81
387.588	113.81
387.813	109.81
388.038	99.81
388.263	102.81
388.488	107.81
388.713	98.81
388.938	100.81
389.163	105.81
389.387	88.81
389.612	88.81
389.837	71.81
390.062	89.81
390.287	89.81
390.512	97.81
390.736	92.81
390.961	93.81
391.186	107.81
391.411	96.81
391.636	87.81
391.86	79.81
392.085	89.81
392.31	98.81
392.534	93.81
392.759	95.81
392.984	93.81
393.208	83.81
393.433	96.81
393.658	96.81
393.882	92.81
394.107	82.81
394.331	93.81
394.556	82.81
394.78	82.81
395.005	98.81
395.229	84.81
395.454	102.81
395.678	109.81
395.903	100.81
396.127	99.81
396.352	100.81
396.576	95.81
396.801	101.81
397.025	94.81
397.249	88.81
397.474	104.81
397.698	96.81
397.922	93.81
398.147	106.81
398.371	96.81
398.595	87.81
398.82	90.81
399.044	95.81
399.268	89.81
399.492	87.81
399.717	106.81
399.941	105.81
400.165	115.81
400.389	97.81
400.613	87.81
400.837	96.81
401.062	79.81
401.286	87.81
401.51	99.81
401.734	97.81
401.958	116.81
402.182	162.81
402.406	208.81
402.63	155.81
402.854	113.81
403.078	97.81
403.302	97.81
403.526	88.81
403.75	91.81
403.974	90.81
404.198	80.81
404.422	85.81
404.645	93.81
404.869	115.81
405.093	144.81
405.317	167.81
405.541	158.81
405.765	117.81
405.988	157.81
406.212	243.81
406.436	346.81
406.66	206.81
406.883	133.81
407.107	107.81
407.331	114.81
407.555	130.81
407.778	117.81
408.002	110.81
408.226	101.81
408.449	85.81
408.673	88.81
408.896	99.81
409.12	113.81
409.344	103.81
409.567	87.81
409.791	109.81
410.014	95.81
410.238	94.81
410.461	103.81
410.685	95.81
410.908	106.81
411.132	120.81
411.355	111.81
411.578	100.81
411.802	103.81
412.025	95.81
412.249	97.81
412.472	114.81
412.695	155.81
412.919	114.81
413.142	105.81
413.365	101.81
413.589	94.81
413.812	92.81
414.035	110.81
414.258	92.81
414.482	104.81
414.705	99.81
414.928	97.81
415.151	84.81
415.374	116.81
415.597	100.81
415.821	89.81
416.044	105.81
416.267	93.81
416.49	104.81
416.713	95.81
416.936	97.81
417.159	100.81
417.382	105.81
417.605	118.81
417.828	126.81
418.051	120.81
418.274	99.81
418.497	77.81
418.72	89.81
418.943	113.81
419.166	101.81
419.389	102.81
419.611	93.81
419.834	84.81
420.057	92.81
420.28	109.81
420.503	84.81
420.726	104.81
420.948	112.81
421.171	111.81
421.394	117.81
421.617	98.81
421.839	87.81
422.062	95.81
422.285	96.81
422.507	111.81
422.73	115.81
422.953	98.81
423.175	105.81
423.398	106.81
423.621	89.81
423.843	91.81
424.066	93.81
424.288	105.81
424.511	111.81
424.733	111.81
424.956	139.81
425.178	130.81
425.401	127.81
425.623	128.81
425.846	111.81
426.068	105.81
426.291	105.81
426.513	98.81
426.735	96.81
426.958	107.81
427.18	122.81
427.402	211.81
427.625	318.81
427.847	305.81
428.069	284.81
428.292	133.81
428.514	107.81
428.736	93.81
428.958	75.81
429.181	87.81
429.403	79.81
429.625	83.81
429.847	117.81
430.069	124.81
430.292	101.81
430.514	97.81
430.736	82.81
430.958	101.81
431.18	96.81
431.402	108.81
431.624	93.81
431.846	95.81
432.068	84.81
432.29	73.81
432.512	97.81
432.734	105.81
432.956	109.81
433.178	124.81
433.4	100.81
433.622	92.81
433.844	86.81
434.066	101.81
434.287	87.81
434.509	96.81
434.731	91.81
434.953	96.81
435.175	100.81
435.397	98.81
435.618	117.81
435.84	111.81
436.062	158.81
436.284	129.81
436.505	120.81
436.727	122.81
436.949	98.81
437.17	103.81
437.392	98.81
437.614	108.81
437.835	131.81
438.057	168.81
438.278	161.81
438.5	111.81
438.721	137.81
438.943	126.81
439.165	95.81
439.386	84.81
439.608	90.81
439.829	130.81
440.05	171.81
440.272	209.81
440.493	129.81
440.715	88.81
440.936	100.81
441.158	90.81
441.379	85.81
441.6	107.81
441.822	104.81
442.043	121.81
442.264	154.81
442.486	123.81
442.707	106.81
442.928	132.81
443.149	185.81
443.371	182.81
443.592	137.81
443.813	149.81
444.034	132.81
444.255	97.81
444.476	79.81
444.698	91.81
444.919	90.81
445.14	157.81
445.361	147.81
445.582	141.81
445.803	224.81
446.024	210.81
446.245	188.81
446.466	141.81
446.687	91.81
446.908	93.81
447.129	94.81
447.35	98.81
447.571	98.81
447.792	96.81
448.013	110.81
448.234	124.81
448.455	121.81
448.675	134.81
448.896	164.81
449.117	119.81
449.338	118.81
449.559	179.81
449.779	177.81
450	105.81
450.221	108.81
450.442	103.81
450.662	108.81
450.883	132.81
451.104	155.81
451.324	105.81
451.545	95.81
451.766	100.81
451.986	90.81
452.207	93.81
452.428	92.81
452.648	107.81
452.869	124.81
453.089	145.81
453.31	159.81
453.53	118.81
453.751	118.81
453.971	115.81
454.192	155.81
454.412	93.81
454.633	95.81
454.853	94.81
455.073	88.81
455.294	103.81
455.514	114.81
455.734	94.81
455.955	90.81
456.175	107.81
456.395	87.81
456.616	93.81
456.836	97.81
457.056	102.81
457.276	78.81
457.497	85.81
457.717	83.81
457.937	93.81
458.157	105.81
458.377	109.81
458.598	140.81
458.818	231.81
459.038	254.81
459.258	171.81
459.478	109.81
459.698	97.81
459.918	103.81
460.138	99.81
460.358	85.81
460.578	85.81
460.798	95.81
461.018	92.81
461.238	94.81
461.458	102.81
461.678	104.81
461.898	92.81
462.118	77.81
462.338	102.81
462.558	96.81
462.777	83.81
462.997	99.81
463.217	122.81
463.437	99.81
463.657	97.81
463.876	91.81
464.096	95.81
464.316	109.81
464.536	95.81
464.755	103.81
464.975	140.81
465.195	252.81
465.414	236.81
465.634	121.81
465.854	102.81
466.073	93.81
466.293	91.81
466.512	102.81
466.732	103.81
466.951	109.81
467.171	106.81
467.391	120.81
467.61	191.81
467.829	289.81
468.049	839.81
468.268	1231.81
468.488	287.81
468.707	118.81
468.927	111.81
469.146	101.81
469.365	94.81
469.585	102.81
469.804	124.81
470.023	117.81
470.243	111.81
470.462	139.81
470.681	161.81
470.901	108.81
471.12	116.81
471.339	126.81
471.558	146.81
471.777	193.81
471.997	421.81
472.216	1657.81
472.435	3825.81
472.654	828.81
472.873	214.81
473.092	118.81
473.311	116.81
473.53	98.81
473.749	109.81
473.968	125.81
474.187	147.81
474.406	119.81
474.625	97.81
474.844	97.81
475.063	105.81
475.282	100.81
475.501	83.81
475.72	85.81
475.939	96.81
476.158	101.81
476.377	97.81
476.596	96.81
476.814	112.81
477.033	97.81
477.252	110.81
477.471	99.81
477.69	80.81
477.908	105.81
478.127	121.81
478.346	99.81
478.564	98.81
478.783	123.81
479.002	117.81
479.22	124.81
479.439	133.81
479.658	157.81
479.876	141.81
480.095	137.81
480.313	169.81
480.532	191.81
480.751	386.81
480.969	1524.81
481.188	6676.81
481.406	3598.81
481.624	476.81
481.843	154.81
482.061	143.81
482.28	119.81
482.498	99.81
482.717	105.81
482.935	103.81
483.153	96.81
483.372	103.81
483.59	110.81
483.808	105.81
484.027	107.81
484.245	99.81
484.463	103.81
484.681	114.81
484.9	93.81
485.118	92.81
485.336	101.81
485.554	104.81
485.772	114.81
485.99	101.81
486.209	113.81
486.427	128.81
486.645	129.81
486.863	140.81
487.081	126.81
487.299	111.81
487.517	91.81
487.735	100.81
487.953	98.81
488.171	92.81
488.389	98.81
488.607	113.81
488.825	104.81
489.043	86.81
489.261	91.81
489.479	105.81
489.696	88.81
489.914	90.81
490.132	101.81
490.35	95.81
490.568	100.81
490.786	110.81
491.003	91.81
491.221	116.81
491.439	107.81
491.657	89.81
491.874	106.81
492.092	106.81
492.31	103.81
492.527	108.81
492.745	107.81
492.963	110.81
493.18	96.81
493.398	106.81
493.615	96.81
493.833	103.81
494.05	96.81
494.268	79.81
494.485	103.81
494.703	94.81
494.92	81.81
495.138	94.81
495.355	106.81
495.573	107.81
495.79	91.81
496.008	93.81
496.225	94.81
496.442	103.81
496.66	94.81
496.877	103.81
497.094	93.81
497.312	109.81
497.529	98.81
497.746	97.81
497.963	93.81
498.181	111.81
498.398	98.81
498.615	117.81
498.832	121.81
499.049	112.81
499.267	107.81
499.484	105.81
499.701	100.81
499.918	111.81
500.135	86.81
500.352	94.81
500.569	101.81
500.786	108.81
501.003	111.81
501.22	107.81
501.437	98.81
501.654	93.81
501.871	135.81
502.088	113.81
502.305	89.81
502.522	88.81
502.739	91.81
502.956	114.81
503.172	99.81
503.389	111.81
503.606	138.81
503.823	115.81
504.04	106.81
504.256	108.81
504.473	90.81
504.69	97.81
504.907	98.81
505.123	103.81
505.34	97.81
505.557	98.81
505.773	111.81
505.99	103.81
506.207	117.81
506.423	94.81
506.64	92.81
506.856	85.81
507.073	91.81
507.289	100.81
507.506	108.81
507.722	148.81
507.939	136.81
508.155	110.81
508.372	101.81
508.588	87.81
508.805	117.81
509.021	98.81
509.238	109.81
509.454	99.81
509.67	122.81
509.887	132.81
510.103	151.81
510.319	265.81
510.536	1055.81
510.752	3772.81
