Data from Circ_1998_H10_HRD10591_00021.txt Node
Date: Wed Jan 03 11:26:53 EST 2024
User: Yrep
Spectrometer: HR+D1059
Trigger mode: 1
Integration Time (sec): 1.000000E-1
Scans to average: 1
Electric dark correction enabled: true
Nonlinearity correction enabled: false
Boxcar width: 0
XAxis mode: Wavelengths
Number of Pixels in Spectrum: 2048
>>>>>Begin Spectral Data<<<<<
223.165	-29.25
223.4	-29.25
223.635	-29.25
223.869	-21.25
224.104	-15.25
224.338	-19.25
224.573	-9.25
224.808	-9.25
225.042	-7.25
225.277	-6.25
225.511	-4.25
225.746	10.75
225.98	1.75
226.215	6.75
226.449	20.75
226.683	10.75
226.918	32.75
227.152	37.75
227.387	19.75
227.621	51.75
227.856	33.75
228.09	42.75
228.324	46.75
228.559	59.75
228.793	46.75
229.027	66.75
229.262	64.75
229.496	85.75
229.73	115.75
229.964	82.75
230.199	81.75
230.433	72.75
230.667	80.75
230.901	84.75
231.136	84.75
231.37	77.75
231.604	84.75
231.838	96.75
232.072	87.75
232.306	86.75
232.541	76.75
232.775	89.75
233.009	77.75
233.243	74.75
233.477	94.75
233.711	95.75
233.945	88.75
234.179	79.75
234.413	75.75
234.647	92.75
234.881	73.75
235.115	83.75
235.349	72.75
235.583	88.75
235.817	77.75
236.051	80.75
236.285	91.75
236.519	77.75
236.753	73.75
236.987	88.75
237.221	93.75
237.455	92.75
237.689	91.75
237.922	86.75
238.156	71.75
238.39	86.75
238.624	67.75
238.858	86.75
239.091	80.75
239.325	89.75
239.559	88.75
239.793	81.75
240.027	72.75
240.26	81.75
240.494	84.75
240.728	79.75
240.961	83.75
241.195	89.75
241.429	81.75
241.662	95.75
241.896	89.75
242.13	65.75
242.363	86.75
242.597	88.75
242.83	78.75
243.064	85.75
243.298	81.75
243.531	80.75
243.765	78.75
243.998	82.75
244.232	83.75
244.465	94.75
244.699	83.75
244.932	78.75
245.166	76.75
245.399	76.75
245.633	88.75
245.866	82.75
246.099	80.75
246.333	90.75
246.566	82.75
246.8	71.75
247.033	90.75
247.266	83.75
247.5	69.75
247.733	84.75
247.966	90.75
248.2	80.75
248.433	86.75
248.666	73.75
248.899	91.75
249.133	89.75
249.366	107.75
249.599	136.75
249.832	78.75
250.066	90.75
250.299	106.75
250.532	84.75
250.765	87.75
250.998	84.75
251.231	78.75
251.465	82.75
251.698	88.75
251.931	82.75
252.164	91.75
252.397	66.75
252.63	85.75
252.863	88.75
253.096	78.75
253.329	82.75
253.562	71.75
253.795	82.75
254.028	70.75
254.261	88.75
254.494	82.75
254.727	97.75
254.96	74.75
255.193	82.75
255.426	79.75
255.659	87.75
255.892	96.75
256.124	110.75
256.357	90.75
256.59	96.75
256.823	79.75
257.056	89.75
257.289	96.75
257.521	81.75
257.754	87.75
257.987	86.75
258.22	96.75
258.452	96.75
258.685	98.75
258.918	88.75
259.151	91.75
259.383	98.75
259.616	84.75
259.849	90.75
260.081	81.75
260.314	105.75
260.547	94.75
260.779	91.75
261.012	108.75
261.244	113.75
261.477	102.75
261.71	111.75
261.942	164.75
262.175	182.75
262.407	107.75
262.64	86.75
262.872	88.75
263.105	93.75
263.337	84.75
263.57	93.75
263.802	95.75
264.035	90.75
264.267	77.75
264.499	85.75
264.732	85.75
264.964	76.75
265.197	87.75
265.429	90.75
265.661	90.75
265.894	95.75
266.126	101.75
266.358	75.75
266.591	83.75
266.823	78.75
267.055	77.75
267.287	83.75
267.52	78.75
267.752	92.75
267.984	84.75
268.216	84.75
268.448	83.75
268.681	98.75
268.913	97.75
269.145	86.75
269.377	82.75
269.609	85.75
269.841	99.75
270.073	98.75
270.306	82.75
270.538	92.75
270.77	100.75
271.002	96.75
271.234	88.75
271.466	107.75
271.698	106.75
271.93	89.75
272.162	104.75
272.394	96.75
272.626	102.75
272.858	79.75
273.09	86.75
273.322	81.75
273.553	90.75
273.785	81.75
274.017	94.75
274.249	91.75
274.481	89.75
274.713	106.75
274.945	101.75
275.176	95.75
275.408	111.75
275.64	112.75
275.872	143.75
276.104	111.75
276.335	100.75
276.567	135.75
276.799	183.75
277.031	209.75
277.262	264.75
277.494	180.75
277.726	125.75
277.957	102.75
278.189	87.75
278.421	79.75
278.652	103.75
278.884	89.75
279.115	87.75
279.347	106.75
279.579	104.75
279.81	159.75
280.042	251.75
280.273	365.75
280.505	225.75
280.736	118.75
280.968	106.75
281.199	107.75
281.431	100.75
281.662	106.75
281.894	86.75
282.125	119.75
282.356	136.75
282.588	216.75
282.819	140.75
283.051	83.75
283.282	83.75
283.513	105.75
283.745	101.75
283.976	87.75
284.207	96.75
284.439	87.75
284.67	80.75
284.901	92.75
285.132	99.75
285.364	87.75
285.595	83.75
285.826	91.75
286.057	95.75
286.288	100.75
286.52	94.75
286.751	81.75
286.982	82.75
287.213	85.75
287.444	88.75
287.675	86.75
287.906	81.75
288.138	89.75
288.369	127.75
288.6	100.75
288.831	92.75
289.062	87.75
289.293	91.75
289.524	81.75
289.755	85.75
289.986	98.75
290.217	88.75
290.448	80.75
290.679	87.75
290.91	98.75
291.141	90.75
291.371	103.75
291.602	76.75
291.833	91.75
292.064	91.75
292.295	92.75
292.526	102.75
292.757	92.75
292.987	94.75
293.218	94.75
293.449	89.75
293.68	105.75
293.91	89.75
294.141	102.75
294.372	109.75
294.603	88.75
294.833	99.75
295.064	91.75
295.295	92.75
295.525	93.75
295.756	110.75
295.987	152.75
296.217	192.75
296.448	181.75
296.679	127.75
296.909	83.75
297.14	100.75
297.37	78.75
297.601	85.75
297.831	80.75
298.062	94.75
298.292	99.75
298.523	97.75
298.753	89.75
298.984	96.75
299.214	95.75
299.445	92.75
299.675	99.75
299.905	104.75
300.136	101.75
300.366	90.75
300.597	99.75
300.827	82.75
301.057	107.75
301.288	131.75
301.518	107.75
301.748	98.75
301.979	104.75
302.209	98.75
302.439	108.75
302.669	100.75
302.9	111.75
303.13	98.75
303.36	121.75
303.59	152.75
303.82	170.75
304.051	113.75
304.281	91.75
304.511	88.75
304.741	113.75
304.971	79.75
305.201	96.75
305.431	93.75
305.661	81.75
305.891	95.75
306.121	97.75
306.352	133.75
306.582	123.75
306.812	134.75
307.042	141.75
307.272	190.75
307.502	238.75
307.731	203.75
307.961	144.75
308.191	113.75
308.421	84.75
308.651	95.75
308.881	91.75
309.111	120.75
309.341	124.75
309.571	121.75
309.8	102.75
310.03	109.75
310.26	98.75
310.49	121.75
310.72	110.75
310.949	131.75
311.179	130.75
311.409	100.75
311.639	111.75
311.868	100.75
312.098	108.75
312.328	107.75
312.557	127.75
312.787	146.75
313.017	126.75
313.246	115.75
313.476	106.75
313.706	108.75
313.935	115.75
314.165	111.75
314.394	135.75
314.624	114.75
314.853	124.75
315.083	101.75
315.312	108.75
315.542	103.75
315.771	111.75
316.001	92.75
316.23	101.75
316.46	102.75
316.689	100.75
316.919	98.75
317.148	115.75
317.377	108.75
317.607	86.75
317.836	110.75
318.065	86.75
318.295	88.75
318.524	91.75
318.753	93.75
318.983	111.75
319.212	113.75
319.441	143.75
319.67	135.75
319.9	98.75
320.129	106.75
320.358	95.75
320.587	112.75
320.816	102.75
321.046	115.75
321.275	101.75
321.504	106.75
321.733	110.75
321.962	106.75
322.191	114.75
322.42	127.75
322.649	133.75
322.878	137.75
323.108	158.75
323.337	158.75
323.566	196.75
323.795	240.75
324.024	298.75
324.253	604.75
324.482	1339.75
324.71	2854.75
324.939	3972.75
325.168	1417.75
325.397	380.75
325.626	214.75
325.855	168.75
326.084	159.75
326.313	163.75
326.542	220.75
326.77	323.75
326.999	667.75
327.228	1449.75
327.457	2685.75
327.686	2179.75
327.914	759.75
328.143	752.75
328.372	970.75
328.6	524.75
328.829	224.75
329.058	236.75
329.287	243.75
329.515	206.75
329.744	308.75
329.972	665.75
330.201	1384.75
330.43	2158.75
330.658	938.75
330.887	402.75
331.115	246.75
331.344	158.75
331.572	134.75
331.801	142.75
332.03	156.75
332.258	126.75
332.486	108.75
332.715	118.75
332.943	129.75
333.172	134.75
333.4	156.75
333.629	207.75
333.857	320.75
334.085	570.75
334.314	1273.75
334.542	2615.75
334.771	2535.75
334.999	609.75
335.227	235.75
335.455	160.75
335.684	123.75
335.912	114.75
336.14	117.75
336.369	120.75
336.597	131.75
336.825	117.75
337.053	126.75
337.281	83.75
337.51	82.75
337.738	102.75
337.966	97.75
338.194	123.75
338.422	116.75
338.65	101.75
338.878	102.75
339.106	92.75
339.334	106.75
339.562	90.75
339.79	106.75
340.018	109.75
340.246	100.75
340.474	113.75
340.702	111.75
340.93	96.75
341.158	102.75
341.386	123.75
341.614	107.75
341.842	109.75
342.07	101.75
342.298	100.75
342.526	97.75
342.754	111.75
342.981	98.75
343.209	94.75
343.437	87.75
343.665	81.75
343.893	89.75
344.12	81.75
344.348	101.75
344.576	95.75
344.804	94.75
345.031	117.75
345.259	129.75
345.487	97.75
345.714	105.75
345.942	104.75
346.17	97.75
346.397	96.75
346.625	91.75
346.853	99.75
347.08	102.75
347.308	112.75
347.535	85.75
347.763	107.75
347.99	123.75
348.218	130.75
348.445	130.75
348.673	106.75
348.9	99.75
349.128	93.75
349.355	101.75
349.583	88.75
349.81	104.75
350.037	102.75
350.265	97.75
350.492	95.75
350.72	94.75
350.947	118.75
351.174	119.75
351.402	146.75
351.629	126.75
351.856	116.75
352.083	120.75
352.311	134.75
352.538	133.75
352.765	142.75
352.992	126.75
353.22	136.75
353.447	110.75
353.674	125.75
353.901	102.75
354.128	106.75
354.355	106.75
354.583	105.75
354.81	107.75
355.037	109.75
355.264	95.75
355.491	93.75
355.718	96.75
355.945	96.75
356.172	86.75
356.399	88.75
356.626	112.75
356.853	105.75
357.08	95.75
357.307	88.75
357.534	96.75
357.761	103.75
357.988	100.75
358.215	110.75
358.441	103.75
358.668	88.75
358.895	99.75
359.122	82.75
359.349	104.75
359.576	98.75
359.802	128.75
360.029	171.75
360.256	168.75
360.483	128.75
360.709	96.75
360.936	107.75
361.163	106.75
361.39	117.75
361.616	115.75
361.843	99.75
362.07	113.75
362.296	114.75
362.523	119.75
362.749	111.75
362.976	90.75
363.203	89.75
363.429	96.75
363.656	97.75
363.882	97.75
364.109	99.75
364.335	107.75
364.562	102.75
364.788	104.75
365.015	98.75
365.241	115.75
365.468	137.75
365.694	133.75
365.92	135.75
366.147	104.75
366.373	87.75
366.599	93.75
366.826	92.75
367.052	103.75
367.278	105.75
367.505	93.75
367.731	107.75
367.957	110.75
368.184	116.75
368.41	124.75
368.636	145.75
368.862	154.75
369.089	137.75
369.315	111.75
369.541	117.75
369.767	92.75
369.993	115.75
370.219	92.75
370.445	100.75
370.672	81.75
370.898	81.75
371.124	93.75
371.35	95.75
371.576	90.75
371.802	93.75
372.028	83.75
372.254	91.75
372.48	118.75
372.706	109.75
372.932	97.75
373.158	80.75
373.384	98.75
373.61	87.75
373.835	90.75
374.061	87.75
374.287	98.75
374.513	104.75
374.739	90.75
374.965	97.75
375.191	96.75
375.416	93.75
375.642	107.75
375.868	103.75
376.094	96.75
376.319	90.75
376.545	91.75
376.771	97.75
376.997	84.75
377.222	88.75
377.448	97.75
377.674	82.75
377.899	90.75
378.125	108.75
378.35	103.75
378.576	104.75
378.802	111.75
379.027	87.75
379.253	101.75
379.478	96.75
379.704	86.75
379.929	92.75
380.155	98.75
380.38	82.75
380.606	100.75
380.831	104.75
381.057	118.75
381.282	115.75
381.507	109.75
381.733	92.75
381.958	98.75
382.184	94.75
382.409	113.75
382.634	122.75
382.86	106.75
383.085	110.75
383.31	109.75
383.535	94.75
383.761	102.75
383.986	118.75
384.211	102.75
384.436	123.75
384.662	128.75
384.887	113.75
385.112	118.75
385.337	119.75
385.562	132.75
385.787	110.75
386.013	143.75
386.238	152.75
386.463	128.75
386.688	110.75
386.913	114.75
387.138	107.75
387.363	98.75
387.588	106.75
387.813	122.75
388.038	135.75
388.263	132.75
388.488	118.75
388.713	112.75
388.938	78.75
389.163	100.75
389.387	87.75
389.612	88.75
389.837	106.75
390.062	95.75
390.287	80.75
390.512	92.75
390.736	86.75
390.961	81.75
391.186	80.75
391.411	104.75
391.636	83.75
391.86	78.75
392.085	87.75
392.31	76.75
392.534	74.75
392.759	106.75
392.984	94.75
393.208	94.75
393.433	107.75
393.658	87.75
393.882	92.75
394.107	86.75
394.331	87.75
394.556	83.75
394.78	87.75
395.005	97.75
395.229	89.75
395.454	96.75
395.678	93.75
395.903	85.75
396.127	86.75
396.352	105.75
396.576	83.75
396.801	84.75
397.025	86.75
397.249	80.75
397.474	88.75
397.698	95.75
397.922	91.75
398.147	96.75
398.371	87.75
398.595	75.75
398.82	74.75
399.044	95.75
399.268	86.75
399.492	96.75
399.717	98.75
399.941	107.75
400.165	101.75
400.389	108.75
400.613	100.75
400.837	83.75
401.062	94.75
401.286	97.75
401.51	112.75
401.734	116.75
401.958	124.75
402.182	179.75
402.406	256.75
402.63	166.75
402.854	114.75
403.078	99.75
403.302	109.75
403.526	101.75
403.75	96.75
403.974	100.75
404.198	82.75
404.422	91.75
404.645	91.75
404.869	86.75
405.093	128.75
405.317	153.75
405.541	164.75
405.765	127.75
405.988	162.75
406.212	270.75
406.436	431.75
406.66	266.75
406.883	142.75
407.107	130.75
407.331	120.75
407.555	113.75
407.778	127.75
408.002	94.75
408.226	95.75
408.449	92.75
408.673	82.75
408.896	94.75
409.12	108.75
409.344	85.75
409.567	104.75
409.791	109.75
410.014	94.75
410.238	97.75
410.461	104.75
410.685	97.75
410.908	108.75
411.132	106.75
411.355	87.75
411.578	94.75
411.802	99.75
412.025	96.75
412.249	105.75
412.472	138.75
412.695	139.75
412.919	108.75
413.142	102.75
413.365	105.75
413.589	87.75
413.812	86.75
414.035	94.75
414.258	90.75
414.482	89.75
414.705	98.75
414.928	93.75
415.151	99.75
415.374	99.75
415.597	95.75
415.821	100.75
416.044	97.75
416.267	110.75
416.49	109.75
416.713	91.75
416.936	89.75
417.159	90.75
417.382	102.75
417.605	116.75
417.828	123.75
418.051	110.75
418.274	97.75
418.497	99.75
418.72	94.75
418.943	99.75
419.166	82.75
419.389	94.75
419.611	95.75
419.834	91.75
420.057	89.75
420.28	92.75
420.503	97.75
420.726	93.75
420.948	94.75
421.171	102.75
421.394	111.75
421.617	98.75
421.839	90.75
422.062	96.75
422.285	83.75
422.507	105.75
422.73	130.75
422.953	99.75
423.175	75.75
423.398	92.75
423.621	79.75
423.843	82.75
424.066	91.75
424.288	102.75
424.511	98.75
424.733	118.75
424.956	144.75
425.178	105.75
425.401	115.75
425.623	108.75
425.846	109.75
426.068	106.75
426.291	100.75
426.513	106.75
426.735	105.75
426.958	102.75
427.18	129.75
427.402	200.75
427.625	323.75
427.847	308.75
428.069	290.75
428.292	156.75
428.514	84.75
428.736	99.75
428.958	86.75
429.181	100.75
429.403	103.75
429.625	87.75
429.847	97.75
430.069	118.75
430.292	95.75
430.514	86.75
430.736	88.75
430.958	98.75
431.18	78.75
431.402	90.75
431.624	77.75
431.846	99.75
432.068	93.75
432.29	90.75
432.512	93.75
432.734	112.75
432.956	96.75
433.178	118.75
433.4	104.75
433.622	112.75
433.844	106.75
434.066	97.75
434.287	103.75
434.509	89.75
434.731	83.75
434.953	112.75
435.175	97.75
435.397	97.75
435.618	112.75
435.84	113.75
436.062	167.75
436.284	144.75
436.505	115.75
436.727	124.75
436.949	98.75
437.17	96.75
437.392	108.75
437.614	107.75
437.835	144.75
438.057	193.75
438.278	134.75
438.5	113.75
438.721	154.75
438.943	124.75
439.165	107.75
439.386	99.75
439.608	101.75
439.829	121.75
440.05	204.75
440.272	218.75
440.493	138.75
440.715	101.75
440.936	86.75
441.158	79.75
441.379	97.75
441.6	108.75
441.822	118.75
442.043	110.75
442.264	111.75
442.486	108.75
442.707	108.75
442.928	126.75
443.149	206.75
443.371	214.75
443.592	154.75
443.813	154.75
444.034	121.75
444.255	104.75
444.476	91.75
444.698	78.75
444.919	94.75
445.14	142.75
445.361	143.75
445.582	160.75
445.803	232.75
446.024	220.75
446.245	196.75
446.466	165.75
446.687	105.75
446.908	81.75
447.129	98.75
447.35	92.75
447.571	103.75
447.792	106.75
448.013	122.75
448.234	160.75
448.455	121.75
448.675	152.75
448.896	155.75
449.117	123.75
449.338	138.75
449.559	150.75
449.779	167.75
450	103.75
450.221	92.75
450.442	98.75
450.662	113.75
450.883	142.75
451.104	167.75
451.324	115.75
451.545	99.75
451.766	87.75
451.986	79.75
452.207	77.75
452.428	105.75
452.648	120.75
452.869	158.75
453.089	158.75
453.31	170.75
453.53	123.75
453.751	91.75
453.971	137.75
454.192	156.75
454.412	114.75
454.633	94.75
454.853	105.75
455.073	98.75
455.294	84.75
455.514	111.75
455.734	106.75
455.955	84.75
456.175	83.75
456.395	86.75
456.616	101.75
456.836	99.75
457.056	90.75
457.276	81.75
457.497	95.75
457.717	91.75
457.937	108.75
458.157	95.75
458.377	112.75
458.598	147.75
458.818	262.75
459.038	282.75
459.258	175.75
459.478	102.75
459.698	99.75
459.918	97.75
460.138	91.75
460.358	93.75
460.578	80.75
460.798	94.75
461.018	105.75
461.238	90.75
461.458	92.75
461.678	80.75
461.898	102.75
462.118	99.75
462.338	89.75
462.558	97.75
462.777	91.75
462.997	100.75
463.217	115.75
463.437	116.75
463.657	102.75
463.876	99.75
464.096	100.75
464.316	118.75
464.536	106.75
464.755	115.75
464.975	145.75
465.195	312.75
465.414	316.75
465.634	129.75
465.854	114.75
466.073	89.75
466.293	102.75
466.512	105.75
466.732	113.75
466.951	95.75
467.171	107.75
467.391	130.75
467.61	198.75
467.829	285.75
468.049	808.75
468.268	1298.75
468.488	309.75
468.707	122.75
468.927	100.75
469.146	87.75
469.365	99.75
469.585	112.75
469.804	124.75
470.023	131.75
470.243	109.75
470.462	137.75
470.681	158.75
470.901	134.75
471.12	112.75
471.339	125.75
471.558	143.75
471.777	182.75
471.997	383.75
472.216	1595.75
472.435	3805.75
472.654	842.75
472.873	190.75
473.092	124.75
473.311	108.75
473.53	92.75
473.749	107.75
473.968	107.75
474.187	129.75
474.406	99.75
474.625	99.75
474.844	97.75
475.063	93.75
475.282	95.75
475.501	102.75
475.72	95.75
475.939	91.75
476.158	90.75
476.377	79.75
476.596	90.75
476.814	105.75
477.033	95.75
477.252	112.75
477.471	111.75
477.69	108.75
477.908	108.75
478.127	93.75
478.346	91.75
478.564	103.75
478.783	116.75
479.002	98.75
479.22	135.75
479.439	142.75
479.658	155.75
479.876	143.75
480.095	136.75
480.313	158.75
480.532	199.75
480.751	386.75
480.969	1443.75
481.188	6400.75
481.406	3760.75
481.624	499.75
481.843	162.75
482.061	122.75
482.28	111.75
482.498	112.75
482.717	109.75
482.935	100.75
483.153	111.75
483.372	89.75
483.59	79.75
483.808	98.75
484.027	95.75
484.245	109.75
484.463	104.75
484.681	102.75
484.9	98.75
485.118	107.75
485.336	106.75
485.554	97.75
485.772	111.75
485.99	118.75
486.209	118.75
486.427	142.75
486.645	140.75
486.863	158.75
487.081	129.75
487.299	108.75
487.517	114.75
487.735	84.75
487.953	97.75
488.171	93.75
488.389	101.75
488.607	107.75
488.825	92.75
489.043	88.75
489.261	94.75
489.479	95.75
489.696	92.75
489.914	98.75
490.132	87.75
490.35	87.75
490.568	89.75
490.786	112.75
491.003	81.75
491.221	88.75
491.439	88.75
491.657	104.75
491.874	85.75
492.092	95.75
492.31	99.75
492.527	108.75
492.745	95.75
492.963	100.75
493.18	113.75
493.398	95.75
493.615	105.75
493.833	99.75
494.05	89.75
494.268	100.75
494.485	108.75
494.703	87.75
494.92	100.75
495.138	92.75
495.355	80.75
495.573	92.75
495.79	95.75
496.008	99.75
496.225	91.75
496.442	100.75
496.66	107.75
496.877	97.75
497.094	93.75
497.312	81.75
497.529	89.75
497.746	91.75
497.963	95.75
498.181	102.75
498.398	107.75
498.615	140.75
498.832	117.75
499.049	90.75
499.267	95.75
499.484	102.75
499.701	106.75
499.918	100.75
500.135	104.75
500.352	96.75
500.569	107.75
500.786	100.75
501.003	87.75
501.22	105.75
501.437	105.75
501.654	111.75
501.871	155.75
502.088	105.75
502.305	101.75
502.522	91.75
502.739	94.75
502.956	100.75
503.172	97.75
503.389	111.75
503.606	150.75
503.823	120.75
504.04	102.75
504.256	86.75
504.473	101.75
504.69	79.75
504.907	102.75
505.123	97.75
505.34	109.75
505.557	120.75
505.773	98.75
505.99	85.75
506.207	83.75
506.423	90.75
506.64	97.75
506.856	92.75
507.073	103.75
507.289	108.75
507.506	106.75
507.722	171.75
507.939	161.75
508.155	129.75
508.372	100.75
508.588	96.75
508.805	104.75
509.021	108.75
509.238	118.75
509.454	107.75
509.67	124.75
509.887	125.75
510.103	165.75
510.319	296.75
510.536	1224.75
510.752	4627.75
