Data from Circ_1998_H10_HRD10591_00062.txt Node
Date: Wed Jan 03 11:27:01 EST 2024
User: Yrep
Spectrometer: HR+D1059
Trigger mode: 1
Integration Time (sec): 1.000000E-1
Scans to average: 1
Electric dark correction enabled: true
Nonlinearity correction enabled: false
Boxcar width: 0
XAxis mode: Wavelengths
Number of Pixels in Spectrum: 2048
>>>>>Begin Spectral Data<<<<<
223.165	-12.81
223.4	-12.81
223.635	-12.81
223.869	-24.81
224.104	-15.81
224.338	-19.81
224.573	-12.81
224.808	-9.81
225.042	-5.81
225.277	3.19
225.511	-2.81
225.746	-0.81
225.98	9.19
226.215	15.19
226.449	19.19
226.683	5.19
226.918	25.19
227.152	28.19
227.387	25.19
227.621	40.19
227.856	47.19
228.09	43.19
228.324	41.19
228.559	67.19
228.793	60.19
229.027	72.19
229.262	80.19
229.496	85.19
229.73	108.19
229.964	103.19
230.199	87.19
230.433	82.19
230.667	75.19
230.901	76.19
231.136	71.19
231.37	83.19
231.604	93.19
231.838	87.19
232.072	68.19
232.306	95.19
232.541	75.19
232.775	81.19
233.009	91.19
233.243	90.19
233.477	85.19
233.711	91.19
233.945	92.19
234.179	99.19
234.413	75.19
234.647	86.19
234.881	85.19
235.115	83.19
235.349	78.19
235.583	69.19
235.817	98.19
236.051	86.19
236.285	71.19
236.519	73.19
236.753	92.19
236.987	84.19
237.221	98.19
237.455	95.19
237.689	84.19
237.922	82.19
238.156	81.19
238.39	75.19
238.624	78.19
238.858	80.19
239.091	91.19
239.325	71.19
239.559	99.19
239.793	87.19
240.027	86.19
240.26	81.19
240.494	74.19
240.728	64.19
240.961	72.19
241.195	86.19
241.429	77.19
241.662	82.19
241.896	82.19
242.13	79.19
242.363	79.19
242.597	84.19
242.83	75.19
243.064	72.19
243.298	97.19
243.531	87.19
243.765	89.19
243.998	83.19
244.232	84.19
244.465	105.19
244.699	80.19
244.932	84.19
245.166	78.19
245.399	76.19
245.633	84.19
245.866	81.19
246.099	75.19
246.333	83.19
246.566	75.19
246.8	81.19
247.033	87.19
247.266	75.19
247.5	69.19
247.733	76.19
247.966	83.19
248.2	91.19
248.433	93.19
248.666	91.19
248.899	80.19
249.133	94.19
249.366	108.19
249.599	107.19
249.832	94.19
250.066	86.19
250.299	91.19
250.532	96.19
250.765	76.19
250.998	92.19
251.231	95.19
251.465	90.19
251.698	85.19
251.931	84.19
252.164	89.19
252.397	87.19
252.63	90.19
252.863	82.19
253.096	86.19
253.329	98.19
253.562	75.19
253.795	85.19
254.028	80.19
254.261	96.19
254.494	83.19
254.727	77.19
254.96	90.19
255.193	97.19
255.426	89.19
255.659	90.19
255.892	101.19
256.124	96.19
256.357	97.19
256.59	87.19
256.823	85.19
257.056	96.19
257.289	103.19
257.521	93.19
257.754	93.19
257.987	72.19
258.22	111.19
258.452	104.19
258.685	98.19
258.918	93.19
259.151	86.19
259.383	107.19
259.616	88.19
259.849	86.19
260.081	107.19
260.314	107.19
260.547	101.19
260.779	97.19
261.012	132.19
261.244	124.19
261.477	105.19
261.71	112.19
261.942	149.19
262.175	165.19
262.407	101.19
262.64	99.19
262.872	105.19
263.105	95.19
263.337	102.19
263.57	95.19
263.802	80.19
264.035	97.19
264.267	76.19
264.499	79.19
264.732	86.19
264.964	96.19
265.197	92.19
265.429	88.19
265.661	87.19
265.894	90.19
266.126	91.19
266.358	89.19
266.591	82.19
266.823	99.19
267.055	99.19
267.287	94.19
267.52	90.19
267.752	93.19
267.984	96.19
268.216	107.19
268.448	81.19
268.681	93.19
268.913	90.19
269.145	74.19
269.377	87.19
269.609	88.19
269.841	84.19
270.073	104.19
270.306	95.19
270.538	84.19
270.77	85.19
271.002	88.19
271.234	96.19
271.466	103.19
271.698	94.19
271.93	78.19
272.162	98.19
272.394	99.19
272.626	94.19
272.858	87.19
273.09	98.19
273.322	81.19
273.553	82.19
273.785	82.19
274.017	99.19
274.249	105.19
274.481	95.19
274.713	91.19
274.945	104.19
275.176	101.19
275.408	116.19
275.64	130.19
275.872	158.19
276.104	106.19
276.335	98.19
276.567	128.19
276.799	183.19
277.031	235.19
277.262	278.19
277.494	201.19
277.726	112.19
277.957	116.19
278.189	98.19
278.421	99.19
278.652	99.19
278.884	86.19
279.115	105.19
279.347	99.19
279.579	119.19
279.81	161.19
280.042	278.19
280.273	392.19
280.505	260.19
280.736	128.19
280.968	101.19
281.199	85.19
281.431	90.19
281.662	101.19
281.894	105.19
282.125	131.19
282.356	141.19
282.588	199.19
282.819	143.19
283.051	91.19
283.282	82.19
283.513	89.19
283.745	94.19
283.976	100.19
284.207	84.19
284.439	90.19
284.67	85.19
284.901	94.19
285.132	99.19
285.364	98.19
285.595	96.19
285.826	83.19
286.057	92.19
286.288	89.19
286.52	109.19
286.751	85.19
286.982	96.19
287.213	89.19
287.444	100.19
287.675	98.19
287.906	106.19
288.138	79.19
288.369	98.19
288.6	95.19
288.831	87.19
289.062	93.19
289.293	93.19
289.524	99.19
289.755	93.19
289.986	86.19
290.217	87.19
290.448	84.19
290.679	78.19
290.91	90.19
291.141	100.19
291.371	95.19
291.602	92.19
291.833	75.19
292.064	90.19
292.295	89.19
292.526	94.19
292.757	90.19
292.987	91.19
293.218	99.19
293.449	85.19
293.68	99.19
293.91	88.19
294.141	95.19
294.372	95.19
294.603	106.19
294.833	88.19
295.064	85.19
295.295	101.19
295.525	97.19
295.756	113.19
295.987	131.19
296.217	180.19
296.448	148.19
296.679	108.19
296.909	68.19
297.14	95.19
297.37	90.19
297.601	95.19
297.831	109.19
298.062	100.19
298.292	90.19
298.523	86.19
298.753	96.19
298.984	104.19
299.214	85.19
299.445	95.19
299.675	91.19
299.905	109.19
300.136	95.19
300.366	89.19
300.597	97.19
300.827	107.19
301.057	115.19
301.288	116.19
301.518	105.19
301.748	99.19
301.979	121.19
302.209	113.19
302.439	115.19
302.669	104.19
302.9	95.19
303.13	103.19
303.36	125.19
303.59	166.19
303.82	179.19
304.051	132.19
304.281	95.19
304.511	79.19
304.741	96.19
304.971	94.19
305.201	108.19
305.431	102.19
305.661	95.19
305.891	82.19
306.121	105.19
306.352	120.19
306.582	135.19
306.812	121.19
307.042	158.19
307.272	202.19
307.502	243.19
307.731	209.19
307.961	151.19
308.191	100.19
308.421	100.19
308.651	96.19
308.881	96.19
309.111	96.19
309.341	115.19
309.571	109.19
309.8	115.19
310.03	116.19
310.26	117.19
310.49	105.19
310.72	125.19
310.949	130.19
311.179	107.19
311.409	100.19
311.639	113.19
311.868	111.19
312.098	105.19
312.328	116.19
312.557	127.19
312.787	140.19
313.017	117.19
313.246	100.19
313.476	95.19
313.706	107.19
313.935	100.19
314.165	118.19
314.394	124.19
314.624	120.19
314.853	115.19
315.083	121.19
315.312	92.19
315.542	103.19
315.771	108.19
316.001	85.19
316.23	96.19
316.46	108.19
316.689	107.19
316.919	97.19
317.148	104.19
317.377	109.19
317.607	97.19
317.836	97.19
318.065	88.19
318.295	102.19
318.524	101.19
318.753	100.19
318.983	105.19
319.212	119.19
319.441	125.19
319.67	111.19
319.9	94.19
320.129	117.19
320.358	100.19
320.587	120.19
320.816	124.19
321.046	114.19
321.275	107.19
321.504	104.19
321.733	97.19
321.962	119.19
322.191	108.19
322.42	130.19
322.649	135.19
322.878	130.19
323.108	150.19
323.337	169.19
323.566	194.19
323.795	221.19
324.024	312.19
324.253	618.19
324.482	1393.19
324.71	2963.19
324.939	3952.19
325.168	1369.19
325.397	369.19
325.626	211.19
325.855	174.19
326.084	171.19
326.313	185.19
326.542	201.19
326.77	327.19
326.999	688.19
327.228	1536.19
327.457	2815.19
327.686	2225.19
327.914	777.19
328.143	824.19
328.372	1108.19
328.6	565.19
328.829	241.19
329.058	240.19
329.287	254.19
329.515	258.19
329.744	378.19
329.972	776.19
330.201	1752.19
330.43	2513.19
330.658	1029.19
330.887	412.19
331.115	236.19
331.344	155.19
331.572	154.19
331.801	159.19
332.03	147.19
332.258	130.19
332.486	113.19
332.715	136.19
332.943	132.19
333.172	147.19
333.4	152.19
333.629	208.19
333.857	343.19
334.085	715.19
334.314	1591.19
334.542	3266.19
334.771	2896.19
334.999	721.19
335.227	244.19
335.455	139.19
335.684	120.19
335.912	115.19
336.14	121.19
336.369	106.19
336.597	123.19
336.825	112.19
337.053	99.19
337.281	98.19
337.51	97.19
337.738	121.19
337.966	131.19
338.194	119.19
338.422	123.19
338.65	107.19
338.878	101.19
339.106	105.19
339.334	100.19
339.562	96.19
339.79	106.19
340.018	104.19
340.246	128.19
340.474	119.19
340.702	92.19
340.93	109.19
341.158	107.19
341.386	113.19
341.614	106.19
341.842	100.19
342.07	98.19
342.298	103.19
342.526	109.19
342.754	97.19
342.981	91.19
343.209	96.19
343.437	101.19
343.665	87.19
343.893	95.19
344.12	90.19
344.348	99.19
344.576	78.19
344.804	100.19
345.031	115.19
345.259	117.19
345.487	100.19
345.714	97.19
345.942	102.19
346.17	101.19
346.397	98.19
346.625	107.19
346.853	90.19
347.08	98.19
347.308	107.19
347.535	99.19
347.763	121.19
347.99	105.19
348.218	124.19
348.445	122.19
348.673	117.19
348.9	87.19
349.128	99.19
349.355	98.19
349.583	95.19
349.81	101.19
350.037	103.19
350.265	115.19
350.492	105.19
350.72	118.19
350.947	110.19
351.174	134.19
351.402	142.19
351.629	116.19
351.856	128.19
352.083	123.19
352.311	136.19
352.538	136.19
352.765	125.19
352.992	127.19
353.22	111.19
353.447	128.19
353.674	116.19
353.901	101.19
354.128	97.19
354.355	102.19
354.583	105.19
354.81	92.19
355.037	97.19
355.264	101.19
355.491	84.19
355.718	95.19
355.945	97.19
356.172	107.19
356.399	100.19
356.626	105.19
356.853	99.19
357.08	81.19
357.307	99.19
357.534	83.19
357.761	94.19
357.988	98.19
358.215	82.19
358.441	86.19
358.668	88.19
358.895	98.19
359.122	88.19
359.349	91.19
359.576	101.19
359.802	132.19
360.029	162.19
360.256	175.19
360.483	125.19
360.709	112.19
360.936	93.19
361.163	105.19
361.39	95.19
361.616	106.19
361.843	102.19
362.07	108.19
362.296	116.19
362.523	108.19
362.749	115.19
362.976	103.19
363.203	104.19
363.429	102.19
363.656	100.19
363.882	105.19
364.109	106.19
364.335	104.19
364.562	103.19
364.788	101.19
365.015	98.19
365.241	104.19
365.468	114.19
365.694	136.19
365.92	115.19
366.147	108.19
366.373	100.19
366.599	83.19
366.826	89.19
367.052	105.19
367.278	100.19
367.505	103.19
367.731	101.19
367.957	93.19
368.184	99.19
368.41	120.19
368.636	136.19
368.862	136.19
369.089	136.19
369.315	120.19
369.541	92.19
369.767	106.19
369.993	101.19
370.219	101.19
370.445	99.19
370.672	99.19
370.898	100.19
371.124	83.19
371.35	97.19
371.576	97.19
371.802	91.19
372.028	107.19
372.254	90.19
372.48	83.19
372.706	90.19
372.932	93.19
373.158	93.19
373.384	106.19
373.61	111.19
373.835	98.19
374.061	101.19
374.287	105.19
374.513	86.19
374.739	87.19
374.965	86.19
375.191	74.19
375.416	96.19
375.642	81.19
375.868	95.19
376.094	104.19
376.319	103.19
376.545	81.19
376.771	97.19
376.997	95.19
377.222	107.19
377.448	98.19
377.674	90.19
377.899	92.19
378.125	104.19
378.35	102.19
378.576	89.19
378.802	94.19
379.027	96.19
379.253	94.19
379.478	83.19
379.704	91.19
379.929	102.19
380.155	100.19
380.38	90.19
380.606	102.19
380.831	107.19
381.057	85.19
381.282	80.19
381.507	91.19
381.733	102.19
381.958	96.19
382.184	115.19
382.409	103.19
382.634	101.19
382.86	101.19
383.085	104.19
383.31	96.19
383.535	106.19
383.761	95.19
383.986	92.19
384.211	101.19
384.436	105.19
384.662	94.19
384.887	101.19
385.112	105.19
385.337	108.19
385.562	105.19
385.787	108.19
386.013	113.19
386.238	125.19
386.463	112.19
386.688	101.19
386.913	101.19
387.138	104.19
387.363	97.19
387.588	92.19
387.813	97.19
388.038	95.19
388.263	106.19
388.488	105.19
388.713	96.19
388.938	95.19
389.163	97.19
389.387	91.19
389.612	106.19
389.837	94.19
390.062	96.19
390.287	110.19
390.512	81.19
390.736	75.19
390.961	105.19
391.186	104.19
391.411	93.19
391.636	77.19
391.86	80.19
392.085	87.19
392.31	89.19
392.534	84.19
392.759	92.19
392.984	95.19
393.208	99.19
393.433	112.19
393.658	95.19
393.882	85.19
394.107	81.19
394.331	77.19
394.556	88.19
394.78	91.19
395.005	85.19
395.229	83.19
395.454	90.19
395.678	74.19
395.903	92.19
396.127	98.19
396.352	92.19
396.576	98.19
396.801	91.19
397.025	91.19
397.249	104.19
397.474	90.19
397.698	85.19
397.922	105.19
398.147	97.19
398.371	81.19
398.595	97.19
398.82	90.19
399.044	91.19
399.268	83.19
399.492	95.19
399.717	86.19
399.941	100.19
400.165	91.19
400.389	98.19
400.613	104.19
400.837	87.19
401.062	96.19
401.286	82.19
401.51	107.19
401.734	96.19
401.958	114.19
402.182	150.19
402.406	209.19
402.63	160.19
402.854	117.19
403.078	109.19
403.302	97.19
403.526	96.19
403.75	92.19
403.974	108.19
404.198	91.19
404.422	98.19
404.645	86.19
404.869	116.19
405.093	125.19
405.317	171.19
405.541	168.19
405.765	140.19
405.988	149.19
406.212	244.19
406.436	351.19
406.66	224.19
406.883	135.19
407.107	120.19
407.331	120.19
407.555	136.19
407.778	115.19
408.002	112.19
408.226	97.19
408.449	79.19
408.673	82.19
408.896	99.19
409.12	108.19
409.344	89.19
409.567	89.19
409.791	101.19
410.014	90.19
410.238	110.19
410.461	89.19
410.685	109.19
410.908	95.19
411.132	108.19
411.355	102.19
411.578	111.19
411.802	97.19
412.025	96.19
412.249	105.19
412.472	130.19
412.695	165.19
412.919	137.19
413.142	99.19
413.365	84.19
413.589	89.19
413.812	96.19
414.035	103.19
414.258	99.19
414.482	86.19
414.705	87.19
414.928	100.19
415.151	90.19
415.374	95.19
415.597	84.19
415.821	87.19
416.044	91.19
416.267	105.19
416.49	115.19
416.713	83.19
416.936	100.19
417.159	95.19
417.382	102.19
417.605	120.19
417.828	140.19
418.051	113.19
418.274	97.19
418.497	92.19
418.72	100.19
418.943	95.19
419.166	100.19
419.389	107.19
419.611	95.19
419.834	98.19
420.057	96.19
420.28	105.19
420.503	104.19
420.726	96.19
420.948	97.19
421.171	121.19
421.394	111.19
421.617	94.19
421.839	85.19
422.062	89.19
422.285	100.19
422.507	112.19
422.73	114.19
422.953	87.19
423.175	94.19
423.398	95.19
423.621	89.19
423.843	104.19
424.066	99.19
424.288	82.19
424.511	98.19
424.733	124.19
424.956	135.19
425.178	136.19
425.401	111.19
425.623	114.19
425.846	106.19
426.068	104.19
426.291	101.19
426.513	98.19
426.735	99.19
426.958	104.19
427.18	140.19
427.402	225.19
427.625	327.19
427.847	312.19
428.069	315.19
428.292	169.19
428.514	117.19
428.736	105.19
428.958	95.19
429.181	100.19
429.403	91.19
429.625	99.19
429.847	97.19
430.069	112.19
430.292	114.19
430.514	98.19
430.736	98.19
430.958	93.19
431.18	88.19
431.402	92.19
431.624	83.19
431.846	92.19
432.068	93.19
432.29	90.19
432.512	95.19
432.734	99.19
432.956	94.19
433.178	108.19
433.4	112.19
433.622	98.19
433.844	108.19
434.066	97.19
434.287	84.19
434.509	91.19
434.731	88.19
434.953	103.19
435.175	95.19
435.397	95.19
435.618	102.19
435.84	117.19
436.062	163.19
436.284	158.19
436.505	125.19
436.727	115.19
436.949	112.19
437.17	92.19
437.392	97.19
437.614	100.19
437.835	136.19
438.057	175.19
438.278	140.19
438.5	129.19
438.721	158.19
438.943	125.19
439.165	108.19
439.386	90.19
439.608	98.19
439.829	110.19
440.05	188.19
440.272	233.19
440.493	120.19
440.715	115.19
440.936	86.19
441.158	80.19
441.379	107.19
441.6	113.19
441.822	97.19
442.043	115.19
442.264	127.19
442.486	124.19
442.707	92.19
442.928	140.19
443.149	207.19
443.371	212.19
443.592	152.19
443.813	144.19
444.034	126.19
444.255	92.19
444.476	88.19
444.698	98.19
444.919	97.19
445.14	132.19
445.361	148.19
445.582	177.19
445.803	231.19
446.024	219.19
446.245	209.19
446.466	148.19
446.687	111.19
446.908	100.19
447.129	99.19
447.35	111.19
447.571	109.19
447.792	113.19
448.013	120.19
448.234	144.19
448.455	118.19
448.675	151.19
448.896	151.19
449.117	119.19
449.338	123.19
449.559	153.19
449.779	187.19
450	108.19
450.221	92.19
450.442	94.19
450.662	112.19
450.883	128.19
451.104	157.19
451.324	115.19
451.545	96.19
451.766	77.19
451.986	87.19
452.207	109.19
452.428	100.19
452.648	117.19
452.869	139.19
453.089	154.19
453.31	160.19
453.53	115.19
453.751	105.19
453.971	132.19
454.192	159.19
454.412	118.19
454.633	99.19
454.853	91.19
455.073	97.19
455.294	95.19
455.514	123.19
455.734	106.19
455.955	84.19
456.175	92.19
456.395	79.19
456.616	90.19
456.836	103.19
457.056	81.19
457.276	92.19
457.497	87.19
457.717	100.19
457.937	91.19
458.157	83.19
458.377	97.19
458.598	144.19
458.818	233.19
459.038	278.19
459.258	161.19
459.478	100.19
459.698	87.19
459.918	96.19
460.138	95.19
460.358	88.19
460.578	103.19
460.798	99.19
461.018	95.19
461.238	94.19
461.458	94.19
461.678	92.19
461.898	83.19
462.118	86.19
462.338	62.19
462.558	85.19
462.777	88.19
462.997	100.19
463.217	127.19
463.437	108.19
463.657	106.19
463.876	107.19
464.096	111.19
464.316	108.19
464.536	113.19
464.755	111.19
464.975	130.19
465.195	285.19
465.414	291.19
465.634	127.19
465.854	110.19
466.073	97.19
466.293	103.19
466.512	96.19
466.732	98.19
466.951	108.19
467.171	122.19
467.391	123.19
467.61	188.19
467.829	325.19
468.049	948.19
468.268	1448.19
468.488	347.19
468.707	143.19
468.927	111.19
469.146	97.19
469.365	103.19
469.585	92.19
469.804	125.19
470.023	115.19
470.243	121.19
470.462	147.19
470.681	171.19
470.901	112.19
471.12	128.19
471.339	118.19
471.558	138.19
471.777	219.19
471.997	445.19
472.216	1889.19
472.435	4442.19
472.654	964.19
472.873	230.19
473.092	127.19
473.311	107.19
473.53	114.19
473.749	110.19
473.968	126.19
474.187	149.19
474.406	119.19
474.625	99.19
474.844	105.19
475.063	99.19
475.282	79.19
475.501	94.19
475.72	95.19
475.939	99.19
476.158	75.19
476.377	92.19
476.596	96.19
476.814	116.19
477.033	108.19
477.252	97.19
477.471	112.19
477.69	108.19
477.908	93.19
478.127	90.19
478.346	103.19
478.564	105.19
478.783	124.19
479.002	124.19
479.22	132.19
479.439	141.19
479.658	163.19
479.876	146.19
480.095	135.19
480.313	176.19
480.532	227.19
480.751	440.19
480.969	1705.19
481.188	7539.19
481.406	4260.19
481.624	569.19
481.843	187.19
482.061	127.19
482.28	116.19
482.498	105.19
482.717	114.19
482.935	108.19
483.153	96.19
483.372	104.19
483.59	106.19
483.808	114.19
484.027	92.19
484.245	106.19
484.463	108.19
484.681	107.19
484.9	111.19
485.118	96.19
485.336	94.19
485.554	111.19
485.772	113.19
485.99	115.19
486.209	103.19
486.427	123.19
486.645	150.19
486.863	161.19
487.081	135.19
487.299	80.19
487.517	106.19
487.735	106.19
487.953	99.19
488.171	91.19
488.389	107.19
488.607	101.19
488.825	95.19
489.043	92.19
489.261	94.19
489.479	100.19
489.696	93.19
489.914	97.19
490.132	103.19
490.35	100.19
490.568	95.19
490.786	105.19
491.003	93.19
491.221	100.19
491.439	103.19
491.657	89.19
491.874	93.19
492.092	100.19
492.31	98.19
492.527	111.19
492.745	122.19
492.963	90.19
493.18	101.19
493.398	95.19
493.615	102.19
493.833	104.19
494.05	98.19
494.268	93.19
494.485	94.19
494.703	100.19
494.92	110.19
495.138	89.19
495.355	106.19
495.573	95.19
495.79	94.19
496.008	109.19
496.225	74.19
496.442	107.19
496.66	85.19
496.877	84.19
497.094	95.19
497.312	92.19
497.529	90.19
497.746	108.19
497.963	88.19
498.181	110.19
498.398	103.19
498.615	132.19
498.832	108.19
499.049	103.19
499.267	106.19
499.484	108.19
499.701	93.19
499.918	97.19
500.135	98.19
500.352	99.19
500.569	103.19
500.786	120.19
501.003	111.19
501.22	92.19
501.437	98.19
501.654	99.19
501.871	140.19
502.088	104.19
502.305	91.19
502.522	96.19
502.739	101.19
502.956	101.19
503.172	101.19
503.389	99.19
503.606	129.19
503.823	118.19
504.04	104.19
504.256	99.19
504.473	97.19
504.69	108.19
504.907	107.19
505.123	102.19
505.34	91.19
505.557	90.19
505.773	96.19
505.99	88.19
506.207	93.19
506.423	95.19
506.64	96.19
506.856	89.19
507.073	103.19
507.289	91.19
507.506	101.19
507.722	142.19
507.939	161.19
508.155	114.19
508.372	100.19
508.588	98.19
508.805	116.19
509.021	125.19
509.238	108.19
509.454	119.19
509.67	114.19
509.887	122.19
510.103	151.19
510.319	255.19
510.536	1084.19
