Data from Circ_1998_H10_HRD10591_00066.txt Node
Date: Wed Jan 03 11:27:02 EST 2024
User: Yrep
Spectrometer: HR+D1059
Trigger mode: 1
Integration Time (sec): 1.000000E-1
Scans to average: 1
Electric dark correction enabled: true
Nonlinearity correction enabled: false
Boxcar width: 0
XAxis mode: Wavelengths
Number of Pixels in Spectrum: 2048
>>>>>Begin Spectral Data<<<<<
223.165	-20.12
223.4	-20.12
223.635	-20.12
223.869	-17.12
224.104	-18.12
224.338	-22.12
224.573	-8.12
224.808	-12.12
225.042	-1.12
225.277	-7.12
225.511	-4.12
225.746	6.88
225.98	6.88
226.215	20.88
226.449	5.88
226.683	19.88
226.918	23.88
227.152	25.88
227.387	38.88
227.621	37.88
227.856	31.88
228.09	43.88
228.324	46.88
228.559	47.88
228.793	64.88
229.027	69.88
229.262	89.88
229.496	79.88
229.73	119.88
229.964	105.88
230.199	71.88
230.433	86.88
230.667	86.88
230.901	78.88
231.136	82.88
231.37	81.88
231.604	82.88
231.838	91.88
232.072	75.88
232.306	73.88
232.541	77.88
232.775	92.88
233.009	68.88
233.243	91.88
233.477	93.88
233.711	78.88
233.945	92.88
234.179	99.88
234.413	81.88
234.647	92.88
234.881	76.88
235.115	70.88
235.349	69.88
235.583	85.88
235.817	88.88
236.051	72.88
236.285	77.88
236.519	81.88
236.753	77.88
236.987	97.88
237.221	104.88
237.455	82.88
237.689	83.88
237.922	75.88
238.156	82.88
238.39	69.88
238.624	84.88
238.858	88.88
239.091	75.88
239.325	76.88
239.559	80.88
239.793	83.88
240.027	83.88
240.26	71.88
240.494	69.88
240.728	77.88
240.961	83.88
241.195	85.88
241.429	73.88
241.662	82.88
241.896	80.88
242.13	82.88
242.363	73.88
242.597	81.88
242.83	87.88
243.064	87.88
243.298	83.88
243.531	58.88
243.765	81.88
243.998	87.88
244.232	85.88
244.465	89.88
244.699	87.88
244.932	75.88
245.166	85.88
245.399	87.88
245.633	81.88
245.866	87.88
246.099	73.88
246.333	85.88
246.566	83.88
246.8	77.88
247.033	83.88
247.266	81.88
247.5	90.88
247.733	72.88
247.966	88.88
248.2	72.88
248.433	86.88
248.666	73.88
248.899	85.88
249.133	73.88
249.366	114.88
249.599	120.88
249.832	94.88
250.066	98.88
250.299	84.88
250.532	113.88
250.765	86.88
250.998	85.88
251.231	96.88
251.465	89.88
251.698	104.88
251.931	93.88
252.164	98.88
252.397	86.88
252.63	73.88
252.863	84.88
253.096	87.88
253.329	69.88
253.562	85.88
253.795	82.88
254.028	72.88
254.261	71.88
254.494	79.88
254.727	90.88
254.96	83.88
255.193	74.88
255.426	96.88
255.659	93.88
255.892	95.88
256.124	117.88
256.357	84.88
256.59	101.88
256.823	89.88
257.056	91.88
257.289	94.88
257.521	90.88
257.754	84.88
257.987	89.88
258.22	103.88
258.452	104.88
258.685	101.88
258.918	89.88
259.151	95.88
259.383	88.88
259.616	95.88
259.849	88.88
260.081	85.88
260.314	108.88
260.547	101.88
260.779	88.88
261.012	121.88
261.244	114.88
261.477	103.88
261.71	111.88
261.942	150.88
262.175	167.88
262.407	94.88
262.64	96.88
262.872	89.88
263.105	93.88
263.337	92.88
263.57	93.88
263.802	95.88
264.035	78.88
264.267	73.88
264.499	83.88
264.732	86.88
264.964	75.88
265.197	93.88
265.429	83.88
265.661	79.88
265.894	82.88
266.126	98.88
266.358	85.88
266.591	90.88
266.823	80.88
267.055	81.88
267.287	94.88
267.52	73.88
267.752	91.88
267.984	86.88
268.216	88.88
268.448	107.88
268.681	90.88
268.913	96.88
269.145	70.88
269.377	86.88
269.609	89.88
269.841	79.88
270.073	79.88
270.306	89.88
270.538	81.88
270.77	81.88
271.002	81.88
271.234	83.88
271.466	95.88
271.698	93.88
271.93	91.88
272.162	84.88
272.394	88.88
272.626	95.88
272.858	79.88
273.09	98.88
273.322	83.88
273.553	92.88
273.785	98.88
274.017	103.88
274.249	83.88
274.481	96.88
274.713	86.88
274.945	98.88
275.176	97.88
275.408	123.88
275.64	129.88
275.872	154.88
276.104	124.88
276.335	115.88
276.567	150.88
276.799	176.88
277.031	245.88
277.262	279.88
277.494	206.88
277.726	117.88
277.957	105.88
278.189	86.88
278.421	99.88
278.652	98.88
278.884	103.88
279.115	99.88
279.347	101.88
279.579	112.88
279.81	182.88
280.042	263.88
280.273	397.88
280.505	269.88
280.736	127.88
280.968	121.88
281.199	124.88
281.431	93.88
281.662	89.88
281.894	93.88
282.125	126.88
282.356	146.88
282.588	199.88
282.819	153.88
283.051	99.88
283.282	95.88
283.513	98.88
283.745	102.88
283.976	89.88
284.207	92.88
284.439	87.88
284.67	82.88
284.901	83.88
285.132	90.88
285.364	78.88
285.595	98.88
285.826	108.88
286.057	90.88
286.288	94.88
286.52	91.88
286.751	99.88
286.982	82.88
287.213	86.88
287.444	76.88
287.675	95.88
287.906	107.88
288.138	93.88
288.369	98.88
288.6	101.88
288.831	98.88
289.062	94.88
289.293	88.88
289.524	89.88
289.755	97.88
289.986	79.88
290.217	74.88
290.448	82.88
290.679	80.88
290.91	91.88
291.141	96.88
291.371	99.88
291.602	96.88
291.833	85.88
292.064	83.88
292.295	101.88
292.526	96.88
292.757	98.88
292.987	75.88
293.218	93.88
293.449	94.88
293.68	91.88
293.91	89.88
294.141	101.88
294.372	97.88
294.603	85.88
294.833	94.88
295.064	98.88
295.295	108.88
295.525	91.88
295.756	116.88
295.987	144.88
296.217	203.88
296.448	173.88
296.679	96.88
296.909	89.88
297.14	96.88
297.37	101.88
297.601	90.88
297.831	99.88
298.062	82.88
298.292	95.88
298.523	95.88
298.753	85.88
298.984	88.88
299.214	73.88
299.445	104.88
299.675	97.88
299.905	87.88
300.136	104.88
300.366	90.88
300.597	94.88
300.827	95.88
301.057	118.88
301.288	124.88
301.518	107.88
301.748	103.88
301.979	127.88
302.209	102.88
302.439	100.88
302.669	102.88
302.9	89.88
303.13	114.88
303.36	129.88
303.59	153.88
303.82	175.88
304.051	124.88
304.281	89.88
304.511	89.88
304.741	81.88
304.971	84.88
305.201	99.88
305.431	98.88
305.661	78.88
305.891	107.88
306.121	106.88
306.352	128.88
306.582	128.88
306.812	125.88
307.042	151.88
307.272	197.88
307.502	268.88
307.731	219.88
307.961	151.88
308.191	110.88
308.421	101.88
308.651	89.88
308.881	113.88
309.111	97.88
309.341	106.88
309.571	113.88
309.8	105.88
310.03	115.88
310.26	107.88
310.49	109.88
310.72	115.88
310.949	130.88
311.179	122.88
311.409	97.88
311.639	97.88
311.868	115.88
312.098	91.88
312.328	109.88
312.557	129.88
312.787	119.88
313.017	125.88
313.246	95.88
313.476	87.88
313.706	84.88
313.935	99.88
314.165	113.88
314.394	110.88
314.624	116.88
314.853	127.88
315.083	106.88
315.312	113.88
315.542	79.88
315.771	90.88
316.001	81.88
316.23	83.88
316.46	101.88
316.689	91.88
316.919	102.88
317.148	118.88
317.377	101.88
317.607	98.88
317.836	106.88
318.065	105.88
318.295	84.88
318.524	81.88
318.753	108.88
318.983	113.88
319.212	110.88
319.441	130.88
319.67	126.88
319.9	94.88
320.129	100.88
320.358	108.88
320.587	107.88
320.816	111.88
321.046	112.88
321.275	121.88
321.504	94.88
321.733	105.88
321.962	119.88
322.191	126.88
322.42	132.88
322.649	128.88
322.878	149.88
323.108	145.88
323.337	156.88
323.566	179.88
323.795	227.88
324.024	317.88
324.253	657.88
324.482	1474.88
324.71	3179.88
324.939	4317.88
325.168	1477.88
325.397	394.88
325.626	204.88
325.855	160.88
326.084	171.88
326.313	173.88
326.542	214.88
326.77	350.88
326.999	745.88
327.228	1610.88
327.457	3030.88
327.686	2418.88
327.914	836.88
328.143	812.88
328.372	1106.88
328.6	599.88
328.829	265.88
329.058	248.88
329.287	251.88
329.515	244.88
329.744	375.88
329.972	785.88
330.201	1752.88
330.43	2548.88
330.658	1043.88
330.887	395.88
331.115	244.88
331.344	145.88
331.572	135.88
331.801	138.88
332.03	149.88
332.258	144.88
332.486	121.88
332.715	133.88
332.943	133.88
333.172	155.88
333.4	172.88
333.629	207.88
333.857	330.88
334.085	721.88
334.314	1582.88
334.542	3238.88
334.771	2943.88
334.999	691.88
335.227	258.88
335.455	152.88
335.684	137.88
335.912	119.88
336.14	115.88
336.369	117.88
336.597	124.88
336.825	110.88
337.053	105.88
337.281	101.88
337.51	89.88
337.738	101.88
337.966	97.88
338.194	104.88
338.422	109.88
338.65	97.88
338.878	103.88
339.106	109.88
339.334	105.88
339.562	92.88
339.79	99.88
340.018	99.88
340.246	92.88
340.474	99.88
340.702	98.88
340.93	95.88
341.158	114.88
341.386	99.88
341.614	107.88
341.842	100.88
342.07	101.88
342.298	116.88
342.526	97.88
342.754	92.88
342.981	85.88
343.209	95.88
343.437	90.88
343.665	83.88
343.893	83.88
344.12	100.88
344.348	96.88
344.576	98.88
344.804	112.88
345.031	105.88
345.259	112.88
345.487	107.88
345.714	94.88
345.942	96.88
346.17	91.88
346.397	100.88
346.625	93.88
346.853	106.88
347.08	102.88
347.308	113.88
347.535	97.88
347.763	97.88
347.99	115.88
348.218	116.88
348.445	123.88
348.673	113.88
348.9	106.88
349.128	104.88
349.355	99.88
349.583	97.88
349.81	99.88
350.037	107.88
350.265	96.88
350.492	103.88
350.72	101.88
350.947	119.88
351.174	127.88
351.402	127.88
351.629	106.88
351.856	119.88
352.083	118.88
352.311	120.88
352.538	123.88
352.765	130.88
352.992	126.88
353.22	128.88
353.447	98.88
353.674	106.88
353.901	96.88
354.128	111.88
354.355	101.88
354.583	93.88
354.81	91.88
355.037	112.88
355.264	97.88
355.491	93.88
355.718	94.88
355.945	89.88
356.172	97.88
356.399	88.88
356.626	87.88
356.853	96.88
357.08	92.88
357.307	94.88
357.534	75.88
357.761	81.88
357.988	105.88
358.215	107.88
358.441	98.88
358.668	86.88
358.895	105.88
359.122	91.88
359.349	83.88
359.576	109.88
359.802	133.88
360.029	168.88
360.256	140.88
360.483	137.88
360.709	94.88
360.936	111.88
361.163	103.88
361.39	109.88
361.616	110.88
361.843	104.88
362.07	113.88
362.296	116.88
362.523	99.88
362.749	101.88
362.976	103.88
363.203	91.88
363.429	90.88
363.656	99.88
363.882	104.88
364.109	97.88
364.335	110.88
364.562	114.88
364.788	109.88
365.015	105.88
365.241	98.88
365.468	118.88
365.694	119.88
365.92	115.88
366.147	114.88
366.373	87.88
366.599	94.88
366.826	101.88
367.052	93.88
367.278	97.88
367.505	89.88
367.731	98.88
367.957	95.88
368.184	89.88
368.41	103.88
368.636	142.88
368.862	143.88
369.089	134.88
369.315	103.88
369.541	111.88
369.767	91.88
369.993	100.88
370.219	106.88
370.445	98.88
370.672	96.88
370.898	76.88
371.124	87.88
371.35	82.88
371.576	89.88
371.802	79.88
372.028	103.88
372.254	85.88
372.48	92.88
372.706	104.88
372.932	93.88
373.158	106.88
373.384	99.88
373.61	102.88
373.835	92.88
374.061	94.88
374.287	89.88
374.513	103.88
374.739	94.88
374.965	97.88
375.191	80.88
375.416	95.88
375.642	93.88
375.868	97.88
376.094	97.88
376.319	94.88
376.545	98.88
376.771	82.88
376.997	98.88
377.222	97.88
377.448	99.88
377.674	94.88
377.899	78.88
378.125	93.88
378.35	89.88
378.576	89.88
378.802	88.88
379.027	86.88
379.253	74.88
379.478	87.88
379.704	93.88
379.929	90.88
380.155	102.88
380.38	87.88
380.606	111.88
380.831	97.88
381.057	97.88
381.282	83.88
381.507	90.88
381.733	100.88
381.958	94.88
382.184	85.88
382.409	102.88
382.634	91.88
382.86	87.88
383.085	96.88
383.31	97.88
383.535	102.88
383.761	98.88
383.986	105.88
384.211	94.88
384.436	92.88
384.662	99.88
384.887	95.88
385.112	88.88
385.337	91.88
385.562	89.88
385.787	106.88
386.013	116.88
386.238	121.88
386.463	111.88
386.688	119.88
386.913	106.88
387.138	108.88
387.363	97.88
387.588	82.88
387.813	111.88
388.038	110.88
388.263	107.88
388.488	105.88
388.713	98.88
388.938	92.88
389.163	98.88
389.387	93.88
389.612	95.88
389.837	99.88
390.062	87.88
390.287	103.88
390.512	80.88
390.736	97.88
390.961	82.88
391.186	96.88
391.411	98.88
391.636	90.88
391.86	86.88
392.085	106.88
392.31	81.88
392.534	101.88
392.759	98.88
392.984	77.88
393.208	85.88
393.433	94.88
393.658	96.88
393.882	86.88
394.107	81.88
394.331	85.88
394.556	96.88
394.78	83.88
395.005	94.88
395.229	92.88
395.454	96.88
395.678	79.88
395.903	86.88
396.127	84.88
396.352	96.88
396.576	83.88
396.801	80.88
397.025	84.88
397.249	78.88
397.474	81.88
397.698	91.88
397.922	87.88
398.147	81.88
398.371	92.88
398.595	92.88
398.82	98.88
399.044	93.88
399.268	93.88
399.492	81.88
399.717	87.88
399.941	89.88
400.165	109.88
400.389	77.88
400.613	87.88
400.837	97.88
401.062	86.88
401.286	87.88
401.51	106.88
401.734	103.88
401.958	111.88
402.182	175.88
402.406	235.88
402.63	156.88
402.854	115.88
403.078	92.88
403.302	105.88
403.526	92.88
403.75	99.88
403.974	106.88
404.198	97.88
404.422	99.88
404.645	93.88
404.869	133.88
405.093	129.88
405.317	167.88
405.541	188.88
405.765	134.88
405.988	167.88
406.212	234.88
406.436	361.88
406.66	244.88
406.883	126.88
407.107	108.88
407.331	128.88
407.555	108.88
407.778	95.88
408.002	105.88
408.226	87.88
408.449	91.88
408.673	95.88
408.896	93.88
409.12	109.88
409.344	101.88
409.567	109.88
409.791	93.88
410.014	99.88
410.238	100.88
410.461	97.88
410.685	81.88
410.908	112.88
411.132	119.88
411.355	114.88
411.578	85.88
411.802	87.88
412.025	98.88
412.249	119.88
412.472	129.88
412.695	171.88
412.919	119.88
413.142	102.88
413.365	90.88
413.589	90.88
413.812	98.88
414.035	98.88
414.258	85.88
414.482	106.88
414.705	94.88
414.928	116.88
415.151	102.88
415.374	91.88
415.597	72.88
415.821	104.88
416.044	86.88
416.267	96.88
416.49	93.88
416.713	103.88
416.936	88.88
417.159	109.88
417.382	107.88
417.605	118.88
417.828	126.88
418.051	105.88
418.274	100.88
418.497	75.88
418.72	98.88
418.943	77.88
419.166	80.88
419.389	83.88
419.611	91.88
419.834	93.88
420.057	106.88
420.28	100.88
420.503	102.88
420.726	95.88
420.948	88.88
421.171	115.88
421.394	101.88
421.617	80.88
421.839	86.88
422.062	80.88
422.285	98.88
422.507	107.88
422.73	124.88
422.953	93.88
423.175	99.88
423.398	96.88
423.621	106.88
423.843	91.88
424.066	83.88
424.288	88.88
424.511	92.88
424.733	97.88
424.956	137.88
425.178	117.88
425.401	120.88
425.623	120.88
425.846	97.88
426.068	103.88
426.291	109.88
426.513	92.88
426.735	96.88
426.958	110.88
427.18	145.88
427.402	204.88
427.625	324.88
427.847	344.88
428.069	315.88
428.292	161.88
428.514	101.88
428.736	93.88
428.958	103.88
429.181	105.88
429.403	104.88
429.625	96.88
429.847	119.88
430.069	119.88
430.292	96.88
430.514	78.88
430.736	89.88
430.958	87.88
431.18	91.88
431.402	85.88
431.624	82.88
431.846	97.88
432.068	85.88
432.29	86.88
432.512	98.88
432.734	81.88
432.956	80.88
433.178	104.88
433.4	118.88
433.622	92.88
433.844	98.88
434.066	107.88
434.287	93.88
434.509	95.88
434.731	108.88
434.953	90.88
435.175	93.88
435.397	100.88
435.618	98.88
435.84	130.88
436.062	164.88
436.284	146.88
436.505	123.88
436.727	122.88
436.949	106.88
437.17	88.88
437.392	100.88
437.614	106.88
437.835	130.88
438.057	164.88
438.278	137.88
438.5	128.88
438.721	133.88
438.943	115.88
439.165	95.88
439.386	92.88
439.608	84.88
439.829	135.88
440.05	169.88
440.272	237.88
440.493	119.88
440.715	90.88
440.936	94.88
441.158	95.88
441.379	107.88
441.6	102.88
441.822	113.88
442.043	125.88
442.264	139.88
442.486	148.88
442.707	100.88
442.928	144.88
443.149	213.88
443.371	207.88
443.592	155.88
443.813	164.88
444.034	139.88
444.255	85.88
444.476	105.88
444.698	94.88
444.919	91.88
445.14	146.88
445.361	151.88
445.582	153.88
445.803	231.88
446.024	203.88
446.245	213.88
446.466	147.88
446.687	99.88
446.908	92.88
447.129	87.88
447.35	94.88
447.571	102.88
447.792	101.88
448.013	109.88
448.234	134.88
448.455	105.88
448.675	145.88
448.896	162.88
449.117	122.88
449.338	112.88
449.559	177.88
449.779	184.88
450	100.88
450.221	100.88
450.442	100.88
450.662	111.88
450.883	135.88
451.104	143.88
451.324	118.88
451.545	79.88
451.766	85.88
451.986	95.88
452.207	95.88
452.428	104.88
452.648	103.88
452.869	159.88
453.089	161.88
453.31	158.88
453.53	113.88
453.751	105.88
453.971	127.88
454.192	143.88
454.412	104.88
454.633	95.88
454.853	84.88
455.073	94.88
455.294	92.88
455.514	106.88
455.734	90.88
455.955	88.88
456.175	98.88
456.395	86.88
456.616	88.88
456.836	89.88
457.056	99.88
457.276	90.88
457.497	87.88
457.717	78.88
457.937	82.88
458.157	91.88
458.377	98.88
458.598	142.88
458.818	249.88
459.038	287.88
459.258	177.88
459.478	111.88
459.698	103.88
459.918	83.88
460.138	96.88
460.358	99.88
460.578	100.88
460.798	97.88
461.018	94.88
461.238	85.88
461.458	85.88
461.678	89.88
461.898	93.88
462.118	85.88
462.338	94.88
462.558	98.88
462.777	87.88
462.997	105.88
463.217	130.88
463.437	102.88
463.657	96.88
463.876	100.88
464.096	96.88
464.316	103.88
464.536	122.88
464.755	111.88
464.975	157.88
465.195	298.88
465.414	283.88
465.634	109.88
465.854	97.88
466.073	83.88
466.293	117.88
466.512	95.88
466.732	90.88
466.951	101.88
467.171	111.88
467.391	123.88
467.61	199.88
467.829	327.88
468.049	979.88
468.268	1520.88
468.488	333.88
468.707	138.88
468.927	114.88
469.146	111.88
469.365	93.88
469.585	107.88
469.804	117.88
470.023	129.88
470.243	115.88
470.462	135.88
470.681	158.88
470.901	118.88
471.12	122.88
471.339	122.88
471.558	131.88
471.777	213.88
471.997	463.88
472.216	1947.88
472.435	4577.88
472.654	958.88
472.873	217.88
473.092	119.88
473.311	98.88
473.53	91.88
473.749	104.88
473.968	112.88
474.187	142.88
474.406	113.88
474.625	87.88
474.844	89.88
475.063	81.88
475.282	93.88
475.501	96.88
475.72	88.88
475.939	92.88
476.158	85.88
476.377	105.88
476.596	102.88
476.814	120.88
477.033	112.88
477.252	101.88
477.471	93.88
477.69	96.88
477.908	102.88
478.127	94.88
478.346	99.88
478.564	106.88
478.783	111.88
479.002	126.88
479.22	114.88
479.439	140.88
479.658	169.88
479.876	136.88
480.095	149.88
480.313	145.88
480.532	230.88
480.751	435.88
480.969	1787.88
481.188	7799.88
481.406	4339.88
481.624	550.88
481.843	178.88
482.061	132.88
482.28	139.88
482.498	118.88
482.717	98.88
482.935	89.88
483.153	100.88
483.372	91.88
483.59	105.88
483.808	93.88
484.027	95.88
484.245	113.88
484.463	105.88
484.681	87.88
484.9	93.88
485.118	92.88
485.336	110.88
485.554	100.88
485.772	93.88
485.99	125.88
486.209	125.88
486.427	108.88
486.645	151.88
486.863	149.88
487.081	120.88
487.299	122.88
487.517	97.88
487.735	89.88
487.953	112.88
488.171	98.88
488.389	103.88
488.607	120.88
488.825	111.88
489.043	93.88
489.261	93.88
489.479	91.88
489.696	84.88
489.914	88.88
490.132	85.88
490.35	96.88
490.568	94.88
490.786	87.88
491.003	88.88
491.221	96.88
491.439	87.88
491.657	87.88
491.874	88.88
492.092	88.88
492.31	94.88
492.527	105.88
492.745	98.88
492.963	95.88
493.18	91.88
493.398	93.88
493.615	102.88
493.833	92.88
494.05	95.88
494.268	90.88
494.485	113.88
494.703	93.88
494.92	87.88
495.138	85.88
495.355	76.88
495.573	93.88
495.79	93.88
496.008	93.88
496.225	90.88
496.442	81.88
496.66	92.88
496.877	74.88
497.094	98.88
497.312	86.88
497.529	90.88
497.746	90.88
497.963	92.88
498.181	91.88
498.398	114.88
498.615	138.88
498.832	121.88
499.049	86.88
499.267	85.88
499.484	91.88
499.701	88.88
499.918	93.88
500.135	103.88
500.352	97.88
500.569	94.88
500.786	100.88
501.003	109.88
501.22	101.88
501.437	105.88
501.654	119.88
501.871	140.88
502.088	107.88
502.305	108.88
502.522	86.88
502.739	102.88
502.956	82.88
503.172	99.88
503.389	104.88
503.606	123.88
503.823	121.88
504.04	99.88
504.256	109.88
504.473	89.88
504.69	98.88
504.907	111.88
505.123	93.88
505.34	102.88
505.557	96.88
505.773	90.88
505.99	79.88
506.207	95.88
506.423	95.88
506.64	97.88
506.856	94.88
507.073	106.88
507.289	85.88
507.506	123.88
507.722	149.88
507.939	146.88
508.155	118.88
508.372	97.88
508.588	87.88
508.805	98.88
509.021	106.88
509.238	110.88
509.454	103.88
509.67	108.88
509.887	126.88
510.103	169.88
510.319	289.88
510.536	1216.88
510.752	4177.88
510.968	1067.88
511.184	211.88
511.401	149.88
511.617	126.88
