Data from Circ_1998_H10_HRD10591_00091.txt Node
Date: Wed Jan 03 11:27:07 EST 2024
User: Yrep
Spectrometer: HR+D1059
Trigger mode: 1
Integration Time (sec): 1.000000E-1
Scans to average: 1
Electric dark correction enabled: true
Nonlinearity correction enabled: false
Boxcar width: 0
XAxis mode: Wavelengths
Number of Pixels in Spectrum: 2048
>>>>>Begin Spectral Data<<<<<
223.165	-12
223.4	-12
223.635	-12
223.869	-24
224.104	-13
224.338	-10
224.573	-17
224.808	-8
225.042	-5
225.277	-5
225.511	3
225.746	-5
225.98	-9
226.215	23
226.449	13
226.683	17
226.918	25
227.152	27
227.387	24
227.621	39
227.856	40
228.09	61
228.324	58
228.559	52
228.793	46
229.027	56
229.262	79
229.496	82
229.73	105
229.964	91
230.199	83
230.433	72
230.667	76
230.901	84
231.136	89
231.37	71
231.604	77
231.838	70
232.072	79
232.306	78
232.541	76
232.775	71
233.009	75
233.243	83
233.477	83
233.711	80
233.945	83
234.179	86
234.413	74
234.647	80
234.881	79
235.115	80
235.349	80
235.583	72
235.817	77
236.051	77
236.285	74
236.519	70
236.753	73
236.987	81
237.221	91
237.455	97
237.689	73
237.922	73
238.156	65
238.39	74
238.624	72
238.858	80
239.091	78
239.325	72
239.559	95
239.793	72
240.027	63
240.26	84
240.494	83
240.728	86
240.961	89
241.195	94
241.429	77
241.662	85
241.896	78
242.13	73
242.363	84
242.597	80
242.83	66
243.064	89
243.298	75
243.531	95
243.765	63
243.998	85
244.232	80
244.465	92
244.699	79
244.932	88
245.166	69
245.399	72
245.633	65
245.866	72
246.099	75
246.333	97
246.566	79
246.8	86
247.033	79
247.266	72
247.5	78
247.733	81
247.966	96
248.2	96
248.433	88
248.666	87
248.899	73
249.133	102
249.366	112
249.599	120
249.832	87
250.066	76
250.299	94
250.532	95
250.765	76
250.998	89
251.231	77
251.465	85
251.698	88
251.931	95
252.164	73
252.397	88
252.63	87
252.863	76
253.096	78
253.329	88
253.562	88
253.795	77
254.028	69
254.261	93
254.494	88
254.727	84
254.96	76
255.193	65
255.426	79
255.659	93
255.892	116
256.124	93
256.357	86
256.59	90
256.823	92
257.056	100
257.289	105
257.521	106
257.754	94
257.987	86
258.22	99
258.452	108
258.685	111
258.918	77
259.151	84
259.383	85
259.616	76
259.849	91
260.081	87
260.314	93
260.547	87
260.779	114
261.012	136
261.244	119
261.477	110
261.71	145
261.942	155
262.175	168
262.407	114
262.64	81
262.872	96
263.105	87
263.337	103
263.57	90
263.802	86
264.035	76
264.267	88
264.499	77
264.732	75
264.964	85
265.197	80
265.429	98
265.661	92
265.894	103
266.126	92
266.358	81
266.591	104
266.823	76
267.055	80
267.287	91
267.52	87
267.752	93
267.984	84
268.216	89
268.448	90
268.681	87
268.913	75
269.145	83
269.377	82
269.609	79
269.841	83
270.073	91
270.306	76
270.538	93
270.77	71
271.002	86
271.234	97
271.466	115
271.698	74
271.93	80
272.162	93
272.394	96
272.626	81
272.858	89
273.09	80
273.322	84
273.553	97
273.785	89
274.017	87
274.249	80
274.481	78
274.713	93
274.945	96
275.176	112
275.408	111
275.64	120
275.872	161
276.104	122
276.335	113
276.567	126
276.799	179
277.031	246
277.262	280
277.494	219
277.726	131
277.957	123
278.189	95
278.421	100
278.652	96
278.884	90
279.115	103
279.347	106
279.579	124
279.81	185
280.042	314
280.273	454
280.505	279
280.736	136
280.968	103
281.199	114
281.431	89
281.662	97
281.894	94
282.125	118
282.356	141
282.588	212
282.819	151
283.051	106
283.282	83
283.513	106
283.745	102
283.976	81
284.207	98
284.439	104
284.67	84
284.901	88
285.132	89
285.364	83
285.595	77
285.826	86
286.057	103
286.288	85
286.52	85
286.751	80
286.982	96
287.213	90
287.444	95
287.675	86
287.906	86
288.138	88
288.369	100
288.6	105
288.831	94
289.062	99
289.293	105
289.524	87
289.755	101
289.986	88
290.217	94
290.448	90
290.679	90
290.91	88
291.141	88
291.371	84
291.602	81
291.833	92
292.064	88
292.295	100
292.526	86
292.757	106
292.987	93
293.218	87
293.449	87
293.68	80
293.91	87
294.141	99
294.372	81
294.603	84
294.833	87
295.064	90
295.295	92
295.525	103
295.756	104
295.987	154
296.217	203
296.448	176
296.679	106
296.909	90
297.14	86
297.37	91
297.601	106
297.831	96
298.062	89
298.292	95
298.523	96
298.753	88
298.984	88
299.214	94
299.445	88
299.675	98
299.905	106
300.136	104
300.366	89
300.597	85
300.827	89
301.057	124
301.288	122
301.518	115
301.748	104
301.979	130
302.209	97
302.439	104
302.669	87
302.9	116
303.13	104
303.36	124
303.59	165
303.82	198
304.051	116
304.281	88
304.511	83
304.741	96
304.971	90
305.201	100
305.431	97
305.661	109
305.891	99
306.121	97
306.352	123
306.582	127
306.812	117
307.042	157
307.272	227
307.502	267
307.731	245
307.961	159
308.191	109
308.421	89
308.651	77
308.881	101
309.111	95
309.341	111
309.571	106
309.8	109
310.03	114
310.26	114
310.49	101
310.72	111
310.949	126
311.179	109
311.409	107
311.639	107
311.868	125
312.098	107
312.328	108
312.557	131
312.787	123
313.017	131
313.246	107
313.476	97
313.706	118
313.935	114
314.165	123
314.394	120
314.624	110
314.853	110
315.083	104
315.312	100
315.542	96
315.771	93
316.001	97
316.23	87
316.46	91
316.689	103
316.919	89
317.148	110
317.377	109
317.607	99
317.836	107
318.065	96
318.295	81
318.524	107
318.753	99
318.983	102
319.212	107
319.441	115
319.67	124
319.9	93
320.129	98
320.358	94
320.587	112
320.816	127
321.046	123
321.275	107
321.504	108
321.733	103
321.962	124
322.191	129
322.42	131
322.649	133
322.878	126
323.108	145
323.337	180
323.566	180
323.795	217
324.024	301
324.253	641
324.482	1431
324.71	3112
324.939	4103
325.168	1471
325.397	389
325.626	226
325.855	159
326.084	155
326.313	164
326.542	221
326.77	345
326.999	701
327.228	1541
327.457	2885
327.686	2288
327.914	852
328.143	932
328.372	1244
328.6	635
328.829	267
329.058	264
329.287	252
329.515	248
329.744	440
329.972	872
330.201	1982
330.43	2883
330.658	1198
330.887	435
331.115	244
331.344	155
331.572	143
331.801	150
332.03	152
332.258	126
332.486	127
332.715	122
332.943	132
333.172	143
333.4	162
333.629	250
333.857	372
334.085	773
334.314	1811
334.542	3562
334.771	3301
334.999	757
335.227	267
335.455	167
335.684	136
335.912	120
336.14	116
336.369	131
336.597	136
336.825	112
337.053	97
337.281	113
337.51	105
337.738	123
337.966	101
338.194	127
338.422	99
338.65	104
338.878	109
339.106	92
339.334	87
339.562	95
339.79	106
340.018	91
340.246	107
340.474	112
340.702	111
340.93	107
341.158	100
341.386	114
341.614	102
341.842	99
342.07	101
342.298	101
342.526	94
342.754	91
342.981	98
343.209	89
343.437	92
343.665	88
343.893	100
344.12	90
344.348	98
344.576	95
344.804	88
345.031	122
345.259	124
345.487	117
345.714	107
345.942	92
346.17	106
346.397	99
346.625	117
346.853	102
347.08	94
347.308	99
347.535	113
347.763	115
347.99	115
348.218	120
348.445	126
348.673	110
348.9	109
349.128	104
349.355	91
349.583	85
349.81	100
350.037	89
350.265	109
350.492	107
350.72	107
350.947	103
351.174	124
351.402	127
351.629	120
351.856	123
352.083	117
352.311	147
352.538	138
352.765	139
352.992	140
353.22	122
353.447	128
353.674	105
353.901	97
354.128	97
354.355	97
354.583	94
354.81	94
355.037	99
355.264	93
355.491	74
355.718	92
355.945	101
356.172	104
356.399	93
356.626	91
356.853	77
357.08	101
357.307	94
357.534	102
357.761	93
357.988	109
358.215	87
358.441	91
358.668	87
358.895	92
359.122	109
359.349	97
359.576	118
359.802	139
360.029	179
360.256	162
360.483	112
360.709	88
360.936	93
361.163	111
361.39	107
361.616	132
361.843	81
362.07	106
362.296	114
362.523	96
362.749	102
362.976	111
363.203	90
363.429	111
363.656	106
363.882	101
364.109	95
364.335	103
364.562	101
364.788	102
365.015	96
365.241	99
365.468	131
365.694	122
365.92	96
366.147	104
366.373	108
366.599	94
366.826	104
367.052	107
367.278	82
367.505	97
367.731	102
367.957	99
368.184	99
368.41	97
368.636	127
368.862	138
369.089	139
369.315	110
369.541	110
369.767	97
369.993	88
370.219	93
370.445	94
370.672	80
370.898	80
371.124	100
371.35	97
371.576	92
371.802	94
372.028	84
372.254	85
372.48	87
372.706	77
372.932	90
373.158	97
373.384	103
373.61	95
373.835	99
374.061	77
374.287	107
374.513	90
374.739	81
374.965	88
375.191	95
375.416	99
375.642	86
375.868	78
376.094	86
376.319	83
376.545	97
376.771	91
376.997	91
377.222	91
377.448	102
377.674	81
377.899	96
378.125	73
378.35	93
378.576	97
378.802	86
379.027	81
379.253	79
379.478	86
379.704	94
379.929	94
380.155	99
380.38	87
380.606	92
380.831	95
381.057	100
381.282	109
381.507	94
381.733	99
381.958	109
382.184	95
382.409	99
382.634	116
382.86	97
383.085	96
383.31	119
383.535	94
383.761	101
383.986	102
384.211	115
384.436	107
384.662	92
384.887	103
385.112	98
385.337	104
385.562	114
385.787	100
386.013	101
386.238	124
386.463	101
386.688	105
386.913	89
387.138	100
387.363	105
387.588	111
387.813	102
388.038	106
388.263	97
388.488	86
388.713	77
388.938	97
389.163	96
389.387	77
389.612	101
389.837	81
390.062	83
390.287	83
390.512	80
390.736	77
390.961	97
391.186	84
391.411	72
391.636	96
391.86	93
392.085	91
392.31	85
392.534	92
392.759	80
392.984	82
393.208	91
393.433	98
393.658	72
393.882	71
394.107	79
394.331	83
394.556	95
394.78	78
395.005	84
395.229	96
395.454	95
395.678	95
395.903	93
396.127	103
396.352	84
396.576	89
396.801	88
397.025	80
397.249	91
397.474	106
397.698	83
397.922	97
398.147	88
398.371	91
398.595	84
398.82	96
399.044	101
399.268	85
399.492	87
399.717	100
399.941	109
400.165	104
400.389	88
400.613	81
400.837	84
401.062	91
401.286	89
401.51	108
401.734	113
401.958	119
402.182	180
402.406	246
402.63	179
402.854	108
403.078	89
403.302	85
403.526	96
403.75	104
403.974	93
404.198	95
404.422	100
404.645	94
404.869	109
405.093	151
405.317	184
405.541	168
405.765	143
405.988	148
406.212	265
406.436	397
406.66	252
406.883	138
407.107	114
407.331	116
407.555	134
407.778	114
408.002	103
408.226	101
408.449	96
408.673	94
408.896	100
409.12	109
409.344	101
409.567	89
409.791	93
410.014	84
410.238	87
410.461	89
410.685	91
410.908	108
411.132	116
411.355	102
411.578	95
411.802	99
412.025	80
412.249	110
412.472	155
412.695	167
412.919	135
413.142	119
413.365	73
413.589	79
413.812	97
414.035	85
414.258	99
414.482	93
414.705	102
414.928	78
415.151	88
415.374	96
415.597	88
415.821	85
416.044	98
416.267	80
416.49	80
416.713	92
416.936	83
417.159	86
417.382	106
417.605	135
417.828	141
418.051	111
418.274	113
418.497	92
418.72	89
418.943	88
419.166	98
419.389	86
419.611	101
419.834	91
420.057	93
420.28	104
420.503	105
420.726	88
420.948	111
421.171	123
421.394	110
421.617	92
421.839	97
422.062	112
422.285	103
422.507	100
422.73	108
422.953	93
423.175	87
423.398	87
423.621	74
423.843	90
424.066	89
424.288	98
424.511	93
424.733	119
424.956	135
425.178	121
425.401	123
425.623	104
425.846	107
426.068	100
426.291	100
426.513	93
426.735	109
426.958	102
427.18	134
427.402	212
427.625	340
427.847	334
428.069	310
428.292	169
428.514	117
428.736	93
428.958	93
429.181	75
429.403	87
429.625	81
429.847	105
430.069	124
430.292	118
430.514	98
430.736	94
430.958	110
431.18	97
431.402	78
431.624	71
431.846	77
432.068	77
432.29	86
432.512	86
432.734	104
432.956	91
433.178	108
433.4	106
433.622	86
433.844	86
434.066	84
434.287	97
434.509	82
434.731	99
434.953	94
435.175	82
435.397	103
435.618	87
435.84	111
436.062	159
436.284	134
436.505	127
436.727	117
436.949	109
437.17	94
437.392	99
437.614	95
437.835	142
438.057	187
438.278	139
438.5	120
438.721	143
438.943	136
439.165	93
439.386	97
439.608	92
439.829	122
440.05	183
440.272	225
440.493	134
440.715	99
440.936	101
441.158	98
441.379	92
441.6	102
441.822	107
442.043	119
442.264	137
442.486	112
442.707	105
442.928	140
443.149	214
443.371	229
443.592	164
443.813	148
444.034	130
444.255	93
444.476	93
444.698	94
444.919	104
445.14	118
445.361	155
445.582	184
445.803	245
446.024	220
446.245	203
446.466	139
446.687	111
446.908	102
447.129	101
447.35	93
447.571	102
447.792	99
448.013	120
448.234	132
448.455	114
448.675	119
448.896	137
449.117	107
449.338	123
449.559	173
449.779	161
450	118
450.221	103
450.442	87
450.662	115
450.883	137
451.104	145
451.324	118
451.545	88
451.766	96
451.986	93
452.207	96
452.428	105
452.648	128
452.869	157
453.089	142
453.31	164
453.53	117
453.751	110
453.971	141
454.192	172
454.412	132
454.633	86
454.853	90
455.073	91
455.294	105
455.514	123
455.734	107
455.955	73
456.175	87
456.395	85
456.616	92
456.836	75
457.056	74
457.276	81
457.497	82
457.717	92
457.937	96
458.157	104
458.377	108
458.598	140
458.818	263
459.038	311
459.258	164
459.478	111
459.698	88
459.918	99
460.138	96
460.358	81
460.578	93
460.798	95
461.018	79
461.238	87
461.458	95
461.678	95
461.898	83
462.118	90
462.338	102
462.558	83
462.777	95
462.997	109
463.217	132
463.437	103
463.657	100
463.876	83
464.096	103
464.316	110
464.536	113
464.755	109
464.975	144
465.195	316
465.414	310
465.634	129
465.854	99
466.073	91
466.293	102
466.512	103
466.732	98
466.951	110
467.171	127
467.391	137
467.61	184
467.829	338
468.049	1063
468.268	1676
468.488	373
468.707	139
468.927	113
469.146	91
469.365	110
469.585	105
469.804	119
470.023	135
470.243	134
470.462	158
470.681	159
470.901	138
471.12	117
471.339	133
471.558	150
471.777	216
471.997	517
472.216	2203
472.435	5039
472.654	1047
472.873	236
473.092	134
473.311	103
473.53	96
473.749	91
473.968	113
474.187	117
474.406	117
474.625	85
474.844	104
475.063	96
475.282	93
475.501	90
475.72	121
475.939	80
476.158	103
476.377	91
476.596	87
476.814	118
477.033	118
477.252	99
477.471	109
477.69	97
477.908	106
478.127	103
478.346	98
478.564	98
478.783	120
479.002	124
479.22	133
479.439	149
479.658	169
479.876	152
480.095	156
480.313	191
480.532	227
480.751	465
480.969	1927
481.188	8493
481.406	4720
481.624	594
481.843	184
482.061	132
482.28	90
482.498	96
482.717	100
482.935	88
483.153	86
483.372	92
483.59	90
483.808	97
484.027	106
484.245	106
484.463	92
484.681	109
484.9	107
485.118	105
485.336	104
485.554	97
485.772	93
485.99	105
486.209	127
486.427	115
486.645	130
486.863	161
487.081	123
487.299	109
487.517	92
487.735	92
487.953	103
488.171	105
488.389	101
488.607	112
488.825	104
489.043	93
489.261	82
489.479	78
489.696	95
489.914	100
490.132	87
490.35	83
490.568	87
490.786	75
491.003	94
491.221	89
491.439	103
491.657	101
491.874	101
492.092	105
492.31	104
492.527	122
492.745	121
492.963	91
493.18	83
493.398	88
493.615	90
493.833	101
494.05	91
494.268	90
494.485	84
494.703	88
494.92	89
495.138	92
495.355	88
495.573	79
495.79	89
496.008	90
496.225	108
496.442	100
496.66	100
496.877	79
497.094	91
497.312	89
497.529	95
497.746	97
497.963	87
498.181	106
498.398	116
498.615	128
498.832	121
499.049	110
499.267	93
499.484	80
499.701	95
499.918	96
500.135	93
500.352	95
500.569	98
500.786	107
501.003	92
501.22	90
501.437	92
501.654	115
501.871	158
502.088	104
502.305	104
502.522	84
502.739	88
502.956	110
503.172	89
503.389	115
503.606	151
503.823	120
504.04	97
504.256	111
504.473	89
504.69	88
504.907	97
505.123	103
505.34	88
505.557	94
505.773	89
505.99	108
506.207	92
506.423	82
506.64	102
506.856	91
507.073	96
507.289	117
507.506	114
507.722	161
507.939	167
508.155	99
508.372	107
508.588	95
508.805	115
509.021	95
509.238	104
509.454	108
509.67	118
509.887	113
510.103	167
510.319	287
510.536	1183
510.752	4304
510.968	1126
511.184	227
511.401	148
511.617	118
511.833	130
512.049	116
512.265	96
512.481	93
512.698	108
512.914	99
513.13	102
513.346	104
513.562	108
513.778	114
513.994	130
514.21	131
514.426	169
514.642	232
514.858	199
515.074	295
515.29	993
515.506	3647
515.721	1193
515.937	273
516.153	175
516.369	137
516.585	111
516.801	123
517.016	118
517.232	107
517.448	106
517.664	96
517.879	105
518.095	110
518.311	130
518.527	126
518.742	116
518.958	108
519.173	98
519.389	102
519.605	105
519.82	106
520.036	124
520.251	169
520.467	153
520.682	128
520.898	143
521.113	167
521.329	227
521.544	411
521.76	1344
521.975	6176
522.19	3545
522.406	659
522.621	190
522.836	132
523.052	123
523.267	121
523.482	113
523.698	135
523.913	178
524.128	145
524.343	105
524.559	103
524.774	90
524.989	103
525.204	123
525.419	110
525.634	87
525.849	95
526.064	87
526.28	103
526.495	92
526.71	93
526.925	81
527.14	94
527.355	90
527.57	98
527.785	104
527.999	99
528.214	106
528.429	109
528.644	104
528.859	102
529.074	105
529.289	195
529.503	366
529.718	147
529.933	100
530.148	91
530.363	103
530.577	89
530.792	91
531.007	93
531.221	93
531.436	81
531.651	86
531.865	90
532.08	86
532.295	93
532.509	109
532.724	76
532.938	99
533.153	99
533.367	102
533.582	90
533.796	109
534.011	79
534.225	86
534.44	96
534.654	94
534.868	94
535.083	91
535.297	88
535.511	117
535.726	116
535.94	100
536.154	108
536.369	96
536.583	84
536.797	91
537.011	90
537.225	87
537.44	87
537.654	94
537.868	98
538.082	87
538.296	101
538.51	90
538.724	94
538.938	94
539.153	111
539.367	122
539.581	102
539.795	90
540.009	97
540.222	103
540.436	99
540.65	83
540.864	111
541.078	113
541.292	96
541.506	94
541.72	93
541.934	84
542.147	96
542.361	92
542.575	97
542.789	101
543.002	83
543.216	96
543.43	107
543.644	88
543.857	89
544.071	95
544.285	84
544.498	96
544.712	101
544.925	99
545.139	88
545.352	76
545.566	81
545.779	81
545.993	90
546.206	69
546.42	91
546.633	100
546.847	89
547.06	88
547.274	94
547.487	100
547.7	96
547.914	84
548.127	89
548.34	88
548.554	90
548.767	99
548.98	97
549.193	93
549.407	99
549.62	89
549.833	81
550.046	81
550.259	84
550.473	99
550.686	91
550.899	89
551.112	78
551.325	97
551.538	98
551.751	99
551.964	100
552.177	80
552.39	77
552.603	93
552.816	91
553.029	100
553.242	93
553.455	120
553.667	125
553.88	117
554.093	110
554.306	141
554.519	139
554.732	94
554.944	93
555.157	87
555.37	102
555.583	92
555.795	91
556.008	88
556.221	106
556.433	95
556.646	91
556.859	85
557.071	84
557.284	85
557.496	87
557.709	86
557.921	85
558.134	81
558.346	95
558.559	95
558.771	89
558.984	90
559.196	79
559.409	90
559.621	89
559.833	104
560.046	101
560.258	135
560.47	166
560.683	113
560.895	97
561.107	98
561.32	100
561.532	92
561.744	84
561.956	90
562.168	94
562.381	97
562.593	82
562.805	102
563.017	92
563.229	94
563.441	80
563.653	85
563.865	99
564.077	69
564.289	87
564.501	93
564.713	99
564.925	109
565.137	124
565.349	89
565.561	86
565.773	78
565.985	84
566.197	85
566.408	103
566.62	86
566.832	105
567.044	84
567.255	92
567.467	96
567.679	96
567.891	93
568.102	89
568.314	91
568.526	93
568.737	85
568.949	91
569.161	93
569.372	83
569.584	89
569.795	85
570.007	139
570.218	356
570.43	173
570.641	99
570.853	92
571.064	91
571.276	94
571.487	98
571.698	90
571.91	87
572.121	78
572.333	83
572.544	110
572.755	94
572.966	98
573.178	93
573.389	96
573.6	98
573.811	95
574.023	96
574.234	86
574.445	87
574.656	95
574.867	89
575.078	84
575.289	90
575.501	84
575.712	93
575.923	80
576.134	80
576.345	79
576.556	107
576.767	96
576.978	93
577.188	96
577.399	94
577.61	104
