Data from Circ_1998_H10_HRD10591_00020.txt Node
Date: Wed Jan 03 11:26:52 EST 2024
User: Yrep
Spectrometer: HR+D1059
Trigger mode: 1
Integration Time (sec): 1.000000E-1
Scans to average: 1
Electric dark correction enabled: true
Nonlinearity correction enabled: false
Boxcar width: 0
XAxis mode: Wavelengths
Number of Pixels in Spectrum: 2048
>>>>>Begin Spectral Data<<<<<
223.165	-22.69
223.4	-22.69
223.635	-22.69
223.869	-19.69
224.104	-19.69
224.338	-9.69
224.573	-7.69
224.808	-21.69
225.042	-19.69
225.277	-7.69
225.511	0.31
225.746	8.31
225.98	1.31
226.215	17.31
226.449	15.31
226.683	14.31
226.918	29.31
227.152	42.31
227.387	24.31
227.621	43.31
227.856	52.31
228.09	44.31
228.324	46.31
228.559	57.31
228.793	67.31
229.027	58.31
229.262	80.31
229.496	78.31
229.73	100.31
229.964	94.31
230.199	81.31
230.433	76.31
230.667	80.31
230.901	79.31
231.136	67.31
231.37	79.31
231.604	73.31
231.838	75.31
232.072	76.31
232.306	79.31
232.541	89.31
232.775	83.31
233.009	85.31
233.243	79.31
233.477	81.31
233.711	75.31
233.945	74.31
234.179	91.31
234.413	93.31
234.647	79.31
234.881	87.31
235.115	90.31
235.349	65.31
235.583	85.31
235.817	79.31
236.051	92.31
236.285	73.31
236.519	74.31
236.753	84.31
236.987	92.31
237.221	83.31
237.455	97.31
237.689	81.31
237.922	86.31
238.156	72.31
238.39	79.31
238.624	74.31
238.858	77.31
239.091	71.31
239.325	78.31
239.559	93.31
239.793	87.31
240.027	92.31
240.26	83.31
240.494	80.31
240.728	79.31
240.961	76.31
241.195	73.31
241.429	82.31
241.662	87.31
241.896	90.31
242.13	78.31
242.363	86.31
242.597	77.31
242.83	81.31
243.064	72.31
243.298	85.31
243.531	90.31
243.765	79.31
243.998	84.31
244.232	92.31
244.465	83.31
244.699	95.31
244.932	84.31
245.166	79.31
245.399	66.31
245.633	68.31
245.866	80.31
246.099	90.31
246.333	75.31
246.566	80.31
246.8	85.31
247.033	82.31
247.266	90.31
247.5	77.31
247.733	81.31
247.966	87.31
248.2	84.31
248.433	104.31
248.666	90.31
248.899	85.31
249.133	89.31
249.366	110.31
249.599	100.31
249.832	100.31
250.066	87.31
250.299	86.31
250.532	93.31
250.765	104.31
250.998	82.31
251.231	82.31
251.465	85.31
251.698	87.31
251.931	95.31
252.164	83.31
252.397	88.31
252.63	83.31
252.863	83.31
253.096	74.31
253.329	88.31
253.562	77.31
253.795	83.31
254.028	83.31
254.261	87.31
254.494	78.31
254.727	77.31
254.96	100.31
255.193	80.31
255.426	71.31
255.659	95.31
255.892	95.31
256.124	103.31
256.357	92.31
256.59	103.31
256.823	86.31
257.056	97.31
257.289	89.31
257.521	93.31
257.754	95.31
257.987	96.31
258.22	104.31
258.452	95.31
258.685	93.31
258.918	101.31
259.151	98.31
259.383	95.31
259.616	79.31
259.849	80.31
260.081	87.31
260.314	89.31
260.547	88.31
260.779	118.31
261.012	119.31
261.244	100.31
261.477	108.31
261.71	115.31
261.942	151.31
262.175	167.31
262.407	115.31
262.64	88.31
262.872	99.31
263.105	90.31
263.337	84.31
263.57	88.31
263.802	86.31
264.035	79.31
264.267	85.31
264.499	81.31
264.732	96.31
264.964	80.31
265.197	93.31
265.429	84.31
265.661	91.31
265.894	78.31
266.126	88.31
266.358	81.31
266.591	85.31
266.823	85.31
267.055	99.31
267.287	77.31
267.52	91.31
267.752	108.31
267.984	73.31
268.216	85.31
268.448	80.31
268.681	87.31
268.913	91.31
269.145	99.31
269.377	75.31
269.609	72.31
269.841	87.31
270.073	75.31
270.306	90.31
270.538	95.31
270.77	91.31
271.002	84.31
271.234	109.31
271.466	90.31
271.698	83.31
271.93	78.31
272.162	91.31
272.394	89.31
272.626	82.31
272.858	87.31
273.09	90.31
273.322	90.31
273.553	62.31
273.785	89.31
274.017	92.31
274.249	87.31
274.481	84.31
274.713	108.31
274.945	97.31
275.176	101.31
275.408	115.31
275.64	125.31
275.872	135.31
276.104	119.31
276.335	103.31
276.567	139.31
276.799	166.31
277.031	200.31
277.262	197.31
277.494	140.31
277.726	103.31
277.957	89.31
278.189	97.31
278.421	88.31
278.652	91.31
278.884	105.31
279.115	88.31
279.347	86.31
279.579	104.31
279.81	139.31
280.042	209.31
280.273	299.31
280.505	203.31
280.736	111.31
280.968	78.31
281.199	91.31
281.431	89.31
281.662	96.31
281.894	96.31
282.125	84.31
282.356	121.31
282.588	188.31
282.819	133.31
283.051	99.31
283.282	93.31
283.513	82.31
283.745	85.31
283.976	91.31
284.207	76.31
284.439	101.31
284.67	105.31
284.901	97.31
285.132	91.31
285.364	95.31
285.595	100.31
285.826	78.31
286.057	91.31
286.288	83.31
286.52	81.31
286.751	86.31
286.982	82.31
287.213	109.31
287.444	79.31
287.675	98.31
287.906	98.31
288.138	91.31
288.369	87.31
288.6	105.31
288.831	87.31
289.062	76.31
289.293	72.31
289.524	82.31
289.755	87.31
289.986	94.31
290.217	94.31
290.448	84.31
290.679	76.31
290.91	78.31
291.141	95.31
291.371	103.31
291.602	93.31
291.833	99.31
292.064	95.31
292.295	95.31
292.526	87.31
292.757	100.31
292.987	106.31
293.218	84.31
293.449	98.31
293.68	99.31
293.91	97.31
294.141	90.31
294.372	87.31
294.603	101.31
294.833	83.31
295.064	96.31
295.295	106.31
295.525	88.31
295.756	115.31
295.987	131.31
296.217	163.31
296.448	154.31
296.679	92.31
296.909	84.31
297.14	96.31
297.37	98.31
297.601	97.31
297.831	76.31
298.062	89.31
298.292	90.31
298.523	90.31
298.753	75.31
298.984	96.31
299.214	87.31
299.445	107.31
299.675	103.31
299.905	91.31
300.136	101.31
300.366	83.31
300.597	101.31
300.827	91.31
301.057	115.31
301.288	128.31
301.518	116.31
301.748	97.31
301.979	123.31
302.209	113.31
302.439	93.31
302.669	89.31
302.9	83.31
303.13	100.31
303.36	118.31
303.59	143.31
303.82	148.31
304.051	96.31
304.281	80.31
304.511	109.31
304.741	95.31
304.971	107.31
305.201	106.31
305.431	99.31
305.661	98.31
305.891	98.31
306.121	111.31
306.352	115.31
306.582	132.31
306.812	123.31
307.042	121.31
307.272	160.31
307.502	182.31
307.731	183.31
307.961	129.31
308.191	103.31
308.421	100.31
308.651	101.31
308.881	94.31
309.111	101.31
309.341	109.31
309.571	103.31
309.8	101.31
310.03	113.31
310.26	119.31
310.49	104.31
310.72	105.31
310.949	129.31
311.179	108.31
311.409	102.31
311.639	89.31
311.868	95.31
312.098	109.31
312.328	120.31
312.557	112.31
312.787	122.31
313.017	119.31
313.246	108.31
313.476	103.31
313.706	83.31
313.935	110.31
314.165	117.31
314.394	121.31
314.624	101.31
314.853	112.31
315.083	101.31
315.312	97.31
315.542	107.31
315.771	107.31
316.001	100.31
316.23	97.31
316.46	98.31
316.689	86.31
316.919	97.31
317.148	120.31
317.377	99.31
317.607	127.31
317.836	104.31
318.065	94.31
318.295	97.31
318.524	97.31
318.753	106.31
318.983	111.31
319.212	124.31
319.441	121.31
319.67	115.31
319.9	108.31
320.129	102.31
320.358	95.31
320.587	84.31
320.816	121.31
321.046	121.31
321.275	115.31
321.504	100.31
321.733	105.31
321.962	104.31
322.191	101.31
322.42	125.31
322.649	121.31
322.878	124.31
323.108	127.31
323.337	155.31
323.566	159.31
323.795	205.31
324.024	261.31
324.253	539.31
324.482	1189.31
324.71	2489.31
324.939	3345.31
325.168	1221.31
325.397	366.31
325.626	197.31
325.855	140.31
326.084	156.31
326.313	170.31
326.542	203.31
326.77	297.31
326.999	585.31
327.228	1258.31
327.457	2411.31
327.686	1923.31
327.914	643.31
328.143	595.31
328.372	803.31
328.6	436.31
328.829	207.31
329.058	212.31
329.287	217.31
329.515	195.31
329.744	285.31
329.972	549.31
330.201	1163.31
330.43	1705.31
330.658	744.31
330.887	325.31
331.115	205.31
331.344	141.31
331.572	140.31
331.801	130.31
332.03	140.31
332.258	115.31
332.486	109.31
332.715	112.31
332.943	128.31
333.172	133.31
333.4	144.31
333.629	164.31
333.857	258.31
334.085	478.31
334.314	1044.31
334.542	2081.31
334.771	2012.31
334.999	510.31
335.227	197.31
335.455	146.31
335.684	121.31
335.912	119.31
336.14	139.31
336.369	106.31
336.597	116.31
336.825	115.31
337.053	108.31
337.281	104.31
337.51	111.31
337.738	107.31
337.966	97.31
338.194	99.31
338.422	117.31
338.65	108.31
338.878	104.31
339.106	97.31
339.334	92.31
339.562	105.31
339.79	100.31
340.018	100.31
340.246	104.31
340.474	107.31
340.702	104.31
340.93	87.31
341.158	100.31
341.386	115.31
341.614	121.31
341.842	111.31
342.07	87.31
342.298	96.31
342.526	103.31
342.754	94.31
342.981	95.31
343.209	91.31
343.437	95.31
343.665	89.31
343.893	94.31
344.12	116.31
344.348	75.31
344.576	91.31
344.804	105.31
345.031	102.31
345.259	110.31
345.487	103.31
345.714	115.31
345.942	96.31
346.17	88.31
346.397	98.31
346.625	93.31
346.853	92.31
347.08	96.31
347.308	110.31
347.535	112.31
347.763	127.31
347.99	114.31
348.218	121.31
348.445	127.31
348.673	120.31
348.9	113.31
349.128	114.31
349.355	84.31
349.583	93.31
349.81	108.31
350.037	112.31
350.265	94.31
350.492	99.31
350.72	117.31
350.947	110.31
351.174	123.31
351.402	112.31
351.629	117.31
351.856	105.31
352.083	112.31
352.311	128.31
352.538	117.31
352.765	127.31
352.992	140.31
353.22	119.31
353.447	112.31
353.674	101.31
353.901	112.31
354.128	104.31
354.355	95.31
354.583	96.31
354.81	105.31
355.037	99.31
355.264	102.31
355.491	96.31
355.718	90.31
355.945	93.31
356.172	85.31
356.399	102.31
356.626	89.31
356.853	84.31
357.08	94.31
357.307	94.31
357.534	82.31
357.761	92.31
357.988	97.31
358.215	115.31
358.441	113.31
358.668	105.31
358.895	107.31
359.122	95.31
359.349	95.31
359.576	101.31
359.802	112.31
360.029	172.31
360.256	155.31
360.483	120.31
360.709	95.31
360.936	118.31
361.163	116.31
361.39	99.31
361.616	121.31
361.843	93.31
362.07	115.31
362.296	110.31
362.523	104.31
362.749	103.31
362.976	100.31
363.203	101.31
363.429	98.31
363.656	96.31
363.882	94.31
364.109	96.31
364.335	100.31
364.562	108.31
364.788	86.31
365.015	110.31
365.241	101.31
365.468	132.31
365.694	125.31
365.92	99.31
366.147	89.31
366.373	98.31
366.599	94.31
366.826	104.31
367.052	93.31
367.278	99.31
367.505	108.31
367.731	93.31
367.957	110.31
368.184	105.31
368.41	113.31
368.636	116.31
368.862	147.31
369.089	121.31
369.315	105.31
369.541	118.31
369.767	99.31
369.993	112.31
370.219	107.31
370.445	88.31
370.672	93.31
370.898	105.31
371.124	82.31
371.35	93.31
371.576	90.31
371.802	99.31
372.028	82.31
372.254	79.31
372.48	79.31
372.706	99.31
372.932	100.31
373.158	87.31
373.384	105.31
373.61	104.31
373.835	89.31
374.061	93.31
374.287	107.31
374.513	104.31
374.739	101.31
374.965	86.31
375.191	95.31
375.416	106.31
375.642	107.31
375.868	97.31
376.094	87.31
376.319	101.31
376.545	93.31
376.771	88.31
376.997	84.31
377.222	98.31
377.448	99.31
377.674	91.31
377.899	96.31
378.125	89.31
378.35	92.31
378.576	101.31
378.802	86.31
379.027	84.31
379.253	109.31
379.478	92.31
379.704	95.31
379.929	79.31
380.155	101.31
380.38	104.31
380.606	100.31
380.831	117.31
381.057	117.31
381.282	99.31
381.507	105.31
381.733	104.31
381.958	103.31
382.184	95.31
382.409	97.31
382.634	107.31
382.86	104.31
383.085	108.31
383.31	97.31
383.535	105.31
383.761	95.31
383.986	105.31
384.211	108.31
384.436	107.31
384.662	105.31
384.887	114.31
385.112	104.31
385.337	108.31
385.562	106.31
385.787	118.31
386.013	132.31
386.238	153.31
386.463	106.31
386.688	123.31
386.913	133.31
387.138	122.31
387.363	109.31
387.588	107.31
387.813	102.31
388.038	115.31
388.263	123.31
388.488	132.31
388.713	105.31
388.938	95.31
389.163	81.31
389.387	107.31
389.612	96.31
389.837	100.31
390.062	77.31
390.287	94.31
390.512	87.31
390.736	98.31
390.961	103.31
391.186	79.31
391.411	90.31
391.636	97.31
391.86	91.31
392.085	92.31
392.31	82.31
392.534	92.31
392.759	104.31
392.984	89.31
393.208	76.31
393.433	94.31
393.658	103.31
393.882	91.31
394.107	81.31
394.331	91.31
394.556	88.31
394.78	87.31
395.005	89.31
395.229	91.31
395.454	96.31
395.678	78.31
395.903	79.31
396.127	100.31
396.352	112.31
396.576	104.31
396.801	95.31
397.025	89.31
397.249	97.31
397.474	72.31
397.698	91.31
397.922	88.31
398.147	101.31
398.371	86.31
398.595	102.31
398.82	86.31
399.044	97.31
399.268	75.31
399.492	86.31
399.717	92.31
399.941	90.31
400.165	103.31
400.389	105.31
400.613	92.31
400.837	93.31
401.062	109.31
401.286	98.31
401.51	92.31
401.734	98.31
401.958	111.31
402.182	171.31
402.406	232.31
402.63	161.31
402.854	108.31
403.078	105.31
403.302	88.31
403.526	89.31
403.75	91.31
403.974	98.31
404.198	90.31
404.422	83.31
404.645	99.31
404.869	107.31
405.093	128.31
405.317	154.31
405.541	150.31
405.765	120.31
405.988	160.31
406.212	234.31
406.436	364.31
406.66	226.31
406.883	134.31
407.107	119.31
407.331	99.31
407.555	125.31
407.778	107.31
408.002	103.31
408.226	96.31
408.449	87.31
408.673	104.31
408.896	95.31
409.12	104.31
409.344	89.31
409.567	86.31
409.791	89.31
410.014	88.31
410.238	104.31
410.461	107.31
410.685	104.31
410.908	91.31
411.132	115.31
411.355	116.31
411.578	96.31
411.802	96.31
412.025	89.31
412.249	113.31
412.472	112.31
412.695	132.31
412.919	115.31
413.142	100.31
413.365	101.31
413.589	105.31
413.812	82.31
414.035	98.31
414.258	83.31
414.482	93.31
414.705	89.31
414.928	103.31
415.151	97.31
415.374	96.31
415.597	88.31
415.821	99.31
416.044	107.31
416.267	102.31
416.49	97.31
416.713	105.31
416.936	91.31
417.159	89.31
417.382	116.31
417.605	112.31
417.828	108.31
418.051	92.31
418.274	99.31
418.497	80.31
418.72	97.31
418.943	99.31
419.166	85.31
419.389	96.31
419.611	99.31
419.834	91.31
420.057	91.31
420.28	96.31
420.503	99.31
420.726	94.31
420.948	92.31
421.171	100.31
421.394	110.31
421.617	90.31
421.839	100.31
422.062	96.31
422.285	98.31
422.507	103.31
422.73	103.31
422.953	101.31
423.175	93.31
423.398	90.31
423.621	97.31
423.843	93.31
424.066	92.31
424.288	96.31
424.511	104.31
424.733	110.31
424.956	128.31
425.178	113.31
425.401	113.31
425.623	106.31
425.846	72.31
426.068	102.31
426.291	106.31
426.513	109.31
426.735	94.31
426.958	120.31
427.18	124.31
427.402	203.31
427.625	287.31
427.847	271.31
428.069	244.31
428.292	145.31
428.514	109.31
428.736	81.31
428.958	87.31
429.181	92.31
429.403	96.31
429.625	90.31
429.847	99.31
430.069	114.31
430.292	100.31
430.514	97.31
430.736	86.31
430.958	88.31
431.18	87.31
431.402	85.31
431.624	84.31
431.846	83.31
432.068	95.31
432.29	86.31
432.512	89.31
432.734	75.31
432.956	108.31
433.178	100.31
433.4	114.31
433.622	97.31
433.844	99.31
434.066	88.31
434.287	103.31
434.509	90.31
434.731	96.31
434.953	92.31
435.175	113.31
435.397	104.31
435.618	102.31
435.84	116.31
436.062	156.31
436.284	131.31
436.505	121.31
436.727	104.31
436.949	107.31
437.17	94.31
437.392	114.31
437.614	107.31
437.835	141.31
438.057	163.31
438.278	135.31
438.5	126.31
438.721	152.31
438.943	116.31
439.165	99.31
439.386	92.31
439.608	94.31
439.829	128.31
440.05	174.31
440.272	196.31
440.493	127.31
440.715	95.31
440.936	89.31
441.158	94.31
441.379	94.31
441.6	111.31
441.822	117.31
442.043	115.31
442.264	124.31
442.486	113.31
442.707	109.31
442.928	129.31
443.149	183.31
443.371	183.31
443.592	136.31
443.813	144.31
444.034	131.31
444.255	100.31
444.476	89.31
444.698	110.31
444.919	108.31
445.14	131.31
445.361	140.31
445.582	138.31
445.803	190.31
446.024	185.31
446.245	175.31
446.466	131.31
446.687	102.31
446.908	100.31
447.129	101.31
447.35	97.31
447.571	103.31
447.792	100.31
448.013	113.31
448.234	125.31
448.455	120.31
448.675	129.31
448.896	141.31
449.117	108.31
449.338	118.31
449.559	157.31
449.779	164.31
450	105.31
450.221	98.31
450.442	91.31
450.662	117.31
450.883	153.31
451.104	151.31
451.324	106.31
451.545	99.31
451.766	93.31
451.986	80.31
452.207	66.31
452.428	97.31
452.648	119.31
452.869	133.31
453.089	129.31
453.31	154.31
453.53	112.31
453.751	94.31
453.971	142.31
454.192	150.31
454.412	112.31
454.633	82.31
454.853	86.31
455.073	99.31
455.294	100.31
455.514	109.31
455.734	99.31
455.955	100.31
456.175	110.31
456.395	92.31
456.616	73.31
456.836	95.31
457.056	80.31
457.276	84.31
457.497	95.31
457.717	90.31
457.937	98.31
458.157	100.31
458.377	87.31
458.598	123.31
458.818	217.31
459.038	245.31
459.258	162.31
459.478	106.31
459.698	84.31
459.918	83.31
460.138	76.31
460.358	101.31
460.578	97.31
460.798	97.31
461.018	91.31
461.238	80.31
461.458	80.31
461.678	75.31
461.898	97.31
462.118	92.31
462.338	85.31
462.558	87.31
462.777	94.31
462.997	101.31
463.217	122.31
463.437	104.31
463.657	99.31
463.876	99.31
464.096	96.31
464.316	99.31
464.536	107.31
464.755	113.31
464.975	125.31
465.195	260.31
465.414	269.31
465.634	121.31
465.854	90.31
466.073	104.31
466.293	77.31
466.512	96.31
466.732	79.31
466.951	91.31
467.171	101.31
467.391	106.31
467.61	156.31
467.829	252.31
468.049	663.31
468.268	1047.31
468.488	248.31
468.707	119.31
468.927	79.31
469.146	97.31
469.365	93.31
469.585	93.31
469.804	104.31
470.023	126.31
470.243	116.31
470.462	128.31
470.681	147.31
470.901	113.31
471.12	104.31
471.339	100.31
471.558	128.31
471.777	179.31
471.997	351.31
472.216	1331.31
472.435	3072.31
472.654	717.31
472.873	175.31
473.092	96.31
473.311	92.31
473.53	92.31
473.749	101.31
473.968	115.31
474.187	129.31
474.406	111.31
474.625	95.31
474.844	89.31
475.063	98.31
475.282	96.31
475.501	85.31
475.72	87.31
475.939	101.31
476.158	82.31
476.377	94.31
476.596	93.31
476.814	105.31
477.033	96.31
477.252	106.31
477.471	74.31
477.69	87.31
477.908	95.31
478.127	94.31
478.346	104.31
478.564	106.31
478.783	110.31
479.002	110.31
479.22	119.31
479.439	139.31
479.658	149.31
479.876	134.31
480.095	132.31
480.313	164.31
480.532	193.31
480.751	320.31
480.969	1199.31
481.188	5196.31
481.406	3072.31
481.624	432.31
481.843	150.31
482.061	107.31
482.28	105.31
482.498	102.31
482.717	105.31
482.935	80.31
483.153	89.31
483.372	108.31
483.59	118.31
483.808	94.31
484.027	94.31
484.245	96.31
484.463	102.31
484.681	112.31
484.9	85.31
485.118	93.31
485.336	113.31
485.554	115.31
485.772	100.31
485.99	88.31
486.209	114.31
486.427	109.31
486.645	120.31
486.863	130.31
487.081	119.31
487.299	123.31
487.517	96.31
487.735	90.31
487.953	95.31
488.171	108.31
488.389	95.31
488.607	102.31
488.825	112.31
489.043	88.31
489.261	93.31
489.479	98.31
489.696	97.31
489.914	91.31
490.132	101.31
490.35	82.31
490.568	79.31
490.786	100.31
491.003	97.31
491.221	92.31
491.439	97.31
491.657	91.31
491.874	99.31
492.092	85.31
492.31	92.31
492.527	97.31
492.745	109.31
492.963	99.31
493.18	103.31
493.398	94.31
493.615	100.31
493.833	96.31
494.05	93.31
494.268	92.31
494.485	100.31
494.703	100.31
494.92	90.31
495.138	99.31
495.355	96.31
495.573	99.31
495.79	92.31
496.008	100.31
496.225	77.31
496.442	90.31
496.66	100.31
496.877	101.31
497.094	90.31
497.312	112.31
497.529	95.31
497.746	91.31
497.963	103.31
498.181	93.31
498.398	103.31
498.615	142.31
498.832	110.31
499.049	101.31
499.267	96.31
499.484	75.31
499.701	76.31
499.918	76.31
500.135	96.31
500.352	106.31
500.569	95.31
500.786	105.31
501.003	95.31
501.22	97.31
501.437	98.31
501.654	91.31
501.871	132.31
502.088	96.31
502.305	98.31
502.522	98.31
502.739	108.31
502.956	103.31
503.172	96.31
503.389	105.31
503.606	116.31
503.823	100.31
504.04	93.31
504.256	93.31
504.473	97.31
504.69	99.31
504.907	107.31
505.123	92.31
505.34	107.31
505.557	79.31
505.773	100.31
505.99	87.31
506.207	88.31
506.423	97.31
506.64	93.31
506.856	93.31
507.073	80.31
507.289	95.31
507.506	118.31
507.722	138.31
507.939	154.31
508.155	93.31
508.372	112.31
508.588	100.31
508.805	123.31
509.021	103.31
509.238	97.31
509.454	97.31
509.67	107.31
509.887	122.31
510.103	142.31
510.319	271.31
510.536	1031.31
510.752	3741.31
510.968	1005.31
