Data from Circ_1998_H10_HRD10591_00095.txt Node
Date: Wed Jan 03 11:27:07 EST 2024
User: Yrep
Spectrometer: HR+D1059
Trigger mode: 1
Integration Time (sec): 1.000000E-1
Scans to average: 1
Electric dark correction enabled: true
Nonlinearity correction enabled: false
Boxcar width: 0
XAxis mode: Wavelengths
Number of Pixels in Spectrum: 2048
>>>>>Begin Spectral Data<<<<<
223.165	-9.69
223.4	-9.69
223.635	-9.69
223.869	-13.69
224.104	-24.69
224.338	-17.69
224.573	-3.69
224.808	-10.69
225.042	-4.69
225.277	-11.69
225.511	-9.69
225.746	-7.69
225.98	2.31
226.215	14.31
226.449	20.31
226.683	22.31
226.918	27.31
227.152	27.31
227.387	39.31
227.621	29.31
227.856	34.31
228.09	49.31
228.324	54.31
228.559	66.31
228.793	60.31
229.027	60.31
229.262	64.31
229.496	82.31
229.73	100.31
229.964	94.31
230.199	75.31
230.433	83.31
230.667	86.31
230.901	84.31
231.136	84.31
231.37	68.31
231.604	80.31
231.838	83.31
232.072	82.31
232.306	83.31
232.541	91.31
232.775	87.31
233.009	79.31
233.243	77.31
233.477	88.31
233.711	81.31
233.945	75.31
234.179	78.31
234.413	74.31
234.647	95.31
234.881	79.31
235.115	76.31
235.349	77.31
235.583	65.31
235.817	79.31
236.051	95.31
236.285	80.31
236.519	78.31
236.753	76.31
236.987	96.31
237.221	93.31
237.455	100.31
237.689	86.31
237.922	81.31
238.156	72.31
238.39	83.31
238.624	83.31
238.858	87.31
239.091	70.31
239.325	84.31
239.559	80.31
239.793	88.31
240.027	80.31
240.26	99.31
240.494	74.31
240.728	84.31
240.961	84.31
241.195	73.31
241.429	70.31
241.662	67.31
241.896	78.31
242.13	71.31
242.363	75.31
242.597	67.31
242.83	65.31
243.064	76.31
243.298	74.31
243.531	71.31
243.765	88.31
243.998	83.31
244.232	75.31
244.465	95.31
244.699	92.31
244.932	71.31
245.166	61.31
245.399	89.31
245.633	97.31
245.866	87.31
246.099	86.31
246.333	90.31
246.566	76.31
246.8	80.31
247.033	84.31
247.266	91.31
247.5	79.31
247.733	86.31
247.966	85.31
248.2	86.31
248.433	74.31
248.666	76.31
248.899	74.31
249.133	87.31
249.366	99.31
249.599	117.31
249.832	87.31
250.066	97.31
250.299	94.31
250.532	82.31
250.765	96.31
250.998	79.31
251.231	97.31
251.465	80.31
251.698	97.31
251.931	90.31
252.164	90.31
252.397	69.31
252.63	74.31
252.863	70.31
253.096	76.31
253.329	72.31
253.562	78.31
253.795	78.31
254.028	93.31
254.261	80.31
254.494	104.31
254.727	84.31
254.96	86.31
255.193	75.31
255.426	98.31
255.659	83.31
255.892	110.31
256.124	94.31
256.357	90.31
256.59	90.31
256.823	91.31
257.056	95.31
257.289	96.31
257.521	92.31
257.754	84.31
257.987	83.31
258.22	104.31
258.452	110.31
258.685	95.31
258.918	87.31
259.151	87.31
259.383	80.31
259.616	92.31
259.849	80.31
260.081	72.31
260.314	86.31
260.547	101.31
260.779	110.31
261.012	127.31
261.244	130.31
261.477	112.31
261.71	110.31
261.942	136.31
262.175	144.31
262.407	88.31
262.64	104.31
262.872	88.31
263.105	97.31
263.337	88.31
263.57	79.31
263.802	85.31
264.035	90.31
264.267	93.31
264.499	88.31
264.732	93.31
264.964	91.31
265.197	83.31
265.429	96.31
265.661	88.31
265.894	89.31
266.126	82.31
266.358	91.31
266.591	95.31
266.823	88.31
267.055	82.31
267.287	86.31
267.52	67.31
267.752	91.31
267.984	93.31
268.216	85.31
268.448	99.31
268.681	84.31
268.913	87.31
269.145	80.31
269.377	99.31
269.609	88.31
269.841	94.31
270.073	88.31
270.306	86.31
270.538	84.31
270.77	86.31
271.002	89.31
271.234	87.31
271.466	96.31
271.698	81.31
271.93	89.31
272.162	94.31
272.394	87.31
272.626	87.31
272.858	93.31
273.09	94.31
273.322	92.31
273.553	86.31
273.785	91.31
274.017	71.31
274.249	85.31
274.481	83.31
274.713	87.31
274.945	106.31
275.176	107.31
275.408	102.31
275.64	115.31
275.872	133.31
276.104	121.31
276.335	123.31
276.567	116.31
276.799	164.31
277.031	216.31
277.262	239.31
277.494	198.31
277.726	114.31
277.957	96.31
278.189	79.31
278.421	94.31
278.652	88.31
278.884	95.31
279.115	95.31
279.347	105.31
279.579	129.31
279.81	157.31
280.042	274.31
280.273	342.31
280.505	240.31
280.736	126.31
280.968	104.31
281.199	96.31
281.431	105.31
281.662	80.31
281.894	96.31
282.125	106.31
282.356	146.31
282.588	188.31
282.819	134.31
283.051	105.31
283.282	96.31
283.513	95.31
283.745	82.31
283.976	100.31
284.207	89.31
284.439	95.31
284.67	91.31
284.901	98.31
285.132	103.31
285.364	97.31
285.595	86.31
285.826	88.31
286.057	102.31
286.288	91.31
286.52	93.31
286.751	90.31
286.982	84.31
287.213	101.31
287.444	91.31
287.675	99.31
287.906	95.31
288.138	79.31
288.369	104.31
288.6	96.31
288.831	91.31
289.062	82.31
289.293	96.31
289.524	84.31
289.755	89.31
289.986	78.31
290.217	72.31
290.448	78.31
290.679	84.31
290.91	90.31
291.141	96.31
291.371	92.31
291.602	99.31
291.833	82.31
292.064	98.31
292.295	84.31
292.526	87.31
292.757	110.31
292.987	91.31
293.218	83.31
293.449	85.31
293.68	84.31
293.91	86.31
294.141	93.31
294.372	94.31
294.603	99.31
294.833	87.31
295.064	95.31
295.295	86.31
295.525	93.31
295.756	107.31
295.987	136.31
296.217	166.31
296.448	129.31
296.679	104.31
296.909	99.31
297.14	88.31
297.37	89.31
297.601	95.31
297.831	89.31
298.062	94.31
298.292	99.31
298.523	103.31
298.753	90.31
298.984	90.31
299.214	95.31
299.445	100.31
299.675	111.31
299.905	86.31
300.136	99.31
300.366	96.31
300.597	99.31
300.827	97.31
301.057	97.31
301.288	122.31
301.518	108.31
301.748	116.31
301.979	112.31
302.209	104.31
302.439	100.31
302.669	102.31
302.9	89.31
303.13	95.31
303.36	118.31
303.59	165.31
303.82	163.31
304.051	126.31
304.281	93.31
304.511	98.31
304.741	100.31
304.971	97.31
305.201	103.31
305.431	102.31
305.661	83.31
305.891	108.31
306.121	101.31
306.352	111.31
306.582	126.31
306.812	127.31
307.042	143.31
307.272	202.31
307.502	237.31
307.731	204.31
307.961	139.31
308.191	96.31
308.421	81.31
308.651	92.31
308.881	91.31
309.111	104.31
309.341	104.31
309.571	119.31
309.8	98.31
310.03	114.31
310.26	96.31
310.49	101.31
310.72	98.31
310.949	106.31
311.179	122.31
311.409	104.31
311.639	104.31
311.868	108.31
312.098	102.31
312.328	116.31
312.557	122.31
312.787	137.31
313.017	118.31
313.246	107.31
313.476	104.31
313.706	106.31
313.935	110.31
314.165	114.31
314.394	116.31
314.624	120.31
314.853	108.31
315.083	105.31
315.312	106.31
315.542	89.31
315.771	108.31
316.001	90.31
316.23	82.31
316.46	89.31
316.689	97.31
316.919	109.31
317.148	105.31
317.377	97.31
317.607	95.31
317.836	90.31
318.065	79.31
318.295	100.31
318.524	106.31
318.753	118.31
318.983	115.31
319.212	127.31
319.441	136.31
319.67	126.31
319.9	108.31
320.129	91.31
320.358	85.31
320.587	111.31
320.816	112.31
321.046	115.31
321.275	91.31
321.504	95.31
321.733	107.31
321.962	99.31
322.191	107.31
322.42	107.31
322.649	137.31
322.878	141.31
323.108	135.31
323.337	170.31
323.566	169.31
323.795	197.31
324.024	259.31
324.253	523.31
324.482	1100.31
324.71	2264.31
324.939	2974.31
325.168	1083.31
325.397	323.31
325.626	192.31
325.855	169.31
326.084	145.31
326.313	165.31
326.542	179.31
326.77	275.31
326.999	548.31
327.228	1117.31
327.457	2061.31
327.686	1675.31
327.914	672.31
328.143	734.31
328.372	990.31
328.6	492.31
328.829	220.31
329.058	224.31
329.287	237.31
329.515	238.31
329.744	360.31
329.972	749.31
330.201	1554.31
330.43	2260.31
330.658	929.31
330.887	348.31
331.115	214.31
331.344	152.31
331.572	131.31
331.801	161.31
332.03	149.31
332.258	123.31
332.486	120.31
332.715	114.31
332.943	117.31
333.172	152.31
333.4	152.31
333.629	209.31
333.857	308.31
334.085	644.31
334.314	1432.31
334.542	2834.31
334.771	2578.31
334.999	632.31
335.227	231.31
335.455	160.31
335.684	138.31
335.912	106.31
336.14	104.31
336.369	109.31
336.597	127.31
336.825	98.31
337.053	108.31
337.281	107.31
337.51	113.31
337.738	112.31
337.966	117.31
338.194	109.31
338.422	110.31
338.65	96.31
338.878	100.31
339.106	99.31
339.334	108.31
339.562	109.31
339.79	93.31
340.018	92.31
340.246	96.31
340.474	98.31
340.702	104.31
340.93	90.31
341.158	93.31
341.386	100.31
341.614	114.31
341.842	105.31
342.07	93.31
342.298	103.31
342.526	91.31
342.754	90.31
342.981	97.31
343.209	89.31
343.437	93.31
343.665	97.31
343.893	81.31
344.12	94.31
344.348	86.31
344.576	90.31
344.804	108.31
345.031	105.31
345.259	106.31
345.487	88.31
345.714	94.31
345.942	100.31
346.17	103.31
346.397	96.31
346.625	89.31
346.853	95.31
347.08	106.31
347.308	95.31
347.535	111.31
347.763	110.31
347.99	126.31
348.218	97.31
348.445	116.31
348.673	91.31
348.9	119.31
349.128	100.31
349.355	106.31
349.583	99.31
349.81	90.31
350.037	99.31
350.265	99.31
350.492	103.31
350.72	86.31
350.947	110.31
351.174	116.31
351.402	127.31
351.629	108.31
351.856	102.31
352.083	117.31
352.311	125.31
352.538	114.31
352.765	117.31
352.992	142.31
353.22	129.31
353.447	113.31
353.674	110.31
353.901	114.31
354.128	95.31
354.355	103.31
354.583	97.31
354.81	95.31
355.037	87.31
355.264	110.31
355.491	90.31
355.718	86.31
355.945	92.31
356.172	93.31
356.399	98.31
356.626	94.31
356.853	87.31
357.08	84.31
357.307	103.31
357.534	97.31
357.761	102.31
357.988	100.31
358.215	96.31
358.441	108.31
358.668	94.31
358.895	94.31
359.122	75.31
359.349	75.31
359.576	106.31
359.802	136.31
360.029	136.31
360.256	139.31
360.483	120.31
360.709	90.31
360.936	111.31
361.163	106.31
361.39	105.31
361.616	112.31
361.843	92.31
362.07	88.31
362.296	103.31
362.523	107.31
362.749	103.31
362.976	84.31
363.203	109.31
363.429	94.31
363.656	90.31
363.882	103.31
364.109	104.31
364.335	106.31
364.562	104.31
364.788	100.31
365.015	107.31
365.241	116.31
365.468	137.31
365.694	125.31
365.92	110.31
366.147	84.31
366.373	87.31
366.599	100.31
366.826	90.31
367.052	94.31
367.278	101.31
367.505	97.31
367.731	118.31
367.957	89.31
368.184	107.31
368.41	106.31
368.636	124.31
368.862	148.31
369.089	131.31
369.315	106.31
369.541	105.31
369.767	100.31
369.993	99.31
370.219	94.31
370.445	93.31
370.672	102.31
370.898	98.31
371.124	86.31
371.35	84.31
371.576	87.31
371.802	82.31
372.028	96.31
372.254	87.31
372.48	82.31
372.706	88.31
372.932	96.31
373.158	88.31
373.384	97.31
373.61	96.31
373.835	107.31
374.061	105.31
374.287	83.31
374.513	82.31
374.739	84.31
374.965	95.31
375.191	81.31
375.416	91.31
375.642	90.31
375.868	90.31
376.094	93.31
376.319	103.31
376.545	101.31
376.771	93.31
376.997	84.31
377.222	92.31
377.448	107.31
377.674	91.31
377.899	88.31
378.125	94.31
378.35	90.31
378.576	86.31
378.802	88.31
379.027	96.31
379.253	88.31
379.478	97.31
379.704	92.31
379.929	92.31
380.155	83.31
380.38	96.31
380.606	97.31
380.831	74.31
381.057	106.31
381.282	100.31
381.507	100.31
381.733	101.31
381.958	93.31
382.184	97.31
382.409	101.31
382.634	98.31
382.86	100.31
383.085	100.31
383.31	97.31
383.535	87.31
383.761	84.31
383.986	101.31
384.211	99.31
384.436	100.31
384.662	89.31
384.887	107.31
385.112	101.31
385.337	89.31
385.562	97.31
385.787	99.31
386.013	107.31
386.238	124.31
386.463	94.31
386.688	108.31
386.913	99.31
387.138	104.31
387.363	82.31
387.588	90.31
387.813	116.31
388.038	107.31
388.263	115.31
388.488	103.31
388.713	102.31
388.938	96.31
389.163	85.31
389.387	93.31
389.612	101.31
389.837	108.31
390.062	92.31
390.287	94.31
390.512	102.31
390.736	93.31
390.961	81.31
391.186	91.31
391.411	90.31
391.636	89.31
391.86	89.31
392.085	90.31
392.31	89.31
392.534	99.31
392.759	87.31
392.984	85.31
393.208	92.31
393.433	96.31
393.658	77.31
393.882	105.31
394.107	79.31
394.331	93.31
394.556	96.31
394.78	87.31
395.005	88.31
395.229	89.31
395.454	96.31
395.678	84.31
395.903	99.31
396.127	99.31
396.352	98.31
396.576	87.31
396.801	93.31
397.025	96.31
397.249	98.31
397.474	92.31
397.698	85.31
397.922	93.31
398.147	95.31
398.371	98.31
398.595	81.31
398.82	79.31
399.044	89.31
399.268	96.31
399.492	96.31
399.717	89.31
399.941	102.31
400.165	103.31
400.389	110.31
400.613	79.31
400.837	75.31
401.062	98.31
401.286	101.31
401.51	87.31
401.734	87.31
401.958	113.31
402.182	152.31
402.406	230.31
402.63	173.31
402.854	120.31
403.078	97.31
403.302	103.31
403.526	91.31
403.75	72.31
403.974	88.31
404.198	87.31
404.422	90.31
404.645	93.31
404.869	100.31
405.093	125.31
405.317	152.31
405.541	160.31
405.765	123.31
405.988	150.31
406.212	246.31
406.436	342.31
406.66	231.31
406.883	130.31
407.107	108.31
407.331	109.31
407.555	110.31
407.778	109.31
408.002	86.31
408.226	107.31
408.449	100.31
408.673	84.31
408.896	97.31
409.12	101.31
409.344	85.31
409.567	83.31
409.791	94.31
410.014	93.31
410.238	98.31
410.461	102.31
410.685	99.31
410.908	92.31
411.132	106.31
411.355	103.31
411.578	89.31
411.802	97.31
412.025	95.31
412.249	107.31
412.472	131.31
412.695	155.31
412.919	116.31
413.142	98.31
413.365	98.31
413.589	93.31
413.812	100.31
414.035	105.31
414.258	88.31
414.482	94.31
414.705	82.31
414.928	99.31
415.151	89.31
415.374	105.31
415.597	94.31
415.821	85.31
416.044	91.31
416.267	99.31
416.49	100.31
416.713	85.31
416.936	96.31
417.159	97.31
417.382	96.31
417.605	112.31
417.828	116.31
418.051	104.31
418.274	98.31
418.497	103.31
418.72	96.31
418.943	103.31
419.166	97.31
419.389	106.31
419.611	107.31
419.834	109.31
420.057	101.31
420.28	103.31
420.503	89.31
420.726	103.31
420.948	84.31
421.171	113.31
421.394	100.31
421.617	95.31
421.839	103.31
422.062	104.31
422.285	93.31
422.507	108.31
422.73	115.31
422.953	99.31
423.175	82.31
423.398	95.31
423.621	101.31
423.843	86.31
424.066	89.31
424.288	90.31
424.511	94.31
424.733	109.31
424.956	122.31
425.178	121.31
425.401	112.31
425.623	113.31
425.846	113.31
426.068	117.31
426.291	95.31
426.513	105.31
426.735	106.31
426.958	115.31
427.18	111.31
427.402	202.31
427.625	306.31
427.847	283.31
428.069	253.31
428.292	152.31
428.514	110.31
428.736	95.31
428.958	94.31
429.181	106.31
429.403	86.31
429.625	79.31
429.847	97.31
430.069	111.31
430.292	98.31
430.514	87.31
430.736	91.31
430.958	93.31
431.18	96.31
431.402	92.31
431.624	91.31
431.846	90.31
432.068	93.31
432.29	92.31
432.512	97.31
432.734	88.31
432.956	92.31
433.178	103.31
433.4	116.31
433.622	110.31
433.844	81.31
434.066	80.31
434.287	83.31
434.509	89.31
434.731	96.31
434.953	87.31
435.175	83.31
435.397	100.31
435.618	106.31
435.84	115.31
436.062	148.31
436.284	118.31
436.505	134.31
436.727	124.31
436.949	90.31
437.17	95.31
437.392	91.31
437.614	103.31
437.835	145.31
438.057	163.31
438.278	140.31
438.5	124.31
438.721	147.31
438.943	109.31
439.165	101.31
439.386	91.31
439.608	90.31
439.829	115.31
440.05	156.31
440.272	192.31
440.493	107.31
440.715	98.31
440.936	90.31
441.158	88.31
441.379	108.31
441.6	115.31
441.822	128.31
442.043	101.31
442.264	117.31
442.486	111.31
442.707	108.31
442.928	136.31
443.149	174.31
443.371	179.31
443.592	135.31
443.813	133.31
444.034	113.31
444.255	92.31
444.476	80.31
444.698	100.31
444.919	102.31
445.14	139.31
445.361	133.31
445.582	160.31
445.803	202.31
446.024	194.31
446.245	167.31
446.466	136.31
446.687	97.31
446.908	90.31
447.129	95.31
447.35	98.31
447.571	92.31
447.792	98.31
448.013	121.31
448.234	125.31
448.455	107.31
448.675	154.31
448.896	145.31
449.117	130.31
449.338	123.31
449.559	171.31
449.779	176.31
450	99.31
450.221	90.31
450.442	103.31
450.662	121.31
450.883	136.31
451.104	139.31
451.324	116.31
451.545	102.31
451.766	87.31
451.986	89.31
452.207	80.31
452.428	107.31
452.648	115.31
452.869	154.31
453.089	144.31
453.31	140.31
453.53	102.31
453.751	105.31
453.971	120.31
454.192	131.31
454.412	98.31
454.633	95.31
454.853	92.31
455.073	99.31
455.294	100.31
455.514	116.31
455.734	99.31
455.955	96.31
456.175	74.31
456.395	108.31
456.616	99.31
456.836	90.31
457.056	97.31
457.276	102.31
457.497	88.31
457.717	103.31
457.937	99.31
458.157	100.31
458.377	94.31
458.598	128.31
458.818	240.31
459.038	250.31
459.258	144.31
459.478	93.31
459.698	88.31
459.918	112.31
460.138	84.31
460.358	92.31
460.578	89.31
460.798	104.31
461.018	109.31
461.238	107.31
461.458	88.31
461.678	93.31
461.898	92.31
462.118	87.31
462.338	99.31
462.558	103.31
462.777	79.31
462.997	114.31
463.217	132.31
463.437	116.31
463.657	85.31
463.876	91.31
464.096	94.31
464.316	108.31
464.536	121.31
464.755	117.31
464.975	136.31
465.195	278.31
465.414	263.31
465.634	114.31
465.854	110.31
466.073	102.31
466.293	98.31
466.512	104.31
466.732	97.31
466.951	114.31
467.171	119.31
467.391	127.31
467.61	176.31
467.829	317.31
468.049	915.31
468.268	1386.31
468.488	316.31
468.707	137.31
468.927	109.31
469.146	111.31
469.365	96.31
469.585	95.31
469.804	100.31
470.023	114.31
470.243	107.31
470.462	127.31
470.681	149.31
470.901	112.31
471.12	118.31
471.339	125.31
471.558	135.31
471.777	202.31
471.997	458.31
472.216	1844.31
472.435	4220.31
472.654	886.31
472.873	196.31
473.092	143.31
473.311	104.31
473.53	98.31
473.749	99.31
473.968	116.31
474.187	123.31
474.406	129.31
474.625	88.31
474.844	94.31
475.063	105.31
475.282	86.31
475.501	97.31
475.72	86.31
475.939	105.31
476.158	84.31
476.377	90.31
476.596	104.31
476.814	112.31
477.033	105.31
477.252	99.31
477.471	106.31
477.69	106.31
477.908	95.31
478.127	102.31
478.346	119.31
478.564	95.31
478.783	122.31
479.002	124.31
479.22	111.31
479.439	136.31
479.658	159.31
479.876	142.31
480.095	151.31
480.313	170.31
480.532	218.31
480.751	435.31
480.969	1620.31
481.188	7166.31
481.406	3940.31
481.624	507.31
481.843	166.31
482.061	120.31
482.28	106.31
482.498	112.31
482.717	93.31
482.935	98.31
483.153	89.31
483.372	83.31
483.59	100.31
483.808	108.31
484.027	93.31
484.245	100.31
484.463	110.31
484.681	103.31
484.9	107.31
485.118	98.31
485.336	94.31
485.554	99.31
485.772	96.31
485.99	113.31
486.209	112.31
486.427	115.31
486.645	118.31
486.863	133.31
487.081	114.31
487.299	109.31
487.517	102.31
487.735	110.31
487.953	95.31
488.171	96.31
488.389	108.31
488.607	107.31
488.825	81.31
489.043	95.31
489.261	107.31
489.479	74.31
489.696	108.31
489.914	99.31
490.132	98.31
490.35	94.31
490.568	98.31
490.786	104.31
491.003	109.31
491.221	104.31
491.439	111.31
491.657	104.31
491.874	100.31
492.092	79.31
492.31	104.31
492.527	98.31
492.745	103.31
492.963	101.31
493.18	109.31
493.398	84.31
493.615	78.31
493.833	92.31
494.05	100.31
494.268	96.31
494.485	96.31
494.703	97.31
494.92	83.31
495.138	90.31
495.355	82.31
495.573	98.31
495.79	101.31
496.008	91.31
496.225	99.31
496.442	100.31
496.66	111.31
496.877	102.31
497.094	108.31
497.312	80.31
497.529	88.31
497.746	99.31
497.963	98.31
498.181	98.31
498.398	98.31
498.615	130.31
498.832	117.31
499.049	115.31
499.267	92.31
499.484	93.31
499.701	99.31
499.918	106.31
500.135	107.31
500.352	99.31
500.569	100.31
500.786	100.31
501.003	95.31
501.22	95.31
501.437	91.31
501.654	101.31
501.871	130.31
502.088	103.31
502.305	106.31
502.522	97.31
502.739	92.31
502.956	92.31
503.172	106.31
503.389	109.31
503.606	132.31
503.823	99.31
504.04	98.31
504.256	108.31
504.473	96.31
504.69	94.31
504.907	100.31
505.123	107.31
505.34	98.31
505.557	86.31
505.773	90.31
505.99	105.31
506.207	86.31
506.423	96.31
506.64	100.31
506.856	109.31
507.073	103.31
507.289	95.31
507.506	108.31
507.722	129.31
507.939	137.31
508.155	100.31
508.372	110.31
508.588	114.31
508.805	116.31
509.021	109.31
509.238	92.31
509.454	118.31
509.67	99.31
509.887	122.31
510.103	159.31
510.319	286.31
510.536	1139.31
510.752	3931.31
510.968	1030.31
511.184	196.31
