Data from Circ_1998_H10_HRD10591_00097.txt Node
Date: Wed Jan 03 11:27:08 EST 2024
User: Yrep
Spectrometer: HR+D1059
Trigger mode: 1
Integration Time (sec): 1.000000E-1
Scans to average: 1
Electric dark correction enabled: true
Nonlinearity correction enabled: false
Boxcar width: 0
XAxis mode: Wavelengths
Number of Pixels in Spectrum: 2048
>>>>>Begin Spectral Data<<<<<
223.165	-11.56
223.4	-11.56
223.635	-11.56
223.869	-26.56
224.104	-6.56
224.338	-10.56
224.573	-18.56
224.808	-14.56
225.042	7.44
225.277	-12.56
225.511	-5.56
225.746	1.44
225.98	4.44
226.215	17.44
226.449	18.44
226.683	10.44
226.918	29.44
227.152	17.44
227.387	31.44
227.621	44.44
227.856	38.44
228.09	51.44
228.324	56.44
228.559	56.44
228.793	64.44
229.027	72.44
229.262	73.44
229.496	91.44
229.73	84.44
229.964	105.44
230.199	66.44
230.433	98.44
230.667	101.44
230.901	85.44
231.136	91.44
231.37	85.44
231.604	61.44
231.838	86.44
232.072	68.44
232.306	82.44
232.541	67.44
232.775	80.44
233.009	85.44
233.243	82.44
233.477	84.44
233.711	83.44
233.945	76.44
234.179	96.44
234.413	79.44
234.647	85.44
234.881	83.44
235.115	80.44
235.349	89.44
235.583	83.44
235.817	87.44
236.051	86.44
236.285	79.44
236.519	79.44
236.753	76.44
236.987	82.44
237.221	96.44
237.455	95.44
237.689	94.44
237.922	83.44
238.156	79.44
238.39	85.44
238.624	88.44
238.858	77.44
239.091	87.44
239.325	86.44
239.559	84.44
239.793	98.44
240.027	100.44
240.26	73.44
240.494	85.44
240.728	81.44
240.961	90.44
241.195	71.44
241.429	75.44
241.662	75.44
241.896	81.44
242.13	72.44
242.363	80.44
242.597	80.44
242.83	83.44
243.064	79.44
243.298	85.44
243.531	73.44
243.765	77.44
243.998	80.44
244.232	75.44
244.465	84.44
244.699	79.44
244.932	84.44
245.166	80.44
245.399	85.44
245.633	79.44
245.866	80.44
246.099	92.44
246.333	84.44
246.566	81.44
246.8	85.44
247.033	71.44
247.266	74.44
247.5	92.44
247.733	74.44
247.966	83.44
248.2	73.44
248.433	83.44
248.666	89.44
248.899	90.44
249.133	95.44
249.366	114.44
249.599	106.44
249.832	92.44
250.066	92.44
250.299	89.44
250.532	87.44
250.765	95.44
250.998	88.44
251.231	76.44
251.465	76.44
251.698	91.44
251.931	84.44
252.164	88.44
252.397	82.44
252.63	84.44
252.863	86.44
253.096	93.44
253.329	77.44
253.562	78.44
253.795	83.44
254.028	88.44
254.261	97.44
254.494	91.44
254.727	85.44
254.96	90.44
255.193	77.44
255.426	90.44
255.659	94.44
255.892	99.44
256.124	105.44
256.357	113.44
256.59	98.44
256.823	85.44
257.056	83.44
257.289	97.44
257.521	92.44
257.754	102.44
257.987	90.44
258.22	106.44
258.452	110.44
258.685	103.44
258.918	89.44
259.151	81.44
259.383	82.44
259.616	90.44
259.849	89.44
260.081	89.44
260.314	95.44
260.547	98.44
260.779	106.44
261.012	131.44
261.244	124.44
261.477	108.44
261.71	98.44
261.942	136.44
262.175	156.44
262.407	115.44
262.64	90.44
262.872	74.44
263.105	91.44
263.337	94.44
263.57	95.44
263.802	89.44
264.035	87.44
264.267	77.44
264.499	92.44
264.732	84.44
264.964	99.44
265.197	86.44
265.429	97.44
265.661	74.44
265.894	89.44
266.126	91.44
266.358	88.44
266.591	87.44
266.823	93.44
267.055	93.44
267.287	97.44
267.52	87.44
267.752	83.44
267.984	80.44
268.216	93.44
268.448	93.44
268.681	92.44
268.913	91.44
269.145	81.44
269.377	102.44
269.609	74.44
269.841	98.44
270.073	92.44
270.306	100.44
270.538	83.44
270.77	99.44
271.002	88.44
271.234	82.44
271.466	91.44
271.698	79.44
271.93	79.44
272.162	96.44
272.394	88.44
272.626	96.44
272.858	83.44
273.09	90.44
273.322	95.44
273.553	85.44
273.785	81.44
274.017	95.44
274.249	90.44
274.481	88.44
274.713	84.44
274.945	93.44
275.176	100.44
275.408	124.44
275.64	119.44
275.872	142.44
276.104	111.44
276.335	111.44
276.567	118.44
276.799	170.44
277.031	219.44
277.262	271.44
277.494	183.44
277.726	107.44
277.957	88.44
278.189	90.44
278.421	101.44
278.652	109.44
278.884	112.44
279.115	107.44
279.347	87.44
279.579	107.44
279.81	153.44
280.042	277.44
280.273	370.44
280.505	239.44
280.736	130.44
280.968	109.44
281.199	96.44
281.431	95.44
281.662	84.44
281.894	111.44
282.125	124.44
282.356	155.44
282.588	179.44
282.819	136.44
283.051	108.44
283.282	88.44
283.513	89.44
283.745	83.44
283.976	78.44
284.207	87.44
284.439	102.44
284.67	92.44
284.901	77.44
285.132	84.44
285.364	92.44
285.595	89.44
285.826	88.44
286.057	92.44
286.288	90.44
286.52	93.44
286.751	90.44
286.982	87.44
287.213	98.44
287.444	89.44
287.675	79.44
287.906	101.44
288.138	82.44
288.369	90.44
288.6	105.44
288.831	103.44
289.062	88.44
289.293	88.44
289.524	105.44
289.755	77.44
289.986	85.44
290.217	90.44
290.448	99.44
290.679	100.44
290.91	110.44
291.141	85.44
291.371	97.44
291.602	97.44
291.833	96.44
292.064	97.44
292.295	94.44
292.526	96.44
292.757	106.44
292.987	88.44
293.218	84.44
293.449	88.44
293.68	80.44
293.91	87.44
294.141	96.44
294.372	97.44
294.603	110.44
294.833	96.44
295.064	98.44
295.295	100.44
295.525	95.44
295.756	122.44
295.987	116.44
296.217	176.44
296.448	160.44
296.679	104.44
296.909	102.44
297.14	102.44
297.37	94.44
297.601	93.44
297.831	102.44
298.062	82.44
298.292	89.44
298.523	95.44
298.753	103.44
298.984	90.44
299.214	88.44
299.445	96.44
299.675	93.44
299.905	109.44
300.136	92.44
300.366	91.44
300.597	114.44
300.827	93.44
301.057	106.44
301.288	105.44
301.518	101.44
301.748	103.44
301.979	128.44
302.209	112.44
302.439	100.44
302.669	105.44
302.9	106.44
303.13	122.44
303.36	108.44
303.59	161.44
303.82	171.44
304.051	104.44
304.281	106.44
304.511	107.44
304.741	95.44
304.971	88.44
305.201	88.44
305.431	108.44
305.661	96.44
305.891	109.44
306.121	109.44
306.352	113.44
306.582	121.44
306.812	122.44
307.042	148.44
307.272	226.44
307.502	248.44
307.731	233.44
307.961	139.44
308.191	98.44
308.421	91.44
308.651	95.44
308.881	107.44
309.111	96.44
309.341	108.44
309.571	113.44
309.8	115.44
310.03	96.44
310.26	121.44
310.49	100.44
310.72	118.44
310.949	107.44
311.179	118.44
311.409	105.44
311.639	114.44
311.868	97.44
312.098	103.44
312.328	107.44
312.557	106.44
312.787	136.44
313.017	117.44
313.246	105.44
313.476	102.44
313.706	92.44
313.935	100.44
314.165	107.44
314.394	105.44
314.624	107.44
314.853	114.44
315.083	94.44
315.312	105.44
315.542	81.44
315.771	96.44
316.001	103.44
316.23	92.44
316.46	91.44
316.689	92.44
316.919	99.44
317.148	116.44
317.377	108.44
317.607	105.44
317.836	121.44
318.065	107.44
318.295	87.44
318.524	97.44
318.753	97.44
318.983	101.44
319.212	95.44
319.441	125.44
319.67	115.44
319.9	103.44
320.129	96.44
320.358	103.44
320.587	97.44
320.816	111.44
321.046	114.44
321.275	103.44
321.504	103.44
321.733	112.44
321.962	107.44
322.191	107.44
322.42	127.44
322.649	131.44
322.878	129.44
323.108	157.44
323.337	157.44
323.566	155.44
323.795	184.44
324.024	250.44
324.253	495.44
324.482	1081.44
324.71	2254.44
324.939	3018.44
325.168	1108.44
325.397	309.44
325.626	194.44
325.855	165.44
326.084	147.44
326.313	163.44
326.542	180.44
326.77	270.44
326.999	557.44
327.228	1187.44
327.457	2149.44
327.686	1757.44
327.914	677.44
328.143	721.44
328.372	992.44
328.6	527.44
328.829	233.44
329.058	217.44
329.287	240.44
329.515	231.44
329.744	355.44
329.972	714.44
330.201	1571.44
330.43	2284.44
330.658	943.44
330.887	364.44
331.115	228.44
331.344	144.44
331.572	145.44
331.801	155.44
332.03	143.44
332.258	118.44
332.486	123.44
332.715	120.44
332.943	130.44
333.172	153.44
333.4	151.44
333.629	196.44
333.857	316.44
334.085	655.44
334.314	1395.44
334.542	2805.44
334.771	2551.44
334.999	636.44
335.227	219.44
335.455	162.44
335.684	135.44
335.912	147.44
336.14	109.44
336.369	119.44
336.597	135.44
336.825	121.44
337.053	104.44
337.281	104.44
337.51	114.44
337.738	120.44
337.966	110.44
338.194	115.44
338.422	107.44
338.65	111.44
338.878	125.44
339.106	90.44
339.334	110.44
339.562	112.44
339.79	101.44
340.018	95.44
340.246	98.44
340.474	117.44
340.702	101.44
340.93	94.44
341.158	92.44
341.386	106.44
341.614	109.44
341.842	111.44
342.07	106.44
342.298	98.44
342.526	104.44
342.754	88.44
342.981	80.44
343.209	98.44
343.437	118.44
343.665	92.44
343.893	96.44
344.12	91.44
344.348	82.44
344.576	89.44
344.804	106.44
345.031	107.44
345.259	109.44
345.487	108.44
345.714	101.44
345.942	104.44
346.17	94.44
346.397	97.44
346.625	97.44
346.853	95.44
347.08	96.44
347.308	109.44
347.535	112.44
347.763	107.44
347.99	98.44
348.218	116.44
348.445	117.44
348.673	117.44
348.9	115.44
349.128	97.44
349.355	102.44
349.583	92.44
349.81	98.44
350.037	104.44
350.265	106.44
350.492	100.44
350.72	109.44
350.947	125.44
351.174	126.44
351.402	130.44
351.629	120.44
351.856	108.44
352.083	127.44
352.311	139.44
352.538	137.44
352.765	136.44
352.992	132.44
353.22	123.44
353.447	120.44
353.674	99.44
353.901	93.44
354.128	93.44
354.355	105.44
354.583	96.44
354.81	105.44
355.037	114.44
355.264	94.44
355.491	85.44
355.718	94.44
355.945	114.44
356.172	103.44
356.399	96.44
356.626	110.44
356.853	111.44
357.08	94.44
357.307	98.44
357.534	92.44
357.761	91.44
357.988	93.44
358.215	92.44
358.441	82.44
358.668	93.44
358.895	98.44
359.122	97.44
359.349	94.44
359.576	100.44
359.802	122.44
360.029	140.44
360.256	161.44
360.483	125.44
360.709	100.44
360.936	99.44
361.163	115.44
361.39	117.44
361.616	99.44
361.843	108.44
362.07	103.44
362.296	104.44
362.523	99.44
362.749	112.44
362.976	100.44
363.203	96.44
363.429	82.44
363.656	98.44
363.882	82.44
364.109	94.44
364.335	88.44
364.562	96.44
364.788	96.44
365.015	95.44
365.241	101.44
365.468	122.44
365.694	126.44
365.92	112.44
366.147	111.44
366.373	103.44
366.599	101.44
366.826	106.44
367.052	95.44
367.278	110.44
367.505	107.44
367.731	98.44
367.957	101.44
368.184	125.44
368.41	131.44
368.636	151.44
368.862	138.44
369.089	133.44
369.315	117.44
369.541	100.44
369.767	100.44
369.993	95.44
370.219	104.44
370.445	87.44
370.672	85.44
370.898	100.44
371.124	98.44
371.35	88.44
371.576	100.44
371.802	96.44
372.028	80.44
372.254	96.44
372.48	90.44
372.706	100.44
372.932	98.44
373.158	94.44
373.384	96.44
373.61	98.44
373.835	94.44
374.061	81.44
374.287	104.44
374.513	84.44
374.739	97.44
374.965	93.44
375.191	107.44
375.416	86.44
375.642	93.44
375.868	78.44
376.094	91.44
376.319	100.44
376.545	86.44
376.771	101.44
376.997	96.44
377.222	100.44
377.448	81.44
377.674	98.44
377.899	83.44
378.125	88.44
378.35	101.44
378.576	86.44
378.802	103.44
379.027	97.44
379.253	103.44
379.478	91.44
379.704	101.44
379.929	88.44
380.155	94.44
380.38	110.44
380.606	95.44
380.831	92.44
381.057	99.44
381.282	95.44
381.507	94.44
381.733	88.44
381.958	92.44
382.184	104.44
382.409	101.44
382.634	112.44
382.86	101.44
383.085	96.44
383.31	92.44
383.535	104.44
383.761	99.44
383.986	100.44
384.211	94.44
384.436	100.44
384.662	110.44
384.887	114.44
385.112	101.44
385.337	99.44
385.562	104.44
385.787	104.44
386.013	100.44
386.238	130.44
386.463	96.44
386.688	108.44
386.913	102.44
387.138	86.44
387.363	95.44
387.588	95.44
387.813	109.44
388.038	100.44
388.263	105.44
388.488	113.44
388.713	93.44
388.938	103.44
389.163	101.44
389.387	99.44
389.612	98.44
389.837	90.44
390.062	97.44
390.287	93.44
390.512	104.44
390.736	95.44
390.961	100.44
391.186	84.44
391.411	87.44
391.636	87.44
391.86	90.44
392.085	100.44
392.31	88.44
392.534	88.44
392.759	98.44
392.984	104.44
393.208	97.44
393.433	92.44
393.658	108.44
393.882	83.44
394.107	89.44
394.331	84.44
394.556	92.44
394.78	85.44
395.005	94.44
395.229	90.44
395.454	92.44
395.678	80.44
395.903	96.44
396.127	99.44
396.352	97.44
396.576	79.44
396.801	101.44
397.025	107.44
397.249	95.44
397.474	81.44
397.698	97.44
397.922	83.44
398.147	88.44
398.371	99.44
398.595	101.44
398.82	85.44
399.044	101.44
399.268	92.44
399.492	85.44
399.717	92.44
399.941	101.44
400.165	96.44
400.389	104.44
400.613	100.44
400.837	84.44
401.062	100.44
401.286	105.44
401.51	99.44
401.734	103.44
401.958	124.44
402.182	152.44
402.406	205.44
402.63	175.44
402.854	118.44
403.078	91.44
403.302	79.44
403.526	97.44
403.75	96.44
403.974	96.44
404.198	104.44
404.422	107.44
404.645	98.44
404.869	116.44
405.093	140.44
405.317	169.44
405.541	157.44
405.765	140.44
405.988	141.44
406.212	236.44
406.436	360.44
406.66	219.44
406.883	119.44
407.107	112.44
407.331	115.44
407.555	108.44
407.778	119.44
408.002	111.44
408.226	103.44
408.449	84.44
408.673	90.44
408.896	95.44
409.12	102.44
409.344	95.44
409.567	92.44
409.791	98.44
410.014	112.44
410.238	98.44
410.461	101.44
410.685	104.44
410.908	96.44
411.132	109.44
411.355	100.44
411.578	101.44
411.802	96.44
412.025	88.44
412.249	107.44
412.472	130.44
412.695	155.44
412.919	132.44
413.142	108.44
413.365	94.44
413.589	98.44
413.812	91.44
414.035	95.44
414.258	96.44
414.482	91.44
414.705	91.44
414.928	102.44
415.151	94.44
415.374	97.44
415.597	74.44
415.821	86.44
416.044	95.44
416.267	94.44
416.49	89.44
416.713	86.44
416.936	79.44
417.159	99.44
417.382	92.44
417.605	123.44
417.828	129.44
418.051	95.44
418.274	93.44
418.497	79.44
418.72	100.44
418.943	91.44
419.166	88.44
419.389	90.44
419.611	108.44
419.834	106.44
420.057	100.44
420.28	104.44
420.503	102.44
420.726	103.44
420.948	90.44
421.171	106.44
421.394	100.44
421.617	95.44
421.839	104.44
422.062	93.44
422.285	105.44
422.507	92.44
422.73	119.44
422.953	106.44
423.175	86.44
423.398	96.44
423.621	104.44
423.843	103.44
424.066	86.44
424.288	94.44
424.511	93.44
424.733	115.44
424.956	123.44
425.178	109.44
425.401	114.44
425.623	127.44
425.846	97.44
426.068	106.44
426.291	102.44
426.513	103.44
426.735	101.44
426.958	105.44
427.18	125.44
427.402	202.44
427.625	292.44
427.847	255.44
428.069	235.44
428.292	139.44
428.514	110.44
428.736	92.44
428.958	97.44
429.181	88.44
429.403	103.44
429.625	95.44
429.847	105.44
430.069	127.44
430.292	105.44
430.514	90.44
430.736	92.44
430.958	88.44
431.18	73.44
431.402	99.44
431.624	101.44
431.846	76.44
432.068	78.44
432.29	85.44
432.512	94.44
432.734	89.44
432.956	97.44
433.178	87.44
433.4	98.44
433.622	105.44
433.844	101.44
434.066	97.44
434.287	109.44
434.509	97.44
434.731	100.44
434.953	93.44
435.175	85.44
435.397	99.44
435.618	102.44
435.84	116.44
436.062	146.44
436.284	124.44
436.505	108.44
436.727	109.44
436.949	85.44
437.17	89.44
437.392	87.44
437.614	98.44
437.835	139.44
438.057	149.44
438.278	139.44
438.5	111.44
438.721	122.44
438.943	114.44
439.165	97.44
439.386	84.44
439.608	99.44
439.829	111.44
440.05	158.44
440.272	218.44
440.493	107.44
440.715	89.44
440.936	100.44
441.158	109.44
441.379	99.44
441.6	100.44
441.822	132.44
442.043	104.44
442.264	114.44
442.486	116.44
442.707	92.44
442.928	125.44
443.149	186.44
443.371	189.44
443.592	138.44
443.813	144.44
444.034	137.44
444.255	95.44
444.476	76.44
444.698	94.44
444.919	90.44
445.14	130.44
445.361	135.44
445.582	132.44
445.803	203.44
446.024	179.44
446.245	201.44
446.466	135.44
446.687	105.44
446.908	93.44
447.129	86.44
447.35	94.44
447.571	85.44
447.792	101.44
448.013	112.44
448.234	131.44
448.455	108.44
448.675	136.44
448.896	141.44
449.117	108.44
449.338	108.44
449.559	164.44
449.779	148.44
450	104.44
450.221	109.44
450.442	91.44
450.662	105.44
450.883	131.44
451.104	151.44
451.324	110.44
451.545	96.44
451.766	93.44
451.986	72.44
452.207	87.44
452.428	115.44
452.648	98.44
452.869	159.44
453.089	153.44
453.31	157.44
453.53	114.44
453.751	95.44
453.971	121.44
454.192	151.44
454.412	117.44
454.633	94.44
454.853	94.44
455.073	97.44
455.294	104.44
455.514	104.44
455.734	93.44
455.955	103.44
456.175	85.44
456.395	87.44
456.616	90.44
456.836	90.44
457.056	94.44
457.276	72.44
457.497	64.44
457.717	89.44
457.937	97.44
458.157	92.44
458.377	107.44
458.598	154.44
458.818	215.44
459.038	248.44
459.258	160.44
459.478	89.44
459.698	92.44
459.918	86.44
460.138	96.44
460.358	77.44
460.578	84.44
460.798	93.44
461.018	90.44
461.238	82.44
461.458	90.44
461.678	88.44
461.898	93.44
462.118	98.44
462.338	86.44
462.558	104.44
462.777	89.44
462.997	93.44
463.217	112.44
463.437	123.44
463.657	98.44
463.876	88.44
464.096	106.44
464.316	101.44
464.536	106.44
464.755	110.44
464.975	142.44
465.195	267.44
465.414	253.44
465.634	110.44
465.854	88.44
466.073	106.44
466.293	97.44
466.512	100.44
466.732	93.44
466.951	107.44
467.171	112.44
467.391	122.44
467.61	184.44
467.829	287.44
468.049	955.44
468.268	1420.44
468.488	343.44
468.707	124.44
468.927	118.44
469.146	97.44
469.365	97.44
469.585	98.44
469.804	141.44
470.023	113.44
470.243	113.44
470.462	127.44
470.681	164.44
470.901	111.44
471.12	124.44
471.339	111.44
471.558	159.44
471.777	202.44
471.997	458.44
472.216	1817.44
472.435	4276.44
472.654	893.44
472.873	204.44
473.092	139.44
473.311	89.44
473.53	103.44
473.749	110.44
473.968	120.44
474.187	135.44
474.406	131.44
474.625	95.44
474.844	90.44
475.063	62.44
475.282	87.44
475.501	88.44
475.72	116.44
475.939	107.44
476.158	96.44
476.377	97.44
476.596	105.44
476.814	114.44
477.033	107.44
477.252	106.44
477.471	108.44
477.69	98.44
477.908	92.44
478.127	92.44
478.346	116.44
478.564	107.44
478.783	119.44
479.002	135.44
479.22	124.44
479.439	143.44
479.658	165.44
479.876	161.44
480.095	149.44
480.313	164.44
480.532	225.44
480.751	410.44
480.969	1623.44
481.188	7234.44
481.406	3979.44
481.624	521.44
481.843	184.44
482.061	124.44
482.28	114.44
482.498	106.44
482.717	116.44
482.935	89.44
483.153	105.44
483.372	90.44
483.59	93.44
483.808	95.44
484.027	99.44
484.245	97.44
484.463	107.44
484.681	102.44
484.9	95.44
485.118	114.44
485.336	95.44
485.554	97.44
485.772	100.44
485.99	94.44
486.209	113.44
486.427	122.44
486.645	134.44
486.863	139.44
487.081	117.44
487.299	108.44
487.517	106.44
487.735	118.44
487.953	105.44
488.171	93.44
488.389	97.44
488.607	114.44
488.825	110.44
489.043	88.44
489.261	86.44
489.479	90.44
489.696	93.44
489.914	87.44
490.132	89.44
490.35	99.44
490.568	114.44
490.786	101.44
491.003	85.44
491.221	112.44
491.439	107.44
491.657	106.44
491.874	93.44
492.092	86.44
492.31	83.44
492.527	100.44
492.745	105.44
492.963	106.44
493.18	105.44
493.398	107.44
493.615	104.44
493.833	106.44
494.05	88.44
494.268	96.44
494.485	109.44
494.703	108.44
494.92	99.44
495.138	92.44
495.355	108.44
495.573	98.44
495.79	96.44
496.008	96.44
496.225	90.44
496.442	97.44
496.66	102.44
496.877	97.44
497.094	88.44
497.312	96.44
497.529	107.44
497.746	96.44
497.963	100.44
498.181	96.44
498.398	108.44
498.615	137.44
498.832	113.44
499.049	110.44
499.267	92.44
499.484	90.44
499.701	100.44
499.918	103.44
500.135	85.44
500.352	113.44
500.569	106.44
500.786	89.44
501.003	105.44
501.22	92.44
501.437	83.44
501.654	107.44
501.871	138.44
502.088	108.44
502.305	104.44
502.522	94.44
502.739	89.44
502.956	104.44
503.172	108.44
503.389	114.44
503.606	153.44
503.823	123.44
504.04	95.44
504.256	101.44
504.473	85.44
504.69	99.44
504.907	108.44
505.123	99.44
505.34	84.44
505.557	91.44
505.773	97.44
505.99	79.44
506.207	109.44
506.423	108.44
506.64	95.44
506.856	97.44
507.073	90.44
507.289	92.44
507.506	98.44
507.722	156.44
507.939	139.44
508.155	98.44
508.372	103.44
508.588	101.44
508.805	98.44
509.021	108.44
509.238	107.44
509.454	114.44
509.67	113.44
509.887	141.44
510.103	175.44
510.319	270.44
510.536	1149.44
510.752	4057.44
