Data from Circ_1998_H10_HRD10591_00051.txt Node
Date: Wed Jan 03 11:26:59 EST 2024
User: Yrep
Spectrometer: HR+D1059
Trigger mode: 1
Integration Time (sec): 1.000000E-1
Scans to average: 1
Electric dark correction enabled: true
Nonlinearity correction enabled: false
Boxcar width: 0
XAxis mode: Wavelengths
Number of Pixels in Spectrum: 2048
>>>>>Begin Spectral Data<<<<<
223.165	-24.12
223.4	-24.12
223.635	-24.12
223.869	-24.12
224.104	-16.12
224.338	-14.12
224.573	-7.12
224.808	-23.12
225.042	0.88
225.277	-8.12
225.511	1.88
225.746	18.88
225.98	14.88
226.215	11.88
226.449	14.88
226.683	7.88
226.918	14.88
227.152	30.88
227.387	34.88
227.621	41.88
227.856	59.88
228.09	48.88
228.324	52.88
228.559	67.88
228.793	70.88
229.027	57.88
229.262	74.88
229.496	96.88
229.73	115.88
229.964	102.88
230.199	85.88
230.433	83.88
230.667	86.88
230.901	81.88
231.136	92.88
231.37	69.88
231.604	89.88
231.838	72.88
232.072	85.88
232.306	86.88
232.541	93.88
232.775	84.88
233.009	66.88
233.243	89.88
233.477	83.88
233.711	87.88
233.945	69.88
234.179	82.88
234.413	85.88
234.647	83.88
234.881	90.88
235.115	90.88
235.349	83.88
235.583	85.88
235.817	96.88
236.051	76.88
236.285	83.88
236.519	70.88
236.753	74.88
236.987	90.88
237.221	91.88
237.455	106.88
237.689	82.88
237.922	87.88
238.156	96.88
238.39	77.88
238.624	85.88
238.858	82.88
239.091	90.88
239.325	79.88
239.559	89.88
239.793	102.88
240.027	91.88
240.26	84.88
240.494	91.88
240.728	83.88
240.961	77.88
241.195	87.88
241.429	90.88
241.662	93.88
241.896	93.88
242.13	87.88
242.363	83.88
242.597	82.88
242.83	97.88
243.064	87.88
243.298	85.88
243.531	85.88
243.765	94.88
243.998	90.88
244.232	107.88
244.465	100.88
244.699	79.88
244.932	75.88
245.166	82.88
245.399	66.88
245.633	68.88
245.866	80.88
246.099	80.88
246.333	86.88
246.566	98.88
246.8	83.88
247.033	87.88
247.266	93.88
247.5	90.88
247.733	79.88
247.966	78.88
248.2	83.88
248.433	72.88
248.666	85.88
248.899	100.88
249.133	100.88
249.366	109.88
249.599	126.88
249.832	94.88
250.066	89.88
250.299	78.88
250.532	95.88
250.765	95.88
250.998	93.88
251.231	78.88
251.465	97.88
251.698	80.88
251.931	87.88
252.164	81.88
252.397	91.88
252.63	83.88
252.863	85.88
253.096	88.88
253.329	98.88
253.562	86.88
253.795	88.88
254.028	103.88
254.261	95.88
254.494	97.88
254.727	98.88
254.96	93.88
255.193	83.88
255.426	74.88
255.659	100.88
255.892	94.88
256.124	110.88
256.357	97.88
256.59	96.88
256.823	97.88
257.056	90.88
257.289	96.88
257.521	90.88
257.754	101.88
257.987	87.88
258.22	100.88
258.452	101.88
258.685	103.88
258.918	98.88
259.151	92.88
259.383	94.88
259.616	94.88
259.849	82.88
260.081	88.88
260.314	109.88
260.547	97.88
260.779	110.88
261.012	120.88
261.244	123.88
261.477	110.88
261.71	108.88
261.942	142.88
262.175	152.88
262.407	99.88
262.64	86.88
262.872	98.88
263.105	102.88
263.337	109.88
263.57	93.88
263.802	86.88
264.035	87.88
264.267	87.88
264.499	91.88
264.732	95.88
264.964	72.88
265.197	92.88
265.429	84.88
265.661	76.88
265.894	83.88
266.126	92.88
266.358	90.88
266.591	86.88
266.823	90.88
267.055	93.88
267.287	94.88
267.52	94.88
267.752	102.88
267.984	96.88
268.216	86.88
268.448	92.88
268.681	103.88
268.913	96.88
269.145	86.88
269.377	79.88
269.609	92.88
269.841	107.88
270.073	83.88
270.306	83.88
270.538	103.88
270.77	84.88
271.002	85.88
271.234	99.88
271.466	91.88
271.698	85.88
271.93	91.88
272.162	86.88
272.394	84.88
272.626	88.88
272.858	99.88
273.09	98.88
273.322	87.88
273.553	97.88
273.785	96.88
274.017	93.88
274.249	96.88
274.481	96.88
274.713	99.88
274.945	101.88
275.176	102.88
275.408	117.88
275.64	122.88
275.872	135.88
276.104	132.88
276.335	122.88
276.567	126.88
276.799	164.88
277.031	207.88
277.262	239.88
277.494	184.88
277.726	123.88
277.957	96.88
278.189	108.88
278.421	94.88
278.652	85.88
278.884	93.88
279.115	99.88
279.347	101.88
279.579	102.88
279.81	164.88
280.042	238.88
280.273	328.88
280.505	214.88
280.736	124.88
280.968	103.88
281.199	113.88
281.431	101.88
281.662	107.88
281.894	97.88
282.125	108.88
282.356	153.88
282.588	190.88
282.819	150.88
283.051	105.88
283.282	104.88
283.513	79.88
283.745	101.88
283.976	100.88
284.207	90.88
284.439	99.88
284.67	84.88
284.901	84.88
285.132	94.88
285.364	99.88
285.595	103.88
285.826	96.88
286.057	103.88
286.288	91.88
286.52	104.88
286.751	97.88
286.982	100.88
287.213	94.88
287.444	101.88
287.675	85.88
287.906	89.88
288.138	93.88
288.369	89.88
288.6	81.88
288.831	96.88
289.062	106.88
289.293	76.88
289.524	86.88
289.755	91.88
289.986	98.88
290.217	90.88
290.448	97.88
290.679	78.88
290.91	96.88
291.141	96.88
291.371	95.88
291.602	91.88
291.833	94.88
292.064	98.88
292.295	96.88
292.526	88.88
292.757	99.88
292.987	89.88
293.218	93.88
293.449	90.88
293.68	108.88
293.91	91.88
294.141	99.88
294.372	97.88
294.603	95.88
294.833	90.88
295.064	107.88
295.295	100.88
295.525	111.88
295.756	119.88
295.987	129.88
296.217	189.88
296.448	167.88
296.679	115.88
296.909	96.88
297.14	93.88
297.37	99.88
297.601	90.88
297.831	117.88
298.062	90.88
298.292	106.88
298.523	104.88
298.753	86.88
298.984	110.88
299.214	101.88
299.445	87.88
299.675	92.88
299.905	105.88
300.136	108.88
300.366	86.88
300.597	100.88
300.827	100.88
301.057	116.88
301.288	117.88
301.518	124.88
301.748	106.88
301.979	120.88
302.209	103.88
302.439	89.88
302.669	98.88
302.9	104.88
303.13	97.88
303.36	122.88
303.59	158.88
303.82	164.88
304.051	140.88
304.281	99.88
304.511	112.88
304.741	91.88
304.971	100.88
305.201	102.88
305.431	92.88
305.661	108.88
305.891	86.88
306.121	108.88
306.352	129.88
306.582	124.88
306.812	121.88
307.042	140.88
307.272	190.88
307.502	208.88
307.731	195.88
307.961	142.88
308.191	117.88
308.421	101.88
308.651	108.88
308.881	96.88
309.111	102.88
309.341	111.88
309.571	106.88
309.8	115.88
310.03	108.88
310.26	116.88
310.49	123.88
310.72	121.88
310.949	122.88
311.179	120.88
311.409	114.88
311.639	117.88
311.868	104.88
312.098	102.88
312.328	118.88
312.557	113.88
312.787	120.88
313.017	115.88
313.246	116.88
313.476	99.88
313.706	110.88
313.935	104.88
314.165	130.88
314.394	111.88
314.624	113.88
314.853	110.88
315.083	116.88
315.312	108.88
315.542	105.88
315.771	74.88
316.001	90.88
316.23	91.88
316.46	102.88
316.689	104.88
316.919	104.88
317.148	112.88
317.377	103.88
317.607	111.88
317.836	101.88
318.065	93.88
318.295	107.88
318.524	107.88
318.753	99.88
318.983	101.88
319.212	108.88
319.441	118.88
319.67	126.88
319.9	92.88
320.129	97.88
320.358	112.88
320.587	97.88
320.816	119.88
321.046	109.88
321.275	114.88
321.504	99.88
321.733	130.88
321.962	123.88
322.191	107.88
322.42	127.88
322.649	132.88
322.878	125.88
323.108	162.88
323.337	162.88
323.566	175.88
323.795	190.88
324.024	311.88
324.253	600.88
324.482	1296.88
324.71	2831.88
324.939	3778.88
325.168	1300.88
325.397	360.88
325.626	200.88
325.855	172.88
326.084	176.88
326.313	169.88
326.542	201.88
326.77	333.88
326.999	681.88
327.228	1440.88
327.457	2704.88
327.686	2173.88
327.914	746.88
328.143	696.88
328.372	915.88
328.6	482.88
328.829	215.88
329.058	210.88
329.287	234.88
329.515	218.88
329.744	349.88
329.972	698.88
330.201	1430.88
330.43	2059.88
330.658	854.88
330.887	367.88
331.115	223.88
331.344	158.88
331.572	141.88
331.801	145.88
332.03	143.88
332.258	128.88
332.486	125.88
332.715	135.88
332.943	123.88
333.172	155.88
333.4	158.88
333.629	194.88
333.857	306.88
334.085	634.88
334.314	1384.88
334.542	2689.88
334.771	2404.88
334.999	588.88
335.227	222.88
335.455	155.88
335.684	144.88
335.912	122.88
336.14	126.88
336.369	117.88
336.597	126.88
336.825	118.88
337.053	108.88
337.281	111.88
337.51	100.88
337.738	102.88
337.966	112.88
338.194	119.88
338.422	107.88
338.65	96.88
338.878	113.88
339.106	110.88
339.334	108.88
339.562	94.88
339.79	91.88
340.018	104.88
340.246	97.88
340.474	122.88
340.702	109.88
340.93	105.88
341.158	122.88
341.386	111.88
341.614	102.88
341.842	111.88
342.07	111.88
342.298	95.88
342.526	111.88
342.754	108.88
342.981	97.88
343.209	102.88
343.437	115.88
343.665	108.88
343.893	93.88
344.12	98.88
344.348	103.88
344.576	102.88
344.804	110.88
345.031	114.88
345.259	112.88
345.487	111.88
345.714	108.88
345.942	106.88
346.17	103.88
346.397	106.88
346.625	106.88
346.853	115.88
347.08	93.88
347.308	115.88
347.535	102.88
347.763	107.88
347.99	98.88
348.218	122.88
348.445	130.88
348.673	109.88
348.9	114.88
349.128	92.88
349.355	102.88
349.583	99.88
349.81	113.88
350.037	118.88
350.265	112.88
350.492	101.88
350.72	104.88
350.947	109.88
351.174	138.88
351.402	122.88
351.629	105.88
351.856	112.88
352.083	117.88
352.311	144.88
352.538	135.88
352.765	119.88
352.992	117.88
353.22	122.88
353.447	114.88
353.674	110.88
353.901	100.88
354.128	111.88
354.355	113.88
354.583	108.88
354.81	101.88
355.037	103.88
355.264	100.88
355.491	93.88
355.718	100.88
355.945	92.88
356.172	102.88
356.399	99.88
356.626	115.88
356.853	94.88
357.08	95.88
357.307	88.88
357.534	98.88
357.761	96.88
357.988	97.88
358.215	108.88
358.441	98.88
358.668	102.88
358.895	103.88
359.122	105.88
359.349	85.88
359.576	89.88
359.802	130.88
360.029	163.88
360.256	148.88
360.483	116.88
360.709	99.88
360.936	101.88
361.163	108.88
361.39	126.88
361.616	99.88
361.843	97.88
362.07	99.88
362.296	108.88
362.523	111.88
362.749	98.88
362.976	97.88
363.203	103.88
363.429	98.88
363.656	99.88
363.882	108.88
364.109	103.88
364.335	93.88
364.562	95.88
364.788	102.88
365.015	127.88
365.241	115.88
365.468	117.88
365.694	131.88
365.92	109.88
366.147	100.88
366.373	108.88
366.599	96.88
366.826	105.88
367.052	86.88
367.278	111.88
367.505	100.88
367.731	102.88
367.957	102.88
368.184	103.88
368.41	114.88
368.636	126.88
368.862	144.88
369.089	118.88
369.315	116.88
369.541	114.88
369.767	98.88
369.993	103.88
370.219	113.88
370.445	99.88
370.672	95.88
370.898	91.88
371.124	96.88
371.35	94.88
371.576	76.88
371.802	87.88
372.028	91.88
372.254	86.88
372.48	96.88
372.706	92.88
372.932	91.88
373.158	88.88
373.384	101.88
373.61	119.88
373.835	96.88
374.061	105.88
374.287	107.88
374.513	115.88
374.739	97.88
374.965	102.88
375.191	93.88
375.416	90.88
375.642	118.88
375.868	103.88
376.094	101.88
376.319	92.88
376.545	98.88
376.771	91.88
376.997	84.88
377.222	108.88
377.448	100.88
377.674	99.88
377.899	104.88
378.125	100.88
378.35	98.88
378.576	108.88
378.802	99.88
379.027	113.88
379.253	91.88
379.478	95.88
379.704	99.88
379.929	94.88
380.155	97.88
380.38	98.88
380.606	109.88
380.831	112.88
381.057	105.88
381.282	111.88
381.507	103.88
381.733	96.88
381.958	104.88
382.184	112.88
382.409	108.88
382.634	112.88
382.86	109.88
383.085	93.88
383.31	99.88
383.535	107.88
383.761	108.88
383.986	99.88
384.211	114.88
384.436	109.88
384.662	108.88
384.887	115.88
385.112	100.88
385.337	114.88
385.562	103.88
385.787	120.88
386.013	104.88
386.238	124.88
386.463	120.88
386.688	126.88
386.913	102.88
387.138	99.88
387.363	102.88
387.588	109.88
387.813	101.88
388.038	116.88
388.263	114.88
388.488	103.88
388.713	99.88
388.938	98.88
389.163	95.88
389.387	99.88
389.612	98.88
389.837	94.88
390.062	98.88
390.287	103.88
390.512	97.88
390.736	93.88
390.961	94.88
391.186	90.88
391.411	89.88
391.636	101.88
391.86	83.88
392.085	110.88
392.31	101.88
392.534	106.88
392.759	100.88
392.984	103.88
393.208	95.88
393.433	93.88
393.658	106.88
393.882	93.88
394.107	82.88
394.331	109.88
394.556	92.88
394.78	79.88
395.005	85.88
395.229	86.88
395.454	98.88
395.678	95.88
395.903	87.88
396.127	93.88
396.352	96.88
396.576	101.88
396.801	96.88
397.025	98.88
397.249	92.88
397.474	110.88
397.698	86.88
397.922	90.88
398.147	93.88
398.371	97.88
398.595	72.88
398.82	95.88
399.044	82.88
399.268	85.88
399.492	98.88
399.717	98.88
399.941	104.88
400.165	114.88
400.389	114.88
400.613	90.88
400.837	95.88
401.062	102.88
401.286	87.88
401.51	112.88
401.734	117.88
401.958	109.88
402.182	149.88
402.406	181.88
402.63	160.88
402.854	115.88
403.078	107.88
403.302	119.88
403.526	99.88
403.75	99.88
403.974	111.88
404.198	90.88
404.422	107.88
404.645	94.88
404.869	110.88
405.093	133.88
405.317	150.88
405.541	162.88
405.765	129.88
405.988	146.88
406.212	224.88
406.436	358.88
406.66	210.88
406.883	125.88
407.107	111.88
407.331	118.88
407.555	128.88
407.778	117.88
408.002	101.88
408.226	99.88
408.449	84.88
408.673	104.88
408.896	106.88
409.12	115.88
409.344	107.88
409.567	110.88
409.791	101.88
410.014	105.88
410.238	97.88
410.461	89.88
410.685	96.88
410.908	106.88
411.132	110.88
411.355	107.88
411.578	95.88
411.802	111.88
412.025	104.88
412.249	107.88
412.472	138.88
412.695	157.88
412.919	132.88
413.142	119.88
413.365	103.88
413.589	97.88
413.812	101.88
414.035	104.88
414.258	104.88
414.482	104.88
414.705	92.88
414.928	86.88
415.151	111.88
415.374	106.88
415.597	88.88
415.821	102.88
416.044	100.88
416.267	96.88
416.49	92.88
416.713	83.88
416.936	94.88
417.159	101.88
417.382	121.88
417.605	118.88
417.828	130.88
418.051	111.88
418.274	97.88
418.497	74.88
418.72	89.88
418.943	99.88
419.166	106.88
419.389	87.88
419.611	105.88
419.834	103.88
420.057	99.88
420.28	95.88
420.503	85.88
420.726	102.88
420.948	94.88
421.171	131.88
421.394	111.88
421.617	104.88
421.839	94.88
422.062	101.88
422.285	104.88
422.507	106.88
422.73	105.88
422.953	104.88
423.175	85.88
423.398	100.88
423.621	93.88
423.843	107.88
424.066	86.88
424.288	98.88
424.511	116.88
424.733	121.88
424.956	138.88
425.178	113.88
425.401	111.88
425.623	119.88
425.846	117.88
426.068	101.88
426.291	104.88
426.513	98.88
426.735	107.88
426.958	100.88
427.18	136.88
427.402	205.88
427.625	317.88
427.847	302.88
428.069	282.88
428.292	150.88
428.514	107.88
428.736	100.88
428.958	110.88
429.181	102.88
429.403	99.88
429.625	104.88
429.847	119.88
430.069	123.88
430.292	114.88
430.514	90.88
430.736	91.88
430.958	94.88
431.18	90.88
431.402	92.88
431.624	103.88
431.846	99.88
432.068	95.88
432.29	95.88
432.512	94.88
432.734	109.88
432.956	107.88
433.178	123.88
433.4	110.88
433.622	102.88
433.844	113.88
434.066	103.88
434.287	99.88
434.509	102.88
434.731	92.88
434.953	88.88
435.175	101.88
435.397	103.88
435.618	109.88
435.84	131.88
436.062	169.88
436.284	153.88
436.505	139.88
436.727	127.88
436.949	104.88
437.17	108.88
437.392	91.88
437.614	119.88
437.835	147.88
438.057	166.88
438.278	151.88
438.5	128.88
438.721	150.88
438.943	118.88
439.165	97.88
439.386	110.88
439.608	104.88
439.829	120.88
440.05	174.88
440.272	226.88
440.493	130.88
440.715	99.88
440.936	95.88
441.158	96.88
441.379	113.88
441.6	104.88
441.822	107.88
442.043	110.88
442.264	136.88
442.486	121.88
442.707	114.88
442.928	128.88
443.149	207.88
443.371	177.88
443.592	133.88
443.813	134.88
444.034	150.88
444.255	101.88
444.476	103.88
444.698	96.88
444.919	104.88
445.14	157.88
445.361	150.88
445.582	146.88
445.803	237.88
446.024	222.88
446.245	191.88
446.466	160.88
446.687	115.88
446.908	90.88
447.129	110.88
447.35	89.88
447.571	103.88
447.792	103.88
448.013	131.88
448.234	120.88
448.455	137.88
448.675	140.88
448.896	150.88
449.117	109.88
449.338	122.88
449.559	158.88
449.779	165.88
450	107.88
450.221	102.88
450.442	94.88
450.662	111.88
450.883	135.88
451.104	149.88
451.324	107.88
451.545	88.88
451.766	100.88
451.986	88.88
452.207	84.88
452.428	99.88
452.648	111.88
452.869	131.88
453.089	130.88
453.31	140.88
453.53	101.88
453.751	99.88
453.971	127.88
454.192	138.88
454.412	116.88
454.633	101.88
454.853	97.88
455.073	100.88
455.294	106.88
455.514	122.88
455.734	95.88
455.955	96.88
456.175	90.88
456.395	95.88
456.616	100.88
456.836	94.88
457.056	96.88
457.276	99.88
457.497	84.88
457.717	95.88
457.937	95.88
458.157	98.88
458.377	105.88
458.598	128.88
458.818	208.88
459.038	253.88
459.258	168.88
459.478	119.88
459.698	103.88
459.918	99.88
460.138	96.88
460.358	109.88
460.578	96.88
460.798	97.88
461.018	108.88
461.238	105.88
461.458	96.88
461.678	94.88
461.898	93.88
462.118	99.88
462.338	103.88
462.558	100.88
462.777	104.88
462.997	111.88
463.217	135.88
463.437	114.88
463.657	87.88
463.876	106.88
464.096	100.88
464.316	118.88
464.536	104.88
464.755	96.88
464.975	130.88
465.195	266.88
465.414	254.88
465.634	114.88
465.854	90.88
466.073	110.88
466.293	86.88
466.512	103.88
466.732	98.88
466.951	87.88
467.171	105.88
467.391	123.88
467.61	179.88
467.829	266.88
468.049	794.88
468.268	1156.88
468.488	295.88
468.707	140.88
468.927	106.88
469.146	106.88
469.365	104.88
469.585	111.88
469.804	107.88
470.023	126.88
470.243	122.88
470.462	115.88
470.681	146.88
470.901	114.88
471.12	121.88
471.339	107.88
471.558	141.88
471.777	186.88
471.997	429.88
472.216	1589.88
472.435	3675.88
472.654	814.88
472.873	195.88
473.092	115.88
473.311	100.88
473.53	102.88
473.749	93.88
473.968	122.88
474.187	160.88
474.406	130.88
474.625	108.88
474.844	109.88
475.063	99.88
475.282	110.88
475.501	95.88
475.72	101.88
475.939	92.88
476.158	108.88
476.377	107.88
476.596	99.88
476.814	111.88
477.033	113.88
477.252	104.88
477.471	104.88
477.69	97.88
477.908	106.88
478.127	100.88
478.346	79.88
478.564	109.88
478.783	120.88
479.002	106.88
479.22	123.88
479.439	143.88
479.658	160.88
479.876	138.88
480.095	139.88
480.313	166.88
480.532	202.88
480.751	397.88
480.969	1484.88
481.188	6314.88
481.406	3521.88
481.624	482.88
481.843	182.88
482.061	128.88
482.28	112.88
482.498	117.88
482.717	100.88
482.935	97.88
483.153	96.88
483.372	102.88
483.59	99.88
483.808	99.88
484.027	108.88
484.245	102.88
484.463	92.88
484.681	107.88
484.9	107.88
485.118	99.88
485.336	105.88
485.554	80.88
485.772	122.88
485.99	113.88
486.209	109.88
486.427	113.88
486.645	122.88
486.863	143.88
487.081	109.88
487.299	100.88
487.517	114.88
487.735	85.88
487.953	112.88
488.171	95.88
488.389	118.88
488.607	110.88
488.825	114.88
489.043	103.88
489.261	109.88
489.479	104.88
489.696	92.88
489.914	110.88
490.132	97.88
490.35	91.88
490.568	107.88
490.786	93.88
491.003	102.88
491.221	103.88
491.439	114.88
491.657	112.88
491.874	102.88
492.092	96.88
492.31	105.88
492.527	115.88
492.745	112.88
492.963	106.88
493.18	107.88
493.398	113.88
493.615	103.88
493.833	103.88
494.05	96.88
494.268	95.88
494.485	100.88
494.703	116.88
494.92	98.88
495.138	90.88
495.355	89.88
495.573	91.88
495.79	94.88
496.008	108.88
496.225	108.88
496.442	83.88
496.66	117.88
496.877	94.88
497.094	92.88
497.312	96.88
497.529	87.88
497.746	91.88
497.963	98.88
498.181	83.88
498.398	117.88
498.615	132.88
498.832	126.88
499.049	113.88
499.267	90.88
499.484	102.88
499.701	98.88
499.918	92.88
500.135	99.88
500.352	94.88
500.569	102.88
500.786	105.88
501.003	94.88
501.22	98.88
501.437	85.88
501.654	98.88
501.871	146.88
502.088	113.88
502.305	85.88
502.522	92.88
502.739	114.88
502.956	97.88
503.172	117.88
503.389	116.88
503.606	125.88
503.823	125.88
504.04	91.88
504.256	106.88
504.473	92.88
504.69	95.88
504.907	86.88
505.123	104.88
505.34	88.88
505.557	87.88
505.773	97.88
505.99	92.88
506.207	86.88
506.423	110.88
506.64	98.88
506.856	88.88
507.073	115.88
507.289	107.88
507.506	119.88
507.722	144.88
507.939	142.88
508.155	99.88
508.372	119.88
508.588	94.88
508.805	91.88
509.021	111.88
509.238	100.88
