Data from Circ_1998_H10_HRD10591_00092.txt Node
Date: Wed Jan 03 11:27:07 EST 2024
User: Yrep
Spectrometer: HR+D1059
Trigger mode: 1
Integration Time (sec): 1.000000E-1
Scans to average: 1
Electric dark correction enabled: true
Nonlinearity correction enabled: false
Boxcar width: 0
XAxis mode: Wavelengths
Number of Pixels in Spectrum: 2048
>>>>>Begin Spectral Data<<<<<
223.165	-7
223.4	-7
223.635	-7
223.869	-17
224.104	-22
224.338	-12
224.573	-21
224.808	-7
225.042	0
225.277	-9
225.511	-2
225.746	-12
225.98	3
226.215	11
226.449	20
226.683	24
226.918	22
227.152	29
227.387	28
227.621	50
227.856	53
228.09	52
228.324	53
228.559	54
228.793	63
229.027	67
229.262	75
229.496	86
229.73	124
229.964	98
230.199	68
230.433	82
230.667	75
230.901	82
231.136	80
231.37	92
231.604	92
231.838	84
232.072	75
232.306	91
232.541	81
232.775	99
233.009	80
233.243	86
233.477	90
233.711	91
233.945	94
234.179	88
234.413	73
234.647	82
234.881	93
235.115	84
235.349	74
235.583	78
235.817	84
236.051	84
236.285	80
236.519	85
236.753	75
236.987	86
237.221	104
237.455	119
237.689	80
237.922	73
238.156	83
238.39	83
238.624	76
238.858	93
239.091	71
239.325	86
239.559	89
239.793	83
240.027	94
240.26	80
240.494	85
240.728	66
240.961	98
241.195	81
241.429	75
241.662	78
241.896	87
242.13	63
242.363	65
242.597	89
242.83	73
243.064	82
243.298	87
243.531	75
243.765	90
243.998	83
244.232	95
244.465	94
244.699	84
244.932	89
245.166	67
245.399	82
245.633	87
245.866	83
246.099	90
246.333	79
246.566	87
246.8	90
247.033	87
247.266	86
247.5	84
247.733	90
247.966	74
248.2	80
248.433	99
248.666	85
248.899	99
249.133	99
249.366	111
249.599	114
249.832	99
250.066	92
250.299	80
250.532	104
250.765	78
250.998	84
251.231	92
251.465	94
251.698	107
251.931	104
252.164	80
252.397	72
252.63	71
252.863	76
253.096	91
253.329	85
253.562	89
253.795	89
254.028	92
254.261	97
254.494	81
254.727	85
254.96	89
255.193	88
255.426	97
255.659	106
255.892	114
256.124	106
256.357	101
256.59	96
256.823	94
257.056	79
257.289	94
257.521	93
257.754	100
257.987	102
258.22	108
258.452	121
258.685	102
258.918	94
259.151	83
259.383	91
259.616	89
259.849	83
260.081	104
260.314	100
260.547	100
260.779	120
261.012	143
261.244	135
261.477	126
261.71	127
261.942	169
262.175	178
262.407	121
262.64	90
262.872	87
263.105	86
263.337	102
263.57	96
263.802	84
264.035	92
264.267	83
264.499	97
264.732	91
264.964	81
265.197	89
265.429	104
265.661	90
265.894	89
266.126	99
266.358	76
266.591	82
266.823	88
267.055	81
267.287	89
267.52	79
267.752	84
267.984	93
268.216	86
268.448	99
268.681	107
268.913	117
269.145	98
269.377	90
269.609	98
269.841	87
270.073	89
270.306	80
270.538	101
270.77	80
271.002	97
271.234	112
271.466	122
271.698	106
271.93	99
272.162	86
272.394	86
272.626	105
272.858	94
273.09	93
273.322	92
273.553	99
273.785	90
274.017	80
274.249	98
274.481	97
274.713	96
274.945	100
275.176	135
275.408	136
275.64	144
275.872	176
276.104	150
276.335	137
276.567	164
276.799	215
277.031	291
277.262	351
277.494	262
277.726	146
277.957	102
278.189	95
278.421	88
278.652	101
278.884	103
279.115	115
279.347	103
279.579	141
279.81	192
280.042	382
280.273	544
280.505	328
280.736	162
280.968	115
281.199	108
281.431	97
281.662	92
281.894	108
282.125	121
282.356	169
282.588	239
282.819	171
283.051	94
283.282	104
283.513	89
283.745	102
283.976	86
284.207	86
284.439	91
284.67	104
284.901	67
285.132	84
285.364	89
285.595	96
285.826	108
286.057	96
286.288	78
286.52	105
286.751	100
286.982	90
287.213	90
287.444	81
287.675	98
287.906	76
288.138	102
288.369	98
288.6	100
288.831	91
289.062	94
289.293	91
289.524	76
289.755	95
289.986	98
290.217	97
290.448	88
290.679	95
290.91	85
291.141	94
291.371	87
291.602	97
291.833	90
292.064	94
292.295	90
292.526	99
292.757	102
292.987	89
293.218	86
293.449	95
293.68	88
293.91	100
294.141	106
294.372	99
294.603	99
294.833	92
295.064	109
295.295	104
295.525	105
295.756	115
295.987	162
296.217	224
296.448	199
296.679	106
296.909	104
297.14	105
297.37	101
297.601	93
297.831	95
298.062	97
298.292	99
298.523	105
298.753	99
298.984	90
299.214	93
299.445	109
299.675	110
299.905	123
300.136	104
300.366	86
300.597	99
300.827	109
301.057	123
301.288	146
301.518	116
301.748	121
301.979	145
302.209	124
302.439	110
302.669	122
302.9	115
303.13	123
303.36	136
303.59	206
303.82	225
304.051	138
304.281	98
304.511	104
304.741	97
304.971	84
305.201	107
305.431	99
305.661	120
305.891	98
306.121	103
306.352	150
306.582	143
306.812	150
307.042	176
307.272	285
307.502	312
307.731	287
307.961	177
308.191	109
308.421	101
308.651	107
308.881	118
309.111	109
309.341	110
309.571	130
309.8	117
310.03	121
310.26	140
310.49	127
310.72	131
310.949	129
311.179	144
311.409	110
311.639	110
311.868	127
312.098	120
312.328	115
312.557	130
312.787	167
313.017	137
313.246	106
313.476	90
313.706	97
313.935	114
314.165	105
314.394	132
314.624	126
314.853	112
315.083	101
315.312	105
315.542	114
315.771	113
316.001	112
316.23	103
316.46	99
316.689	101
316.919	92
317.148	102
317.377	107
317.607	98
317.836	110
318.065	107
318.295	100
318.524	104
318.753	98
318.983	124
319.212	137
319.441	131
319.67	137
319.9	123
320.129	104
320.358	118
320.587	112
320.816	116
321.046	135
321.275	111
321.504	109
321.733	118
321.962	121
322.191	122
322.42	132
322.649	146
322.878	155
323.108	179
323.337	192
323.566	208
323.795	245
324.024	317
324.253	651
324.482	1521
324.71	3102
324.939	4153
325.168	1486
325.397	410
325.626	231
325.855	198
326.084	161
326.313	194
326.542	216
326.77	362
326.999	706
327.228	1513
327.457	2854
327.686	2363
327.914	936
328.143	1110
328.372	1475
328.6	754
328.829	301
329.058	295
329.287	298
329.515	301
329.744	482
329.972	1016
330.201	2286
330.43	3379
330.658	1357
330.887	539
331.115	292
331.344	178
331.572	162
331.801	180
332.03	175
332.258	162
332.486	134
332.715	131
332.943	143
333.172	155
333.4	189
333.629	259
333.857	424
334.085	889
334.314	2063
334.542	4152
334.771	3768
334.999	881
335.227	298
335.455	209
335.684	143
335.912	135
336.14	127
336.369	140
336.597	134
336.825	142
337.053	102
337.281	108
337.51	107
337.738	123
337.966	118
338.194	125
338.422	118
338.65	114
338.878	113
339.106	105
339.334	87
339.562	106
339.79	101
340.018	100
340.246	120
340.474	116
340.702	120
340.93	97
341.158	104
341.386	98
341.614	114
341.842	121
342.07	114
342.298	116
342.526	110
342.754	106
342.981	86
343.209	95
343.437	98
343.665	107
343.893	93
344.12	98
344.348	96
344.576	95
344.804	103
345.031	118
345.259	132
345.487	101
345.714	99
345.942	106
346.17	94
346.397	107
346.625	115
346.853	111
347.08	105
347.308	110
347.535	117
347.763	127
347.99	120
348.218	127
348.445	138
348.673	115
348.9	123
349.128	92
349.355	108
349.583	99
349.81	102
350.037	110
350.265	115
350.492	102
350.72	127
350.947	121
351.174	138
351.402	152
351.629	122
351.856	127
352.083	131
352.311	138
352.538	150
352.765	150
352.992	141
353.22	138
353.447	125
353.674	120
353.901	109
354.128	107
354.355	107
354.583	103
354.81	105
355.037	93
355.264	108
355.491	96
355.718	85
355.945	96
356.172	106
356.399	93
356.626	101
356.853	93
357.08	81
357.307	78
357.534	98
357.761	111
357.988	83
358.215	100
358.441	92
358.668	99
358.895	111
359.122	99
359.349	92
359.576	108
359.802	144
360.029	199
360.256	186
360.483	139
360.709	110
360.936	109
361.163	112
361.39	125
361.616	129
361.843	104
362.07	109
362.296	119
362.523	116
362.749	121
362.976	113
363.203	95
363.429	102
363.656	107
363.882	106
364.109	97
364.335	112
364.562	110
364.788	106
365.015	107
365.241	128
365.468	146
365.694	134
365.92	117
366.147	98
366.373	108
366.599	110
366.826	95
367.052	89
367.278	102
367.505	100
367.731	118
367.957	97
368.184	113
368.41	119
368.636	152
368.862	182
369.089	140
369.315	129
369.541	121
369.767	106
369.993	125
370.219	106
370.445	88
370.672	80
370.898	98
371.124	94
371.35	91
371.576	82
371.802	89
372.028	92
372.254	103
372.48	102
372.706	86
372.932	83
373.158	94
373.384	99
373.61	98
373.835	98
374.061	98
374.287	108
374.513	96
374.739	100
374.965	86
375.191	85
375.416	107
375.642	100
375.868	106
376.094	100
376.319	97
376.545	106
376.771	81
376.997	100
377.222	89
377.448	99
377.674	93
377.899	96
378.125	90
378.35	96
378.576	88
378.802	93
379.027	92
379.253	82
379.478	98
379.704	94
379.929	97
380.155	109
380.38	99
380.606	98
380.831	94
381.057	108
381.282	87
381.507	107
381.733	108
381.958	98
382.184	88
382.409	102
382.634	106
382.86	95
383.085	117
383.31	109
383.535	109
383.761	94
383.986	85
384.211	88
384.436	97
384.662	102
384.887	97
385.112	107
385.337	86
385.562	113
385.787	114
386.013	136
386.238	131
386.463	121
386.688	114
386.913	88
387.138	98
387.363	99
387.588	90
387.813	86
388.038	99
388.263	106
388.488	120
388.713	98
388.938	106
389.163	92
389.387	91
389.612	86
389.837	112
390.062	86
390.287	100
390.512	81
390.736	100
390.961	95
391.186	98
391.411	97
391.636	84
391.86	92
392.085	90
392.31	90
392.534	95
392.759	92
392.984	93
393.208	101
393.433	107
393.658	91
393.882	91
394.107	86
394.331	96
394.556	78
394.78	99
395.005	97
395.229	86
395.454	93
395.678	95
395.903	97
396.127	92
396.352	100
396.576	89
396.801	92
397.025	95
397.249	74
397.474	108
397.698	97
397.922	90
398.147	101
398.371	80
398.595	90
398.82	86
399.044	99
399.268	100
399.492	96
399.717	106
399.941	116
400.165	116
400.389	98
400.613	91
400.837	87
401.062	102
401.286	107
401.51	93
401.734	102
401.958	136
402.182	198
402.406	290
402.63	209
402.854	132
403.078	109
403.302	95
403.526	92
403.75	109
403.974	88
404.198	96
404.422	102
404.645	100
404.869	103
405.093	143
405.317	180
405.541	172
405.765	144
405.988	193
406.212	323
406.436	498
406.66	303
406.883	159
407.107	122
407.331	122
407.555	134
407.778	115
408.002	104
408.226	95
408.449	96
408.673	90
408.896	107
409.12	115
409.344	94
409.567	99
409.791	107
410.014	80
410.238	83
410.461	100
410.685	100
410.908	103
411.132	100
411.355	113
411.578	97
411.802	109
412.025	110
412.249	129
412.472	151
412.695	165
412.919	127
413.142	127
413.365	104
413.589	94
413.812	82
414.035	102
414.258	100
414.482	104
414.705	90
414.928	107
415.151	106
415.374	97
415.597	98
415.821	113
416.044	104
416.267	99
416.49	102
416.713	90
416.936	99
417.159	95
417.382	119
417.605	127
417.828	130
418.051	121
418.274	88
418.497	89
418.72	87
418.943	98
419.166	91
419.389	94
419.611	93
419.834	109
420.057	98
420.28	109
420.503	102
420.726	100
420.948	108
421.171	122
421.394	99
421.617	99
421.839	77
422.062	100
422.285	89
422.507	98
422.73	130
422.953	101
423.175	107
423.398	95
423.621	106
423.843	105
424.066	100
424.288	95
424.511	114
424.733	140
424.956	139
425.178	115
425.401	123
425.623	123
425.846	109
426.068	115
426.291	108
426.513	112
426.735	95
426.958	125
427.18	147
427.402	244
427.625	400
427.847	378
428.069	316
428.292	171
428.514	114
428.736	110
428.958	109
429.181	90
429.403	98
429.625	109
429.847	111
430.069	120
430.292	108
430.514	94
430.736	81
430.958	83
431.18	94
431.402	92
431.624	90
431.846	88
432.068	82
432.29	96
432.512	95
432.734	91
432.956	99
433.178	105
433.4	98
433.622	114
433.844	96
434.066	99
434.287	112
434.509	103
434.731	104
434.953	99
435.175	89
435.397	79
435.618	101
435.84	116
436.062	151
436.284	154
436.505	126
436.727	105
436.949	106
437.17	93
437.392	84
437.614	115
437.835	166
438.057	202
438.278	147
438.5	119
438.721	170
438.943	144
439.165	103
439.386	88
439.608	124
439.829	138
440.05	182
440.272	253
440.493	154
440.715	96
440.936	83
441.158	88
441.379	91
441.6	112
441.822	121
442.043	113
442.264	138
442.486	122
442.707	107
442.928	168
443.149	257
443.371	227
443.592	173
443.813	162
444.034	140
444.255	119
444.476	93
444.698	97
444.919	106
445.14	144
445.361	151
445.582	185
445.803	259
446.024	239
446.245	221
446.466	162
446.687	108
446.908	99
447.129	108
447.35	107
447.571	126
447.792	123
448.013	125
448.234	161
448.455	132
448.675	144
448.896	159
449.117	135
449.338	141
449.559	170
449.779	189
450	116
450.221	110
450.442	107
450.662	125
450.883	150
451.104	191
451.324	132
451.545	103
451.766	102
451.986	86
452.207	95
452.428	100
452.648	125
452.869	156
453.089	169
453.31	188
453.53	109
453.751	122
453.971	151
454.192	181
454.412	127
454.633	97
454.853	101
455.073	92
455.294	127
455.514	112
455.734	96
455.955	99
456.175	82
456.395	95
456.616	87
456.836	108
457.056	89
457.276	96
457.497	112
457.717	107
457.937	84
458.157	93
458.377	117
458.598	147
458.818	317
459.038	347
459.258	200
459.478	111
459.698	107
459.918	100
460.138	95
460.358	83
460.578	94
460.798	115
461.018	94
461.238	90
461.458	91
461.678	112
461.898	89
462.118	98
462.338	101
462.558	97
462.777	84
462.997	103
463.217	138
463.437	120
463.657	92
463.876	97
464.096	100
464.316	120
464.536	116
464.755	135
464.975	157
465.195	385
465.414	382
465.634	130
465.854	104
466.073	112
466.293	87
466.512	114
466.732	98
466.951	105
467.171	111
467.391	138
467.61	215
467.829	402
468.049	1345
468.268	2042
468.488	434
468.707	159
468.927	121
469.146	111
469.365	116
469.585	111
469.804	145
470.023	131
470.243	120
470.462	147
470.681	197
470.901	148
471.12	123
471.339	146
471.558	159
471.777	246
471.997	605
472.216	2577
472.435	5937
472.654	1222
472.873	277
473.092	137
473.311	126
473.53	118
473.749	102
473.968	129
474.187	156
474.406	129
474.625	115
474.844	101
475.063	105
475.282	105
475.501	91
475.72	107
475.939	103
476.158	103
476.377	94
476.596	109
476.814	120
477.033	114
477.252	110
477.471	95
477.69	97
477.908	98
478.127	110
478.346	94
478.564	120
478.783	134
479.002	146
479.22	135
479.439	184
479.658	197
479.876	165
480.095	162
480.313	207
480.532	266
480.751	525
480.969	2171
481.188	9969
481.406	5583
481.624	695
481.843	220
482.061	150
482.28	111
482.498	113
482.717	105
482.935	96
483.153	102
483.372	110
483.59	104
483.808	104
484.027	99
484.245	102
484.463	108
484.681	118
484.9	104
485.118	111
485.336	119
485.554	103
485.772	117
485.99	108
486.209	118
486.427	118
486.645	169
486.863	160
487.081	133
487.299	111
487.517	107
487.735	91
487.953	94
488.171	105
488.389	116
488.607	111
488.825	102
489.043	108
489.261	109
489.479	105
489.696	107
489.914	97
490.132	88
490.35	98
490.568	97
490.786	99
491.003	97
491.221	115
491.439	108
491.657	110
491.874	109
492.092	96
492.31	99
492.527	121
492.745	118
492.963	123
493.18	113
493.398	96
493.615	104
493.833	100
494.05	84
494.268	88
494.485	107
494.703	89
494.92	87
495.138	91
495.355	109
495.573	98
495.79	99
496.008	116
496.225	100
496.442	111
496.66	97
496.877	82
497.094	93
497.312	90
497.529	105
497.746	104
497.963	100
498.181	118
498.398	108
498.615	154
498.832	139
499.049	98
499.267	106
499.484	89
499.701	89
499.918	91
500.135	106
500.352	97
500.569	110
500.786	116
501.003	108
501.22	100
501.437	101
501.654	118
501.871	168
502.088	100
502.305	99
502.522	97
502.739	83
502.956	104
503.172	96
503.389	118
503.606	151
503.823	114
504.04	100
504.256	89
504.473	89
504.69	102
504.907	105
505.123	83
505.34	100
505.557	116
505.773	105
505.99	103
506.207	89
506.423	84
506.64	96
506.856	107
507.073	95
507.289	100
507.506	121
507.722	183
507.939	172
508.155	122
508.372	104
508.588	117
508.805	111
509.021	110
509.238	113
509.454	120
509.67	124
509.887	152
510.103	195
510.319	334
510.536	1482
510.752	5496
510.968	1370
511.184	243
511.401	155
511.617	138
511.833	134
512.049	121
512.265	106
512.481	118
512.698	104
512.914	116
513.13	115
513.346	100
513.562	111
513.778	119
513.994	126
514.21	154
514.426	186
514.642	270
514.858	225
515.074	365
515.29	1273
515.506	4700
515.721	1544
515.937	327
516.153	184
516.369	144
516.585	132
516.801	139
517.016	124
517.232	108
517.448	101
517.664	112
517.879	113
518.095	114
518.311	141
518.527	134
518.742	103
518.958	117
519.173	105
519.389	119
519.605	122
519.82	107
520.036	143
520.251	196
520.467	180
520.682	134
520.898	168
521.113	186
521.329	279
521.544	497
521.76	1666
521.975	7874
522.19	4645
522.406	829
522.621	244
522.836	156
523.052	127
523.267	126
523.482	104
523.698	138
523.913	204
524.128	144
524.343	111
524.559	106
524.774	95
524.989	128
525.204	169
525.419	124
525.634	101
525.849	100
526.064	114
526.28	95
526.495	86
526.71	99
526.925	87
527.14	100
527.355	108
527.57	98
527.785	86
527.999	92
528.214	91
528.429	114
528.644	96
528.859	98
529.074	122
529.289	217
529.503	415
529.718	176
529.933	106
530.148	99
530.363	98
530.577	108
530.792	95
531.007	94
531.221	96
531.436	90
531.651	102
531.865	97
532.08	113
532.295	99
532.509	98
532.724	113
532.938	83
533.153	100
533.367	102
533.582	109
533.796	108
534.011	110
534.225	105
534.44	97
534.654	104
534.868	106
535.083	111
535.297	108
535.511	143
535.726	150
535.94	120
536.154	130
536.369	68
536.583	87
536.797	99
537.011	106
537.225	99
537.44	76
537.654	112
537.868	98
538.082	107
538.296	102
538.51	107
538.724	96
538.938	91
539.153	114
539.367	145
539.581	118
539.795	117
540.009	103
540.222	111
540.436	92
540.65	95
540.864	110
541.078	126
541.292	110
541.506	95
541.72	83
541.934	104
542.147	95
542.361	94
542.575	107
542.789	94
543.002	99
543.216	100
543.43	116
543.644	95
543.857	88
544.071	93
544.285	87
544.498	93
544.712	85
544.925	92
545.139	91
545.352	87
545.566	86
545.779	88
545.993	75
546.206	92
546.42	100
546.633	94
546.847	100
547.06	112
547.274	93
547.487	81
547.7	102
547.914	93
548.127	97
548.34	82
548.554	99
548.767	105
548.98	95
549.193	90
549.407	80
549.62	95
549.833	81
550.046	77
550.259	97
550.473	97
550.686	95
550.899	100
551.112	95
551.325	102
551.538	120
551.751	105
551.964	77
552.177	94
552.39	92
552.603	105
552.816	95
553.029	88
553.242	95
553.455	126
553.667	140
553.88	152
554.093	114
554.306	144
554.519	167
554.732	117
554.944	98
555.157	86
555.37	103
555.583	105
555.795	112
556.008	103
556.221	94
556.433	91
556.646	102
556.859	85
557.071	98
557.284	98
557.496	84
557.709	107
557.921	95
558.134	108
558.346	105
558.559	98
558.771	106
558.984	82
559.196	93
559.409	93
559.621	96
559.833	103
560.046	121
560.258	148
560.47	209
560.683	128
560.895	105
561.107	89
561.32	112
561.532	90
561.744	88
561.956	95
562.168	91
562.381	86
562.593	99
562.805	84
563.017	88
563.229	89
563.441	90
563.653	92
563.865	105
564.077	97
564.289	91
564.501	88
564.713	97
564.925	111
565.137	123
565.349	113
565.561	98
565.773	102
565.985	97
566.197	99
566.408	89
566.62	78
566.832	86
567.044	96
567.255	92
567.467	82
567.679	87
567.891	108
568.102	88
568.314	91
568.526	89
568.737	97
568.949	81
569.161	100
569.372	98
569.584	103
569.795	118
570.007	151
570.218	461
570.43	193
570.641	95
570.853	95
571.064	93
571.276	95
571.487	100
571.698	105
571.91	95
572.121	89
572.333	81
572.544	103
572.755	100
572.966	88
573.178	91
573.389	105
573.6	96
573.811	96
574.023	80
574.234	112
