Data from Circ_1998_H10_HRD10591_00015.txt Node
Date: Wed Jan 03 11:26:51 EST 2024
User: Yrep
Spectrometer: HR+D1059
Trigger mode: 1
Integration Time (sec): 1.000000E-1
Scans to average: 1
Electric dark correction enabled: true
Nonlinearity correction enabled: false
Boxcar width: 0
XAxis mode: Wavelengths
Number of Pixels in Spectrum: 2048
>>>>>Begin Spectral Data<<<<<
223.165	-17.62
223.4	-17.62
223.635	-17.62
223.869	-18.62
224.104	-18.62
224.338	-9.62
224.573	-20.62
224.808	-17.62
225.042	4.38
225.277	3.38
225.511	14.38
225.746	8.38
225.98	-0.62
226.215	4.38
226.449	8.38
226.683	18.38
226.918	17.38
227.152	24.38
227.387	43.38
227.621	40.38
227.856	47.38
228.09	39.38
228.324	51.38
228.559	49.38
228.793	50.38
229.027	49.38
229.262	55.38
229.496	75.38
229.73	95.38
229.964	81.38
230.199	87.38
230.433	73.38
230.667	83.38
230.901	78.38
231.136	61.38
231.37	72.38
231.604	90.38
231.838	83.38
232.072	93.38
232.306	79.38
232.541	87.38
232.775	79.38
233.009	66.38
233.243	67.38
233.477	74.38
233.711	73.38
233.945	70.38
234.179	78.38
234.413	79.38
234.647	58.38
234.881	75.38
235.115	76.38
235.349	72.38
235.583	84.38
235.817	70.38
236.051	64.38
236.285	71.38
236.519	84.38
236.753	87.38
236.987	85.38
237.221	101.38
237.455	99.38
237.689	69.38
237.922	58.38
238.156	77.38
238.39	77.38
238.624	78.38
238.858	69.38
239.091	71.38
239.325	82.38
239.559	68.38
239.793	85.38
240.027	81.38
240.26	69.38
240.494	74.38
240.728	79.38
240.961	73.38
241.195	61.38
241.429	66.38
241.662	75.38
241.896	76.38
242.13	71.38
242.363	81.38
242.597	86.38
242.83	69.38
243.064	87.38
243.298	71.38
243.531	77.38
243.765	74.38
243.998	75.38
244.232	62.38
244.465	84.38
244.699	74.38
244.932	90.38
245.166	77.38
245.399	71.38
245.633	87.38
245.866	92.38
246.099	78.38
246.333	68.38
246.566	90.38
246.8	88.38
247.033	83.38
247.266	81.38
247.5	82.38
247.733	66.38
247.966	80.38
248.2	83.38
248.433	83.38
248.666	88.38
248.899	82.38
249.133	95.38
249.366	113.38
249.599	106.38
249.832	83.38
250.066	75.38
250.299	67.38
250.532	80.38
250.765	89.38
250.998	78.38
251.231	74.38
251.465	86.38
251.698	78.38
251.931	87.38
252.164	67.38
252.397	79.38
252.63	87.38
252.863	74.38
253.096	88.38
253.329	82.38
253.562	89.38
253.795	78.38
254.028	77.38
254.261	79.38
254.494	79.38
254.727	74.38
254.96	76.38
255.193	88.38
255.426	78.38
255.659	78.38
255.892	94.38
256.124	92.38
256.357	84.38
256.59	86.38
256.823	80.38
257.056	70.38
257.289	87.38
257.521	66.38
257.754	82.38
257.987	86.38
258.22	82.38
258.452	95.38
258.685	79.38
258.918	77.38
259.151	81.38
259.383	82.38
259.616	73.38
259.849	80.38
260.081	85.38
260.314	83.38
260.547	90.38
260.779	96.38
261.012	100.38
261.244	88.38
261.477	88.38
261.71	88.38
261.942	129.38
262.175	144.38
262.407	99.38
262.64	82.38
262.872	90.38
263.105	91.38
263.337	78.38
263.57	73.38
263.802	83.38
264.035	78.38
264.267	91.38
264.499	85.38
264.732	85.38
264.964	90.38
265.197	91.38
265.429	83.38
265.661	71.38
265.894	81.38
266.126	90.38
266.358	76.38
266.591	89.38
266.823	83.38
267.055	88.38
267.287	87.38
267.52	87.38
267.752	93.38
267.984	90.38
268.216	92.38
268.448	89.38
268.681	78.38
268.913	83.38
269.145	83.38
269.377	88.38
269.609	71.38
269.841	94.38
270.073	82.38
270.306	82.38
270.538	89.38
270.77	83.38
271.002	78.38
271.234	93.38
271.466	99.38
271.698	78.38
271.93	87.38
272.162	99.38
272.394	89.38
272.626	73.38
272.858	81.38
273.09	79.38
273.322	69.38
273.553	77.38
273.785	82.38
274.017	76.38
274.249	95.38
274.481	89.38
274.713	77.38
274.945	96.38
275.176	93.38
275.408	92.38
275.64	107.38
275.872	114.38
276.104	109.38
276.335	110.38
276.567	115.38
276.799	152.38
277.031	162.38
277.262	175.38
277.494	145.38
277.726	100.38
277.957	95.38
278.189	100.38
278.421	88.38
278.652	86.38
278.884	73.38
279.115	87.38
279.347	95.38
279.579	105.38
279.81	117.38
280.042	164.38
280.273	239.38
280.505	170.38
280.736	101.38
280.968	70.38
281.199	77.38
281.431	83.38
281.662	87.38
281.894	99.38
282.125	96.38
282.356	132.38
282.588	160.38
282.819	128.38
283.051	76.38
283.282	77.38
283.513	88.38
283.745	90.38
283.976	95.38
284.207	79.38
284.439	93.38
284.67	97.38
284.901	88.38
285.132	78.38
285.364	81.38
285.595	77.38
285.826	82.38
286.057	74.38
286.288	68.38
286.52	82.38
286.751	73.38
286.982	85.38
287.213	89.38
287.444	104.38
287.675	90.38
287.906	99.38
288.138	91.38
288.369	86.38
288.6	91.38
288.831	87.38
289.062	89.38
289.293	82.38
289.524	83.38
289.755	75.38
289.986	71.38
290.217	84.38
290.448	86.38
290.679	87.38
290.91	84.38
291.141	95.38
291.371	88.38
291.602	94.38
291.833	86.38
292.064	71.38
292.295	100.38
292.526	100.38
292.757	76.38
292.987	68.38
293.218	95.38
293.449	82.38
293.68	77.38
293.91	83.38
294.141	79.38
294.372	87.38
294.603	86.38
294.833	87.38
295.064	81.38
295.295	91.38
295.525	100.38
295.756	100.38
295.987	117.38
296.217	144.38
296.448	132.38
296.679	80.38
296.909	86.38
297.14	85.38
297.37	94.38
297.601	96.38
297.831	94.38
298.062	85.38
298.292	95.38
298.523	96.38
298.753	75.38
298.984	82.38
299.214	93.38
299.445	99.38
299.675	95.38
299.905	91.38
300.136	90.38
300.366	96.38
300.597	85.38
300.827	102.38
301.057	109.38
301.288	94.38
301.518	93.38
301.748	110.38
301.979	123.38
302.209	99.38
302.439	94.38
302.669	101.38
302.9	93.38
303.13	99.38
303.36	123.38
303.59	131.38
303.82	133.38
304.051	92.38
304.281	94.38
304.511	87.38
304.741	90.38
304.971	93.38
305.201	88.38
305.431	99.38
305.661	93.38
305.891	103.38
306.121	100.38
306.352	100.38
306.582	110.38
306.812	104.38
307.042	108.38
307.272	162.38
307.502	171.38
307.731	163.38
307.961	126.38
308.191	94.38
308.421	93.38
308.651	80.38
308.881	94.38
309.111	77.38
309.341	87.38
309.571	96.38
309.8	106.38
310.03	99.38
310.26	107.38
310.49	91.38
310.72	101.38
310.949	115.38
311.179	98.38
311.409	92.38
311.639	103.38
311.868	94.38
312.098	106.38
312.328	101.38
312.557	109.38
312.787	104.38
313.017	111.38
313.246	107.38
313.476	96.38
313.706	103.38
313.935	92.38
314.165	111.38
314.394	103.38
314.624	94.38
314.853	98.38
315.083	114.38
315.312	93.38
315.542	96.38
315.771	90.38
316.001	83.38
316.23	98.38
316.46	83.38
316.689	101.38
316.919	91.38
317.148	112.38
317.377	101.38
317.607	85.38
317.836	99.38
318.065	83.38
318.295	87.38
318.524	87.38
318.753	100.38
318.983	91.38
319.212	103.38
319.441	126.38
319.67	108.38
319.9	98.38
320.129	83.38
320.358	95.38
320.587	111.38
320.816	100.38
321.046	107.38
321.275	83.38
321.504	85.38
321.733	85.38
321.962	107.38
322.191	102.38
322.42	116.38
322.649	127.38
322.878	122.38
323.108	134.38
323.337	143.38
323.566	156.38
323.795	166.38
324.024	263.38
324.253	513.38
324.482	1152.38
324.71	2455.38
324.939	3277.38
325.168	1163.38
325.397	328.38
325.626	185.38
325.855	142.38
326.084	152.38
326.313	152.38
326.542	176.38
326.77	269.38
326.999	619.38
327.228	1290.38
327.457	2438.38
327.686	1924.38
327.914	582.38
328.143	519.38
328.372	620.38
328.6	346.38
328.829	178.38
329.058	200.38
329.287	196.38
329.515	174.38
329.744	252.38
329.972	442.38
330.201	959.38
330.43	1355.38
330.658	610.38
330.887	278.38
331.115	186.38
331.344	137.38
331.572	119.38
331.801	116.38
332.03	124.38
332.258	106.38
332.486	99.38
332.715	108.38
332.943	112.38
333.172	131.38
333.4	132.38
333.629	141.38
333.857	221.38
334.085	425.38
334.314	882.38
334.542	1743.38
334.771	1600.38
334.999	429.38
335.227	178.38
335.455	132.38
335.684	111.38
335.912	114.38
336.14	98.38
336.369	116.38
336.597	108.38
336.825	111.38
337.053	106.38
337.281	93.38
337.51	95.38
337.738	102.38
337.966	102.38
338.194	115.38
338.422	115.38
338.65	95.38
338.878	102.38
339.106	103.38
339.334	99.38
339.562	93.38
339.79	99.38
340.018	91.38
340.246	90.38
340.474	100.38
340.702	109.38
340.93	89.38
341.158	98.38
341.386	111.38
341.614	113.38
341.842	90.38
342.07	98.38
342.298	85.38
342.526	98.38
342.754	104.38
342.981	100.38
343.209	87.38
343.437	100.38
343.665	79.38
343.893	79.38
344.12	81.38
344.348	92.38
344.576	81.38
344.804	94.38
345.031	110.38
345.259	113.38
345.487	104.38
345.714	100.38
345.942	103.38
346.17	95.38
346.397	89.38
346.625	83.38
346.853	103.38
347.08	84.38
347.308	94.38
347.535	111.38
347.763	120.38
347.99	89.38
348.218	107.38
348.445	105.38
348.673	101.38
348.9	103.38
349.128	110.38
349.355	92.38
349.583	93.38
349.81	91.38
350.037	93.38
350.265	87.38
350.492	103.38
350.72	103.38
350.947	108.38
351.174	101.38
351.402	120.38
351.629	115.38
351.856	101.38
352.083	111.38
352.311	88.38
352.538	124.38
352.765	124.38
352.992	103.38
353.22	124.38
353.447	109.38
353.674	92.38
353.901	104.38
354.128	89.38
354.355	88.38
354.583	86.38
354.81	103.38
355.037	100.38
355.264	93.38
355.491	89.38
355.718	85.38
355.945	86.38
356.172	88.38
356.399	83.38
356.626	86.38
356.853	90.38
357.08	94.38
357.307	92.38
357.534	90.38
357.761	91.38
357.988	98.38
358.215	95.38
358.441	86.38
358.668	92.38
358.895	81.38
359.122	102.38
359.349	89.38
359.576	84.38
359.802	118.38
360.029	130.38
360.256	138.38
360.483	122.38
360.709	86.38
360.936	98.38
361.163	94.38
361.39	96.38
361.616	118.38
361.843	94.38
362.07	104.38
362.296	102.38
362.523	104.38
362.749	101.38
362.976	93.38
363.203	84.38
363.429	89.38
363.656	90.38
363.882	91.38
364.109	93.38
364.335	77.38
364.562	83.38
364.788	98.38
365.015	106.38
365.241	95.38
365.468	109.38
365.694	96.38
365.92	108.38
366.147	102.38
366.373	82.38
366.599	71.38
366.826	92.38
367.052	86.38
367.278	103.38
367.505	90.38
367.731	94.38
367.957	96.38
368.184	99.38
368.41	102.38
368.636	111.38
368.862	114.38
369.089	118.38
369.315	106.38
369.541	96.38
369.767	86.38
369.993	95.38
370.219	107.38
370.445	89.38
370.672	80.38
370.898	91.38
371.124	79.38
371.35	86.38
371.576	84.38
371.802	78.38
372.028	78.38
372.254	93.38
372.48	83.38
372.706	82.38
372.932	85.38
373.158	89.38
373.384	78.38
373.61	90.38
373.835	85.38
374.061	84.38
374.287	100.38
374.513	87.38
374.739	77.38
374.965	85.38
375.191	72.38
375.416	86.38
375.642	82.38
375.868	83.38
376.094	96.38
376.319	85.38
376.545	99.38
376.771	94.38
376.997	95.38
377.222	87.38
377.448	89.38
377.674	84.38
377.899	83.38
378.125	78.38
378.35	87.38
378.576	99.38
378.802	104.38
379.027	91.38
379.253	76.38
379.478	102.38
379.704	92.38
379.929	95.38
380.155	96.38
380.38	104.38
380.606	109.38
380.831	91.38
381.057	98.38
381.282	92.38
381.507	94.38
381.733	106.38
381.958	94.38
382.184	93.38
382.409	96.38
382.634	97.38
382.86	94.38
383.085	96.38
383.31	102.38
383.535	112.38
383.761	93.38
383.986	93.38
384.211	92.38
384.436	98.38
384.662	114.38
384.887	112.38
385.112	109.38
385.337	105.38
385.562	103.38
385.787	103.38
386.013	121.38
386.238	141.38
386.463	114.38
386.688	103.38
386.913	118.38
387.138	108.38
387.363	97.38
387.588	105.38
387.813	102.38
388.038	130.38
388.263	124.38
388.488	143.38
388.713	103.38
388.938	91.38
389.163	86.38
389.387	88.38
389.612	84.38
389.837	87.38
390.062	106.38
390.287	90.38
390.512	96.38
390.736	76.38
390.961	76.38
391.186	94.38
391.411	94.38
391.636	87.38
391.86	88.38
392.085	87.38
392.31	80.38
392.534	97.38
392.759	80.38
392.984	85.38
393.208	88.38
393.433	106.38
393.658	93.38
393.882	109.38
394.107	87.38
394.331	70.38
394.556	79.38
394.78	67.38
395.005	86.38
395.229	84.38
395.454	91.38
395.678	82.38
395.903	89.38
396.127	86.38
396.352	80.38
396.576	84.38
396.801	91.38
397.025	96.38
397.249	96.38
397.474	87.38
397.698	88.38
397.922	80.38
398.147	88.38
398.371	83.38
398.595	93.38
398.82	78.38
399.044	76.38
399.268	88.38
399.492	84.38
399.717	93.38
399.941	100.38
400.165	89.38
400.389	76.38
400.613	74.38
400.837	91.38
401.062	83.38
401.286	97.38
401.51	95.38
401.734	98.38
401.958	89.38
402.182	132.38
402.406	178.38
402.63	136.38
402.854	108.38
403.078	100.38
403.302	87.38
403.526	89.38
403.75	94.38
403.974	92.38
404.198	98.38
404.422	96.38
404.645	96.38
404.869	109.38
405.093	101.38
405.317	149.38
405.541	131.38
405.765	111.38
405.988	136.38
406.212	190.38
406.436	282.38
406.66	183.38
406.883	116.38
407.107	103.38
407.331	89.38
407.555	115.38
407.778	103.38
408.002	92.38
408.226	91.38
408.449	91.38
408.673	93.38
408.896	105.38
409.12	92.38
409.344	82.38
409.567	90.38
409.791	99.38
410.014	93.38
410.238	88.38
410.461	86.38
410.685	96.38
410.908	100.38
411.132	103.38
411.355	95.38
411.578	95.38
411.802	89.38
412.025	77.38
412.249	101.38
412.472	119.38
412.695	137.38
412.919	108.38
413.142	98.38
413.365	73.38
413.589	68.38
413.812	79.38
414.035	82.38
414.258	95.38
414.482	90.38
414.705	85.38
414.928	81.38
415.151	90.38
415.374	85.38
415.597	95.38
415.821	84.38
416.044	84.38
416.267	99.38
416.49	90.38
416.713	87.38
416.936	102.38
417.159	78.38
417.382	99.38
417.605	108.38
417.828	118.38
418.051	96.38
418.274	87.38
418.497	90.38
418.72	84.38
418.943	84.38
419.166	87.38
419.389	86.38
419.611	87.38
419.834	108.38
420.057	110.38
420.28	109.38
420.503	79.38
420.726	77.38
420.948	94.38
421.171	103.38
421.394	101.38
421.617	95.38
421.839	93.38
422.062	85.38
422.285	93.38
422.507	102.38
422.73	113.38
422.953	94.38
423.175	91.38
423.398	96.38
423.621	74.38
423.843	84.38
424.066	95.38
424.288	86.38
424.511	100.38
424.733	108.38
424.956	126.38
425.178	104.38
425.401	113.38
425.623	117.38
425.846	87.38
426.068	88.38
426.291	93.38
426.513	83.38
426.735	85.38
426.958	106.38
427.18	122.38
427.402	186.38
427.625	259.38
427.847	260.38
428.069	224.38
428.292	121.38
428.514	96.38
428.736	101.38
428.958	91.38
429.181	89.38
429.403	87.38
429.625	91.38
429.847	99.38
430.069	116.38
430.292	90.38
430.514	91.38
430.736	86.38
430.958	85.38
431.18	86.38
431.402	82.38
431.624	91.38
431.846	98.38
432.068	80.38
432.29	80.38
432.512	92.38
432.734	74.38
432.956	92.38
433.178	106.38
433.4	110.38
433.622	95.38
433.844	93.38
434.066	97.38
434.287	88.38
434.509	83.38
434.731	101.38
434.953	94.38
435.175	83.38
435.397	91.38
435.618	88.38
435.84	114.38
436.062	142.38
436.284	136.38
436.505	104.38
436.727	115.38
436.949	85.38
437.17	97.38
437.392	87.38
437.614	100.38
437.835	119.38
438.057	145.38
438.278	124.38
438.5	128.38
438.721	139.38
438.943	106.38
439.165	93.38
439.386	98.38
439.608	92.38
439.829	110.38
440.05	143.38
440.272	199.38
440.493	108.38
440.715	83.38
440.936	90.38
441.158	76.38
441.379	97.38
441.6	100.38
441.822	101.38
442.043	100.38
442.264	131.38
442.486	124.38
442.707	95.38
442.928	111.38
443.149	172.38
443.371	156.38
443.592	136.38
443.813	118.38
444.034	114.38
444.255	94.38
444.476	73.38
444.698	99.38
444.919	94.38
445.14	137.38
445.361	134.38
445.582	144.38
445.803	180.38
446.024	196.38
446.245	157.38
446.466	123.38
446.687	93.38
446.908	80.38
447.129	91.38
447.35	89.38
447.571	85.38
447.792	88.38
448.013	100.38
448.234	110.38
448.455	103.38
448.675	123.38
448.896	150.38
449.117	112.38
449.338	98.38
449.559	148.38
449.779	146.38
450	90.38
450.221	79.38
450.442	97.38
450.662	113.38
450.883	118.38
451.104	143.38
451.324	102.38
451.545	86.38
451.766	90.38
451.986	84.38
452.207	79.38
452.428	78.38
452.648	100.38
452.869	137.38
453.089	116.38
453.31	128.38
453.53	104.38
453.751	89.38
453.971	120.38
454.192	124.38
454.412	94.38
454.633	83.38
454.853	84.38
455.073	74.38
455.294	90.38
455.514	103.38
455.734	90.38
455.955	88.38
456.175	83.38
456.395	96.38
456.616	81.38
456.836	101.38
457.056	90.38
457.276	92.38
457.497	77.38
457.717	72.38
457.937	89.38
458.157	94.38
458.377	109.38
458.598	128.38
458.818	200.38
459.038	227.38
459.258	136.38
459.478	99.38
459.698	78.38
459.918	89.38
460.138	81.38
460.358	95.38
460.578	78.38
460.798	100.38
461.018	92.38
461.238	87.38
461.458	80.38
461.678	87.38
461.898	86.38
462.118	74.38
462.338	83.38
462.558	97.38
462.777	90.38
462.997	87.38
463.217	94.38
463.437	110.38
463.657	87.38
463.876	91.38
464.096	94.38
464.316	102.38
464.536	100.38
464.755	99.38
464.975	123.38
465.195	211.38
465.414	229.38
465.634	108.38
465.854	91.38
466.073	77.38
466.293	78.38
466.512	103.38
466.732	90.38
466.951	90.38
467.171	82.38
467.391	101.38
467.61	140.38
467.829	198.38
468.049	544.38
468.268	779.38
468.488	224.38
468.707	116.38
468.927	84.38
469.146	85.38
469.365	86.38
469.585	98.38
469.804	104.38
470.023	108.38
470.243	103.38
470.462	112.38
470.681	131.38
470.901	99.38
471.12	112.38
471.339	93.38
471.558	111.38
471.777	145.38
471.997	292.38
472.216	1044.38
472.435	2375.38
472.654	544.38
472.873	164.38
473.092	110.38
473.311	96.38
473.53	95.38
473.749	92.38
473.968	95.38
474.187	125.38
474.406	111.38
474.625	93.38
474.844	92.38
475.063	76.38
475.282	83.38
475.501	83.38
475.72	95.38
475.939	91.38
476.158	88.38
476.377	78.38
476.596	78.38
476.814	91.38
477.033	99.38
477.252	102.38
477.471	87.38
477.69	97.38
477.908	101.38
478.127	104.38
478.346	95.38
478.564	99.38
478.783	101.38
479.002	106.38
479.22	113.38
479.439	116.38
479.658	126.38
479.876	118.38
480.095	122.38
480.313	122.38
480.532	136.38
480.751	274.38
480.969	973.38
481.188	4231.38
481.406	2346.38
481.624	371.38
481.843	120.38
482.061	96.38
482.28	95.38
482.498	100.38
482.717	92.38
482.935	86.38
483.153	99.38
483.372	103.38
483.59	88.38
483.808	101.38
484.027	84.38
484.245	98.38
484.463	86.38
484.681	94.38
484.9	85.38
485.118	102.38
485.336	97.38
485.554	100.38
485.772	96.38
485.99	97.38
486.209	108.38
486.427	107.38
486.645	119.38
486.863	115.38
487.081	112.38
487.299	93.38
487.517	95.38
487.735	109.38
487.953	86.38
488.171	86.38
488.389	98.38
488.607	111.38
488.825	92.38
489.043	95.38
489.261	86.38
489.479	92.38
489.696	89.38
489.914	67.38
490.132	104.38
490.35	92.38
490.568	98.38
490.786	94.38
491.003	88.38
491.221	87.38
491.439	94.38
491.657	82.38
491.874	94.38
492.092	89.38
492.31	108.38
492.527	102.38
492.745	104.38
492.963	109.38
493.18	86.38
493.398	95.38
493.615	94.38
493.833	87.38
494.05	97.38
494.268	79.38
494.485	74.38
494.703	87.38
494.92	84.38
495.138	79.38
495.355	75.38
495.573	102.38
495.79	109.38
496.008	85.38
496.225	94.38
496.442	82.38
496.66	91.38
496.877	86.38
497.094	88.38
497.312	83.38
497.529	81.38
497.746	77.38
497.963	88.38
498.181	90.38
498.398	82.38
498.615	107.38
498.832	102.38
499.049	118.38
499.267	106.38
499.484	85.38
499.701	101.38
499.918	91.38
500.135	86.38
500.352	94.38
500.569	86.38
500.786	97.38
501.003	92.38
501.22	91.38
501.437	104.38
501.654	90.38
501.871	123.38
502.088	95.38
502.305	78.38
502.522	92.38
502.739	102.38
502.956	80.38
503.172	88.38
503.389	99.38
503.606	124.38
503.823	109.38
504.04	95.38
504.256	88.38
504.473	82.38
504.69	85.38
504.907	78.38
505.123	84.38
505.34	90.38
505.557	93.38
505.773	96.38
505.99	89.38
506.207	92.38
506.423	92.38
506.64	82.38
506.856	82.38
507.073	72.38
507.289	101.38
507.506	91.38
507.722	118.38
507.939	140.38
508.155	109.38
508.372	90.38
508.588	99.38
508.805	102.38
509.021	88.38
509.238	87.38
509.454	110.38
509.67	104.38
509.887	103.38
510.103	129.38
510.319	244.38
510.536	853.38
510.752	3032.38
510.968	804.38
511.184	175.38
511.401	102.38
511.617	103.38
511.833	95.38
512.049	84.38
512.265	82.38
512.481	98.38
512.698	96.38
512.914	88.38
513.13	84.38
513.346	88.38
513.562	102.38
