Data from Circ_1998_H10_HRD10591_00061.txt Node
Date: Wed Jan 03 11:27:01 EST 2024
User: Yrep
Spectrometer: HR+D1059
Trigger mode: 1
Integration Time (sec): 1.000000E-1
Scans to average: 1
Electric dark correction enabled: true
Nonlinearity correction enabled: false
Boxcar width: 0
XAxis mode: Wavelengths
Number of Pixels in Spectrum: 2048
>>>>>Begin Spectral Data<<<<<
223.165	-22.44
223.4	-22.44
223.635	-22.44
223.869	-9.44
224.104	-11.44
224.338	-16.44
224.573	-21.44
224.808	-2.44
225.042	-2.44
225.277	-8.44
225.511	-2.44
225.746	6.56
225.98	4.56
226.215	19.56
226.449	15.56
226.683	22.56
226.918	8.56
227.152	19.56
227.387	25.56
227.621	50.56
227.856	50.56
228.09	43.56
228.324	41.56
228.559	62.56
228.793	44.56
229.027	60.56
229.262	64.56
229.496	78.56
229.73	85.56
229.964	78.56
230.199	76.56
230.433	67.56
230.667	79.56
230.901	66.56
231.136	73.56
231.37	86.56
231.604	82.56
231.838	101.56
232.072	75.56
232.306	66.56
232.541	68.56
232.775	70.56
233.009	72.56
233.243	73.56
233.477	76.56
233.711	85.56
233.945	60.56
234.179	77.56
234.413	86.56
234.647	69.56
234.881	84.56
235.115	82.56
235.349	75.56
235.583	69.56
235.817	83.56
236.051	67.56
236.285	77.56
236.519	76.56
236.753	88.56
236.987	72.56
237.221	74.56
237.455	86.56
237.689	71.56
237.922	86.56
238.156	84.56
238.39	63.56
238.624	57.56
238.858	83.56
239.091	72.56
239.325	71.56
239.559	86.56
239.793	75.56
240.027	64.56
240.26	70.56
240.494	78.56
240.728	89.56
240.961	83.56
241.195	74.56
241.429	69.56
241.662	67.56
241.896	77.56
242.13	82.56
242.363	70.56
242.597	79.56
242.83	79.56
243.064	70.56
243.298	53.56
243.531	70.56
243.765	88.56
243.998	77.56
244.232	70.56
244.465	80.56
244.699	86.56
244.932	75.56
245.166	77.56
245.399	93.56
245.633	83.56
245.866	79.56
246.099	79.56
246.333	77.56
246.566	82.56
246.8	97.56
247.033	74.56
247.266	66.56
247.5	73.56
247.733	75.56
247.966	74.56
248.2	77.56
248.433	78.56
248.666	87.56
248.899	78.56
249.133	79.56
249.366	92.56
249.599	117.56
249.832	82.56
250.066	87.56
250.299	77.56
250.532	84.56
250.765	72.56
250.998	77.56
251.231	87.56
251.465	83.56
251.698	79.56
251.931	77.56
252.164	86.56
252.397	82.56
252.63	90.56
252.863	79.56
253.096	90.56
253.329	82.56
253.562	82.56
253.795	79.56
254.028	62.56
254.261	68.56
254.494	72.56
254.727	84.56
254.96	85.56
255.193	80.56
255.426	78.56
255.659	76.56
255.892	92.56
256.124	98.56
256.357	69.56
256.59	91.56
256.823	82.56
257.056	93.56
257.289	81.56
257.521	88.56
257.754	85.56
257.987	82.56
258.22	88.56
258.452	108.56
258.685	103.56
258.918	79.56
259.151	85.56
259.383	87.56
259.616	83.56
259.849	82.56
260.081	102.56
260.314	82.56
260.547	95.56
260.779	91.56
261.012	96.56
261.244	105.56
261.477	99.56
261.71	102.56
261.942	101.56
262.175	133.56
262.407	98.56
262.64	74.56
262.872	66.56
263.105	71.56
263.337	86.56
263.57	79.56
263.802	86.56
264.035	87.56
264.267	79.56
264.499	79.56
264.732	68.56
264.964	79.56
265.197	74.56
265.429	78.56
265.661	72.56
265.894	86.56
266.126	79.56
266.358	67.56
266.591	75.56
266.823	77.56
267.055	80.56
267.287	80.56
267.52	76.56
267.752	83.56
267.984	88.56
268.216	74.56
268.448	93.56
268.681	66.56
268.913	81.56
269.145	82.56
269.377	95.56
269.609	79.56
269.841	80.56
270.073	77.56
270.306	72.56
270.538	78.56
270.77	82.56
271.002	77.56
271.234	80.56
271.466	87.56
271.698	81.56
271.93	83.56
272.162	93.56
272.394	73.56
272.626	63.56
272.858	84.56
273.09	95.56
273.322	80.56
273.553	84.56
273.785	80.56
274.017	76.56
274.249	64.56
274.481	84.56
274.713	80.56
274.945	90.56
275.176	88.56
275.408	90.56
275.64	99.56
275.872	114.56
276.104	111.56
276.335	100.56
276.567	103.56
276.799	139.56
277.031	162.56
277.262	198.56
277.494	140.56
277.726	110.56
277.957	91.56
278.189	89.56
278.421	80.56
278.652	92.56
278.884	103.56
279.115	85.56
279.347	84.56
279.579	100.56
279.81	124.56
280.042	186.56
280.273	256.56
280.505	185.56
280.736	90.56
280.968	75.56
281.199	91.56
281.431	80.56
281.662	81.56
281.894	101.56
282.125	114.56
282.356	122.56
282.588	164.56
282.819	120.56
283.051	101.56
283.282	90.56
283.513	78.56
283.745	84.56
283.976	79.56
284.207	79.56
284.439	87.56
284.67	81.56
284.901	77.56
285.132	88.56
285.364	86.56
285.595	73.56
285.826	90.56
286.057	87.56
286.288	77.56
286.52	99.56
286.751	78.56
286.982	98.56
287.213	83.56
287.444	92.56
287.675	87.56
287.906	85.56
288.138	82.56
288.369	87.56
288.6	89.56
288.831	82.56
289.062	90.56
289.293	83.56
289.524	93.56
289.755	79.56
289.986	83.56
290.217	86.56
290.448	79.56
290.679	81.56
290.91	101.56
291.141	87.56
291.371	86.56
291.602	91.56
291.833	77.56
292.064	95.56
292.295	73.56
292.526	71.56
292.757	78.56
292.987	99.56
293.218	93.56
293.449	91.56
293.68	85.56
293.91	76.56
294.141	90.56
294.372	76.56
294.603	86.56
294.833	82.56
295.064	86.56
295.295	77.56
295.525	84.56
295.756	109.56
295.987	116.56
296.217	135.56
296.448	122.56
296.679	96.56
296.909	98.56
297.14	96.56
297.37	89.56
297.601	90.56
297.831	88.56
298.062	77.56
298.292	84.56
298.523	103.56
298.753	90.56
298.984	87.56
299.214	75.56
299.445	76.56
299.675	93.56
299.905	92.56
300.136	100.56
300.366	88.56
300.597	79.56
300.827	89.56
301.057	92.56
301.288	104.56
301.518	97.56
301.748	87.56
301.979	104.56
302.209	83.56
302.439	85.56
302.669	90.56
302.9	82.56
303.13	105.56
303.36	95.56
303.59	123.56
303.82	141.56
304.051	96.56
304.281	100.56
304.511	93.56
304.741	86.56
304.971	88.56
305.201	82.56
305.431	93.56
305.661	76.56
305.891	86.56
306.121	91.56
306.352	104.56
306.582	118.56
306.812	119.56
307.042	129.56
307.272	162.56
307.502	193.56
307.731	181.56
307.961	133.56
308.191	86.56
308.421	91.56
308.651	89.56
308.881	97.56
309.111	83.56
309.341	104.56
309.571	103.56
309.8	104.56
310.03	99.56
310.26	96.56
310.49	108.56
310.72	97.56
310.949	91.56
311.179	114.56
311.409	96.56
311.639	88.56
311.868	96.56
312.098	97.56
312.328	93.56
312.557	105.56
312.787	126.56
313.017	115.56
313.246	103.56
313.476	87.56
313.706	103.56
313.935	94.56
314.165	101.56
314.394	116.56
314.624	107.56
314.853	108.56
315.083	87.56
315.312	96.56
315.542	93.56
315.771	91.56
316.001	76.56
316.23	101.56
316.46	88.56
316.689	98.56
316.919	94.56
317.148	93.56
317.377	86.56
317.607	96.56
317.836	91.56
318.065	95.56
318.295	90.56
318.524	106.56
318.753	97.56
318.983	97.56
319.212	103.56
319.441	111.56
319.67	107.56
319.9	94.56
320.129	82.56
320.358	87.56
320.587	107.56
320.816	120.56
321.046	101.56
321.275	108.56
321.504	98.56
321.733	104.56
321.962	99.56
322.191	105.56
322.42	98.56
322.649	110.56
322.878	117.56
323.108	133.56
323.337	152.56
323.566	161.56
323.795	168.56
324.024	234.56
324.253	465.56
324.482	1023.56
324.71	2117.56
324.939	2780.56
325.168	1010.56
325.397	280.56
325.626	165.56
325.855	148.56
326.084	133.56
326.313	138.56
326.542	163.56
326.77	251.56
326.999	544.56
327.228	1113.56
327.457	2067.56
327.686	1653.56
327.914	544.56
328.143	516.56
328.372	690.56
328.6	382.56
328.829	194.56
329.058	181.56
329.287	181.56
329.515	176.56
329.744	255.56
329.972	484.56
330.201	1026.56
330.43	1474.56
330.658	642.56
330.887	266.56
331.115	171.56
331.344	116.56
331.572	124.56
331.801	125.56
332.03	114.56
332.258	119.56
332.486	109.56
332.715	110.56
332.943	106.56
333.172	107.56
333.4	140.56
333.629	167.56
333.857	222.56
334.085	446.56
334.314	955.56
334.542	1887.56
334.771	1760.56
334.999	443.56
335.227	171.56
335.455	128.56
335.684	124.56
335.912	103.56
336.14	102.56
336.369	104.56
336.597	115.56
336.825	118.56
337.053	101.56
337.281	89.56
337.51	100.56
337.738	102.56
337.966	92.56
338.194	100.56
338.422	89.56
338.65	98.56
338.878	98.56
339.106	83.56
339.334	98.56
339.562	106.56
339.79	101.56
340.018	83.56
340.246	111.56
340.474	103.56
340.702	98.56
340.93	84.56
341.158	89.56
341.386	78.56
341.614	90.56
341.842	101.56
342.07	98.56
342.298	102.56
342.526	90.56
342.754	86.56
342.981	87.56
343.209	93.56
343.437	102.56
343.665	84.56
343.893	82.56
344.12	89.56
344.348	91.56
344.576	91.56
344.804	80.56
345.031	90.56
345.259	107.56
345.487	94.56
345.714	101.56
345.942	81.56
346.17	78.56
346.397	78.56
346.625	99.56
346.853	85.56
347.08	83.56
347.308	93.56
347.535	96.56
347.763	100.56
347.99	107.56
348.218	99.56
348.445	104.56
348.673	113.56
348.9	96.56
349.128	97.56
349.355	82.56
349.583	84.56
349.81	103.56
350.037	92.56
350.265	85.56
350.492	83.56
350.72	96.56
350.947	100.56
351.174	110.56
351.402	100.56
351.629	103.56
351.856	108.56
352.083	116.56
352.311	106.56
352.538	109.56
352.765	115.56
352.992	133.56
353.22	109.56
353.447	94.56
353.674	117.56
353.901	88.56
354.128	76.56
354.355	93.56
354.583	92.56
354.81	91.56
355.037	92.56
355.264	93.56
355.491	86.56
355.718	92.56
355.945	100.56
356.172	88.56
356.399	89.56
356.626	90.56
356.853	100.56
357.08	95.56
357.307	89.56
357.534	93.56
357.761	94.56
357.988	85.56
358.215	88.56
358.441	91.56
358.668	83.56
358.895	86.56
359.122	89.56
359.349	90.56
359.576	95.56
359.802	118.56
360.029	118.56
360.256	137.56
360.483	108.56
360.709	94.56
360.936	87.56
361.163	87.56
361.39	88.56
361.616	91.56
361.843	81.56
362.07	85.56
362.296	112.56
362.523	94.56
362.749	75.56
362.976	92.56
363.203	102.56
363.429	79.56
363.656	86.56
363.882	96.56
364.109	79.56
364.335	90.56
364.562	82.56
364.788	97.56
365.015	93.56
365.241	99.56
365.468	97.56
365.694	114.56
365.92	95.56
366.147	85.56
366.373	84.56
366.599	86.56
366.826	93.56
367.052	93.56
367.278	78.56
367.505	93.56
367.731	72.56
367.957	80.56
368.184	92.56
368.41	99.56
368.636	129.56
368.862	123.56
369.089	95.56
369.315	108.56
369.541	93.56
369.767	78.56
369.993	90.56
370.219	86.56
370.445	86.56
370.672	82.56
370.898	77.56
371.124	92.56
371.35	93.56
371.576	92.56
371.802	91.56
372.028	87.56
372.254	87.56
372.48	82.56
372.706	93.56
372.932	96.56
373.158	95.56
373.384	82.56
373.61	98.56
373.835	87.56
374.061	90.56
374.287	88.56
374.513	78.56
374.739	89.56
374.965	79.56
375.191	83.56
375.416	76.56
375.642	79.56
375.868	82.56
376.094	91.56
376.319	87.56
376.545	76.56
376.771	92.56
376.997	84.56
377.222	89.56
377.448	83.56
377.674	75.56
377.899	93.56
378.125	93.56
378.35	84.56
378.576	74.56
378.802	87.56
379.027	84.56
379.253	91.56
379.478	80.56
379.704	99.56
379.929	87.56
380.155	87.56
380.38	101.56
380.606	94.56
380.831	105.56
381.057	94.56
381.282	95.56
381.507	85.56
381.733	100.56
381.958	85.56
382.184	100.56
382.409	94.56
382.634	82.56
382.86	83.56
383.085	94.56
383.31	91.56
383.535	101.56
383.761	108.56
383.986	82.56
384.211	85.56
384.436	90.56
384.662	86.56
384.887	101.56
385.112	96.56
385.337	102.56
385.562	94.56
385.787	97.56
386.013	101.56
386.238	108.56
386.463	115.56
386.688	98.56
386.913	96.56
387.138	101.56
387.363	82.56
387.588	95.56
387.813	94.56
388.038	91.56
388.263	92.56
388.488	91.56
388.713	79.56
388.938	95.56
389.163	92.56
389.387	84.56
389.612	96.56
389.837	98.56
390.062	91.56
390.287	87.56
390.512	102.56
390.736	110.56
390.961	86.56
391.186	84.56
391.411	72.56
391.636	75.56
391.86	79.56
392.085	79.56
392.31	79.56
392.534	83.56
392.759	95.56
392.984	57.56
393.208	78.56
393.433	101.56
393.658	97.56
393.882	76.56
394.107	87.56
394.331	87.56
394.556	96.56
394.78	84.56
395.005	84.56
395.229	73.56
395.454	86.56
395.678	74.56
395.903	79.56
396.127	84.56
396.352	91.56
396.576	77.56
396.801	80.56
397.025	100.56
397.249	77.56
397.474	105.56
397.698	87.56
397.922	94.56
398.147	81.56
398.371	84.56
398.595	101.56
398.82	95.56
399.044	83.56
399.268	81.56
399.492	91.56
399.717	85.56
399.941	83.56
400.165	103.56
400.389	86.56
400.613	86.56
400.837	75.56
401.062	77.56
401.286	80.56
401.51	96.56
401.734	95.56
401.958	98.56
402.182	125.56
402.406	175.56
402.63	136.56
402.854	104.56
403.078	84.56
403.302	86.56
403.526	71.56
403.75	80.56
403.974	79.56
404.198	97.56
404.422	90.56
404.645	79.56
404.869	91.56
405.093	110.56
405.317	132.56
405.541	131.56
405.765	110.56
405.988	115.56
406.212	188.56
406.436	274.56
406.66	174.56
406.883	95.56
407.107	89.56
407.331	90.56
407.555	101.56
407.778	103.56
408.002	91.56
408.226	94.56
408.449	99.56
408.673	89.56
408.896	95.56
409.12	103.56
409.344	96.56
409.567	90.56
409.791	80.56
410.014	98.56
410.238	92.56
410.461	87.56
410.685	83.56
410.908	78.56
411.132	103.56
411.355	85.56
411.578	95.56
411.802	89.56
412.025	100.56
412.249	104.56
412.472	124.56
412.695	134.56
412.919	96.56
413.142	91.56
413.365	83.56
413.589	86.56
413.812	78.56
414.035	96.56
414.258	93.56
414.482	88.56
414.705	86.56
414.928	99.56
415.151	70.56
415.374	64.56
415.597	83.56
415.821	82.56
416.044	96.56
416.267	94.56
416.49	90.56
416.713	88.56
416.936	74.56
417.159	96.56
417.382	93.56
417.605	98.56
417.828	107.56
418.051	96.56
418.274	80.56
418.497	87.56
418.72	86.56
418.943	73.56
419.166	84.56
419.389	91.56
419.611	87.56
419.834	89.56
420.057	91.56
420.28	97.56
420.503	71.56
420.726	86.56
420.948	86.56
421.171	86.56
421.394	86.56
421.617	90.56
421.839	99.56
422.062	79.56
422.285	70.56
422.507	86.56
422.73	94.56
422.953	111.56
423.175	95.56
423.398	92.56
423.621	85.56
423.843	93.56
424.066	103.56
424.288	88.56
424.511	86.56
424.733	102.56
424.956	116.56
425.178	108.56
425.401	99.56
425.623	96.56
425.846	105.56
426.068	95.56
426.291	90.56
426.513	70.56
426.735	90.56
426.958	107.56
427.18	112.56
427.402	167.56
427.625	245.56
427.847	229.56
428.069	243.56
428.292	108.56
428.514	95.56
428.736	78.56
428.958	87.56
429.181	92.56
429.403	78.56
429.625	78.56
429.847	97.56
430.069	88.56
430.292	81.56
430.514	78.56
430.736	85.56
430.958	89.56
431.18	74.56
431.402	71.56
431.624	82.56
431.846	78.56
432.068	82.56
432.29	82.56
432.512	81.56
432.734	84.56
432.956	76.56
433.178	85.56
433.4	94.56
433.622	93.56
433.844	79.56
434.066	88.56
434.287	92.56
434.509	88.56
434.731	87.56
434.953	77.56
435.175	97.56
435.397	96.56
435.618	94.56
435.84	99.56
436.062	134.56
436.284	109.56
436.505	100.56
436.727	102.56
436.949	99.56
437.17	90.56
437.392	93.56
437.614	90.56
437.835	110.56
438.057	123.56
438.278	110.56
438.5	111.56
438.721	129.56
438.943	107.56
439.165	78.56
439.386	96.56
439.608	106.56
439.829	107.56
440.05	144.56
440.272	180.56
440.493	113.56
440.715	86.56
440.936	91.56
441.158	85.56
441.379	79.56
441.6	87.56
441.822	91.56
442.043	87.56
442.264	115.56
442.486	100.56
442.707	93.56
442.928	126.56
443.149	150.56
443.371	163.56
443.592	115.56
443.813	110.56
444.034	110.56
444.255	91.56
444.476	100.56
444.698	88.56
444.919	84.56
445.14	127.56
445.361	144.56
445.582	119.56
445.803	163.56
446.024	166.56
446.245	167.56
446.466	136.56
446.687	87.56
446.908	92.56
447.129	100.56
447.35	101.56
447.571	110.56
447.792	87.56
448.013	112.56
448.234	106.56
448.455	103.56
448.675	103.56
448.896	127.56
449.117	101.56
449.338	114.56
449.559	142.56
449.779	143.56
450	94.56
450.221	82.56
450.442	90.56
450.662	107.56
450.883	124.56
451.104	120.56
451.324	101.56
451.545	91.56
451.766	90.56
451.986	91.56
452.207	77.56
452.428	79.56
452.648	86.56
452.869	119.56
453.089	104.56
453.31	117.56
453.53	95.56
453.751	89.56
453.971	101.56
454.192	121.56
454.412	102.56
454.633	74.56
454.853	92.56
455.073	74.56
455.294	95.56
455.514	90.56
455.734	99.56
455.955	90.56
456.175	81.56
456.395	80.56
456.616	80.56
456.836	94.56
457.056	91.56
457.276	83.56
457.497	70.56
457.717	72.56
457.937	86.56
458.157	92.56
458.377	95.56
458.598	111.56
458.818	176.56
459.038	215.56
459.258	146.56
459.478	92.56
459.698	102.56
459.918	92.56
460.138	96.56
460.358	64.56
460.578	88.56
460.798	91.56
461.018	88.56
461.238	92.56
461.458	92.56
461.678	84.56
461.898	88.56
462.118	83.56
462.338	81.56
462.558	86.56
462.777	72.56
462.997	86.56
463.217	99.56
463.437	102.56
463.657	90.56
463.876	85.56
464.096	88.56
464.316	106.56
464.536	99.56
464.755	91.56
464.975	119.56
465.195	203.56
465.414	204.56
465.634	98.56
465.854	96.56
466.073	100.56
466.293	89.56
466.512	87.56
466.732	94.56
466.951	97.56
467.171	97.56
467.391	118.56
467.61	160.56
467.829	210.56
468.049	658.56
468.268	933.56
468.488	237.56
468.707	107.56
468.927	93.56
469.146	85.56
469.365	94.56
469.585	97.56
469.804	109.56
470.023	113.56
470.243	92.56
470.462	102.56
470.681	127.56
470.901	81.56
471.12	99.56
471.339	102.56
471.558	115.56
471.777	158.56
471.997	314.56
472.216	1236.56
472.435	2844.56
472.654	646.56
472.873	170.56
473.092	104.56
473.311	100.56
473.53	106.56
473.749	82.56
473.968	108.56
474.187	125.56
474.406	105.56
474.625	99.56
474.844	82.56
475.063	76.56
475.282	95.56
475.501	80.56
475.72	83.56
475.939	99.56
476.158	85.56
476.377	90.56
476.596	95.56
476.814	95.56
477.033	82.56
477.252	85.56
477.471	81.56
477.69	100.56
477.908	93.56
478.127	93.56
478.346	88.56
478.564	95.56
478.783	106.56
479.002	97.56
479.22	98.56
479.439	110.56
479.658	144.56
479.876	111.56
480.095	115.56
480.313	127.56
480.532	159.56
480.751	317.56
480.969	1143.56
481.188	4934.56
481.406	2694.56
481.624	375.56
481.843	149.56
482.061	106.56
482.28	116.56
482.498	105.56
482.717	96.56
482.935	91.56
483.153	98.56
483.372	86.56
483.59	103.56
483.808	99.56
484.027	91.56
484.245	78.56
484.463	98.56
484.681	109.56
484.9	113.56
485.118	104.56
485.336	106.56
485.554	93.56
485.772	100.56
485.99	101.56
486.209	87.56
486.427	119.56
486.645	117.56
486.863	117.56
487.081	107.56
487.299	97.56
487.517	103.56
487.735	94.56
487.953	94.56
488.171	87.56
488.389	101.56
488.607	114.56
488.825	95.56
489.043	91.56
489.261	95.56
489.479	73.56
489.696	78.56
489.914	93.56
490.132	90.56
490.35	86.56
490.568	88.56
490.786	101.56
491.003	84.56
491.221	77.56
491.439	108.56
491.657	95.56
491.874	94.56
492.092	95.56
492.31	95.56
492.527	85.56
492.745	88.56
492.963	101.56
493.18	84.56
493.398	79.56
493.615	102.56
493.833	94.56
494.05	83.56
494.268	93.56
494.485	73.56
494.703	101.56
494.92	82.56
495.138	93.56
495.355	93.56
495.573	97.56
495.79	90.56
496.008	76.56
496.225	86.56
496.442	93.56
496.66	90.56
496.877	78.56
497.094	92.56
497.312	78.56
497.529	72.56
497.746	70.56
497.963	103.56
498.181	87.56
498.398	98.56
498.615	110.56
498.832	106.56
499.049	89.56
499.267	111.56
499.484	95.56
499.701	87.56
499.918	85.56
500.135	98.56
500.352	91.56
500.569	76.56
500.786	101.56
501.003	88.56
501.22	77.56
501.437	82.56
501.654	97.56
501.871	113.56
502.088	90.56
502.305	92.56
502.522	100.56
502.739	93.56
502.956	86.56
503.172	81.56
503.389	104.56
503.606	111.56
503.823	110.56
504.04	79.56
504.256	91.56
504.473	92.56
504.69	87.56
504.907	93.56
505.123	98.56
505.34	78.56
505.557	92.56
505.773	87.56
505.99	78.56
506.207	88.56
506.423	91.56
506.64	90.56
506.856	91.56
507.073	86.56
507.289	85.56
507.506	86.56
507.722	133.56
507.939	126.56
508.155	101.56
508.372	93.56
508.588	90.56
508.805	87.56
509.021	92.56
509.238	101.56
509.454	92.56
509.67	107.56
509.887	114.56
510.103	148.56
510.319	223.56
510.536	827.56
510.752	2954.56
510.968	780.56
511.184	182.56
511.401	114.56
511.617	102.56
511.833	106.56
512.049	102.56
512.265	93.56
512.481	92.56
512.698	94.56
512.914	91.56
513.13	99.56
513.346	83.56
513.562	90.56
513.778	89.56
513.994	95.56
514.21	104.56
514.426	120.56
