Data from Circ_1998_H10_HRD10591_00079.txt Node
Date: Wed Jan 03 11:27:04 EST 2024
User: Yrep
Spectrometer: HR+D1059
Trigger mode: 1
Integration Time (sec): 1.000000E-1
Scans to average: 1
Electric dark correction enabled: true
Nonlinearity correction enabled: false
Boxcar width: 0
XAxis mode: Wavelengths
Number of Pixels in Spectrum: 2048
>>>>>Begin Spectral Data<<<<<
223.165	-16.56
223.4	-16.56
223.635	-16.56
223.869	-22.56
224.104	-11.56
224.338	-9.56
224.573	-20.56
224.808	-16.56
225.042	-14.56
225.277	15.44
225.511	-14.56
225.746	2.44
225.98	11.44
226.215	15.44
226.449	6.44
226.683	15.44
226.918	20.44
227.152	39.44
227.387	44.44
227.621	33.44
227.856	51.44
228.09	41.44
228.324	45.44
228.559	53.44
228.793	52.44
229.027	60.44
229.262	62.44
229.496	62.44
229.73	105.44
229.964	94.44
230.199	80.44
230.433	74.44
230.667	73.44
230.901	76.44
231.136	59.44
231.37	71.44
231.604	79.44
231.838	84.44
232.072	75.44
232.306	88.44
232.541	75.44
232.775	91.44
233.009	73.44
233.243	75.44
233.477	85.44
233.711	88.44
233.945	83.44
234.179	90.44
234.413	77.44
234.647	69.44
234.881	80.44
235.115	78.44
235.349	72.44
235.583	82.44
235.817	83.44
236.051	90.44
236.285	86.44
236.519	71.44
236.753	62.44
236.987	72.44
237.221	79.44
237.455	83.44
237.689	85.44
237.922	87.44
238.156	60.44
238.39	85.44
238.624	72.44
238.858	80.44
239.091	78.44
239.325	76.44
239.559	82.44
239.793	75.44
240.027	75.44
240.26	76.44
240.494	76.44
240.728	81.44
240.961	71.44
241.195	75.44
241.429	83.44
241.662	72.44
241.896	67.44
242.13	73.44
242.363	81.44
242.597	76.44
242.83	72.44
243.064	68.44
243.298	72.44
243.531	68.44
243.765	79.44
243.998	88.44
244.232	78.44
244.465	84.44
244.699	78.44
244.932	69.44
245.166	75.44
245.399	69.44
245.633	85.44
245.866	81.44
246.099	71.44
246.333	72.44
246.566	71.44
246.8	76.44
247.033	84.44
247.266	78.44
247.5	83.44
247.733	73.44
247.966	81.44
248.2	91.44
248.433	82.44
248.666	79.44
248.899	82.44
249.133	95.44
249.366	110.44
249.599	99.44
249.832	84.44
250.066	91.44
250.299	75.44
250.532	106.44
250.765	79.44
250.998	84.44
251.231	71.44
251.465	85.44
251.698	89.44
251.931	97.44
252.164	66.44
252.397	85.44
252.63	84.44
252.863	90.44
253.096	74.44
253.329	81.44
253.562	85.44
253.795	81.44
254.028	80.44
254.261	87.44
254.494	83.44
254.727	68.44
254.96	88.44
255.193	71.44
255.426	96.44
255.659	87.44
255.892	98.44
256.124	95.44
256.357	85.44
256.59	75.44
256.823	95.44
257.056	81.44
257.289	80.44
257.521	84.44
257.754	74.44
257.987	88.44
258.22	97.44
258.452	100.44
258.685	94.44
258.918	83.44
259.151	83.44
259.383	76.44
259.616	73.44
259.849	78.44
260.081	95.44
260.314	88.44
260.547	91.44
260.779	87.44
261.012	112.44
261.244	117.44
261.477	99.44
261.71	111.44
261.942	143.44
262.175	151.44
262.407	96.44
262.64	90.44
262.872	79.44
263.105	94.44
263.337	89.44
263.57	80.44
263.802	69.44
264.035	88.44
264.267	75.44
264.499	79.44
264.732	84.44
264.964	81.44
265.197	78.44
265.429	84.44
265.661	94.44
265.894	83.44
266.126	83.44
266.358	82.44
266.591	70.44
266.823	86.44
267.055	80.44
267.287	89.44
267.52	97.44
267.752	80.44
267.984	82.44
268.216	75.44
268.448	90.44
268.681	83.44
268.913	89.44
269.145	92.44
269.377	81.44
269.609	85.44
269.841	99.44
270.073	86.44
270.306	88.44
270.538	77.44
270.77	79.44
271.002	76.44
271.234	84.44
271.466	97.44
271.698	85.44
271.93	83.44
272.162	94.44
272.394	77.44
272.626	84.44
272.858	67.44
273.09	89.44
273.322	87.44
273.553	94.44
273.785	74.44
274.017	81.44
274.249	80.44
274.481	90.44
274.713	85.44
274.945	80.44
275.176	99.44
275.408	111.44
275.64	131.44
275.872	151.44
276.104	122.44
276.335	101.44
276.567	121.44
276.799	170.44
277.031	213.44
277.262	250.44
277.494	185.44
277.726	109.44
277.957	102.44
278.189	96.44
278.421	85.44
278.652	94.44
278.884	97.44
279.115	98.44
279.347	94.44
279.579	118.44
279.81	151.44
280.042	263.44
280.273	352.44
280.505	242.44
280.736	124.44
280.968	88.44
281.199	78.44
281.431	83.44
281.662	96.44
281.894	93.44
282.125	93.44
282.356	150.44
282.588	185.44
282.819	136.44
283.051	104.44
283.282	89.44
283.513	83.44
283.745	78.44
283.976	85.44
284.207	90.44
284.439	77.44
284.67	79.44
284.901	81.44
285.132	84.44
285.364	93.44
285.595	91.44
285.826	78.44
286.057	90.44
286.288	92.44
286.52	85.44
286.751	86.44
286.982	82.44
287.213	77.44
287.444	103.44
287.675	88.44
287.906	94.44
288.138	97.44
288.369	96.44
288.6	88.44
288.831	89.44
289.062	92.44
289.293	89.44
289.524	93.44
289.755	91.44
289.986	79.44
290.217	94.44
290.448	79.44
290.679	98.44
290.91	95.44
291.141	77.44
291.371	79.44
291.602	93.44
291.833	84.44
292.064	83.44
292.295	87.44
292.526	94.44
292.757	85.44
292.987	71.44
293.218	89.44
293.449	99.44
293.68	93.44
293.91	88.44
294.141	92.44
294.372	75.44
294.603	73.44
294.833	89.44
295.064	87.44
295.295	92.44
295.525	85.44
295.756	111.44
295.987	138.44
296.217	167.44
296.448	151.44
296.679	88.44
296.909	86.44
297.14	86.44
297.37	85.44
297.601	94.44
297.831	87.44
298.062	94.44
298.292	99.44
298.523	84.44
298.753	96.44
298.984	100.44
299.214	85.44
299.445	88.44
299.675	111.44
299.905	103.44
300.136	97.44
300.366	86.44
300.597	89.44
300.827	100.44
301.057	105.44
301.288	127.44
301.518	107.44
301.748	109.44
301.979	115.44
302.209	102.44
302.439	106.44
302.669	100.44
302.9	97.44
303.13	105.44
303.36	124.44
303.59	150.44
303.82	166.44
304.051	121.44
304.281	88.44
304.511	86.44
304.741	97.44
304.971	80.44
305.201	80.44
305.431	91.44
305.661	86.44
305.891	93.44
306.121	109.44
306.352	118.44
306.582	112.44
306.812	107.44
307.042	156.44
307.272	219.44
307.502	238.44
307.731	217.44
307.961	147.44
308.191	105.44
308.421	104.44
308.651	103.44
308.881	100.44
309.111	100.44
309.341	104.44
309.571	110.44
309.8	105.44
310.03	121.44
310.26	110.44
310.49	101.44
310.72	105.44
310.949	131.44
311.179	113.44
311.409	96.44
311.639	90.44
311.868	78.44
312.098	99.44
312.328	93.44
312.557	103.44
312.787	121.44
313.017	110.44
313.246	97.44
313.476	92.44
313.706	99.44
313.935	108.44
314.165	97.44
314.394	125.44
314.624	104.44
314.853	109.44
315.083	93.44
315.312	89.44
315.542	108.44
315.771	86.44
316.001	98.44
316.23	83.44
316.46	89.44
316.689	105.44
316.919	97.44
317.148	108.44
317.377	100.44
317.607	101.44
317.836	101.44
318.065	85.44
318.295	90.44
318.524	94.44
318.753	94.44
318.983	93.44
319.212	101.44
319.441	122.44
319.67	125.44
319.9	89.44
320.129	92.44
320.358	96.44
320.587	95.44
320.816	100.44
321.046	109.44
321.275	98.44
321.504	118.44
321.733	94.44
321.962	113.44
322.191	107.44
322.42	106.44
322.649	130.44
322.878	135.44
323.108	137.44
323.337	156.44
323.566	154.44
323.795	222.44
324.024	275.44
324.253	567.44
324.482	1300.44
324.71	2774.44
324.939	3669.44
325.168	1264.44
325.397	361.44
325.626	204.44
325.855	149.44
326.084	152.44
326.313	157.44
326.542	190.44
326.77	313.44
326.999	637.44
327.228	1368.44
327.457	2637.44
327.686	2120.44
327.914	732.44
328.143	748.44
328.372	1012.44
328.6	533.44
328.829	226.44
329.058	215.44
329.287	218.44
329.515	211.44
329.744	335.44
329.972	715.44
330.201	1550.44
330.43	2285.44
330.658	944.44
330.887	363.44
331.115	217.44
331.344	137.44
331.572	131.44
331.801	147.44
332.03	140.44
332.258	113.44
332.486	96.44
332.715	110.44
332.943	126.44
333.172	127.44
333.4	164.44
333.629	199.44
333.857	312.44
334.085	642.44
334.314	1386.44
334.542	2857.44
334.771	2656.44
334.999	619.44
335.227	238.44
335.455	153.44
335.684	124.44
335.912	115.44
336.14	118.44
336.369	121.44
336.597	116.44
336.825	97.44
337.053	100.44
337.281	81.44
337.51	95.44
337.738	96.44
337.966	97.44
338.194	115.44
338.422	97.44
338.65	85.44
338.878	102.44
339.106	97.44
339.334	97.44
339.562	75.44
339.79	92.44
340.018	86.44
340.246	101.44
340.474	102.44
340.702	104.44
340.93	83.44
341.158	104.44
341.386	102.44
341.614	89.44
341.842	116.44
342.07	106.44
342.298	97.44
342.526	94.44
342.754	85.44
342.981	91.44
343.209	88.44
343.437	94.44
343.665	100.44
343.893	77.44
344.12	94.44
344.348	83.44
344.576	82.44
344.804	98.44
345.031	105.44
345.259	95.44
345.487	99.44
345.714	99.44
345.942	71.44
346.17	87.44
346.397	97.44
346.625	93.44
346.853	105.44
347.08	96.44
347.308	113.44
347.535	110.44
347.763	96.44
347.99	99.44
348.218	111.44
348.445	125.44
348.673	109.44
348.9	108.44
349.128	94.44
349.355	103.44
349.583	81.44
349.81	103.44
350.037	93.44
350.265	93.44
350.492	104.44
350.72	95.44
350.947	103.44
351.174	105.44
351.402	131.44
351.629	114.44
351.856	109.44
352.083	113.44
352.311	121.44
352.538	117.44
352.765	130.44
352.992	118.44
353.22	109.44
353.447	112.44
353.674	99.44
353.901	101.44
354.128	100.44
354.355	86.44
354.583	97.44
354.81	102.44
355.037	91.44
355.264	97.44
355.491	103.44
355.718	88.44
355.945	88.44
356.172	94.44
356.399	92.44
356.626	87.44
356.853	89.44
357.08	100.44
357.307	94.44
357.534	92.44
357.761	75.44
357.988	93.44
358.215	92.44
358.441	84.44
358.668	89.44
358.895	87.44
359.122	93.44
359.349	100.44
359.576	111.44
359.802	116.44
360.029	141.44
360.256	149.44
360.483	124.44
360.709	99.44
360.936	97.44
361.163	103.44
361.39	114.44
361.616	100.44
361.843	100.44
362.07	98.44
362.296	108.44
362.523	96.44
362.749	103.44
362.976	95.44
363.203	94.44
363.429	102.44
363.656	108.44
363.882	85.44
364.109	96.44
364.335	87.44
364.562	92.44
364.788	92.44
365.015	98.44
365.241	106.44
365.468	122.44
365.694	122.44
365.92	95.44
366.147	98.44
366.373	91.44
366.599	86.44
366.826	79.44
367.052	95.44
367.278	95.44
367.505	99.44
367.731	103.44
367.957	95.44
368.184	105.44
368.41	112.44
368.636	119.44
368.862	136.44
369.089	123.44
369.315	111.44
369.541	88.44
369.767	95.44
369.993	101.44
370.219	88.44
370.445	99.44
370.672	100.44
370.898	92.44
371.124	87.44
371.35	97.44
371.576	87.44
371.802	88.44
372.028	96.44
372.254	93.44
372.48	84.44
372.706	86.44
372.932	90.44
373.158	77.44
373.384	101.44
373.61	93.44
373.835	93.44
374.061	84.44
374.287	101.44
374.513	77.44
374.739	98.44
374.965	97.44
375.191	91.44
375.416	89.44
375.642	93.44
375.868	86.44
376.094	75.44
376.319	79.44
376.545	101.44
376.771	78.44
376.997	100.44
377.222	93.44
377.448	92.44
377.674	100.44
377.899	85.44
378.125	63.44
378.35	90.44
378.576	91.44
378.802	95.44
379.027	93.44
379.253	104.44
379.478	79.44
379.704	91.44
379.929	92.44
380.155	92.44
380.38	96.44
380.606	94.44
380.831	81.44
381.057	94.44
381.282	91.44
381.507	92.44
381.733	91.44
381.958	91.44
382.184	85.44
382.409	94.44
382.634	101.44
382.86	104.44
383.085	97.44
383.31	109.44
383.535	100.44
383.761	87.44
383.986	95.44
384.211	102.44
384.436	101.44
384.662	104.44
384.887	100.44
385.112	100.44
385.337	99.44
385.562	99.44
385.787	105.44
386.013	116.44
386.238	127.44
386.463	108.44
386.688	116.44
386.913	99.44
387.138	105.44
387.363	94.44
387.588	104.44
387.813	93.44
388.038	90.44
388.263	110.44
388.488	104.44
388.713	95.44
388.938	99.44
389.163	103.44
389.387	97.44
389.612	102.44
389.837	79.44
390.062	94.44
390.287	79.44
390.512	78.44
390.736	71.44
390.961	109.44
391.186	77.44
391.411	85.44
391.636	82.44
391.86	85.44
392.085	82.44
392.31	86.44
392.534	87.44
392.759	81.44
392.984	89.44
393.208	96.44
393.433	110.44
393.658	85.44
393.882	87.44
394.107	87.44
394.331	93.44
394.556	78.44
394.78	71.44
395.005	94.44
395.229	84.44
395.454	79.44
395.678	71.44
395.903	87.44
396.127	75.44
396.352	81.44
396.576	76.44
396.801	93.44
397.025	103.44
397.249	86.44
397.474	89.44
397.698	96.44
397.922	87.44
398.147	93.44
398.371	78.44
398.595	91.44
398.82	78.44
399.044	77.44
399.268	82.44
399.492	88.44
399.717	89.44
399.941	96.44
400.165	86.44
400.389	106.44
400.613	96.44
400.837	97.44
401.062	101.44
401.286	74.44
401.51	85.44
401.734	104.44
401.958	104.44
402.182	156.44
402.406	220.44
402.63	143.44
402.854	112.44
403.078	93.44
403.302	91.44
403.526	89.44
403.75	94.44
403.974	89.44
404.198	96.44
404.422	96.44
404.645	92.44
404.869	95.44
405.093	111.44
405.317	135.44
405.541	147.44
405.765	119.44
405.988	144.44
406.212	224.44
406.436	324.44
406.66	217.44
406.883	121.44
407.107	105.44
407.331	107.44
407.555	90.44
407.778	103.44
408.002	87.44
408.226	90.44
408.449	84.44
408.673	89.44
408.896	83.44
409.12	95.44
409.344	91.44
409.567	82.44
409.791	83.44
410.014	87.44
410.238	100.44
410.461	91.44
410.685	100.44
410.908	92.44
411.132	112.44
411.355	99.44
411.578	96.44
411.802	86.44
412.025	79.44
412.249	96.44
412.472	117.44
412.695	161.44
412.919	122.44
413.142	85.44
413.365	94.44
413.589	92.44
413.812	89.44
414.035	97.44
414.258	107.44
414.482	99.44
414.705	96.44
414.928	89.44
415.151	90.44
415.374	93.44
415.597	91.44
415.821	98.44
416.044	104.44
416.267	95.44
416.49	89.44
416.713	96.44
416.936	89.44
417.159	95.44
417.382	107.44
417.605	108.44
417.828	123.44
418.051	93.44
418.274	85.44
418.497	86.44
418.72	91.44
418.943	91.44
419.166	81.44
419.389	86.44
419.611	89.44
419.834	107.44
420.057	95.44
420.28	97.44
420.503	98.44
420.726	92.44
420.948	99.44
421.171	106.44
421.394	92.44
421.617	95.44
421.839	82.44
422.062	88.44
422.285	95.44
422.507	106.44
422.73	109.44
422.953	84.44
423.175	88.44
423.398	88.44
423.621	79.44
423.843	82.44
424.066	86.44
424.288	99.44
424.511	84.44
424.733	114.44
424.956	119.44
425.178	108.44
425.401	94.44
425.623	104.44
425.846	83.44
426.068	89.44
426.291	92.44
426.513	100.44
426.735	95.44
426.958	115.44
427.18	126.44
427.402	193.44
427.625	299.44
427.847	307.44
428.069	291.44
428.292	150.44
428.514	101.44
428.736	88.44
428.958	96.44
429.181	78.44
429.403	79.44
429.625	94.44
429.847	103.44
430.069	108.44
430.292	91.44
430.514	83.44
430.736	83.44
430.958	91.44
431.18	84.44
431.402	69.44
431.624	96.44
431.846	92.44
432.068	81.44
432.29	82.44
432.512	80.44
432.734	81.44
432.956	87.44
433.178	86.44
433.4	98.44
433.622	83.44
433.844	91.44
434.066	91.44
434.287	79.44
434.509	83.44
434.731	88.44
434.953	86.44
435.175	86.44
435.397	87.44
435.618	103.44
435.84	102.44
436.062	143.44
436.284	135.44
436.505	101.44
436.727	109.44
436.949	97.44
437.17	85.44
437.392	84.44
437.614	108.44
437.835	126.44
438.057	153.44
438.278	121.44
438.5	101.44
438.721	148.44
438.943	119.44
439.165	90.44
439.386	91.44
439.608	99.44
439.829	120.44
440.05	178.44
440.272	203.44
440.493	119.44
440.715	98.44
440.936	99.44
441.158	91.44
441.379	91.44
441.6	97.44
441.822	97.44
442.043	108.44
442.264	108.44
442.486	117.44
442.707	108.44
442.928	116.44
443.149	177.44
443.371	176.44
443.592	134.44
443.813	125.44
444.034	124.44
444.255	88.44
444.476	93.44
444.698	88.44
444.919	86.44
445.14	133.44
445.361	147.44
445.582	166.44
445.803	212.44
446.024	187.44
446.245	184.44
446.466	140.44
446.687	97.44
446.908	80.44
447.129	92.44
447.35	89.44
447.571	87.44
447.792	96.44
448.013	84.44
448.234	120.44
448.455	102.44
448.675	129.44
448.896	140.44
449.117	111.44
449.338	123.44
449.559	154.44
449.779	163.44
450	105.44
450.221	93.44
450.442	87.44
450.662	96.44
450.883	131.44
451.104	147.44
451.324	115.44
451.545	97.44
451.766	95.44
451.986	85.44
452.207	98.44
452.428	101.44
452.648	97.44
452.869	133.44
453.089	136.44
453.31	147.44
453.53	111.44
453.751	90.44
453.971	120.44
454.192	138.44
454.412	108.44
454.633	83.44
454.853	76.44
455.073	93.44
455.294	106.44
455.514	102.44
455.734	89.44
455.955	86.44
456.175	93.44
456.395	82.44
456.616	80.44
456.836	86.44
457.056	69.44
457.276	97.44
457.497	96.44
457.717	89.44
457.937	87.44
458.157	81.44
458.377	92.44
458.598	125.44
458.818	225.44
459.038	264.44
459.258	158.44
459.478	84.44
459.698	87.44
459.918	92.44
460.138	96.44
460.358	87.44
460.578	91.44
460.798	96.44
461.018	81.44
461.238	100.44
461.458	71.44
461.678	83.44
461.898	82.44
462.118	80.44
462.338	87.44
462.558	99.44
462.777	88.44
462.997	111.44
463.217	111.44
463.437	109.44
463.657	96.44
463.876	96.44
464.096	99.44
464.316	101.44
464.536	98.44
464.755	102.44
464.975	128.44
465.195	245.44
465.414	248.44
465.634	101.44
465.854	87.44
466.073	80.44
466.293	95.44
466.512	93.44
466.732	92.44
466.951	108.44
467.171	97.44
467.391	124.44
467.61	171.44
467.829	277.44
468.049	892.44
468.268	1338.44
468.488	316.44
468.707	131.44
468.927	105.44
469.146	96.44
469.365	92.44
469.585	95.44
469.804	108.44
470.023	119.44
470.243	115.44
470.462	127.44
470.681	149.44
470.901	109.44
471.12	109.44
471.339	126.44
471.558	132.44
471.777	203.44
471.997	413.44
472.216	1775.44
472.435	4181.44
472.654	886.44
472.873	213.44
473.092	128.44
473.311	114.44
473.53	101.44
473.749	99.44
473.968	105.44
474.187	128.44
474.406	97.44
474.625	88.44
474.844	83.44
475.063	97.44
475.282	103.44
475.501	85.44
475.72	111.44
475.939	114.44
476.158	89.44
476.377	92.44
476.596	101.44
476.814	101.44
477.033	87.44
477.252	95.44
477.471	77.44
477.69	92.44
477.908	83.44
478.127	83.44
478.346	93.44
478.564	115.44
478.783	121.44
479.002	110.44
479.22	100.44
479.439	118.44
479.658	141.44
479.876	149.44
480.095	151.44
480.313	153.44
480.532	183.44
480.751	406.44
480.969	1577.44
481.188	6988.44
481.406	3936.44
481.624	519.44
481.843	163.44
482.061	107.44
482.28	110.44
482.498	111.44
482.717	95.44
482.935	86.44
483.153	101.44
483.372	87.44
483.59	92.44
483.808	90.44
484.027	105.44
484.245	96.44
484.463	98.44
484.681	94.44
484.9	86.44
485.118	102.44
485.336	100.44
485.554	108.44
485.772	107.44
485.99	100.44
486.209	110.44
486.427	126.44
486.645	125.44
486.863	120.44
487.081	105.44
487.299	117.44
487.517	96.44
487.735	107.44
487.953	96.44
488.171	109.44
488.389	108.44
488.607	100.44
488.825	85.44
489.043	88.44
489.261	85.44
489.479	95.44
489.696	86.44
489.914	89.44
490.132	95.44
490.35	93.44
490.568	91.44
490.786	82.44
491.003	92.44
491.221	95.44
491.439	101.44
491.657	92.44
491.874	96.44
492.092	104.44
492.31	81.44
492.527	101.44
492.745	102.44
492.963	91.44
493.18	87.44
493.398	92.44
493.615	97.44
493.833	78.44
494.05	91.44
494.268	81.44
494.485	102.44
494.703	91.44
494.92	93.44
495.138	86.44
495.355	95.44
495.573	84.44
495.79	92.44
496.008	89.44
496.225	75.44
496.442	94.44
496.66	109.44
496.877	93.44
497.094	85.44
497.312	101.44
497.529	88.44
497.746	95.44
497.963	97.44
498.181	94.44
498.398	106.44
498.615	127.44
498.832	115.44
499.049	94.44
499.267	84.44
499.484	79.44
499.701	91.44
499.918	102.44
500.135	94.44
500.352	101.44
500.569	97.44
500.786	78.44
501.003	80.44
501.22	82.44
501.437	97.44
501.654	91.44
501.871	123.44
502.088	107.44
502.305	91.44
502.522	86.44
502.739	96.44
502.956	89.44
503.172	99.44
503.389	119.44
503.606	125.44
503.823	113.44
504.04	99.44
504.256	82.44
504.473	90.44
504.69	92.44
504.907	97.44
505.123	89.44
505.34	81.44
505.557	95.44
505.773	102.44
505.99	88.44
506.207	96.44
506.423	87.44
506.64	89.44
506.856	86.44
507.073	87.44
507.289	88.44
507.506	79.44
507.722	140.44
507.939	154.44
508.155	96.44
508.372	93.44
508.588	97.44
508.805	102.44
509.021	90.44
509.238	90.44
509.454	95.44
509.67	98.44
509.887	123.44
510.103	134.44
510.319	265.44
510.536	1045.44
510.752	3735.44
510.968	959.44
511.184	208.44
511.401	123.44
511.617	115.44
511.833	115.44
512.049	101.44
512.265	100.44
512.481	95.44
512.698	101.44
512.914	87.44
