Data from Circ_1998_H10_HRD10591_00023.txt Node
Date: Wed Jan 03 11:26:53 EST 2024
User: Yrep
Spectrometer: HR+D1059
Trigger mode: 1
Integration Time (sec): 1.000000E-1
Scans to average: 1
Electric dark correction enabled: true
Nonlinearity correction enabled: false
Boxcar width: 0
XAxis mode: Wavelengths
Number of Pixels in Spectrum: 2048
>>>>>Begin Spectral Data<<<<<
223.165	-11.31
223.4	-11.31
223.635	-11.31
223.869	-20.31
224.104	-24.31
224.338	-18.31
224.573	-15.31
224.808	-17.31
225.042	-6.31
225.277	-1.31
225.511	4.69
225.746	7.69
225.98	10.69
226.215	4.69
226.449	18.69
226.683	10.69
226.918	22.69
227.152	34.69
227.387	33.69
227.621	45.69
227.856	44.69
228.09	58.69
228.324	51.69
228.559	57.69
228.793	64.69
229.027	70.69
229.262	72.69
229.496	65.69
229.73	99.69
229.964	96.69
230.199	83.69
230.433	74.69
230.667	59.69
230.901	70.69
231.136	87.69
231.37	62.69
231.604	80.69
231.838	78.69
232.072	82.69
232.306	95.69
232.541	81.69
232.775	74.69
233.009	91.69
233.243	86.69
233.477	93.69
233.711	87.69
233.945	78.69
234.179	74.69
234.413	94.69
234.647	74.69
234.881	66.69
235.115	89.69
235.349	78.69
235.583	67.69
235.817	77.69
236.051	78.69
236.285	81.69
236.519	72.69
236.753	86.69
236.987	77.69
237.221	94.69
237.455	90.69
237.689	89.69
237.922	86.69
238.156	87.69
238.39	94.69
238.624	83.69
238.858	72.69
239.091	76.69
239.325	71.69
239.559	80.69
239.793	78.69
240.027	68.69
240.26	86.69
240.494	98.69
240.728	90.69
240.961	74.69
241.195	81.69
241.429	84.69
241.662	77.69
241.896	79.69
242.13	66.69
242.363	75.69
242.597	80.69
242.83	74.69
243.064	71.69
243.298	79.69
243.531	74.69
243.765	83.69
243.998	78.69
244.232	82.69
244.465	92.69
244.699	91.69
244.932	77.69
245.166	79.69
245.399	90.69
245.633	86.69
245.866	95.69
246.099	74.69
246.333	79.69
246.566	71.69
246.8	80.69
247.033	69.69
247.266	74.69
247.5	91.69
247.733	88.69
247.966	85.69
248.2	83.69
248.433	100.69
248.666	87.69
248.899	92.69
249.133	71.69
249.366	88.69
249.599	99.69
249.832	101.69
250.066	98.69
250.299	86.69
250.532	78.69
250.765	89.69
250.998	75.69
251.231	72.69
251.465	74.69
251.698	85.69
251.931	87.69
252.164	85.69
252.397	82.69
252.63	80.69
252.863	79.69
253.096	77.69
253.329	87.69
253.562	86.69
253.795	88.69
254.028	104.69
254.261	74.69
254.494	99.69
254.727	85.69
254.96	86.69
255.193	93.69
255.426	103.69
255.659	90.69
255.892	93.69
256.124	85.69
256.357	79.69
256.59	74.69
256.823	102.69
257.056	82.69
257.289	96.69
257.521	90.69
257.754	73.69
257.987	87.69
258.22	89.69
258.452	97.69
258.685	94.69
258.918	74.69
259.151	83.69
259.383	93.69
259.616	82.69
259.849	97.69
260.081	90.69
260.314	69.69
260.547	89.69
260.779	99.69
261.012	117.69
261.244	98.69
261.477	100.69
261.71	111.69
261.942	130.69
262.175	138.69
262.407	97.69
262.64	96.69
262.872	96.69
263.105	86.69
263.337	99.69
263.57	96.69
263.802	96.69
264.035	102.69
264.267	82.69
264.499	67.69
264.732	83.69
264.964	80.69
265.197	83.69
265.429	74.69
265.661	79.69
265.894	91.69
266.126	85.69
266.358	89.69
266.591	87.69
266.823	95.69
267.055	90.69
267.287	92.69
267.52	81.69
267.752	94.69
267.984	75.69
268.216	91.69
268.448	76.69
268.681	102.69
268.913	83.69
269.145	100.69
269.377	98.69
269.609	83.69
269.841	78.69
270.073	87.69
270.306	86.69
270.538	92.69
270.77	90.69
271.002	93.69
271.234	91.69
271.466	100.69
271.698	75.69
271.93	77.69
272.162	80.69
272.394	96.69
272.626	85.69
272.858	84.69
273.09	86.69
273.322	78.69
273.553	96.69
273.785	91.69
274.017	85.69
274.249	86.69
274.481	99.69
274.713	96.69
274.945	89.69
275.176	104.69
275.408	83.69
275.64	107.69
275.872	113.69
276.104	111.69
276.335	106.69
276.567	114.69
276.799	154.69
277.031	190.69
277.262	191.69
277.494	146.69
277.726	105.69
277.957	81.69
278.189	92.69
278.421	102.69
278.652	89.69
278.884	93.69
279.115	92.69
279.347	95.69
279.579	105.69
279.81	123.69
280.042	171.69
280.273	246.69
280.505	170.69
280.736	102.69
280.968	91.69
281.199	92.69
281.431	94.69
281.662	89.69
281.894	104.69
282.125	114.69
282.356	147.69
282.588	174.69
282.819	134.69
283.051	107.69
283.282	93.69
283.513	95.69
283.745	72.69
283.976	98.69
284.207	90.69
284.439	94.69
284.67	82.69
284.901	95.69
285.132	81.69
285.364	82.69
285.595	90.69
285.826	84.69
286.057	87.69
286.288	96.69
286.52	93.69
286.751	89.69
286.982	82.69
287.213	100.69
287.444	84.69
287.675	88.69
287.906	92.69
288.138	105.69
288.369	94.69
288.6	94.69
288.831	87.69
289.062	104.69
289.293	87.69
289.524	78.69
289.755	95.69
289.986	89.69
290.217	91.69
290.448	98.69
290.679	80.69
290.91	91.69
291.141	90.69
291.371	90.69
291.602	88.69
291.833	88.69
292.064	74.69
292.295	99.69
292.526	91.69
292.757	90.69
292.987	87.69
293.218	80.69
293.449	86.69
293.68	106.69
293.91	89.69
294.141	95.69
294.372	83.69
294.603	106.69
294.833	83.69
295.064	78.69
295.295	90.69
295.525	100.69
295.756	108.69
295.987	131.69
296.217	162.69
296.448	143.69
296.679	95.69
296.909	105.69
297.14	103.69
297.37	107.69
297.601	85.69
297.831	89.69
298.062	92.69
298.292	107.69
298.523	93.69
298.753	95.69
298.984	91.69
299.214	94.69
299.445	94.69
299.675	96.69
299.905	108.69
300.136	96.69
300.366	90.69
300.597	99.69
300.827	107.69
301.057	95.69
301.288	102.69
301.518	94.69
301.748	98.69
301.979	128.69
302.209	105.69
302.439	99.69
302.669	96.69
302.9	82.69
303.13	88.69
303.36	109.69
303.59	142.69
303.82	137.69
304.051	108.69
304.281	98.69
304.511	97.69
304.741	98.69
304.971	96.69
305.201	105.69
305.431	95.69
305.661	78.69
305.891	97.69
306.121	95.69
306.352	107.69
306.582	122.69
306.812	110.69
307.042	124.69
307.272	168.69
307.502	182.69
307.731	174.69
307.961	135.69
308.191	115.69
308.421	81.69
308.651	96.69
308.881	105.69
309.111	104.69
309.341	106.69
309.571	103.69
309.8	91.69
310.03	104.69
310.26	107.69
310.49	89.69
310.72	107.69
310.949	119.69
311.179	106.69
311.409	99.69
311.639	94.69
311.868	91.69
312.098	94.69
312.328	100.69
312.557	131.69
312.787	126.69
313.017	122.69
313.246	97.69
313.476	88.69
313.706	100.69
313.935	97.69
314.165	111.69
314.394	100.69
314.624	100.69
314.853	96.69
315.083	102.69
315.312	94.69
315.542	93.69
315.771	106.69
316.001	100.69
316.23	101.69
316.46	86.69
316.689	79.69
316.919	97.69
317.148	98.69
317.377	102.69
317.607	99.69
317.836	106.69
318.065	98.69
318.295	86.69
318.524	82.69
318.753	88.69
318.983	102.69
319.212	100.69
319.441	103.69
319.67	99.69
319.9	97.69
320.129	103.69
320.358	99.69
320.587	94.69
320.816	115.69
321.046	107.69
321.275	111.69
321.504	101.69
321.733	113.69
321.962	106.69
322.191	125.69
322.42	114.69
322.649	122.69
322.878	130.69
323.108	135.69
323.337	155.69
323.566	159.69
323.795	174.69
324.024	266.69
324.253	498.69
324.482	1142.69
324.71	2393.69
324.939	3190.69
325.168	1131.69
325.397	307.69
325.626	188.69
325.855	141.69
326.084	147.69
326.313	147.69
326.542	180.69
326.77	284.69
326.999	586.69
327.228	1272.69
327.457	2321.69
327.686	1886.69
327.914	600.69
328.143	532.69
328.372	666.69
328.6	352.69
328.829	191.69
329.058	206.69
329.287	216.69
329.515	175.69
329.744	267.69
329.972	478.69
330.201	1014.69
330.43	1415.69
330.658	615.69
330.887	282.69
331.115	204.69
331.344	148.69
331.572	122.69
331.801	131.69
332.03	107.69
332.258	120.69
332.486	111.69
332.715	109.69
332.943	118.69
333.172	123.69
333.4	131.69
333.629	158.69
333.857	232.69
334.085	432.69
334.314	945.69
334.542	1824.69
334.771	1622.69
334.999	422.69
335.227	174.69
335.455	123.69
335.684	110.69
335.912	113.69
336.14	120.69
336.369	113.69
336.597	109.69
336.825	111.69
337.053	92.69
337.281	118.69
337.51	101.69
337.738	94.69
337.966	106.69
338.194	100.69
338.422	99.69
338.65	107.69
338.878	109.69
339.106	92.69
339.334	110.69
339.562	98.69
339.79	90.69
340.018	101.69
340.246	90.69
340.474	103.69
340.702	86.69
340.93	98.69
341.158	83.69
341.386	107.69
341.614	92.69
341.842	83.69
342.07	100.69
342.298	94.69
342.526	96.69
342.754	84.69
342.981	94.69
343.209	86.69
343.437	98.69
343.665	87.69
343.893	97.69
344.12	90.69
344.348	90.69
344.576	99.69
344.804	103.69
345.031	105.69
345.259	99.69
345.487	92.69
345.714	98.69
345.942	97.69
346.17	108.69
346.397	88.69
346.625	100.69
346.853	96.69
347.08	98.69
347.308	87.69
347.535	106.69
347.763	128.69
347.99	106.69
348.218	122.69
348.445	110.69
348.673	81.69
348.9	91.69
349.128	98.69
349.355	95.69
349.583	106.69
349.81	86.69
350.037	102.69
350.265	89.69
350.492	101.69
350.72	100.69
350.947	99.69
351.174	126.69
351.402	122.69
351.629	101.69
351.856	100.69
352.083	117.69
352.311	108.69
352.538	131.69
352.765	116.69
352.992	111.69
353.22	106.69
353.447	98.69
353.674	94.69
353.901	87.69
354.128	85.69
354.355	91.69
354.583	114.69
354.81	99.69
355.037	101.69
355.264	91.69
355.491	88.69
355.718	82.69
355.945	98.69
356.172	89.69
356.399	102.69
356.626	88.69
356.853	87.69
357.08	85.69
357.307	82.69
357.534	89.69
357.761	93.69
357.988	106.69
358.215	102.69
358.441	84.69
358.668	81.69
358.895	100.69
359.122	87.69
359.349	92.69
359.576	97.69
359.802	109.69
360.029	131.69
360.256	133.69
360.483	107.69
360.709	85.69
360.936	88.69
361.163	88.69
361.39	103.69
361.616	110.69
361.843	99.69
362.07	94.69
362.296	106.69
362.523	95.69
362.749	101.69
362.976	86.69
363.203	105.69
363.429	96.69
363.656	100.69
363.882	86.69
364.109	86.69
364.335	84.69
364.562	98.69
364.788	109.69
365.015	86.69
365.241	100.69
365.468	106.69
365.694	118.69
365.92	108.69
366.147	101.69
366.373	105.69
366.599	93.69
366.826	90.69
367.052	99.69
367.278	104.69
367.505	84.69
367.731	99.69
367.957	99.69
368.184	107.69
368.41	118.69
368.636	119.69
368.862	131.69
369.089	127.69
369.315	100.69
369.541	100.69
369.767	86.69
369.993	79.69
370.219	86.69
370.445	75.69
370.672	102.69
370.898	81.69
371.124	88.69
371.35	94.69
371.576	95.69
371.802	83.69
372.028	92.69
372.254	86.69
372.48	91.69
372.706	83.69
372.932	88.69
373.158	91.69
373.384	81.69
373.61	100.69
373.835	95.69
374.061	95.69
374.287	103.69
374.513	92.69
374.739	104.69
374.965	82.69
375.191	93.69
375.416	88.69
375.642	98.69
375.868	104.69
376.094	91.69
376.319	88.69
376.545	92.69
376.771	83.69
376.997	87.69
377.222	96.69
377.448	94.69
377.674	94.69
377.899	92.69
378.125	78.69
378.35	89.69
378.576	81.69
378.802	101.69
379.027	91.69
379.253	103.69
379.478	92.69
379.704	88.69
379.929	81.69
380.155	106.69
380.38	83.69
380.606	94.69
380.831	105.69
381.057	105.69
381.282	98.69
381.507	97.69
381.733	101.69
381.958	113.69
382.184	105.69
382.409	103.69
382.634	96.69
382.86	92.69
383.085	97.69
383.31	97.69
383.535	100.69
383.761	103.69
383.986	118.69
384.211	103.69
384.436	112.69
384.662	104.69
384.887	108.69
385.112	115.69
385.337	111.69
385.562	122.69
385.787	107.69
386.013	122.69
386.238	129.69
386.463	106.69
386.688	128.69
386.913	117.69
387.138	119.69
387.363	97.69
387.588	100.69
387.813	103.69
388.038	99.69
388.263	129.69
388.488	132.69
388.713	84.69
388.938	89.69
389.163	106.69
389.387	96.69
389.612	74.69
389.837	84.69
390.062	94.69
390.287	86.69
390.512	89.69
390.736	93.69
390.961	105.69
391.186	95.69
391.411	82.69
391.636	91.69
391.86	102.69
392.085	88.69
392.31	99.69
392.534	94.69
392.759	93.69
392.984	88.69
393.208	98.69
393.433	92.69
393.658	95.69
393.882	76.69
394.107	95.69
394.331	82.69
394.556	100.69
394.78	90.69
395.005	82.69
395.229	97.69
395.454	86.69
395.678	85.69
395.903	100.69
396.127	101.69
396.352	85.69
396.576	84.69
396.801	86.69
397.025	78.69
397.249	95.69
397.474	92.69
397.698	75.69
397.922	88.69
398.147	94.69
398.371	77.69
398.595	80.69
398.82	88.69
399.044	92.69
399.268	87.69
399.492	91.69
399.717	91.69
399.941	96.69
400.165	87.69
400.389	95.69
400.613	86.69
400.837	94.69
401.062	81.69
401.286	99.69
401.51	83.69
401.734	103.69
401.958	107.69
402.182	146.69
402.406	195.69
402.63	146.69
402.854	99.69
403.078	88.69
403.302	93.69
403.526	104.69
403.75	84.69
403.974	89.69
404.198	79.69
404.422	95.69
404.645	99.69
404.869	106.69
405.093	117.69
405.317	139.69
405.541	134.69
405.765	109.69
405.988	125.69
406.212	205.69
406.436	302.69
406.66	186.69
406.883	136.69
407.107	109.69
407.331	102.69
407.555	113.69
407.778	97.69
408.002	91.69
408.226	106.69
408.449	93.69
408.673	71.69
408.896	97.69
409.12	105.69
409.344	96.69
409.567	90.69
409.791	96.69
410.014	87.69
410.238	95.69
410.461	93.69
410.685	87.69
410.908	91.69
411.132	106.69
411.355	99.69
411.578	100.69
411.802	95.69
412.025	89.69
412.249	98.69
412.472	119.69
412.695	127.69
412.919	110.69
413.142	103.69
413.365	99.69
413.589	103.69
413.812	96.69
414.035	106.69
414.258	106.69
414.482	79.69
414.705	74.69
414.928	88.69
415.151	97.69
415.374	96.69
415.597	94.69
415.821	90.69
416.044	92.69
416.267	99.69
416.49	91.69
416.713	104.69
416.936	103.69
417.159	82.69
417.382	110.69
417.605	102.69
417.828	114.69
418.051	114.69
418.274	96.69
418.497	79.69
418.72	67.69
418.943	91.69
419.166	93.69
419.389	93.69
419.611	101.69
419.834	102.69
420.057	90.69
420.28	105.69
420.503	109.69
420.726	97.69
420.948	91.69
421.171	100.69
421.394	93.69
421.617	103.69
421.839	83.69
422.062	97.69
422.285	115.69
422.507	119.69
422.73	123.69
422.953	98.69
423.175	98.69
423.398	94.69
423.621	98.69
423.843	96.69
424.066	80.69
424.288	87.69
424.511	100.69
424.733	108.69
424.956	118.69
425.178	111.69
425.401	123.69
425.623	107.69
425.846	94.69
426.068	104.69
426.291	94.69
426.513	99.69
426.735	98.69
426.958	97.69
427.18	119.69
427.402	172.69
427.625	254.69
427.847	243.69
428.069	219.69
428.292	130.69
428.514	95.69
428.736	91.69
428.958	86.69
429.181	78.69
429.403	102.69
429.625	97.69
429.847	105.69
430.069	126.69
430.292	104.69
430.514	94.69
430.736	91.69
430.958	83.69
431.18	86.69
431.402	82.69
431.624	84.69
431.846	85.69
432.068	88.69
432.29	85.69
432.512	92.69
432.734	80.69
432.956	81.69
433.178	106.69
433.4	98.69
433.622	86.69
433.844	95.69
434.066	89.69
434.287	97.69
434.509	82.69
434.731	82.69
434.953	74.69
435.175	102.69
435.397	100.69
435.618	110.69
435.84	128.69
436.062	171.69
436.284	132.69
436.505	117.69
436.727	106.69
436.949	78.69
437.17	90.69
437.392	88.69
437.614	104.69
437.835	128.69
438.057	155.69
438.278	119.69
438.5	119.69
438.721	161.69
438.943	115.69
439.165	83.69
439.386	99.69
439.608	92.69
439.829	116.69
440.05	164.69
440.272	187.69
440.493	116.69
440.715	92.69
440.936	86.69
441.158	89.69
441.379	87.69
441.6	107.69
441.822	99.69
442.043	107.69
442.264	120.69
442.486	104.69
442.707	105.69
442.928	119.69
443.149	176.69
443.371	187.69
443.592	135.69
443.813	129.69
444.034	121.69
444.255	90.69
444.476	86.69
444.698	102.69
444.919	86.69
445.14	130.69
445.361	134.69
445.582	134.69
445.803	195.69
446.024	193.69
446.245	167.69
446.466	131.69
446.687	94.69
446.908	88.69
447.129	97.69
447.35	95.69
447.571	96.69
447.792	94.69
448.013	121.69
448.234	115.69
448.455	110.69
448.675	136.69
448.896	147.69
449.117	108.69
449.338	115.69
449.559	165.69
449.779	170.69
450	107.69
450.221	86.69
450.442	84.69
450.662	99.69
450.883	124.69
451.104	141.69
451.324	104.69
451.545	104.69
451.766	94.69
451.986	86.69
452.207	95.69
452.428	92.69
452.648	101.69
452.869	134.69
453.089	136.69
453.31	122.69
453.53	95.69
453.751	107.69
453.971	125.69
454.192	126.69
454.412	106.69
454.633	97.69
454.853	97.69
455.073	95.69
455.294	100.69
455.514	111.69
455.734	82.69
455.955	90.69
456.175	97.69
456.395	91.69
456.616	90.69
456.836	86.69
457.056	92.69
457.276	89.69
457.497	83.69
457.717	100.69
457.937	101.69
458.157	92.69
458.377	101.69
458.598	119.69
458.818	214.69
459.038	240.69
459.258	160.69
459.478	117.69
459.698	92.69
459.918	89.69
460.138	87.69
460.358	112.69
460.578	85.69
460.798	85.69
461.018	100.69
461.238	94.69
461.458	84.69
461.678	94.69
461.898	81.69
462.118	87.69
462.338	99.69
462.558	98.69
462.777	79.69
462.997	102.69
463.217	106.69
463.437	93.69
463.657	95.69
463.876	87.69
464.096	98.69
464.316	108.69
464.536	98.69
464.755	104.69
464.975	127.69
465.195	222.69
465.414	235.69
465.634	121.69
465.854	99.69
466.073	110.69
466.293	94.69
466.512	108.69
466.732	93.69
466.951	90.69
467.171	99.69
467.391	122.69
467.61	156.69
467.829	218.69
468.049	562.69
468.268	836.69
468.488	223.69
468.707	112.69
468.927	96.69
469.146	97.69
469.365	107.69
469.585	105.69
469.804	105.69
470.023	102.69
470.243	105.69
470.462	121.69
470.681	133.69
470.901	109.69
471.12	100.69
471.339	114.69
471.558	121.69
471.777	154.69
471.997	305.69
472.216	1099.69
472.435	2550.69
472.654	596.69
472.873	165.69
473.092	113.69
473.311	93.69
473.53	104.69
473.749	115.69
473.968	101.69
474.187	125.69
474.406	98.69
474.625	95.69
474.844	95.69
475.063	98.69
475.282	89.69
475.501	97.69
475.72	90.69
475.939	95.69
476.158	89.69
476.377	97.69
476.596	83.69
476.814	97.69
477.033	97.69
477.252	103.69
477.471	86.69
477.69	86.69
477.908	91.69
478.127	83.69
478.346	97.69
478.564	95.69
478.783	108.69
479.002	109.69
479.22	104.69
479.439	120.69
479.658	141.69
479.876	130.69
480.095	116.69
480.313	149.69
480.532	175.69
480.751	294.69
480.969	1047.69
481.188	4469.69
481.406	2474.69
481.624	353.69
481.843	146.69
482.061	92.69
482.28	99.69
482.498	82.69
482.717	102.69
482.935	86.69
483.153	96.69
483.372	84.69
483.59	95.69
483.808	107.69
484.027	90.69
484.245	94.69
484.463	87.69
484.681	110.69
484.9	99.69
485.118	103.69
485.336	104.69
485.554	92.69
485.772	112.69
485.99	114.69
486.209	113.69
486.427	108.69
486.645	122.69
486.863	110.69
487.081	107.69
487.299	112.69
487.517	95.69
487.735	93.69
487.953	83.69
488.171	91.69
488.389	95.69
488.607	104.69
488.825	92.69
489.043	97.69
489.261	94.69
489.479	93.69
489.696	100.69
489.914	94.69
490.132	88.69
490.35	97.69
490.568	88.69
490.786	97.69
491.003	96.69
491.221	83.69
491.439	101.69
491.657	91.69
491.874	90.69
492.092	96.69
492.31	100.69
492.527	104.69
492.745	98.69
492.963	92.69
493.18	98.69
493.398	86.69
493.615	97.69
493.833	94.69
494.05	77.69
494.268	88.69
494.485	93.69
494.703	99.69
494.92	98.69
495.138	90.69
495.355	103.69
495.573	88.69
495.79	94.69
496.008	97.69
496.225	111.69
496.442	97.69
496.66	83.69
496.877	84.69
497.094	79.69
497.312	93.69
497.529	96.69
497.746	89.69
497.963	112.69
498.181	104.69
498.398	104.69
498.615	116.69
498.832	116.69
499.049	103.69
499.267	87.69
499.484	89.69
499.701	106.69
499.918	94.69
500.135	100.69
500.352	95.69
500.569	90.69
500.786	98.69
501.003	94.69
501.22	103.69
501.437	90.69
501.654	92.69
501.871	124.69
502.088	92.69
502.305	94.69
502.522	101.69
502.739	93.69
502.956	82.69
503.172	105.69
503.389	102.69
503.606	129.69
503.823	91.69
504.04	98.69
504.256	105.69
504.473	87.69
504.69	107.69
504.907	97.69
505.123	80.69
505.34	83.69
505.557	104.69
505.773	87.69
505.99	74.69
506.207	95.69
506.423	92.69
506.64	86.69
506.856	86.69
507.073	91.69
507.289	97.69
507.506	118.69
507.722	132.69
507.939	135.69
508.155	107.69
508.372	98.69
508.588	92.69
508.805	90.69
509.021	98.69
509.238	100.69
509.454	110.69
509.67	109.69
509.887	116.69
510.103	148.69
510.319	253.69
510.536	899.69
510.752	3098.69
510.968	858.69
511.184	198.69
511.401	129.69
511.617	110.69
511.833	107.69
512.049	106.69
512.265	100.69
512.481	95.69
