Data from Circ_1998_H10_HRD10591_00068.txt Node
Date: Wed Jan 03 11:27:02 EST 2024
User: Yrep
Spectrometer: HR+D1059
Trigger mode: 1
Integration Time (sec): 1.000000E-1
Scans to average: 1
Electric dark correction enabled: true
Nonlinearity correction enabled: false
Boxcar width: 0
XAxis mode: Wavelengths
Number of Pixels in Spectrum: 2048
>>>>>Begin Spectral Data<<<<<
223.165	-7.19
223.4	-7.19
223.635	-7.19
223.869	-26.19
224.104	-31.19
224.338	-19.19
224.573	-13.19
224.808	-7.19
225.042	-15.19
225.277	-7.19
225.511	-6.19
225.746	-9.19
225.98	12.81
226.215	8.81
226.449	18.81
226.683	24.81
226.918	33.81
227.152	42.81
227.387	41.81
227.621	38.81
227.856	24.81
228.09	44.81
228.324	51.81
228.559	53.81
228.793	64.81
229.027	62.81
229.262	56.81
229.496	82.81
229.73	108.81
229.964	87.81
230.199	75.81
230.433	79.81
230.667	80.81
230.901	81.81
231.136	80.81
231.37	79.81
231.604	74.81
231.838	89.81
232.072	71.81
232.306	91.81
232.541	89.81
232.775	84.81
233.009	83.81
233.243	96.81
233.477	66.81
233.711	80.81
233.945	81.81
234.179	72.81
234.413	94.81
234.647	73.81
234.881	88.81
235.115	88.81
235.349	98.81
235.583	85.81
235.817	80.81
236.051	102.81
236.285	73.81
236.519	84.81
236.753	85.81
236.987	88.81
237.221	113.81
237.455	104.81
237.689	68.81
237.922	82.81
238.156	76.81
238.39	85.81
238.624	77.81
238.858	66.81
239.091	68.81
239.325	71.81
239.559	92.81
239.793	100.81
240.027	88.81
240.26	86.81
240.494	82.81
240.728	78.81
240.961	98.81
241.195	83.81
241.429	98.81
241.662	79.81
241.896	73.81
242.13	68.81
242.363	78.81
242.597	75.81
242.83	82.81
243.064	79.81
243.298	68.81
243.531	73.81
243.765	83.81
243.998	86.81
244.232	83.81
244.465	100.81
244.699	92.81
244.932	85.81
245.166	74.81
245.399	95.81
245.633	89.81
245.866	77.81
246.099	67.81
246.333	67.81
246.566	77.81
246.8	77.81
247.033	73.81
247.266	73.81
247.5	90.81
247.733	88.81
247.966	83.81
248.2	97.81
248.433	104.81
248.666	95.81
248.899	92.81
249.133	79.81
249.366	108.81
249.599	116.81
249.832	91.81
250.066	95.81
250.299	93.81
250.532	109.81
250.765	98.81
250.998	98.81
251.231	79.81
251.465	100.81
251.698	87.81
251.931	95.81
252.164	94.81
252.397	95.81
252.63	91.81
252.863	88.81
253.096	80.81
253.329	93.81
253.562	68.81
253.795	83.81
254.028	83.81
254.261	78.81
254.494	88.81
254.727	88.81
254.96	80.81
255.193	99.81
255.426	80.81
255.659	92.81
255.892	104.81
256.124	107.81
256.357	85.81
256.59	79.81
256.823	83.81
257.056	98.81
257.289	91.81
257.521	101.81
257.754	95.81
257.987	85.81
258.22	99.81
258.452	106.81
258.685	113.81
258.918	92.81
259.151	104.81
259.383	75.81
259.616	80.81
259.849	84.81
260.081	82.81
260.314	95.81
260.547	81.81
260.779	96.81
261.012	124.81
261.244	127.81
261.477	111.81
261.71	113.81
261.942	167.81
262.175	151.81
262.407	93.81
262.64	85.81
262.872	93.81
263.105	98.81
263.337	94.81
263.57	85.81
263.802	92.81
264.035	76.81
264.267	85.81
264.499	95.81
264.732	84.81
264.964	92.81
265.197	90.81
265.429	91.81
265.661	84.81
265.894	91.81
266.126	100.81
266.358	95.81
266.591	77.81
266.823	100.81
267.055	95.81
267.287	81.81
267.52	105.81
267.752	83.81
267.984	98.81
268.216	95.81
268.448	98.81
268.681	100.81
268.913	84.81
269.145	85.81
269.377	89.81
269.609	94.81
269.841	78.81
270.073	92.81
270.306	99.81
270.538	91.81
270.77	79.81
271.002	77.81
271.234	99.81
271.466	94.81
271.698	97.81
271.93	90.81
272.162	97.81
272.394	109.81
272.626	79.81
272.858	91.81
273.09	93.81
273.322	86.81
273.553	85.81
273.785	102.81
274.017	100.81
274.249	87.81
274.481	92.81
274.713	76.81
274.945	91.81
275.176	83.81
275.408	116.81
275.64	118.81
275.872	154.81
276.104	112.81
276.335	115.81
276.567	117.81
276.799	168.81
277.031	227.81
277.262	256.81
277.494	192.81
277.726	107.81
277.957	109.81
278.189	88.81
278.421	78.81
278.652	98.81
278.884	87.81
279.115	92.81
279.347	89.81
279.579	106.81
279.81	169.81
280.042	253.81
280.273	335.81
280.505	220.81
280.736	105.81
280.968	105.81
281.199	107.81
281.431	85.81
281.662	99.81
281.894	93.81
282.125	118.81
282.356	157.81
282.588	191.81
282.819	141.81
283.051	86.81
283.282	88.81
283.513	97.81
283.745	99.81
283.976	84.81
284.207	83.81
284.439	89.81
284.67	90.81
284.901	93.81
285.132	86.81
285.364	93.81
285.595	101.81
285.826	92.81
286.057	98.81
286.288	88.81
286.52	101.81
286.751	104.81
286.982	98.81
287.213	102.81
287.444	81.81
287.675	97.81
287.906	99.81
288.138	81.81
288.369	101.81
288.6	109.81
288.831	88.81
289.062	92.81
289.293	90.81
289.524	94.81
289.755	94.81
289.986	90.81
290.217	97.81
290.448	85.81
290.679	103.81
290.91	99.81
291.141	94.81
291.371	89.81
291.602	95.81
291.833	114.81
292.064	95.81
292.295	90.81
292.526	96.81
292.757	97.81
292.987	98.81
293.218	93.81
293.449	87.81
293.68	95.81
293.91	93.81
294.141	100.81
294.372	89.81
294.603	98.81
294.833	94.81
295.064	93.81
295.295	107.81
295.525	101.81
295.756	122.81
295.987	155.81
296.217	193.81
296.448	163.81
296.679	100.81
296.909	96.81
297.14	91.81
297.37	99.81
297.601	93.81
297.831	96.81
298.062	109.81
298.292	91.81
298.523	92.81
298.753	92.81
298.984	101.81
299.214	91.81
299.445	99.81
299.675	104.81
299.905	109.81
300.136	98.81
300.366	99.81
300.597	88.81
300.827	94.81
301.057	103.81
301.288	130.81
301.518	116.81
301.748	108.81
301.979	128.81
302.209	102.81
302.439	110.81
302.669	101.81
302.9	77.81
303.13	105.81
303.36	121.81
303.59	154.81
303.82	171.81
304.051	123.81
304.281	101.81
304.511	96.81
304.741	90.81
304.971	92.81
305.201	89.81
305.431	86.81
305.661	94.81
305.891	94.81
306.121	115.81
306.352	118.81
306.582	117.81
306.812	125.81
307.042	149.81
307.272	201.81
307.502	226.81
307.731	213.81
307.961	152.81
308.191	114.81
308.421	92.81
308.651	90.81
308.881	107.81
309.111	97.81
309.341	108.81
309.571	107.81
309.8	101.81
310.03	110.81
310.26	118.81
310.49	88.81
310.72	120.81
310.949	131.81
311.179	108.81
311.409	104.81
311.639	91.81
311.868	115.81
312.098	107.81
312.328	123.81
312.557	123.81
312.787	115.81
313.017	109.81
313.246	112.81
313.476	107.81
313.706	98.81
313.935	91.81
314.165	132.81
314.394	135.81
314.624	120.81
314.853	112.81
315.083	95.81
315.312	98.81
315.542	96.81
315.771	96.81
316.001	95.81
316.23	96.81
316.46	101.81
316.689	103.81
316.919	104.81
317.148	111.81
317.377	106.81
317.607	110.81
317.836	104.81
318.065	110.81
318.295	96.81
318.524	100.81
318.753	103.81
318.983	105.81
319.212	112.81
319.441	127.81
319.67	131.81
319.9	102.81
320.129	97.81
320.358	96.81
320.587	94.81
320.816	97.81
321.046	102.81
321.275	108.81
321.504	100.81
321.733	99.81
321.962	109.81
322.191	107.81
322.42	129.81
322.649	128.81
322.878	112.81
323.108	115.81
323.337	171.81
323.566	168.81
323.795	192.81
324.024	245.81
324.253	522.81
324.482	1071.81
324.71	2245.81
324.939	3016.81
325.168	1081.81
325.397	308.81
325.626	197.81
325.855	156.81
326.084	153.81
326.313	156.81
326.542	183.81
326.77	275.81
326.999	537.81
327.228	1089.81
327.457	2049.81
327.686	1654.81
327.914	682.81
328.143	747.81
328.372	956.81
328.6	503.81
328.829	223.81
329.058	215.81
329.287	235.81
329.515	236.81
329.744	333.81
329.972	714.81
330.201	1435.81
330.43	2115.81
330.658	894.81
330.887	363.81
331.115	231.81
331.344	131.81
331.572	152.81
331.801	158.81
332.03	120.81
332.258	128.81
332.486	120.81
332.715	116.81
332.943	130.81
333.172	132.81
333.4	158.81
333.629	183.81
333.857	286.81
334.085	624.81
334.314	1359.81
334.542	2605.81
334.771	2410.81
334.999	579.81
335.227	217.81
335.455	148.81
335.684	128.81
335.912	116.81
336.14	122.81
336.369	128.81
336.597	124.81
336.825	119.81
337.053	100.81
337.281	107.81
337.51	93.81
337.738	95.81
337.966	100.81
338.194	122.81
338.422	131.81
338.65	103.81
338.878	121.81
339.106	91.81
339.334	112.81
339.562	90.81
339.79	109.81
340.018	103.81
340.246	115.81
340.474	112.81
340.702	90.81
340.93	99.81
341.158	97.81
341.386	95.81
341.614	123.81
341.842	108.81
342.07	109.81
342.298	98.81
342.526	98.81
342.754	98.81
342.981	102.81
343.209	98.81
343.437	93.81
343.665	99.81
343.893	104.81
344.12	93.81
344.348	101.81
344.576	87.81
344.804	99.81
345.031	110.81
345.259	114.81
345.487	117.81
345.714	109.81
345.942	106.81
346.17	95.81
346.397	104.81
346.625	91.81
346.853	98.81
347.08	107.81
347.308	105.81
347.535	103.81
347.763	130.81
347.99	114.81
348.218	122.81
348.445	132.81
348.673	110.81
348.9	109.81
349.128	112.81
349.355	94.81
349.583	89.81
349.81	106.81
350.037	98.81
350.265	108.81
350.492	99.81
350.72	112.81
350.947	99.81
351.174	123.81
351.402	135.81
351.629	126.81
351.856	122.81
352.083	107.81
352.311	123.81
352.538	135.81
352.765	136.81
352.992	135.81
353.22	135.81
353.447	102.81
353.674	105.81
353.901	97.81
354.128	91.81
354.355	98.81
354.583	97.81
354.81	104.81
355.037	95.81
355.264	93.81
355.491	97.81
355.718	105.81
355.945	96.81
356.172	90.81
356.399	98.81
356.626	110.81
356.853	105.81
357.08	90.81
357.307	98.81
357.534	94.81
357.761	105.81
357.988	90.81
358.215	96.81
358.441	104.81
358.668	89.81
358.895	90.81
359.122	89.81
359.349	91.81
359.576	116.81
359.802	120.81
360.029	175.81
360.256	147.81
360.483	125.81
360.709	108.81
360.936	96.81
361.163	111.81
361.39	115.81
361.616	122.81
361.843	95.81
362.07	115.81
362.296	111.81
362.523	109.81
362.749	84.81
362.976	107.81
363.203	85.81
363.429	99.81
363.656	108.81
363.882	92.81
364.109	101.81
364.335	109.81
364.562	107.81
364.788	111.81
365.015	98.81
365.241	106.81
365.468	118.81
365.694	120.81
365.92	107.81
366.147	91.81
366.373	88.81
366.599	103.81
366.826	112.81
367.052	89.81
367.278	98.81
367.505	83.81
367.731	97.81
367.957	95.81
368.184	110.81
368.41	115.81
368.636	145.81
368.862	151.81
369.089	141.81
369.315	109.81
369.541	126.81
369.767	115.81
369.993	106.81
370.219	104.81
370.445	91.81
370.672	108.81
370.898	95.81
371.124	100.81
371.35	97.81
371.576	100.81
371.802	89.81
372.028	88.81
372.254	84.81
372.48	73.81
372.706	81.81
372.932	89.81
373.158	96.81
373.384	97.81
373.61	92.81
373.835	93.81
374.061	96.81
374.287	93.81
374.513	95.81
374.739	96.81
374.965	68.81
375.191	82.81
375.416	97.81
375.642	108.81
375.868	99.81
376.094	91.81
376.319	110.81
376.545	91.81
376.771	84.81
376.997	97.81
377.222	99.81
377.448	99.81
377.674	104.81
377.899	72.81
378.125	94.81
378.35	100.81
378.576	109.81
378.802	104.81
379.027	89.81
379.253	90.81
379.478	88.81
379.704	87.81
379.929	105.81
380.155	88.81
380.38	105.81
380.606	94.81
380.831	91.81
381.057	81.81
381.282	95.81
381.507	107.81
381.733	94.81
381.958	108.81
382.184	97.81
382.409	92.81
382.634	99.81
382.86	99.81
383.085	99.81
383.31	106.81
383.535	105.81
383.761	100.81
383.986	103.81
384.211	99.81
384.436	102.81
384.662	73.81
384.887	113.81
385.112	115.81
385.337	103.81
385.562	107.81
385.787	115.81
386.013	108.81
386.238	124.81
386.463	121.81
386.688	100.81
386.913	115.81
387.138	104.81
387.363	98.81
387.588	114.81
387.813	99.81
388.038	121.81
388.263	107.81
388.488	98.81
388.713	87.81
388.938	93.81
389.163	94.81
389.387	99.81
389.612	80.81
389.837	102.81
390.062	99.81
390.287	99.81
390.512	88.81
390.736	89.81
390.961	92.81
391.186	97.81
391.411	105.81
391.636	105.81
391.86	105.81
392.085	93.81
392.31	73.81
392.534	99.81
392.759	77.81
392.984	83.81
393.208	99.81
393.433	88.81
393.658	95.81
393.882	97.81
394.107	88.81
394.331	79.81
394.556	99.81
394.78	81.81
395.005	88.81
395.229	93.81
395.454	107.81
395.678	88.81
395.903	83.81
396.127	90.81
396.352	97.81
396.576	93.81
396.801	92.81
397.025	76.81
397.249	101.81
397.474	92.81
397.698	89.81
397.922	92.81
398.147	93.81
398.371	90.81
398.595	86.81
398.82	86.81
399.044	80.81
399.268	95.81
399.492	95.81
399.717	87.81
399.941	82.81
400.165	99.81
400.389	95.81
400.613	94.81
400.837	83.81
401.062	98.81
401.286	98.81
401.51	109.81
401.734	103.81
401.958	107.81
402.182	172.81
402.406	220.81
402.63	152.81
402.854	115.81
403.078	91.81
403.302	93.81
403.526	93.81
403.75	97.81
403.974	101.81
404.198	98.81
404.422	89.81
404.645	96.81
404.869	98.81
405.093	122.81
405.317	151.81
405.541	167.81
405.765	120.81
405.988	154.81
406.212	255.81
406.436	364.81
406.66	241.81
406.883	139.81
407.107	117.81
407.331	113.81
407.555	116.81
407.778	119.81
408.002	87.81
408.226	90.81
408.449	81.81
408.673	100.81
408.896	94.81
409.12	95.81
409.344	97.81
409.567	104.81
409.791	86.81
410.014	91.81
410.238	95.81
410.461	95.81
410.685	97.81
410.908	101.81
411.132	116.81
411.355	109.81
411.578	104.81
411.802	98.81
412.025	79.81
412.249	115.81
412.472	130.81
412.695	158.81
412.919	112.81
413.142	110.81
413.365	87.81
413.589	95.81
413.812	92.81
414.035	98.81
414.258	96.81
414.482	99.81
414.705	87.81
414.928	91.81
415.151	93.81
415.374	92.81
415.597	90.81
415.821	92.81
416.044	105.81
416.267	82.81
416.49	93.81
416.713	111.81
416.936	95.81
417.159	112.81
417.382	115.81
417.605	117.81
417.828	105.81
418.051	103.81
418.274	99.81
418.497	95.81
418.72	100.81
418.943	87.81
419.166	92.81
419.389	95.81
419.611	101.81
419.834	98.81
420.057	92.81
420.28	114.81
420.503	97.81
420.726	109.81
420.948	116.81
421.171	112.81
421.394	98.81
421.617	91.81
421.839	86.81
422.062	82.81
422.285	93.81
422.507	109.81
422.73	110.81
422.953	106.81
423.175	89.81
423.398	95.81
423.621	89.81
423.843	100.81
424.066	96.81
424.288	97.81
424.511	95.81
424.733	114.81
424.956	122.81
425.178	127.81
425.401	112.81
425.623	116.81
425.846	103.81
426.068	96.81
426.291	103.81
426.513	97.81
426.735	98.81
426.958	95.81
427.18	140.81
427.402	191.81
427.625	303.81
427.847	270.81
428.069	233.81
428.292	137.81
428.514	98.81
428.736	108.81
428.958	97.81
429.181	97.81
429.403	108.81
429.625	103.81
429.847	97.81
430.069	119.81
430.292	105.81
430.514	90.81
430.736	87.81
430.958	93.81
431.18	90.81
431.402	82.81
431.624	111.81
431.846	81.81
432.068	88.81
432.29	98.81
432.512	97.81
432.734	96.81
432.956	102.81
433.178	107.81
433.4	97.81
433.622	94.81
433.844	103.81
434.066	100.81
434.287	91.81
434.509	98.81
434.731	83.81
434.953	90.81
435.175	97.81
435.397	91.81
435.618	102.81
435.84	116.81
436.062	151.81
436.284	125.81
436.505	106.81
436.727	104.81
436.949	95.81
437.17	96.81
437.392	108.81
437.614	120.81
437.835	157.81
438.057	163.81
438.278	135.81
438.5	108.81
438.721	137.81
438.943	121.81
439.165	103.81
439.386	108.81
439.608	101.81
439.829	107.81
440.05	145.81
440.272	186.81
440.493	115.81
440.715	105.81
440.936	107.81
441.158	92.81
441.379	88.81
441.6	109.81
441.822	110.81
442.043	104.81
442.264	127.81
442.486	121.81
442.707	112.81
442.928	132.81
443.149	194.81
443.371	187.81
443.592	155.81
443.813	156.81
444.034	112.81
444.255	100.81
444.476	100.81
444.698	89.81
444.919	100.81
445.14	144.81
445.361	146.81
445.582	169.81
445.803	210.81
446.024	189.81
446.245	180.81
446.466	143.81
446.687	103.81
446.908	105.81
447.129	85.81
447.35	100.81
447.571	112.81
447.792	122.81
448.013	105.81
448.234	142.81
448.455	118.81
448.675	151.81
448.896	143.81
449.117	122.81
449.338	104.81
449.559	155.81
449.779	155.81
450	117.81
450.221	97.81
450.442	110.81
450.662	109.81
450.883	166.81
451.104	157.81
451.324	113.81
451.545	91.81
451.766	92.81
451.986	93.81
452.207	108.81
452.428	104.81
452.648	99.81
452.869	132.81
453.089	137.81
453.31	158.81
453.53	107.81
453.751	116.81
453.971	124.81
454.192	142.81
454.412	92.81
454.633	90.81
454.853	78.81
455.073	89.81
455.294	107.81
455.514	115.81
455.734	106.81
455.955	94.81
456.175	83.81
456.395	93.81
456.616	84.81
456.836	91.81
457.056	101.81
457.276	97.81
457.497	84.81
457.717	87.81
457.937	96.81
458.157	96.81
458.377	99.81
458.598	142.81
458.818	240.81
459.038	266.81
459.258	160.81
459.478	113.81
459.698	96.81
459.918	85.81
460.138	88.81
460.358	90.81
460.578	90.81
460.798	112.81
461.018	103.81
461.238	94.81
461.458	93.81
461.678	97.81
461.898	93.81
462.118	93.81
462.338	85.81
462.558	104.81
462.777	103.81
462.997	112.81
463.217	122.81
463.437	89.81
463.657	91.81
463.876	85.81
464.096	95.81
464.316	111.81
464.536	117.81
464.755	104.81
464.975	149.81
465.195	266.81
465.414	269.81
465.634	128.81
465.854	98.81
466.073	98.81
466.293	92.81
466.512	101.81
466.732	92.81
466.951	101.81
467.171	112.81
467.391	134.81
467.61	173.81
467.829	292.81
468.049	858.81
468.268	1290.81
468.488	305.81
468.707	138.81
468.927	95.81
469.146	100.81
469.365	105.81
469.585	91.81
469.804	112.81
470.023	118.81
470.243	124.81
470.462	138.81
470.681	159.81
470.901	124.81
471.12	111.81
471.339	122.81
471.558	139.81
471.777	196.81
471.997	417.81
472.216	1715.81
472.435	3867.81
472.654	851.81
472.873	204.81
473.092	136.81
473.311	104.81
473.53	100.81
473.749	111.81
473.968	99.81
474.187	135.81
474.406	123.81
474.625	89.81
474.844	100.81
475.063	103.81
475.282	84.81
475.501	79.81
475.72	101.81
475.939	98.81
476.158	89.81
476.377	89.81
476.596	91.81
476.814	110.81
477.033	101.81
477.252	107.81
477.471	91.81
477.69	79.81
477.908	96.81
478.127	96.81
478.346	108.81
478.564	125.81
478.783	106.81
479.002	123.81
479.22	113.81
479.439	158.81
479.658	146.81
479.876	140.81
480.095	126.81
480.313	166.81
480.532	205.81
480.751	400.81
480.969	1552.81
481.188	6742.81
481.406	3684.81
481.624	469.81
481.843	158.81
482.061	130.81
482.28	107.81
482.498	103.81
482.717	104.81
482.935	108.81
483.153	101.81
483.372	81.81
483.59	104.81
483.808	97.81
484.027	99.81
484.245	120.81
484.463	113.81
484.681	105.81
484.9	87.81
485.118	102.81
485.336	108.81
485.554	121.81
485.772	106.81
485.99	108.81
486.209	119.81
486.427	127.81
486.645	136.81
486.863	135.81
487.081	116.81
487.299	110.81
487.517	103.81
487.735	103.81
487.953	97.81
488.171	95.81
488.389	101.81
488.607	119.81
488.825	102.81
489.043	92.81
489.261	95.81
489.479	105.81
489.696	95.81
489.914	103.81
490.132	97.81
490.35	99.81
490.568	89.81
490.786	99.81
491.003	88.81
491.221	110.81
491.439	105.81
491.657	106.81
491.874	99.81
492.092	106.81
492.31	92.81
492.527	95.81
492.745	99.81
492.963	93.81
493.18	98.81
493.398	106.81
493.615	88.81
493.833	78.81
494.05	91.81
494.268	92.81
494.485	103.81
494.703	99.81
494.92	90.81
495.138	105.81
495.355	87.81
495.573	82.81
495.79	90.81
496.008	95.81
496.225	101.81
496.442	96.81
496.66	91.81
496.877	84.81
497.094	75.81
497.312	88.81
497.529	82.81
497.746	106.81
497.963	89.81
498.181	100.81
498.398	121.81
498.615	150.81
498.832	106.81
499.049	96.81
499.267	101.81
499.484	87.81
499.701	104.81
499.918	99.81
500.135	101.81
500.352	106.81
500.569	94.81
500.786	98.81
501.003	103.81
501.22	93.81
501.437	101.81
501.654	133.81
501.871	138.81
502.088	104.81
502.305	96.81
502.522	87.81
502.739	87.81
502.956	102.81
503.172	110.81
503.389	105.81
503.606	146.81
503.823	104.81
504.04	99.81
504.256	107.81
504.473	99.81
504.69	93.81
504.907	93.81
505.123	108.81
505.34	93.81
505.557	106.81
505.773	101.81
505.99	89.81
506.207	101.81
506.423	99.81
506.64	95.81
506.856	90.81
507.073	110.81
507.289	89.81
507.506	89.81
507.722	137.81
507.939	161.81
508.155	114.81
508.372	94.81
508.588	92.81
508.805	104.81
509.021	100.81
509.238	111.81
509.454	109.81
509.67	101.81
509.887	108.81
510.103	163.81
510.319	309.81
510.536	1184.81
510.752	4271.81
