Data from Circ_1998_H10_HRD10591_00003.txt Node
Date: Wed Jan 03 11:26:49 EST 2024
User: Yrep
Spectrometer: HR+D1059
Trigger mode: 1
Integration Time (sec): 1.000000E-1
Scans to average: 1
Electric dark correction enabled: true
Nonlinearity correction enabled: false
Boxcar width: 0
XAxis mode: Wavelengths
Number of Pixels in Spectrum: 2048
>>>>>Begin Spectral Data<<<<<
223.165	-14.88
223.4	-14.88
223.635	-14.88
223.869	-18.88
224.104	-12.88
224.338	-12.88
224.573	-14.88
224.808	-11.88
225.042	-17.88
225.277	-3.88
225.511	-5.88
225.746	-1.88
225.98	12.12
226.215	1.12
226.449	14.12
226.683	27.12
226.918	24.12
227.152	37.12
227.387	27.12
227.621	25.12
227.856	43.12
228.09	54.12
228.324	50.12
228.559	59.12
228.793	59.12
229.027	67.12
229.262	76.12
229.496	63.12
229.73	93.12
229.964	88.12
230.199	80.12
230.433	80.12
230.667	73.12
230.901	79.12
231.136	74.12
231.37	70.12
231.604	63.12
231.838	86.12
232.072	69.12
232.306	68.12
232.541	79.12
232.775	87.12
233.009	65.12
233.243	75.12
233.477	90.12
233.711	76.12
233.945	86.12
234.179	83.12
234.413	69.12
234.647	74.12
234.881	72.12
235.115	84.12
235.349	74.12
235.583	71.12
235.817	82.12
236.051	88.12
236.285	83.12
236.519	61.12
236.753	85.12
236.987	87.12
237.221	89.12
237.455	102.12
237.689	70.12
237.922	64.12
238.156	67.12
238.39	60.12
238.624	66.12
238.858	69.12
239.091	77.12
239.325	83.12
239.559	94.12
239.793	83.12
240.027	62.12
240.26	80.12
240.494	69.12
240.728	76.12
240.961	79.12
241.195	76.12
241.429	79.12
241.662	69.12
241.896	80.12
242.13	68.12
242.363	72.12
242.597	88.12
242.83	64.12
243.064	78.12
243.298	75.12
243.531	83.12
243.765	67.12
243.998	70.12
244.232	75.12
244.465	71.12
244.699	73.12
244.932	67.12
245.166	69.12
245.399	72.12
245.633	84.12
245.866	84.12
246.099	71.12
246.333	80.12
246.566	80.12
246.8	90.12
247.033	81.12
247.266	70.12
247.5	60.12
247.733	71.12
247.966	83.12
248.2	65.12
248.433	69.12
248.666	69.12
248.899	77.12
249.133	87.12
249.366	111.12
249.599	116.12
249.832	94.12
250.066	84.12
250.299	92.12
250.532	82.12
250.765	83.12
250.998	73.12
251.231	85.12
251.465	74.12
251.698	87.12
251.931	89.12
252.164	105.12
252.397	69.12
252.63	83.12
252.863	77.12
253.096	62.12
253.329	89.12
253.562	78.12
253.795	83.12
254.028	84.12
254.261	72.12
254.494	78.12
254.727	88.12
254.96	80.12
255.193	74.12
255.426	79.12
255.659	72.12
255.892	79.12
256.124	101.12
256.357	81.12
256.59	84.12
256.823	79.12
257.056	96.12
257.289	97.12
257.521	83.12
257.754	84.12
257.987	78.12
258.22	87.12
258.452	92.12
258.685	105.12
258.918	95.12
259.151	77.12
259.383	92.12
259.616	75.12
259.849	97.12
260.081	78.12
260.314	85.12
260.547	71.12
260.779	92.12
261.012	107.12
261.244	90.12
261.477	83.12
261.71	100.12
261.942	119.12
262.175	134.12
262.407	92.12
262.64	86.12
262.872	67.12
263.105	77.12
263.337	90.12
263.57	75.12
263.802	77.12
264.035	93.12
264.267	83.12
264.499	81.12
264.732	83.12
264.964	83.12
265.197	89.12
265.429	77.12
265.661	79.12
265.894	75.12
266.126	68.12
266.358	81.12
266.591	88.12
266.823	86.12
267.055	83.12
267.287	81.12
267.52	82.12
267.752	77.12
267.984	88.12
268.216	80.12
268.448	78.12
268.681	98.12
268.913	89.12
269.145	75.12
269.377	75.12
269.609	84.12
269.841	86.12
270.073	80.12
270.306	103.12
270.538	84.12
270.77	95.12
271.002	106.12
271.234	101.12
271.466	79.12
271.698	79.12
271.93	83.12
272.162	83.12
272.394	97.12
272.626	86.12
272.858	81.12
273.09	86.12
273.322	75.12
273.553	75.12
273.785	91.12
274.017	76.12
274.249	83.12
274.481	95.12
274.713	91.12
274.945	87.12
275.176	94.12
275.408	115.12
275.64	110.12
275.872	110.12
276.104	110.12
276.335	84.12
276.567	111.12
276.799	128.12
277.031	151.12
277.262	185.12
277.494	121.12
277.726	95.12
277.957	83.12
278.189	80.12
278.421	94.12
278.652	88.12
278.884	86.12
279.115	82.12
279.347	85.12
279.579	106.12
279.81	126.12
280.042	174.12
280.273	223.12
280.505	167.12
280.736	104.12
280.968	96.12
281.199	97.12
281.431	76.12
281.662	77.12
281.894	77.12
282.125	103.12
282.356	141.12
282.588	144.12
282.819	136.12
283.051	99.12
283.282	82.12
283.513	87.12
283.745	80.12
283.976	78.12
284.207	80.12
284.439	88.12
284.67	92.12
284.901	90.12
285.132	94.12
285.364	87.12
285.595	90.12
285.826	94.12
286.057	86.12
286.288	85.12
286.52	84.12
286.751	71.12
286.982	86.12
287.213	81.12
287.444	88.12
287.675	90.12
287.906	90.12
288.138	91.12
288.369	87.12
288.6	91.12
288.831	77.12
289.062	75.12
289.293	95.12
289.524	91.12
289.755	84.12
289.986	73.12
290.217	103.12
290.448	79.12
290.679	93.12
290.91	81.12
291.141	86.12
291.371	83.12
291.602	81.12
291.833	69.12
292.064	89.12
292.295	101.12
292.526	75.12
292.757	89.12
292.987	85.12
293.218	67.12
293.449	76.12
293.68	98.12
293.91	85.12
294.141	87.12
294.372	73.12
294.603	62.12
294.833	83.12
295.064	87.12
295.295	81.12
295.525	96.12
295.756	105.12
295.987	118.12
296.217	159.12
296.448	151.12
296.679	94.12
296.909	79.12
297.14	89.12
297.37	94.12
297.601	78.12
297.831	88.12
298.062	100.12
298.292	94.12
298.523	92.12
298.753	95.12
298.984	91.12
299.214	92.12
299.445	87.12
299.675	90.12
299.905	106.12
300.136	80.12
300.366	92.12
300.597	86.12
300.827	84.12
301.057	110.12
301.288	118.12
301.518	100.12
301.748	99.12
301.979	105.12
302.209	103.12
302.439	95.12
302.669	101.12
302.9	79.12
303.13	95.12
303.36	111.12
303.59	143.12
303.82	137.12
304.051	104.12
304.281	81.12
304.511	91.12
304.741	95.12
304.971	86.12
305.201	75.12
305.431	91.12
305.661	89.12
305.891	90.12
306.121	91.12
306.352	105.12
306.582	117.12
306.812	116.12
307.042	116.12
307.272	131.12
307.502	164.12
307.731	155.12
307.961	122.12
308.191	95.12
308.421	97.12
308.651	89.12
308.881	93.12
309.111	90.12
309.341	103.12
309.571	118.12
309.8	98.12
310.03	96.12
310.26	110.12
310.49	95.12
310.72	109.12
310.949	119.12
311.179	105.12
311.409	98.12
311.639	98.12
311.868	116.12
312.098	104.12
312.328	102.12
312.557	97.12
312.787	121.12
313.017	110.12
313.246	84.12
313.476	93.12
313.706	100.12
313.935	103.12
314.165	92.12
314.394	107.12
314.624	94.12
314.853	109.12
315.083	80.12
315.312	86.12
315.542	86.12
315.771	89.12
316.001	87.12
316.23	80.12
316.46	101.12
316.689	108.12
316.919	94.12
317.148	100.12
317.377	109.12
317.607	88.12
317.836	101.12
318.065	105.12
318.295	96.12
318.524	92.12
318.753	81.12
318.983	99.12
319.212	109.12
319.441	126.12
319.67	119.12
319.9	97.12
320.129	101.12
320.358	100.12
320.587	96.12
320.816	99.12
321.046	101.12
321.275	102.12
321.504	91.12
321.733	108.12
321.962	105.12
322.191	100.12
322.42	118.12
322.649	113.12
322.878	122.12
323.108	134.12
323.337	153.12
323.566	153.12
323.795	199.12
324.024	275.12
324.253	571.12
324.482	1246.12
324.71	2688.12
324.939	3517.12
325.168	1268.12
325.397	329.12
325.626	190.12
325.855	155.12
326.084	156.12
326.313	150.12
326.542	187.12
326.77	308.12
326.999	639.12
327.228	1390.12
327.457	2646.12
327.686	2059.12
327.914	625.12
328.143	516.12
328.372	640.12
328.6	349.12
328.829	181.12
329.058	185.12
329.287	173.12
329.515	153.12
329.744	243.12
329.972	469.12
330.201	943.12
330.43	1340.12
330.658	595.12
330.887	289.12
331.115	187.12
331.344	135.12
331.572	123.12
331.801	131.12
332.03	109.12
332.258	111.12
332.486	91.12
332.715	105.12
332.943	94.12
333.172	126.12
333.4	128.12
333.629	170.12
333.857	219.12
334.085	437.12
334.314	878.12
334.542	1744.12
334.771	1637.12
334.999	421.12
335.227	173.12
335.455	123.12
335.684	117.12
335.912	101.12
336.14	120.12
336.369	116.12
336.597	101.12
336.825	109.12
337.053	84.12
337.281	82.12
337.51	80.12
337.738	95.12
337.966	97.12
338.194	102.12
338.422	90.12
338.65	93.12
338.878	104.12
339.106	88.12
339.334	91.12
339.562	88.12
339.79	101.12
340.018	81.12
340.246	91.12
340.474	90.12
340.702	96.12
340.93	84.12
341.158	97.12
341.386	107.12
341.614	86.12
341.842	107.12
342.07	103.12
342.298	89.12
342.526	87.12
342.754	82.12
342.981	69.12
343.209	88.12
343.437	106.12
343.665	85.12
343.893	92.12
344.12	111.12
344.348	99.12
344.576	98.12
344.804	96.12
345.031	111.12
345.259	113.12
345.487	97.12
345.714	74.12
345.942	93.12
346.17	87.12
346.397	81.12
346.625	88.12
346.853	90.12
347.08	94.12
347.308	90.12
347.535	107.12
347.763	110.12
347.99	89.12
348.218	102.12
348.445	111.12
348.673	108.12
348.9	100.12
349.128	77.12
349.355	89.12
349.583	107.12
349.81	99.12
350.037	89.12
350.265	91.12
350.492	80.12
350.72	96.12
350.947	110.12
351.174	120.12
351.402	122.12
351.629	115.12
351.856	112.12
352.083	112.12
352.311	124.12
352.538	116.12
352.765	119.12
352.992	122.12
353.22	116.12
353.447	103.12
353.674	111.12
353.901	93.12
354.128	88.12
354.355	80.12
354.583	76.12
354.81	99.12
355.037	94.12
355.264	95.12
355.491	92.12
355.718	91.12
355.945	82.12
356.172	101.12
356.399	86.12
356.626	97.12
356.853	100.12
357.08	103.12
357.307	92.12
357.534	93.12
357.761	106.12
357.988	82.12
358.215	102.12
358.441	113.12
358.668	94.12
358.895	96.12
359.122	105.12
359.349	88.12
359.576	97.12
359.802	123.12
360.029	129.12
360.256	142.12
360.483	116.12
360.709	83.12
360.936	105.12
361.163	81.12
361.39	108.12
361.616	104.12
361.843	95.12
362.07	102.12
362.296	92.12
362.523	110.12
362.749	102.12
362.976	89.12
363.203	108.12
363.429	97.12
363.656	103.12
363.882	102.12
364.109	90.12
364.335	68.12
364.562	78.12
364.788	76.12
365.015	95.12
365.241	99.12
365.468	107.12
365.694	110.12
365.92	99.12
366.147	90.12
366.373	86.12
366.599	102.12
366.826	95.12
367.052	89.12
367.278	106.12
367.505	104.12
367.731	95.12
367.957	78.12
368.184	87.12
368.41	96.12
368.636	120.12
368.862	128.12
369.089	120.12
369.315	105.12
369.541	107.12
369.767	94.12
369.993	86.12
370.219	96.12
370.445	90.12
370.672	80.12
370.898	91.12
371.124	85.12
371.35	74.12
371.576	112.12
371.802	81.12
372.028	89.12
372.254	88.12
372.48	86.12
372.706	92.12
372.932	75.12
373.158	72.12
373.384	92.12
373.61	85.12
373.835	86.12
374.061	91.12
374.287	87.12
374.513	100.12
374.739	102.12
374.965	94.12
375.191	89.12
375.416	86.12
375.642	84.12
375.868	92.12
376.094	84.12
376.319	104.12
376.545	92.12
376.771	96.12
376.997	101.12
377.222	105.12
377.448	97.12
377.674	94.12
377.899	94.12
378.125	103.12
378.35	107.12
378.576	84.12
378.802	81.12
379.027	92.12
379.253	95.12
379.478	87.12
379.704	93.12
379.929	101.12
380.155	110.12
380.38	101.12
380.606	105.12
380.831	94.12
381.057	105.12
381.282	108.12
381.507	119.12
381.733	103.12
381.958	107.12
382.184	107.12
382.409	105.12
382.634	120.12
382.86	119.12
383.085	122.12
383.31	121.12
383.535	115.12
383.761	124.12
383.986	102.12
384.211	97.12
384.436	136.12
384.662	141.12
384.887	128.12
385.112	121.12
385.337	143.12
385.562	135.12
385.787	146.12
386.013	155.12
386.238	143.12
386.463	132.12
386.688	125.12
386.913	137.12
387.138	127.12
387.363	139.12
387.588	122.12
387.813	127.12
388.038	131.12
388.263	145.12
388.488	151.12
388.713	94.12
388.938	85.12
389.163	94.12
389.387	101.12
389.612	88.12
389.837	110.12
390.062	87.12
390.287	92.12
390.512	69.12
390.736	91.12
390.961	91.12
391.186	100.12
391.411	87.12
391.636	104.12
391.86	74.12
392.085	94.12
392.31	106.12
392.534	89.12
392.759	92.12
392.984	81.12
393.208	102.12
393.433	127.12
393.658	93.12
393.882	83.12
394.107	95.12
394.331	88.12
394.556	85.12
394.78	103.12
395.005	94.12
395.229	72.12
395.454	81.12
395.678	83.12
395.903	78.12
396.127	76.12
396.352	85.12
396.576	80.12
396.801	87.12
397.025	109.12
397.249	84.12
397.474	95.12
397.698	74.12
397.922	83.12
398.147	78.12
398.371	92.12
398.595	91.12
398.82	86.12
399.044	81.12
399.268	73.12
399.492	77.12
399.717	105.12
399.941	83.12
400.165	98.12
400.389	87.12
400.613	84.12
400.837	86.12
401.062	87.12
401.286	96.12
401.51	102.12
401.734	95.12
401.958	93.12
402.182	125.12
402.406	203.12
402.63	148.12
402.854	104.12
403.078	87.12
403.302	85.12
403.526	91.12
403.75	91.12
403.974	88.12
404.198	100.12
404.422	84.12
404.645	91.12
404.869	107.12
405.093	121.12
405.317	159.12
405.541	135.12
405.765	113.12
405.988	124.12
406.212	229.12
406.436	299.12
406.66	205.12
406.883	120.12
407.107	106.12
407.331	114.12
407.555	120.12
407.778	105.12
408.002	79.12
408.226	107.12
408.449	90.12
408.673	93.12
408.896	101.12
409.12	119.12
409.344	95.12
409.567	74.12
409.791	91.12
410.014	86.12
410.238	91.12
410.461	92.12
410.685	101.12
410.908	87.12
411.132	105.12
411.355	118.12
411.578	89.12
411.802	89.12
412.025	80.12
412.249	93.12
412.472	104.12
412.695	137.12
412.919	111.12
413.142	88.12
413.365	88.12
413.589	80.12
413.812	71.12
414.035	106.12
414.258	98.12
414.482	83.12
414.705	83.12
414.928	97.12
415.151	106.12
415.374	83.12
415.597	91.12
415.821	85.12
416.044	100.12
416.267	94.12
416.49	83.12
416.713	83.12
416.936	84.12
417.159	89.12
417.382	93.12
417.605	106.12
417.828	119.12
418.051	115.12
418.274	95.12
418.497	76.12
418.72	97.12
418.943	98.12
419.166	87.12
419.389	86.12
419.611	86.12
419.834	98.12
420.057	90.12
420.28	99.12
420.503	98.12
420.726	83.12
420.948	109.12
421.171	97.12
421.394	92.12
421.617	100.12
421.839	83.12
422.062	93.12
422.285	94.12
422.507	122.12
422.73	130.12
422.953	93.12
423.175	87.12
423.398	84.12
423.621	95.12
423.843	101.12
424.066	92.12
424.288	96.12
424.511	81.12
424.733	104.12
424.956	108.12
425.178	100.12
425.401	116.12
425.623	100.12
425.846	99.12
426.068	101.12
426.291	77.12
426.513	106.12
426.735	87.12
426.958	96.12
427.18	116.12
427.402	187.12
427.625	269.12
427.847	252.12
428.069	235.12
428.292	122.12
428.514	108.12
428.736	96.12
428.958	77.12
429.181	72.12
429.403	77.12
429.625	91.12
429.847	112.12
430.069	118.12
430.292	107.12
430.514	85.12
430.736	87.12
430.958	94.12
431.18	85.12
431.402	90.12
431.624	75.12
431.846	80.12
432.068	79.12
432.29	87.12
432.512	101.12
432.734	86.12
432.956	107.12
433.178	112.12
433.4	88.12
433.622	95.12
433.844	102.12
434.066	91.12
434.287	105.12
434.509	71.12
434.731	90.12
434.953	94.12
435.175	86.12
435.397	90.12
435.618	99.12
435.84	122.12
436.062	159.12
436.284	126.12
436.505	105.12
436.727	103.12
436.949	92.12
437.17	93.12
437.392	95.12
437.614	102.12
437.835	138.12
438.057	140.12
438.278	147.12
438.5	105.12
438.721	141.12
438.943	110.12
439.165	82.12
439.386	90.12
439.608	96.12
439.829	120.12
440.05	170.12
440.272	214.12
440.493	116.12
440.715	94.12
440.936	81.12
441.158	93.12
441.379	82.12
441.6	105.12
441.822	98.12
442.043	108.12
442.264	131.12
442.486	114.12
442.707	112.12
442.928	117.12
443.149	175.12
443.371	157.12
443.592	125.12
443.813	141.12
444.034	133.12
444.255	94.12
444.476	94.12
444.698	87.12
444.919	92.12
445.14	149.12
445.361	157.12
445.582	137.12
445.803	202.12
446.024	203.12
446.245	185.12
446.466	125.12
446.687	89.12
446.908	88.12
447.129	89.12
447.35	93.12
447.571	86.12
447.792	87.12
448.013	117.12
448.234	113.12
448.455	109.12
448.675	128.12
448.896	142.12
449.117	101.12
449.338	118.12
449.559	165.12
449.779	163.12
450	105.12
450.221	74.12
450.442	95.12
450.662	94.12
450.883	119.12
451.104	152.12
451.324	112.12
451.545	91.12
451.766	85.12
451.986	84.12
452.207	92.12
452.428	95.12
452.648	115.12
452.869	144.12
453.089	131.12
453.31	131.12
453.53	108.12
453.751	98.12
453.971	101.12
454.192	107.12
454.412	92.12
454.633	87.12
454.853	88.12
455.073	81.12
455.294	103.12
455.514	103.12
455.734	94.12
455.955	86.12
456.175	81.12
456.395	74.12
456.616	71.12
456.836	69.12
457.056	90.12
457.276	83.12
457.497	79.12
457.717	87.12
457.937	85.12
458.157	94.12
458.377	98.12
458.598	118.12
458.818	205.12
459.038	231.12
459.258	158.12
459.478	96.12
459.698	96.12
459.918	95.12
460.138	90.12
460.358	96.12
460.578	93.12
460.798	109.12
461.018	94.12
461.238	80.12
461.458	87.12
461.678	99.12
461.898	88.12
462.118	91.12
462.338	90.12
462.558	89.12
462.777	90.12
462.997	91.12
463.217	94.12
463.437	93.12
463.657	87.12
463.876	89.12
464.096	82.12
464.316	108.12
464.536	100.12
464.755	110.12
464.975	132.12
465.195	238.12
465.414	224.12
465.634	115.12
465.854	89.12
466.073	93.12
466.293	78.12
466.512	101.12
466.732	87.12
466.951	94.12
467.171	99.12
467.391	113.12
467.61	131.12
467.829	190.12
468.049	509.12
468.268	728.12
468.488	214.12
468.707	100.12
468.927	94.12
469.146	96.12
469.365	94.12
469.585	96.12
469.804	115.12
470.023	115.12
470.243	104.12
470.462	124.12
470.681	145.12
470.901	106.12
471.12	113.12
471.339	102.12
471.558	108.12
471.777	165.12
471.997	295.12
472.216	1037.12
472.435	2344.12
472.654	539.12
472.873	165.12
473.092	118.12
473.311	105.12
473.53	88.12
473.749	102.12
473.968	111.12
474.187	131.12
474.406	113.12
474.625	101.12
474.844	91.12
475.063	95.12
475.282	94.12
475.501	87.12
475.72	84.12
475.939	88.12
476.158	87.12
476.377	93.12
476.596	87.12
476.814	96.12
477.033	99.12
477.252	83.12
477.471	88.12
477.69	93.12
477.908	84.12
478.127	105.12
478.346	94.12
478.564	80.12
478.783	108.12
479.002	110.12
479.22	104.12
479.439	126.12
479.658	141.12
479.876	123.12
480.095	118.12
480.313	151.12
480.532	181.12
480.751	272.12
480.969	945.12
481.188	4133.12
481.406	2325.12
481.624	338.12
481.843	140.12
482.061	105.12
482.28	81.12
482.498	86.12
482.717	91.12
482.935	89.12
483.153	92.12
483.372	80.12
483.59	73.12
483.808	85.12
484.027	87.12
484.245	99.12
484.463	92.12
484.681	87.12
484.9	86.12
485.118	102.12
485.336	101.12
485.554	102.12
485.772	95.12
485.99	108.12
486.209	94.12
486.427	109.12
486.645	131.12
486.863	125.12
487.081	117.12
487.299	99.12
487.517	89.12
487.735	98.12
487.953	94.12
488.171	92.12
488.389	96.12
488.607	114.12
488.825	94.12
489.043	86.12
489.261	88.12
489.479	77.12
489.696	93.12
489.914	82.12
490.132	96.12
490.35	86.12
490.568	90.12
490.786	88.12
491.003	95.12
491.221	82.12
491.439	90.12
491.657	86.12
491.874	87.12
492.092	96.12
492.31	101.12
492.527	108.12
492.745	104.12
492.963	87.12
493.18	95.12
493.398	97.12
493.615	96.12
493.833	94.12
494.05	81.12
494.268	100.12
494.485	87.12
494.703	96.12
494.92	102.12
495.138	81.12
495.355	73.12
495.573	85.12
495.79	97.12
496.008	103.12
496.225	102.12
496.442	99.12
496.66	94.12
496.877	78.12
497.094	85.12
497.312	87.12
497.529	97.12
497.746	76.12
497.963	78.12
498.181	84.12
498.398	100.12
498.615	124.12
498.832	119.12
499.049	95.12
499.267	99.12
499.484	92.12
499.701	107.12
499.918	91.12
500.135	94.12
500.352	100.12
500.569	94.12
500.786	96.12
501.003	87.12
501.22	85.12
501.437	92.12
501.654	96.12
501.871	125.12
502.088	75.12
502.305	82.12
502.522	82.12
502.739	91.12
502.956	85.12
503.172	100.12
503.389	97.12
503.606	124.12
503.823	107.12
504.04	102.12
504.256	94.12
504.473	93.12
504.69	98.12
504.907	83.12
505.123	90.12
505.34	87.12
505.557	81.12
505.773	93.12
505.99	84.12
506.207	84.12
506.423	92.12
506.64	100.12
506.856	109.12
507.073	95.12
507.289	103.12
507.506	92.12
507.722	142.12
507.939	126.12
508.155	89.12
508.372	99.12
508.588	91.12
508.805	96.12
509.021	100.12
509.238	95.12
509.454	107.12
509.67	97.12
509.887	114.12
510.103	144.12
510.319	252.12
510.536	963.12
510.752	3322.12
510.968	876.12
511.184	188.12
511.401	120.12
511.617	105.12
511.833	107.12
512.049	91.12
512.265	81.12
512.481	98.12
512.698	95.12
512.914	91.12
