Data from Circ_1998_H10_HRD10591_00058.txt Node
Date: Wed Jan 03 11:27:00 EST 2024
User: Yrep
Spectrometer: HR+D1059
Trigger mode: 1
Integration Time (sec): 1.000000E-1
Scans to average: 1
Electric dark correction enabled: true
Nonlinearity correction enabled: false
Boxcar width: 0
XAxis mode: Wavelengths
Number of Pixels in Spectrum: 2048
>>>>>Begin Spectral Data<<<<<
223.165	-25.62
223.4	-25.62
223.635	-25.62
223.869	-18.62
224.104	-27.62
224.338	-16.62
224.573	-5.62
224.808	-23.62
225.042	-0.62
225.277	-3.62
225.511	-4.62
225.746	15.38
225.98	10.38
226.215	-10.62
226.449	31.38
226.683	23.38
226.918	18.38
227.152	38.38
227.387	34.38
227.621	23.38
227.856	26.38
228.09	42.38
228.324	60.38
228.559	52.38
228.793	56.38
229.027	60.38
229.262	66.38
229.496	88.38
229.73	66.38
229.964	90.38
230.199	85.38
230.433	75.38
230.667	75.38
230.901	87.38
231.136	75.38
231.37	64.38
231.604	82.38
231.838	69.38
232.072	63.38
232.306	89.38
232.541	73.38
232.775	73.38
233.009	75.38
233.243	76.38
233.477	86.38
233.711	77.38
233.945	81.38
234.179	63.38
234.413	73.38
234.647	80.38
234.881	83.38
235.115	72.38
235.349	76.38
235.583	78.38
235.817	83.38
236.051	78.38
236.285	80.38
236.519	79.38
236.753	81.38
236.987	85.38
237.221	94.38
237.455	78.38
237.689	85.38
237.922	77.38
238.156	78.38
238.39	68.38
238.624	66.38
238.858	71.38
239.091	71.38
239.325	78.38
239.559	90.38
239.793	74.38
240.027	83.38
240.26	76.38
240.494	85.38
240.728	88.38
240.961	72.38
241.195	86.38
241.429	79.38
241.662	79.38
241.896	83.38
242.13	76.38
242.363	63.38
242.597	75.38
242.83	66.38
243.064	69.38
243.298	86.38
243.531	71.38
243.765	76.38
243.998	76.38
244.232	82.38
244.465	82.38
244.699	75.38
244.932	75.38
245.166	63.38
245.399	84.38
245.633	78.38
245.866	87.38
246.099	80.38
246.333	73.38
246.566	90.38
246.8	69.38
247.033	90.38
247.266	79.38
247.5	74.38
247.733	84.38
247.966	82.38
248.2	84.38
248.433	85.38
248.666	68.38
248.899	86.38
249.133	76.38
249.366	100.38
249.599	105.38
249.832	84.38
250.066	90.38
250.299	98.38
250.532	76.38
250.765	69.38
250.998	83.38
251.231	82.38
251.465	83.38
251.698	86.38
251.931	87.38
252.164	94.38
252.397	83.38
252.63	66.38
252.863	71.38
253.096	91.38
253.329	85.38
253.562	88.38
253.795	84.38
254.028	88.38
254.261	84.38
254.494	76.38
254.727	79.38
254.96	88.38
255.193	72.38
255.426	70.38
255.659	84.38
255.892	93.38
256.124	96.38
256.357	88.38
256.59	96.38
256.823	84.38
257.056	102.38
257.289	95.38
257.521	87.38
257.754	85.38
257.987	88.38
258.22	82.38
258.452	108.38
258.685	91.38
258.918	82.38
259.151	77.38
259.383	73.38
259.616	88.38
259.849	87.38
260.081	81.38
260.314	90.38
260.547	74.38
260.779	100.38
261.012	122.38
261.244	104.38
261.477	100.38
261.71	105.38
261.942	147.38
262.175	138.38
262.407	91.38
262.64	70.38
262.872	76.38
263.105	80.38
263.337	80.38
263.57	80.38
263.802	86.38
264.035	86.38
264.267	85.38
264.499	94.38
264.732	69.38
264.964	89.38
265.197	95.38
265.429	80.38
265.661	86.38
265.894	85.38
266.126	90.38
266.358	74.38
266.591	84.38
266.823	82.38
267.055	78.38
267.287	79.38
267.52	65.38
267.752	75.38
267.984	91.38
268.216	99.38
268.448	77.38
268.681	86.38
268.913	88.38
269.145	100.38
269.377	84.38
269.609	83.38
269.841	86.38
270.073	86.38
270.306	81.38
270.538	82.38
270.77	74.38
271.002	84.38
271.234	92.38
271.466	89.38
271.698	82.38
271.93	79.38
272.162	95.38
272.394	93.38
272.626	82.38
272.858	68.38
273.09	64.38
273.322	88.38
273.553	108.38
273.785	84.38
274.017	84.38
274.249	76.38
274.481	83.38
274.713	93.38
274.945	94.38
275.176	80.38
275.408	108.38
275.64	126.38
275.872	153.38
276.104	105.38
276.335	101.38
276.567	94.38
276.799	172.38
277.031	189.38
277.262	229.38
277.494	164.38
277.726	109.38
277.957	90.38
278.189	100.38
278.421	100.38
278.652	85.38
278.884	90.38
279.115	82.38
279.347	99.38
279.579	111.38
279.81	132.38
280.042	246.38
280.273	317.38
280.505	211.38
280.736	108.38
280.968	86.38
281.199	91.38
281.431	97.38
281.662	91.38
281.894	87.38
282.125	99.38
282.356	123.38
282.588	163.38
282.819	130.38
283.051	93.38
283.282	88.38
283.513	81.38
283.745	86.38
283.976	81.38
284.207	71.38
284.439	82.38
284.67	92.38
284.901	83.38
285.132	80.38
285.364	87.38
285.595	92.38
285.826	87.38
286.057	88.38
286.288	74.38
286.52	92.38
286.751	84.38
286.982	78.38
287.213	90.38
287.444	86.38
287.675	90.38
287.906	99.38
288.138	99.38
288.369	109.38
288.6	92.38
288.831	95.38
289.062	90.38
289.293	89.38
289.524	98.38
289.755	82.38
289.986	75.38
290.217	86.38
290.448	84.38
290.679	81.38
290.91	83.38
291.141	91.38
291.371	97.38
291.602	89.38
291.833	83.38
292.064	74.38
292.295	100.38
292.526	90.38
292.757	79.38
292.987	90.38
293.218	75.38
293.449	84.38
293.68	89.38
293.91	89.38
294.141	93.38
294.372	87.38
294.603	86.38
294.833	93.38
295.064	82.38
295.295	88.38
295.525	97.38
295.756	101.38
295.987	133.38
296.217	166.38
296.448	150.38
296.679	98.38
296.909	87.38
297.14	86.38
297.37	94.38
297.601	80.38
297.831	89.38
298.062	85.38
298.292	90.38
298.523	76.38
298.753	84.38
298.984	75.38
299.214	89.38
299.445	86.38
299.675	98.38
299.905	91.38
300.136	106.38
300.366	91.38
300.597	77.38
300.827	93.38
301.057	95.38
301.288	109.38
301.518	105.38
301.748	109.38
301.979	120.38
302.209	99.38
302.439	96.38
302.669	87.38
302.9	84.38
303.13	87.38
303.36	111.38
303.59	151.38
303.82	188.38
304.051	102.38
304.281	91.38
304.511	87.38
304.741	91.38
304.971	80.38
305.201	78.38
305.431	88.38
305.661	93.38
305.891	93.38
306.121	104.38
306.352	105.38
306.582	121.38
306.812	111.38
307.042	130.38
307.272	187.38
307.502	212.38
307.731	196.38
307.961	144.38
308.191	104.38
308.421	100.38
308.651	98.38
308.881	104.38
309.111	95.38
309.341	92.38
309.571	111.38
309.8	100.38
310.03	105.38
310.26	95.38
310.49	99.38
310.72	106.38
310.949	116.38
311.179	118.38
311.409	81.38
311.639	101.38
311.868	101.38
312.098	91.38
312.328	108.38
312.557	103.38
312.787	135.38
313.017	117.38
313.246	103.38
313.476	100.38
313.706	93.38
313.935	98.38
314.165	95.38
314.394	114.38
314.624	105.38
314.853	96.38
315.083	107.38
315.312	102.38
315.542	93.38
315.771	103.38
316.001	90.38
316.23	76.38
316.46	87.38
316.689	84.38
316.919	102.38
317.148	100.38
317.377	102.38
317.607	93.38
317.836	99.38
318.065	100.38
318.295	94.38
318.524	82.38
318.753	86.38
318.983	98.38
319.212	97.38
319.441	108.38
319.67	120.38
319.9	90.38
320.129	98.38
320.358	104.38
320.587	99.38
320.816	112.38
321.046	115.38
321.275	97.38
321.504	96.38
321.733	88.38
321.962	101.38
322.191	109.38
322.42	118.38
322.649	123.38
322.878	122.38
323.108	126.38
323.337	142.38
323.566	156.38
323.795	183.38
324.024	262.38
324.253	523.38
324.482	1199.38
324.71	2456.38
324.939	3351.38
325.168	1157.38
325.397	313.38
325.626	190.38
325.855	148.38
326.084	141.38
326.313	154.38
326.542	172.38
326.77	278.38
326.999	586.38
327.228	1292.38
327.457	2448.38
327.686	1960.38
327.914	678.38
328.143	659.38
328.372	859.38
328.6	462.38
328.829	226.38
329.058	200.38
329.287	217.38
329.515	213.38
329.744	312.38
329.972	654.38
330.201	1396.38
330.43	1997.38
330.658	824.38
330.887	338.38
331.115	200.38
331.344	132.38
331.572	137.38
331.801	145.38
332.03	130.38
332.258	123.38
332.486	95.38
332.715	107.38
332.943	122.38
333.172	127.38
333.4	150.38
333.629	203.38
333.857	274.38
334.085	568.38
334.314	1264.38
334.542	2532.38
334.771	2316.38
334.999	569.38
335.227	204.38
335.455	137.38
335.684	117.38
335.912	119.38
336.14	104.38
336.369	110.38
336.597	122.38
336.825	98.38
337.053	116.38
337.281	109.38
337.51	92.38
337.738	100.38
337.966	98.38
338.194	117.38
338.422	115.38
338.65	98.38
338.878	100.38
339.106	87.38
339.334	95.38
339.562	106.38
339.79	91.38
340.018	97.38
340.246	80.38
340.474	102.38
340.702	107.38
340.93	92.38
341.158	108.38
341.386	102.38
341.614	100.38
341.842	109.38
342.07	97.38
342.298	94.38
342.526	98.38
342.754	106.38
342.981	82.38
343.209	95.38
343.437	103.38
343.665	93.38
343.893	89.38
344.12	92.38
344.348	78.38
344.576	93.38
344.804	92.38
345.031	91.38
345.259	107.38
345.487	109.38
345.714	106.38
345.942	89.38
346.17	86.38
346.397	104.38
346.625	105.38
346.853	88.38
347.08	82.38
347.308	91.38
347.535	103.38
347.763	100.38
347.99	90.38
348.218	103.38
348.445	128.38
348.673	111.38
348.9	107.38
349.128	97.38
349.355	94.38
349.583	99.38
349.81	102.38
350.037	105.38
350.265	92.38
350.492	101.38
350.72	101.38
350.947	120.38
351.174	111.38
351.402	118.38
351.629	114.38
351.856	113.38
352.083	113.38
352.311	107.38
352.538	120.38
352.765	125.38
352.992	131.38
353.22	120.38
353.447	106.38
353.674	93.38
353.901	98.38
354.128	79.38
354.355	93.38
354.583	95.38
354.81	90.38
355.037	96.38
355.264	75.38
355.491	88.38
355.718	89.38
355.945	104.38
356.172	95.38
356.399	89.38
356.626	89.38
356.853	107.38
357.08	78.38
357.307	86.38
357.534	85.38
357.761	86.38
357.988	93.38
358.215	95.38
358.441	85.38
358.668	98.38
358.895	90.38
359.122	81.38
359.349	83.38
359.576	95.38
359.802	130.38
360.029	151.38
360.256	138.38
360.483	105.38
360.709	84.38
360.936	94.38
361.163	83.38
361.39	113.38
361.616	107.38
361.843	95.38
362.07	83.38
362.296	101.38
362.523	103.38
362.749	98.38
362.976	98.38
363.203	90.38
363.429	93.38
363.656	102.38
363.882	84.38
364.109	88.38
364.335	93.38
364.562	91.38
364.788	105.38
365.015	101.38
365.241	104.38
365.468	103.38
365.694	108.38
365.92	101.38
366.147	80.38
366.373	71.38
366.599	75.38
366.826	84.38
367.052	87.38
367.278	102.38
367.505	95.38
367.731	101.38
367.957	101.38
368.184	91.38
368.41	108.38
368.636	117.38
368.862	141.38
369.089	107.38
369.315	119.38
369.541	88.38
369.767	92.38
369.993	99.38
370.219	94.38
370.445	88.38
370.672	68.38
370.898	86.38
371.124	72.38
371.35	83.38
371.576	80.38
371.802	93.38
372.028	83.38
372.254	82.38
372.48	94.38
372.706	78.38
372.932	79.38
373.158	86.38
373.384	87.38
373.61	100.38
373.835	90.38
374.061	77.38
374.287	103.38
374.513	90.38
374.739	89.38
374.965	85.38
375.191	92.38
375.416	94.38
375.642	82.38
375.868	94.38
376.094	86.38
376.319	95.38
376.545	91.38
376.771	79.38
376.997	90.38
377.222	90.38
377.448	103.38
377.674	91.38
377.899	94.38
378.125	96.38
378.35	104.38
378.576	89.38
378.802	88.38
379.027	97.38
379.253	94.38
379.478	86.38
379.704	86.38
379.929	107.38
380.155	102.38
380.38	101.38
380.606	83.38
380.831	93.38
381.057	93.38
381.282	78.38
381.507	106.38
381.733	101.38
381.958	107.38
382.184	95.38
382.409	92.38
382.634	104.38
382.86	91.38
383.085	99.38
383.31	100.38
383.535	102.38
383.761	98.38
383.986	87.38
384.211	95.38
384.436	96.38
384.662	94.38
384.887	92.38
385.112	90.38
385.337	94.38
385.562	103.38
385.787	114.38
386.013	110.38
386.238	122.38
386.463	106.38
386.688	102.38
386.913	82.38
387.138	96.38
387.363	90.38
387.588	91.38
387.813	108.38
388.038	110.38
388.263	108.38
388.488	102.38
388.713	89.38
388.938	92.38
389.163	101.38
389.387	90.38
389.612	92.38
389.837	90.38
390.062	90.38
390.287	92.38
390.512	92.38
390.736	81.38
390.961	84.38
391.186	93.38
391.411	88.38
391.636	85.38
391.86	83.38
392.085	95.38
392.31	87.38
392.534	76.38
392.759	84.38
392.984	93.38
393.208	89.38
393.433	94.38
393.658	101.38
393.882	97.38
394.107	90.38
394.331	96.38
394.556	73.38
394.78	84.38
395.005	104.38
395.229	86.38
395.454	88.38
395.678	86.38
395.903	83.38
396.127	78.38
396.352	90.38
396.576	85.38
396.801	91.38
397.025	87.38
397.249	87.38
397.474	88.38
397.698	87.38
397.922	91.38
398.147	73.38
398.371	73.38
398.595	94.38
398.82	92.38
399.044	90.38
399.268	87.38
399.492	78.38
399.717	94.38
399.941	107.38
400.165	93.38
400.389	100.38
400.613	82.38
400.837	91.38
401.062	89.38
401.286	103.38
401.51	93.38
401.734	95.38
401.958	111.38
402.182	142.38
402.406	188.38
402.63	148.38
402.854	109.38
403.078	96.38
403.302	96.38
403.526	83.38
403.75	86.38
403.974	88.38
404.198	75.38
404.422	96.38
404.645	90.38
404.869	102.38
405.093	118.38
405.317	166.38
405.541	158.38
405.765	114.38
405.988	137.38
406.212	221.38
406.436	297.38
406.66	216.38
406.883	130.38
407.107	100.38
407.331	104.38
407.555	115.38
407.778	114.38
408.002	111.38
408.226	86.38
408.449	94.38
408.673	98.38
408.896	93.38
409.12	102.38
409.344	91.38
409.567	96.38
409.791	89.38
410.014	88.38
410.238	80.38
410.461	84.38
410.685	81.38
410.908	84.38
411.132	93.38
411.355	102.38
411.578	88.38
411.802	85.38
412.025	93.38
412.249	105.38
412.472	120.38
412.695	138.38
412.919	117.38
413.142	106.38
413.365	90.38
413.589	89.38
413.812	86.38
414.035	79.38
414.258	100.38
414.482	92.38
414.705	96.38
414.928	92.38
415.151	86.38
415.374	84.38
415.597	81.38
415.821	88.38
416.044	106.38
416.267	103.38
416.49	88.38
416.713	83.38
416.936	76.38
417.159	93.38
417.382	102.38
417.605	102.38
417.828	96.38
418.051	103.38
418.274	82.38
418.497	88.38
418.72	91.38
418.943	95.38
419.166	73.38
419.389	89.38
419.611	89.38
419.834	92.38
420.057	95.38
420.28	101.38
420.503	87.38
420.726	93.38
420.948	105.38
421.171	107.38
421.394	116.38
421.617	108.38
421.839	89.38
422.062	93.38
422.285	90.38
422.507	107.38
422.73	130.38
422.953	108.38
423.175	82.38
423.398	86.38
423.621	94.38
423.843	90.38
424.066	79.38
424.288	99.38
424.511	95.38
424.733	103.38
424.956	127.38
425.178	119.38
425.401	108.38
425.623	117.38
425.846	76.38
426.068	90.38
426.291	100.38
426.513	85.38
426.735	98.38
426.958	96.38
427.18	117.38
427.402	180.38
427.625	277.38
427.847	258.38
428.069	279.38
428.292	149.38
428.514	104.38
428.736	91.38
428.958	101.38
429.181	93.38
429.403	91.38
429.625	92.38
429.847	103.38
430.069	111.38
430.292	114.38
430.514	100.38
430.736	84.38
430.958	86.38
431.18	101.38
431.402	93.38
431.624	87.38
431.846	67.38
432.068	92.38
432.29	78.38
432.512	97.38
432.734	99.38
432.956	115.38
433.178	98.38
433.4	98.38
433.622	88.38
433.844	98.38
434.066	96.38
434.287	91.38
434.509	87.38
434.731	91.38
434.953	95.38
435.175	99.38
435.397	92.38
435.618	97.38
435.84	119.38
436.062	145.38
436.284	149.38
436.505	117.38
436.727	106.38
436.949	91.38
437.17	90.38
437.392	78.38
437.614	103.38
437.835	121.38
438.057	144.38
438.278	132.38
438.5	127.38
438.721	146.38
438.943	103.38
439.165	100.38
439.386	87.38
439.608	102.38
439.829	117.38
440.05	149.38
440.272	196.38
440.493	129.38
440.715	92.38
440.936	82.38
441.158	83.38
441.379	82.38
441.6	111.38
441.822	104.38
442.043	116.38
442.264	113.38
442.486	118.38
442.707	92.38
442.928	115.38
443.149	181.38
443.371	187.38
443.592	143.38
443.813	136.38
444.034	132.38
444.255	101.38
444.476	101.38
444.698	94.38
444.919	94.38
445.14	138.38
445.361	132.38
445.582	146.38
445.803	204.38
446.024	190.38
446.245	181.38
446.466	127.38
446.687	93.38
446.908	89.38
447.129	88.38
447.35	94.38
447.571	95.38
447.792	100.38
448.013	108.38
448.234	126.38
448.455	105.38
448.675	146.38
448.896	142.38
449.117	117.38
449.338	104.38
449.559	162.38
449.779	164.38
450	115.38
450.221	84.38
450.442	99.38
450.662	111.38
450.883	130.38
451.104	113.38
451.324	103.38
451.545	96.38
451.766	96.38
451.986	79.38
452.207	115.38
452.428	89.38
452.648	110.38
452.869	139.38
453.089	120.38
453.31	128.38
453.53	95.38
453.751	94.38
453.971	109.38
454.192	142.38
454.412	104.38
454.633	74.38
454.853	87.38
455.073	75.38
455.294	70.38
455.514	105.38
455.734	83.38
455.955	84.38
456.175	75.38
456.395	82.38
456.616	92.38
456.836	93.38
457.056	83.38
457.276	83.38
457.497	87.38
457.717	73.38
457.937	85.38
458.157	92.38
458.377	77.38
458.598	121.38
458.818	202.38
459.038	251.38
459.258	165.38
459.478	85.38
459.698	92.38
459.918	90.38
460.138	90.38
460.358	83.38
460.578	81.38
460.798	87.38
461.018	93.38
461.238	84.38
461.458	75.38
461.678	84.38
461.898	78.38
462.118	87.38
462.338	84.38
462.558	70.38
462.777	94.38
462.997	103.38
463.217	125.38
463.437	91.38
463.657	79.38
463.876	95.38
464.096	98.38
464.316	99.38
464.536	107.38
464.755	112.38
464.975	147.38
465.195	244.38
465.414	242.38
465.634	120.38
465.854	89.38
466.073	89.38
466.293	77.38
466.512	86.38
466.732	98.38
466.951	102.38
467.171	101.38
467.391	102.38
467.61	159.38
467.829	243.38
468.049	765.38
468.268	1157.38
468.488	286.38
468.707	120.38
468.927	112.38
469.146	90.38
469.365	96.38
469.585	98.38
469.804	129.38
470.023	110.38
470.243	110.38
470.462	111.38
470.681	138.38
470.901	109.38
471.12	106.38
471.339	116.38
471.558	120.38
471.777	174.38
471.997	375.38
472.216	1550.38
472.435	3624.38
472.654	777.38
472.873	189.38
473.092	123.38
473.311	98.38
473.53	95.38
473.749	91.38
473.968	107.38
474.187	141.38
474.406	111.38
474.625	85.38
474.844	90.38
475.063	94.38
475.282	88.38
475.501	93.38
475.72	88.38
475.939	101.38
476.158	98.38
476.377	76.38
476.596	87.38
476.814	84.38
477.033	88.38
477.252	101.38
477.471	91.38
477.69	79.38
477.908	103.38
478.127	103.38
478.346	108.38
478.564	79.38
478.783	107.38
479.002	116.38
479.22	100.38
479.439	140.38
479.658	146.38
479.876	131.38
480.095	155.38
480.313	161.38
480.532	217.38
480.751	405.38
480.969	1417.38
481.188	6263.38
481.406	3474.38
481.624	458.38
481.843	156.38
482.061	121.38
482.28	112.38
482.498	100.38
482.717	89.38
482.935	87.38
483.153	84.38
483.372	93.38
483.59	96.38
483.808	86.38
484.027	90.38
484.245	101.38
484.463	90.38
484.681	97.38
484.9	82.38
485.118	108.38
485.336	96.38
485.554	94.38
485.772	90.38
485.99	119.38
486.209	105.38
486.427	101.38
486.645	105.38
486.863	124.38
487.081	115.38
487.299	103.38
487.517	108.38
487.735	99.38
487.953	81.38
488.171	97.38
488.389	91.38
488.607	106.38
488.825	89.38
489.043	92.38
489.261	81.38
489.479	92.38
489.696	77.38
489.914	70.38
490.132	89.38
490.35	83.38
490.568	86.38
490.786	99.38
491.003	88.38
491.221	108.38
491.439	106.38
491.657	101.38
491.874	86.38
492.092	96.38
492.31	100.38
492.527	114.38
492.745	114.38
492.963	86.38
493.18	96.38
493.398	100.38
493.615	95.38
493.833	83.38
494.05	89.38
494.268	78.38
494.485	82.38
494.703	83.38
494.92	92.38
495.138	94.38
495.355	97.38
495.573	90.38
495.79	87.38
496.008	94.38
496.225	103.38
496.442	90.38
496.66	87.38
496.877	98.38
497.094	91.38
497.312	101.38
497.529	101.38
497.746	82.38
497.963	84.38
498.181	96.38
498.398	97.38
498.615	119.38
498.832	102.38
499.049	95.38
499.267	92.38
499.484	81.38
499.701	81.38
499.918	83.38
500.135	74.38
500.352	75.38
500.569	95.38
500.786	100.38
501.003	83.38
501.22	87.38
501.437	92.38
501.654	95.38
501.871	108.38
502.088	100.38
502.305	89.38
502.522	83.38
502.739	95.38
502.956	91.38
503.172	98.38
503.389	110.38
503.606	115.38
503.823	111.38
504.04	91.38
504.256	94.38
504.473	97.38
504.69	109.38
504.907	103.38
505.123	86.38
505.34	98.38
505.557	88.38
505.773	93.38
505.99	92.38
506.207	90.38
506.423	87.38
506.64	97.38
506.856	100.38
507.073	87.38
507.289	84.38
507.506	108.38
507.722	154.38
507.939	134.38
508.155	118.38
508.372	92.38
508.588	115.38
508.805	100.38
509.021	95.38
509.238	101.38
509.454	96.38
509.67	114.38
509.887	120.38
510.103	151.38
510.319	252.38
510.536	961.38
510.752	3461.38
510.968	935.38
511.184	190.38
511.401	140.38
511.617	107.38
511.833	113.38
512.049	100.38
512.265	107.38
512.481	102.38
512.698	92.38
512.914	102.38
