Data from Circ_1998_H10_HRD10591_00018.txt Node
Date: Wed Jan 03 11:26:52 EST 2024
User: Yrep
Spectrometer: HR+D1059
Trigger mode: 1
Integration Time (sec): 1.000000E-1
Scans to average: 1
Electric dark correction enabled: true
Nonlinearity correction enabled: false
Boxcar width: 0
XAxis mode: Wavelengths
Number of Pixels in Spectrum: 2048
>>>>>Begin Spectral Data<<<<<
223.165	-13.5
223.4	-13.5
223.635	-13.5
223.869	-19.5
224.104	-18.5
224.338	-5.5
224.573	-7.5
224.808	-7.5
225.042	-6.5
225.277	-9.5
225.511	2.5
225.746	-0.5
225.98	3.5
226.215	8.5
226.449	17.5
226.683	13.5
226.918	15.5
227.152	27.5
227.387	31.5
227.621	43.5
227.856	57.5
228.09	37.5
228.324	50.5
228.559	60.5
228.793	65.5
229.027	66.5
229.262	73.5
229.496	78.5
229.73	115.5
229.964	88.5
230.199	77.5
230.433	77.5
230.667	89.5
230.901	79.5
231.136	76.5
231.37	88.5
231.604	80.5
231.838	91.5
232.072	98.5
232.306	79.5
232.541	84.5
232.775	81.5
233.009	72.5
233.243	67.5
233.477	93.5
233.711	79.5
233.945	75.5
234.179	86.5
234.413	79.5
234.647	87.5
234.881	80.5
235.115	83.5
235.349	67.5
235.583	84.5
235.817	85.5
236.051	80.5
236.285	80.5
236.519	66.5
236.753	98.5
236.987	78.5
237.221	89.5
237.455	91.5
237.689	78.5
237.922	79.5
238.156	73.5
238.39	63.5
238.624	67.5
238.858	77.5
239.091	72.5
239.325	88.5
239.559	87.5
239.793	76.5
240.027	80.5
240.26	82.5
240.494	87.5
240.728	77.5
240.961	74.5
241.195	79.5
241.429	90.5
241.662	64.5
241.896	66.5
242.13	80.5
242.363	99.5
242.597	77.5
242.83	78.5
243.064	77.5
243.298	76.5
243.531	92.5
243.765	80.5
243.998	83.5
244.232	82.5
244.465	105.5
244.699	98.5
244.932	75.5
245.166	88.5
245.399	83.5
245.633	91.5
245.866	71.5
246.099	86.5
246.333	85.5
246.566	68.5
246.8	87.5
247.033	89.5
247.266	91.5
247.5	83.5
247.733	76.5
247.966	96.5
248.2	91.5
248.433	96.5
248.666	88.5
248.899	98.5
249.133	96.5
249.366	100.5
249.599	111.5
249.832	82.5
250.066	99.5
250.299	93.5
250.532	103.5
250.765	88.5
250.998	78.5
251.231	78.5
251.465	89.5
251.698	94.5
251.931	83.5
252.164	86.5
252.397	83.5
252.63	73.5
252.863	60.5
253.096	73.5
253.329	90.5
253.562	83.5
253.795	76.5
254.028	93.5
254.261	86.5
254.494	80.5
254.727	90.5
254.96	77.5
255.193	92.5
255.426	81.5
255.659	88.5
255.892	110.5
256.124	115.5
256.357	86.5
256.59	87.5
256.823	96.5
257.056	90.5
257.289	85.5
257.521	86.5
257.754	80.5
257.987	76.5
258.22	98.5
258.452	102.5
258.685	100.5
258.918	85.5
259.151	80.5
259.383	86.5
259.616	83.5
259.849	92.5
260.081	83.5
260.314	84.5
260.547	90.5
260.779	94.5
261.012	121.5
261.244	99.5
261.477	100.5
261.71	100.5
261.942	140.5
262.175	146.5
262.407	98.5
262.64	79.5
262.872	79.5
263.105	91.5
263.337	90.5
263.57	82.5
263.802	71.5
264.035	88.5
264.267	77.5
264.499	87.5
264.732	91.5
264.964	85.5
265.197	75.5
265.429	85.5
265.661	88.5
265.894	89.5
266.126	90.5
266.358	78.5
266.591	82.5
266.823	87.5
267.055	80.5
267.287	80.5
267.52	86.5
267.752	79.5
267.984	82.5
268.216	72.5
268.448	98.5
268.681	66.5
268.913	94.5
269.145	98.5
269.377	95.5
269.609	91.5
269.841	88.5
270.073	80.5
270.306	80.5
270.538	70.5
270.77	74.5
271.002	81.5
271.234	94.5
271.466	91.5
271.698	89.5
271.93	86.5
272.162	84.5
272.394	105.5
272.626	89.5
272.858	81.5
273.09	60.5
273.322	93.5
273.553	90.5
273.785	86.5
274.017	92.5
274.249	99.5
274.481	90.5
274.713	102.5
274.945	100.5
275.176	81.5
275.408	105.5
275.64	116.5
275.872	139.5
276.104	107.5
276.335	91.5
276.567	113.5
276.799	163.5
277.031	179.5
277.262	189.5
277.494	151.5
277.726	101.5
277.957	93.5
278.189	86.5
278.421	79.5
278.652	94.5
278.884	84.5
279.115	83.5
279.347	103.5
279.579	114.5
279.81	136.5
280.042	194.5
280.273	252.5
280.505	180.5
280.736	114.5
280.968	86.5
281.199	90.5
281.431	89.5
281.662	93.5
281.894	112.5
282.125	100.5
282.356	126.5
282.588	182.5
282.819	126.5
283.051	102.5
283.282	99.5
283.513	93.5
283.745	87.5
283.976	90.5
284.207	97.5
284.439	99.5
284.67	89.5
284.901	62.5
285.132	82.5
285.364	86.5
285.595	84.5
285.826	103.5
286.057	93.5
286.288	106.5
286.52	94.5
286.751	82.5
286.982	74.5
287.213	79.5
287.444	98.5
287.675	95.5
287.906	88.5
288.138	99.5
288.369	101.5
288.6	107.5
288.831	89.5
289.062	90.5
289.293	91.5
289.524	90.5
289.755	83.5
289.986	65.5
290.217	86.5
290.448	82.5
290.679	95.5
290.91	103.5
291.141	100.5
291.371	81.5
291.602	101.5
291.833	87.5
292.064	89.5
292.295	107.5
292.526	99.5
292.757	91.5
292.987	85.5
293.218	88.5
293.449	91.5
293.68	99.5
293.91	82.5
294.141	79.5
294.372	89.5
294.603	80.5
294.833	93.5
295.064	84.5
295.295	86.5
295.525	111.5
295.756	109.5
295.987	135.5
296.217	189.5
296.448	138.5
296.679	106.5
296.909	98.5
297.14	99.5
297.37	104.5
297.601	109.5
297.831	84.5
298.062	90.5
298.292	92.5
298.523	97.5
298.753	97.5
298.984	98.5
299.214	94.5
299.445	105.5
299.675	84.5
299.905	114.5
300.136	93.5
300.366	99.5
300.597	92.5
300.827	102.5
301.057	100.5
301.288	124.5
301.518	118.5
301.748	91.5
301.979	99.5
302.209	108.5
302.439	94.5
302.669	104.5
302.9	98.5
303.13	111.5
303.36	115.5
303.59	143.5
303.82	129.5
304.051	117.5
304.281	103.5
304.511	98.5
304.741	98.5
304.971	81.5
305.201	90.5
305.431	88.5
305.661	83.5
305.891	109.5
306.121	88.5
306.352	103.5
306.582	126.5
306.812	112.5
307.042	132.5
307.272	160.5
307.502	177.5
307.731	184.5
307.961	115.5
308.191	88.5
308.421	86.5
308.651	105.5
308.881	112.5
309.111	99.5
309.341	102.5
309.571	113.5
309.8	100.5
310.03	106.5
310.26	102.5
310.49	102.5
310.72	93.5
310.949	122.5
311.179	120.5
311.409	95.5
311.639	100.5
311.868	108.5
312.098	112.5
312.328	116.5
312.557	126.5
312.787	121.5
313.017	121.5
313.246	89.5
313.476	98.5
313.706	92.5
313.935	97.5
314.165	99.5
314.394	123.5
314.624	106.5
314.853	106.5
315.083	98.5
315.312	106.5
315.542	102.5
315.771	100.5
316.001	98.5
316.23	104.5
316.46	88.5
316.689	100.5
316.919	92.5
317.148	109.5
317.377	102.5
317.607	90.5
317.836	98.5
318.065	94.5
318.295	98.5
318.524	89.5
318.753	99.5
318.983	92.5
319.212	106.5
319.441	113.5
319.67	105.5
319.9	102.5
320.129	96.5
320.358	103.5
320.587	99.5
320.816	114.5
321.046	107.5
321.275	116.5
321.504	112.5
321.733	93.5
321.962	93.5
322.191	106.5
322.42	114.5
322.649	129.5
322.878	115.5
323.108	137.5
323.337	156.5
323.566	169.5
323.795	181.5
324.024	259.5
324.253	539.5
324.482	1200.5
324.71	2536.5
324.939	3315.5
325.168	1156.5
325.397	338.5
325.626	187.5
325.855	152.5
326.084	147.5
326.313	164.5
326.542	191.5
326.77	293.5
326.999	611.5
327.228	1312.5
327.457	2442.5
327.686	1893.5
327.914	608.5
328.143	593.5
328.372	686.5
328.6	394.5
328.829	195.5
329.058	208.5
329.287	195.5
329.515	194.5
329.744	274.5
329.972	541.5
330.201	1128.5
330.43	1592.5
330.658	688.5
330.887	302.5
331.115	208.5
331.344	135.5
331.572	119.5
331.801	124.5
332.03	130.5
332.258	126.5
332.486	121.5
332.715	110.5
332.943	122.5
333.172	109.5
333.4	131.5
333.629	169.5
333.857	251.5
334.085	478.5
334.314	1020.5
334.542	2023.5
334.771	1855.5
334.999	474.5
335.227	187.5
335.455	142.5
335.684	113.5
335.912	104.5
336.14	110.5
336.369	115.5
336.597	125.5
336.825	115.5
337.053	100.5
337.281	96.5
337.51	112.5
337.738	95.5
337.966	86.5
338.194	109.5
338.422	106.5
338.65	118.5
338.878	101.5
339.106	89.5
339.334	94.5
339.562	99.5
339.79	94.5
340.018	96.5
340.246	112.5
340.474	92.5
340.702	100.5
340.93	91.5
341.158	92.5
341.386	120.5
341.614	118.5
341.842	104.5
342.07	105.5
342.298	105.5
342.526	87.5
342.754	109.5
342.981	86.5
343.209	80.5
343.437	104.5
343.665	102.5
343.893	91.5
344.12	100.5
344.348	80.5
344.576	79.5
344.804	82.5
345.031	109.5
345.259	110.5
345.487	90.5
345.714	99.5
345.942	95.5
346.17	90.5
346.397	108.5
346.625	98.5
346.853	98.5
347.08	81.5
347.308	90.5
347.535	106.5
347.763	110.5
347.99	113.5
348.218	107.5
348.445	104.5
348.673	109.5
348.9	106.5
349.128	89.5
349.355	96.5
349.583	105.5
349.81	99.5
350.037	96.5
350.265	100.5
350.492	95.5
350.72	94.5
350.947	107.5
351.174	115.5
351.402	140.5
351.629	108.5
351.856	119.5
352.083	121.5
352.311	103.5
352.538	105.5
352.765	128.5
352.992	136.5
353.22	119.5
353.447	118.5
353.674	107.5
353.901	95.5
354.128	91.5
354.355	97.5
354.583	94.5
354.81	109.5
355.037	98.5
355.264	85.5
355.491	98.5
355.718	95.5
355.945	96.5
356.172	94.5
356.399	96.5
356.626	103.5
356.853	94.5
357.08	103.5
357.307	109.5
357.534	89.5
357.761	94.5
357.988	109.5
358.215	96.5
358.441	92.5
358.668	100.5
358.895	96.5
359.122	103.5
359.349	80.5
359.576	105.5
359.802	119.5
360.029	147.5
360.256	137.5
360.483	109.5
360.709	94.5
360.936	97.5
361.163	97.5
361.39	99.5
361.616	97.5
361.843	99.5
362.07	107.5
362.296	109.5
362.523	100.5
362.749	98.5
362.976	98.5
363.203	93.5
363.429	84.5
363.656	99.5
363.882	100.5
364.109	90.5
364.335	104.5
364.562	87.5
364.788	95.5
365.015	107.5
365.241	108.5
365.468	118.5
365.694	114.5
365.92	93.5
366.147	107.5
366.373	92.5
366.599	110.5
366.826	91.5
367.052	88.5
367.278	101.5
367.505	98.5
367.731	84.5
367.957	97.5
368.184	93.5
368.41	109.5
368.636	119.5
368.862	143.5
369.089	125.5
369.315	90.5
369.541	95.5
369.767	98.5
369.993	112.5
370.219	101.5
370.445	89.5
370.672	85.5
370.898	103.5
371.124	88.5
371.35	93.5
371.576	91.5
371.802	86.5
372.028	85.5
372.254	83.5
372.48	91.5
372.706	82.5
372.932	83.5
373.158	95.5
373.384	101.5
373.61	90.5
373.835	90.5
374.061	91.5
374.287	92.5
374.513	100.5
374.739	107.5
374.965	100.5
375.191	98.5
375.416	91.5
375.642	94.5
375.868	92.5
376.094	112.5
376.319	102.5
376.545	91.5
376.771	90.5
376.997	94.5
377.222	97.5
377.448	87.5
377.674	100.5
377.899	102.5
378.125	84.5
378.35	96.5
378.576	104.5
378.802	92.5
379.027	85.5
379.253	92.5
379.478	101.5
379.704	88.5
379.929	106.5
380.155	104.5
380.38	106.5
380.606	111.5
380.831	96.5
381.057	109.5
381.282	95.5
381.507	92.5
381.733	106.5
381.958	100.5
382.184	119.5
382.409	114.5
382.634	125.5
382.86	103.5
383.085	120.5
383.31	103.5
383.535	108.5
383.761	99.5
383.986	96.5
384.211	107.5
384.436	98.5
384.662	114.5
384.887	115.5
385.112	127.5
385.337	120.5
385.562	119.5
385.787	118.5
386.013	120.5
386.238	130.5
386.463	106.5
386.688	115.5
386.913	111.5
387.138	125.5
387.363	116.5
387.588	106.5
387.813	115.5
388.038	134.5
388.263	121.5
388.488	115.5
388.713	108.5
388.938	91.5
389.163	94.5
389.387	95.5
389.612	84.5
389.837	102.5
390.062	110.5
390.287	99.5
390.512	90.5
390.736	83.5
390.961	89.5
391.186	81.5
391.411	95.5
391.636	86.5
391.86	84.5
392.085	90.5
392.31	96.5
392.534	81.5
392.759	99.5
392.984	96.5
393.208	89.5
393.433	112.5
393.658	112.5
393.882	93.5
394.107	87.5
394.331	84.5
394.556	89.5
394.78	86.5
395.005	66.5
395.229	74.5
395.454	96.5
395.678	77.5
395.903	100.5
396.127	95.5
396.352	98.5
396.576	96.5
396.801	95.5
397.025	99.5
397.249	93.5
397.474	98.5
397.698	92.5
397.922	79.5
398.147	94.5
398.371	92.5
398.595	85.5
398.82	92.5
399.044	88.5
399.268	86.5
399.492	80.5
399.717	94.5
399.941	88.5
400.165	106.5
400.389	108.5
400.613	97.5
400.837	89.5
401.062	92.5
401.286	99.5
401.51	99.5
401.734	94.5
401.958	108.5
402.182	146.5
402.406	218.5
402.63	154.5
402.854	110.5
403.078	83.5
403.302	92.5
403.526	86.5
403.75	100.5
403.974	97.5
404.198	95.5
404.422	92.5
404.645	98.5
404.869	105.5
405.093	122.5
405.317	155.5
405.541	137.5
405.765	109.5
405.988	131.5
406.212	228.5
406.436	305.5
406.66	206.5
406.883	122.5
407.107	105.5
407.331	104.5
407.555	94.5
407.778	100.5
408.002	99.5
408.226	90.5
408.449	105.5
408.673	97.5
408.896	98.5
409.12	98.5
409.344	110.5
409.567	95.5
409.791	95.5
410.014	104.5
410.238	94.5
410.461	104.5
410.685	98.5
410.908	100.5
411.132	103.5
411.355	106.5
411.578	95.5
411.802	81.5
412.025	86.5
412.249	108.5
412.472	123.5
412.695	139.5
412.919	116.5
413.142	81.5
413.365	114.5
413.589	87.5
413.812	93.5
414.035	104.5
414.258	104.5
414.482	84.5
414.705	90.5
414.928	83.5
415.151	103.5
415.374	85.5
415.597	90.5
415.821	94.5
416.044	109.5
416.267	88.5
416.49	90.5
416.713	94.5
416.936	97.5
417.159	104.5
417.382	101.5
417.605	104.5
417.828	113.5
418.051	103.5
418.274	89.5
418.497	72.5
418.72	83.5
418.943	91.5
419.166	98.5
419.389	100.5
419.611	98.5
419.834	89.5
420.057	90.5
420.28	105.5
420.503	84.5
420.726	94.5
420.948	102.5
421.171	108.5
421.394	100.5
421.617	78.5
421.839	91.5
422.062	89.5
422.285	104.5
422.507	107.5
422.73	110.5
422.953	97.5
423.175	102.5
423.398	87.5
423.621	87.5
423.843	83.5
424.066	74.5
424.288	96.5
424.511	102.5
424.733	115.5
424.956	148.5
425.178	121.5
425.401	110.5
425.623	122.5
425.846	109.5
426.068	112.5
426.291	97.5
426.513	100.5
426.735	102.5
426.958	105.5
427.18	121.5
427.402	192.5
427.625	259.5
427.847	262.5
428.069	250.5
428.292	142.5
428.514	94.5
428.736	93.5
428.958	100.5
429.181	91.5
429.403	108.5
429.625	111.5
429.847	106.5
430.069	111.5
430.292	102.5
430.514	95.5
430.736	78.5
430.958	83.5
431.18	77.5
431.402	106.5
431.624	89.5
431.846	92.5
432.068	93.5
432.29	88.5
432.512	87.5
432.734	99.5
432.956	85.5
433.178	107.5
433.4	108.5
433.622	101.5
433.844	89.5
434.066	89.5
434.287	89.5
434.509	99.5
434.731	87.5
434.953	99.5
435.175	87.5
435.397	88.5
435.618	104.5
435.84	119.5
436.062	144.5
436.284	132.5
436.505	107.5
436.727	121.5
436.949	105.5
437.17	109.5
437.392	95.5
437.614	83.5
437.835	122.5
438.057	154.5
438.278	130.5
438.5	141.5
438.721	135.5
438.943	117.5
439.165	93.5
439.386	102.5
439.608	111.5
439.829	108.5
440.05	157.5
440.272	216.5
440.493	119.5
440.715	99.5
440.936	102.5
441.158	106.5
441.379	95.5
441.6	90.5
441.822	114.5
442.043	94.5
442.264	135.5
442.486	123.5
442.707	102.5
442.928	110.5
443.149	169.5
443.371	182.5
443.592	130.5
443.813	132.5
444.034	144.5
444.255	100.5
444.476	88.5
444.698	94.5
444.919	95.5
445.14	145.5
445.361	148.5
445.582	142.5
445.803	195.5
446.024	198.5
446.245	175.5
446.466	124.5
446.687	97.5
446.908	95.5
447.129	98.5
447.35	105.5
447.571	102.5
447.792	90.5
448.013	113.5
448.234	126.5
448.455	117.5
448.675	135.5
448.896	153.5
449.117	111.5
449.338	124.5
449.559	136.5
449.779	155.5
450	100.5
450.221	90.5
450.442	92.5
450.662	112.5
450.883	124.5
451.104	144.5
451.324	126.5
451.545	102.5
451.766	74.5
451.986	112.5
452.207	96.5
452.428	96.5
452.648	112.5
452.869	115.5
453.089	134.5
453.31	141.5
453.53	107.5
453.751	103.5
453.971	117.5
454.192	127.5
454.412	106.5
454.633	95.5
454.853	95.5
455.073	71.5
455.294	94.5
455.514	114.5
455.734	100.5
455.955	83.5
456.175	86.5
456.395	87.5
456.616	91.5
456.836	95.5
457.056	90.5
457.276	88.5
457.497	93.5
457.717	84.5
457.937	80.5
458.157	89.5
458.377	100.5
458.598	113.5
458.818	203.5
459.038	228.5
459.258	170.5
459.478	91.5
459.698	105.5
459.918	93.5
460.138	97.5
460.358	76.5
460.578	105.5
460.798	98.5
461.018	94.5
461.238	94.5
461.458	83.5
461.678	100.5
461.898	94.5
462.118	95.5
462.338	93.5
462.558	87.5
462.777	87.5
462.997	93.5
463.217	111.5
463.437	103.5
463.657	87.5
463.876	110.5
464.096	105.5
464.316	111.5
464.536	99.5
464.755	98.5
464.975	135.5
465.195	249.5
465.414	240.5
465.634	119.5
465.854	97.5
466.073	85.5
466.293	86.5
466.512	99.5
466.732	100.5
466.951	92.5
467.171	95.5
467.391	114.5
467.61	153.5
467.829	233.5
468.049	639.5
468.268	938.5
468.488	250.5
468.707	110.5
468.927	105.5
469.146	99.5
469.365	94.5
469.585	100.5
469.804	101.5
470.023	99.5
470.243	108.5
470.462	135.5
470.681	144.5
470.901	118.5
471.12	103.5
471.339	126.5
471.558	112.5
471.777	161.5
471.997	345.5
472.216	1250.5
472.435	2902.5
472.654	656.5
472.873	169.5
473.092	114.5
473.311	100.5
473.53	105.5
473.749	99.5
473.968	122.5
474.187	144.5
474.406	111.5
474.625	110.5
474.844	82.5
475.063	88.5
475.282	75.5
475.501	83.5
475.72	86.5
475.939	99.5
476.158	91.5
476.377	72.5
476.596	97.5
476.814	110.5
477.033	99.5
477.252	106.5
477.471	91.5
477.69	86.5
477.908	96.5
478.127	99.5
478.346	103.5
478.564	107.5
478.783	109.5
479.002	96.5
479.22	109.5
479.439	135.5
479.658	149.5
479.876	118.5
480.095	134.5
480.313	146.5
480.532	175.5
480.751	318.5
480.969	1190.5
481.188	5089.5
481.406	2798.5
481.624	403.5
481.843	141.5
482.061	111.5
482.28	101.5
482.498	95.5
482.717	90.5
482.935	95.5
483.153	86.5
483.372	86.5
483.59	99.5
483.808	92.5
484.027	98.5
484.245	105.5
484.463	96.5
484.681	103.5
484.9	100.5
485.118	99.5
485.336	96.5
485.554	99.5
485.772	109.5
485.99	112.5
486.209	129.5
486.427	126.5
486.645	119.5
486.863	136.5
487.081	111.5
487.299	98.5
487.517	101.5
487.735	93.5
487.953	99.5
488.171	108.5
488.389	107.5
488.607	101.5
488.825	93.5
489.043	97.5
489.261	86.5
489.479	99.5
489.696	80.5
489.914	98.5
490.132	91.5
490.35	106.5
490.568	108.5
490.786	96.5
491.003	86.5
491.221	93.5
491.439	105.5
491.657	96.5
491.874	112.5
492.092	106.5
492.31	93.5
492.527	102.5
492.745	90.5
492.963	95.5
493.18	92.5
493.398	102.5
493.615	106.5
493.833	95.5
494.05	83.5
494.268	82.5
494.485	77.5
494.703	99.5
494.92	80.5
495.138	90.5
495.355	86.5
495.573	102.5
495.79	97.5
496.008	98.5
496.225	96.5
496.442	78.5
496.66	93.5
496.877	98.5
497.094	95.5
497.312	97.5
497.529	95.5
497.746	87.5
497.963	92.5
498.181	95.5
498.398	107.5
498.615	119.5
498.832	117.5
499.049	91.5
499.267	100.5
499.484	84.5
499.701	98.5
499.918	85.5
500.135	99.5
500.352	88.5
500.569	90.5
500.786	107.5
501.003	91.5
501.22	96.5
501.437	96.5
501.654	111.5
501.871	124.5
502.088	99.5
502.305	84.5
502.522	92.5
502.739	107.5
502.956	97.5
503.172	105.5
503.389	99.5
503.606	124.5
503.823	127.5
504.04	105.5
504.256	106.5
504.473	99.5
504.69	89.5
504.907	100.5
505.123	95.5
505.34	90.5
505.557	92.5
505.773	99.5
505.99	108.5
506.207	98.5
506.423	94.5
506.64	92.5
506.856	102.5
507.073	99.5
507.289	110.5
507.506	110.5
507.722	134.5
507.939	132.5
508.155	99.5
508.372	93.5
508.588	103.5
508.805	102.5
509.021	102.5
509.238	109.5
509.454	106.5
509.67	116.5
509.887	116.5
510.103	139.5
510.319	259.5
510.536	961.5
510.752	3545.5
510.968	928.5
511.184	195.5
511.401	131.5
511.617	112.5
511.833	112.5
512.049	109.5
512.265	98.5
512.481	104.5
512.698	103.5
512.914	87.5
513.13	99.5
513.346	92.5
513.562	111.5
513.778	114.5
513.994	101.5
514.21	106.5
514.426	146.5
514.642	182.5
514.858	177.5
515.074	234.5
515.29	754.5
515.506	2654.5
515.721	906.5
515.937	219.5
516.153	133.5
516.369	107.5
516.585	121.5
516.801	102.5
517.016	113.5
517.232	99.5
517.448	82.5
517.664	100.5
517.879	90.5
518.095	107.5
518.311	120.5
518.527	118.5
518.742	112.5
518.958	103.5
519.173	102.5
519.389	97.5
519.605	94.5
519.82	115.5
520.036	114.5
520.251	146.5
520.467	142.5
520.682	126.5
520.898	127.5
521.113	139.5
521.329	192.5
521.544	321.5
521.76	961.5
521.975	4502.5
522.19	2587.5
522.406	499.5
522.621	156.5
522.836	95.5
523.052	100.5
523.267	112.5
523.482	93.5
523.698	98.5
523.913	154.5
524.128	140.5
524.343	107.5
524.559	87.5
524.774	85.5
524.989	110.5
525.204	118.5
525.419	112.5
525.634	90.5
525.849	88.5
526.064	95.5
526.28	97.5
526.495	90.5
526.71	97.5
526.925	106.5
527.14	105.5
527.355	99.5
527.57	100.5
527.785	93.5
527.999	95.5
528.214	94.5
528.429	104.5
528.644	96.5
528.859	91.5
529.074	103.5
529.289	152.5
529.503	261.5
529.718	124.5
529.933	92.5
530.148	89.5
530.363	89.5
530.577	91.5
