Data from Circ_1998_H10_HRD10591_00059.txt Node
Date: Wed Jan 03 11:27:00 EST 2024
User: Yrep
Spectrometer: HR+D1059
Trigger mode: 1
Integration Time (sec): 1.000000E-1
Scans to average: 1
Electric dark correction enabled: true
Nonlinearity correction enabled: false
Boxcar width: 0
XAxis mode: Wavelengths
Number of Pixels in Spectrum: 2048
>>>>>Begin Spectral Data<<<<<
223.165	-16.5
223.4	-16.5
223.635	-16.5
223.869	-20.5
224.104	-34.5
224.338	-16.5
224.573	4.5
224.808	-2.5
225.042	-4.5
225.277	-2.5
225.511	-0.5
225.746	-0.5
225.98	1.5
226.215	10.5
226.449	24.5
226.683	13.5
226.918	20.5
227.152	23.5
227.387	30.5
227.621	27.5
227.856	46.5
228.09	42.5
228.324	54.5
228.559	53.5
228.793	74.5
229.027	70.5
229.262	72.5
229.496	96.5
229.73	102.5
229.964	95.5
230.199	89.5
230.433	79.5
230.667	83.5
230.901	85.5
231.136	73.5
231.37	58.5
231.604	86.5
231.838	86.5
232.072	84.5
232.306	87.5
232.541	85.5
232.775	97.5
233.009	83.5
233.243	84.5
233.477	75.5
233.711	79.5
233.945	65.5
234.179	95.5
234.413	76.5
234.647	92.5
234.881	81.5
235.115	89.5
235.349	80.5
235.583	76.5
235.817	98.5
236.051	86.5
236.285	86.5
236.519	77.5
236.753	91.5
236.987	79.5
237.221	102.5
237.455	95.5
237.689	94.5
237.922	79.5
238.156	87.5
238.39	67.5
238.624	75.5
238.858	98.5
239.091	64.5
239.325	74.5
239.559	74.5
239.793	102.5
240.027	84.5
240.26	91.5
240.494	97.5
240.728	83.5
240.961	88.5
241.195	89.5
241.429	80.5
241.662	86.5
241.896	86.5
242.13	93.5
242.363	67.5
242.597	78.5
242.83	84.5
243.064	83.5
243.298	91.5
243.531	86.5
243.765	91.5
243.998	80.5
244.232	90.5
244.465	97.5
244.699	89.5
244.932	80.5
245.166	73.5
245.399	78.5
245.633	88.5
245.866	82.5
246.099	66.5
246.333	84.5
246.566	87.5
246.8	80.5
247.033	82.5
247.266	75.5
247.5	77.5
247.733	76.5
247.966	97.5
248.2	100.5
248.433	88.5
248.666	90.5
248.899	90.5
249.133	87.5
249.366	96.5
249.599	111.5
249.832	97.5
250.066	80.5
250.299	83.5
250.532	75.5
250.765	82.5
250.998	85.5
251.231	86.5
251.465	101.5
251.698	90.5
251.931	96.5
252.164	76.5
252.397	94.5
252.63	86.5
252.863	81.5
253.096	85.5
253.329	81.5
253.562	70.5
253.795	83.5
254.028	94.5
254.261	86.5
254.494	88.5
254.727	87.5
254.96	78.5
255.193	98.5
255.426	78.5
255.659	79.5
255.892	92.5
256.124	118.5
256.357	104.5
256.59	82.5
256.823	104.5
257.056	97.5
257.289	95.5
257.521	83.5
257.754	87.5
257.987	77.5
258.22	88.5
258.452	111.5
258.685	96.5
258.918	98.5
259.151	84.5
259.383	99.5
259.616	92.5
259.849	90.5
260.081	79.5
260.314	92.5
260.547	95.5
260.779	115.5
261.012	132.5
261.244	126.5
261.477	114.5
261.71	117.5
261.942	149.5
262.175	152.5
262.407	106.5
262.64	98.5
262.872	92.5
263.105	98.5
263.337	99.5
263.57	92.5
263.802	80.5
264.035	76.5
264.267	89.5
264.499	90.5
264.732	98.5
264.964	96.5
265.197	101.5
265.429	78.5
265.661	101.5
265.894	99.5
266.126	83.5
266.358	76.5
266.591	100.5
266.823	82.5
267.055	87.5
267.287	81.5
267.52	92.5
267.752	89.5
267.984	87.5
268.216	80.5
268.448	94.5
268.681	99.5
268.913	92.5
269.145	95.5
269.377	85.5
269.609	93.5
269.841	87.5
270.073	97.5
270.306	92.5
270.538	81.5
270.77	101.5
271.002	102.5
271.234	87.5
271.466	104.5
271.698	80.5
271.93	80.5
272.162	105.5
272.394	94.5
272.626	88.5
272.858	95.5
273.09	76.5
273.322	97.5
273.553	88.5
273.785	106.5
274.017	78.5
274.249	98.5
274.481	79.5
274.713	96.5
274.945	97.5
275.176	104.5
275.408	99.5
275.64	136.5
275.872	143.5
276.104	105.5
276.335	110.5
276.567	136.5
276.799	181.5
277.031	228.5
277.262	259.5
277.494	199.5
277.726	116.5
277.957	84.5
278.189	94.5
278.421	92.5
278.652	94.5
278.884	80.5
279.115	106.5
279.347	109.5
279.579	128.5
279.81	150.5
280.042	258.5
280.273	354.5
280.505	225.5
280.736	122.5
280.968	98.5
281.199	96.5
281.431	107.5
281.662	111.5
281.894	103.5
282.125	118.5
282.356	153.5
282.588	198.5
282.819	143.5
283.051	91.5
283.282	83.5
283.513	89.5
283.745	86.5
283.976	87.5
284.207	100.5
284.439	102.5
284.67	91.5
284.901	91.5
285.132	92.5
285.364	87.5
285.595	83.5
285.826	66.5
286.057	76.5
286.288	70.5
286.52	87.5
286.751	75.5
286.982	104.5
287.213	93.5
287.444	93.5
287.675	90.5
287.906	101.5
288.138	80.5
288.369	96.5
288.6	106.5
288.831	88.5
289.062	106.5
289.293	98.5
289.524	89.5
289.755	87.5
289.986	92.5
290.217	84.5
290.448	94.5
290.679	82.5
290.91	85.5
291.141	71.5
291.371	92.5
291.602	104.5
291.833	80.5
292.064	97.5
292.295	76.5
292.526	98.5
292.757	100.5
292.987	102.5
293.218	90.5
293.449	80.5
293.68	80.5
293.91	92.5
294.141	91.5
294.372	87.5
294.603	90.5
294.833	80.5
295.064	99.5
295.295	100.5
295.525	90.5
295.756	114.5
295.987	130.5
296.217	183.5
296.448	166.5
296.679	113.5
296.909	91.5
297.14	98.5
297.37	91.5
297.601	96.5
297.831	105.5
298.062	94.5
298.292	96.5
298.523	98.5
298.753	87.5
298.984	90.5
299.214	105.5
299.445	97.5
299.675	90.5
299.905	110.5
300.136	90.5
300.366	81.5
300.597	93.5
300.827	94.5
301.057	115.5
301.288	126.5
301.518	109.5
301.748	124.5
301.979	136.5
302.209	114.5
302.439	95.5
302.669	99.5
302.9	89.5
303.13	105.5
303.36	139.5
303.59	156.5
303.82	171.5
304.051	106.5
304.281	80.5
304.511	104.5
304.741	101.5
304.971	89.5
305.201	89.5
305.431	96.5
305.661	91.5
305.891	90.5
306.121	96.5
306.352	98.5
306.582	140.5
306.812	112.5
307.042	145.5
307.272	177.5
307.502	222.5
307.731	221.5
307.961	144.5
308.191	96.5
308.421	79.5
308.651	93.5
308.881	97.5
309.111	106.5
309.341	110.5
309.571	103.5
309.8	103.5
310.03	117.5
310.26	117.5
310.49	106.5
310.72	108.5
310.949	136.5
311.179	111.5
311.409	125.5
311.639	101.5
311.868	104.5
312.098	97.5
312.328	120.5
312.557	111.5
312.787	148.5
313.017	125.5
313.246	98.5
313.476	82.5
313.706	99.5
313.935	102.5
314.165	108.5
314.394	131.5
314.624	104.5
314.853	104.5
315.083	108.5
315.312	111.5
315.542	94.5
315.771	87.5
316.001	95.5
316.23	94.5
316.46	98.5
316.689	97.5
316.919	95.5
317.148	107.5
317.377	101.5
317.607	96.5
317.836	93.5
318.065	97.5
318.295	100.5
318.524	106.5
318.753	95.5
318.983	97.5
319.212	113.5
319.441	115.5
319.67	119.5
319.9	105.5
320.129	91.5
320.358	111.5
320.587	90.5
320.816	108.5
321.046	100.5
321.275	114.5
321.504	95.5
321.733	100.5
321.962	94.5
322.191	108.5
322.42	136.5
322.649	136.5
322.878	128.5
323.108	156.5
323.337	160.5
323.566	167.5
323.795	193.5
324.024	284.5
324.253	552.5
324.482	1162.5
324.71	2407.5
324.939	3226.5
325.168	1191.5
325.397	339.5
325.626	183.5
325.855	156.5
326.084	152.5
326.313	160.5
326.542	180.5
326.77	296.5
326.999	568.5
327.228	1196.5
327.457	2207.5
327.686	1817.5
327.914	702.5
328.143	767.5
328.372	1004.5
328.6	540.5
328.829	251.5
329.058	219.5
329.287	264.5
329.515	225.5
329.744	362.5
329.972	716.5
330.201	1553.5
330.43	2236.5
330.658	972.5
330.887	376.5
331.115	253.5
331.344	127.5
331.572	131.5
331.801	140.5
332.03	140.5
332.258	126.5
332.486	108.5
332.715	129.5
332.943	124.5
333.172	137.5
333.4	156.5
333.629	204.5
333.857	314.5
334.085	663.5
334.314	1440.5
334.542	2836.5
334.771	2547.5
334.999	608.5
335.227	226.5
335.455	156.5
335.684	131.5
335.912	110.5
336.14	111.5
336.369	109.5
336.597	127.5
336.825	111.5
337.053	109.5
337.281	89.5
337.51	110.5
337.738	108.5
337.966	112.5
338.194	109.5
338.422	111.5
338.65	104.5
338.878	106.5
339.106	85.5
339.334	108.5
339.562	109.5
339.79	99.5
340.018	87.5
340.246	101.5
340.474	108.5
340.702	107.5
340.93	81.5
341.158	95.5
341.386	113.5
341.614	111.5
341.842	99.5
342.07	96.5
342.298	108.5
342.526	91.5
342.754	100.5
342.981	78.5
343.209	93.5
343.437	93.5
343.665	97.5
343.893	91.5
344.12	102.5
344.348	99.5
344.576	90.5
344.804	112.5
345.031	112.5
345.259	138.5
345.487	88.5
345.714	112.5
345.942	110.5
346.17	110.5
346.397	106.5
346.625	114.5
346.853	98.5
347.08	106.5
347.308	119.5
347.535	111.5
347.763	131.5
347.99	103.5
348.218	99.5
348.445	134.5
348.673	115.5
348.9	103.5
349.128	87.5
349.355	91.5
349.583	101.5
349.81	96.5
350.037	99.5
350.265	92.5
350.492	104.5
350.72	95.5
350.947	115.5
351.174	127.5
351.402	137.5
351.629	116.5
351.856	106.5
352.083	136.5
352.311	126.5
352.538	121.5
352.765	118.5
352.992	140.5
353.22	125.5
353.447	119.5
353.674	90.5
353.901	102.5
354.128	90.5
354.355	87.5
354.583	102.5
354.81	103.5
355.037	90.5
355.264	87.5
355.491	102.5
355.718	98.5
355.945	98.5
356.172	106.5
356.399	90.5
356.626	96.5
356.853	86.5
357.08	90.5
357.307	88.5
357.534	99.5
357.761	91.5
357.988	94.5
358.215	97.5
358.441	90.5
358.668	78.5
358.895	89.5
359.122	91.5
359.349	84.5
359.576	107.5
359.802	138.5
360.029	155.5
360.256	150.5
360.483	128.5
360.709	97.5
360.936	110.5
361.163	100.5
361.39	113.5
361.616	106.5
361.843	99.5
362.07	122.5
362.296	124.5
362.523	98.5
362.749	103.5
362.976	103.5
363.203	95.5
363.429	83.5
363.656	108.5
363.882	89.5
364.109	83.5
364.335	105.5
364.562	102.5
364.788	107.5
365.015	103.5
365.241	107.5
365.468	121.5
365.694	132.5
365.92	107.5
366.147	99.5
366.373	98.5
366.599	114.5
366.826	92.5
367.052	98.5
367.278	108.5
367.505	99.5
367.731	114.5
367.957	96.5
368.184	119.5
368.41	125.5
368.636	142.5
368.862	142.5
369.089	129.5
369.315	112.5
369.541	94.5
369.767	105.5
369.993	86.5
370.219	115.5
370.445	99.5
370.672	92.5
370.898	90.5
371.124	97.5
371.35	97.5
371.576	75.5
371.802	84.5
372.028	96.5
372.254	99.5
372.48	81.5
372.706	76.5
372.932	90.5
373.158	92.5
373.384	104.5
373.61	88.5
373.835	94.5
374.061	97.5
374.287	97.5
374.513	88.5
374.739	106.5
374.965	91.5
375.191	94.5
375.416	84.5
375.642	92.5
375.868	95.5
376.094	91.5
376.319	91.5
376.545	79.5
376.771	91.5
376.997	86.5
377.222	88.5
377.448	102.5
377.674	96.5
377.899	84.5
378.125	89.5
378.35	98.5
378.576	74.5
378.802	84.5
379.027	94.5
379.253	80.5
379.478	90.5
379.704	97.5
379.929	102.5
380.155	78.5
380.38	90.5
380.606	97.5
380.831	91.5
381.057	103.5
381.282	94.5
381.507	90.5
381.733	103.5
381.958	86.5
382.184	98.5
382.409	95.5
382.634	92.5
382.86	88.5
383.085	97.5
383.31	92.5
383.535	87.5
383.761	91.5
383.986	88.5
384.211	109.5
384.436	105.5
384.662	107.5
384.887	98.5
385.112	111.5
385.337	104.5
385.562	108.5
385.787	108.5
386.013	124.5
386.238	126.5
386.463	114.5
386.688	108.5
386.913	81.5
387.138	106.5
387.363	96.5
387.588	105.5
387.813	103.5
388.038	103.5
388.263	129.5
388.488	116.5
388.713	86.5
388.938	83.5
389.163	85.5
389.387	84.5
389.612	88.5
389.837	96.5
390.062	90.5
390.287	90.5
390.512	81.5
390.736	81.5
390.961	84.5
391.186	91.5
391.411	94.5
391.636	87.5
391.86	87.5
392.085	80.5
392.31	78.5
392.534	87.5
392.759	98.5
392.984	81.5
393.208	84.5
393.433	93.5
393.658	98.5
393.882	81.5
394.107	75.5
394.331	97.5
394.556	84.5
394.78	97.5
395.005	84.5
395.229	84.5
395.454	88.5
395.678	91.5
395.903	100.5
396.127	93.5
396.352	96.5
396.576	86.5
396.801	81.5
397.025	92.5
397.249	91.5
397.474	105.5
397.698	86.5
397.922	96.5
398.147	86.5
398.371	90.5
398.595	87.5
398.82	94.5
399.044	77.5
399.268	90.5
399.492	93.5
399.717	102.5
399.941	100.5
400.165	91.5
400.389	99.5
400.613	98.5
400.837	81.5
401.062	110.5
401.286	95.5
401.51	87.5
401.734	101.5
401.958	105.5
402.182	164.5
402.406	232.5
402.63	162.5
402.854	114.5
403.078	102.5
403.302	96.5
403.526	85.5
403.75	101.5
403.974	94.5
404.198	88.5
404.422	93.5
404.645	87.5
404.869	102.5
405.093	135.5
405.317	146.5
405.541	152.5
405.765	140.5
405.988	144.5
406.212	256.5
406.436	387.5
406.66	235.5
406.883	148.5
407.107	104.5
407.331	88.5
407.555	122.5
407.778	120.5
408.002	102.5
408.226	108.5
408.449	93.5
408.673	88.5
408.896	89.5
409.12	103.5
409.344	83.5
409.567	96.5
409.791	96.5
410.014	98.5
410.238	100.5
410.461	91.5
410.685	111.5
410.908	108.5
411.132	90.5
411.355	106.5
411.578	85.5
411.802	92.5
412.025	97.5
412.249	102.5
412.472	129.5
412.695	143.5
412.919	128.5
413.142	111.5
413.365	89.5
413.589	89.5
413.812	106.5
414.035	95.5
414.258	93.5
414.482	86.5
414.705	96.5
414.928	101.5
415.151	108.5
415.374	92.5
415.597	97.5
415.821	97.5
416.044	91.5
416.267	90.5
416.49	88.5
416.713	104.5
416.936	88.5
417.159	100.5
417.382	88.5
417.605	113.5
417.828	111.5
418.051	93.5
418.274	85.5
418.497	90.5
418.72	96.5
418.943	104.5
419.166	96.5
419.389	97.5
419.611	74.5
419.834	92.5
420.057	99.5
420.28	96.5
420.503	95.5
420.726	95.5
420.948	93.5
421.171	111.5
421.394	94.5
421.617	90.5
421.839	98.5
422.062	106.5
422.285	108.5
422.507	103.5
422.73	113.5
422.953	99.5
423.175	92.5
423.398	91.5
423.621	82.5
423.843	88.5
424.066	87.5
424.288	84.5
424.511	107.5
424.733	111.5
424.956	129.5
425.178	111.5
425.401	122.5
425.623	105.5
425.846	99.5
426.068	114.5
426.291	109.5
426.513	111.5
426.735	89.5
426.958	100.5
427.18	123.5
427.402	193.5
427.625	315.5
427.847	287.5
428.069	266.5
428.292	151.5
428.514	108.5
428.736	86.5
428.958	89.5
429.181	85.5
429.403	92.5
429.625	91.5
429.847	103.5
430.069	126.5
430.292	104.5
430.514	83.5
430.736	79.5
430.958	80.5
431.18	82.5
431.402	74.5
431.624	80.5
431.846	89.5
432.068	93.5
432.29	84.5
432.512	78.5
432.734	91.5
432.956	86.5
433.178	100.5
433.4	111.5
433.622	99.5
433.844	94.5
434.066	100.5
434.287	104.5
434.509	96.5
434.731	97.5
434.953	82.5
435.175	90.5
435.397	87.5
435.618	100.5
435.84	119.5
436.062	153.5
436.284	143.5
436.505	110.5
436.727	121.5
436.949	104.5
437.17	96.5
437.392	85.5
437.614	108.5
437.835	147.5
438.057	190.5
438.278	137.5
438.5	118.5
438.721	142.5
438.943	111.5
439.165	83.5
439.386	106.5
439.608	102.5
439.829	122.5
440.05	175.5
440.272	220.5
440.493	124.5
440.715	94.5
440.936	90.5
441.158	99.5
441.379	98.5
441.6	102.5
441.822	109.5
442.043	112.5
442.264	142.5
442.486	124.5
442.707	107.5
442.928	144.5
443.149	221.5
443.371	215.5
443.592	155.5
443.813	136.5
444.034	134.5
444.255	100.5
444.476	95.5
444.698	98.5
444.919	79.5
445.14	131.5
445.361	139.5
445.582	158.5
445.803	216.5
446.024	220.5
446.245	188.5
446.466	143.5
446.687	110.5
446.908	95.5
447.129	104.5
447.35	100.5
447.571	108.5
447.792	87.5
448.013	108.5
448.234	119.5
448.455	115.5
448.675	139.5
448.896	145.5
449.117	115.5
449.338	113.5
449.559	172.5
449.779	162.5
450	113.5
450.221	101.5
450.442	102.5
450.662	90.5
450.883	144.5
451.104	172.5
451.324	122.5
451.545	90.5
451.766	79.5
451.986	100.5
452.207	102.5
452.428	97.5
452.648	112.5
452.869	140.5
453.089	128.5
453.31	162.5
453.53	114.5
453.751	96.5
453.971	121.5
454.192	131.5
454.412	116.5
454.633	78.5
454.853	90.5
455.073	92.5
455.294	97.5
455.514	109.5
455.734	108.5
455.955	95.5
456.175	88.5
456.395	91.5
456.616	92.5
456.836	92.5
457.056	96.5
457.276	78.5
457.497	96.5
457.717	85.5
457.937	90.5
458.157	91.5
458.377	115.5
458.598	144.5
458.818	237.5
459.038	265.5
459.258	172.5
459.478	99.5
459.698	89.5
459.918	90.5
460.138	83.5
460.358	93.5
460.578	100.5
460.798	109.5
461.018	92.5
461.238	93.5
461.458	97.5
461.678	93.5
461.898	83.5
462.118	94.5
462.338	92.5
462.558	100.5
462.777	95.5
462.997	118.5
463.217	123.5
463.437	100.5
463.657	105.5
463.876	95.5
464.096	105.5
464.316	109.5
464.536	120.5
464.755	119.5
464.975	146.5
465.195	292.5
465.414	271.5
465.634	139.5
465.854	104.5
466.073	97.5
466.293	92.5
466.512	86.5
466.732	90.5
466.951	103.5
467.171	112.5
467.391	119.5
467.61	170.5
467.829	287.5
468.049	908.5
468.268	1306.5
468.488	295.5
468.707	114.5
468.927	99.5
469.146	94.5
469.365	109.5
469.585	107.5
469.804	118.5
470.023	129.5
470.243	110.5
470.462	143.5
470.681	152.5
470.901	107.5
471.12	120.5
471.339	108.5
471.558	146.5
471.777	205.5
471.997	450.5
472.216	1790.5
472.435	4191.5
472.654	871.5
472.873	203.5
473.092	122.5
473.311	103.5
473.53	92.5
473.749	105.5
473.968	134.5
474.187	137.5
474.406	134.5
474.625	92.5
474.844	73.5
475.063	91.5
475.282	89.5
475.501	104.5
475.72	92.5
475.939	73.5
476.158	102.5
476.377	107.5
476.596	106.5
476.814	97.5
477.033	105.5
477.252	105.5
477.471	112.5
477.69	110.5
477.908	106.5
478.127	102.5
478.346	97.5
478.564	93.5
478.783	120.5
479.002	121.5
479.22	111.5
479.439	142.5
479.658	154.5
479.876	141.5
480.095	158.5
480.313	158.5
480.532	202.5
480.751	401.5
480.969	1608.5
481.188	7043.5
481.406	3853.5
481.624	512.5
481.843	170.5
482.061	134.5
482.28	116.5
482.498	111.5
482.717	83.5
482.935	91.5
483.153	99.5
483.372	80.5
483.59	89.5
483.808	102.5
484.027	88.5
484.245	95.5
484.463	80.5
484.681	117.5
484.9	103.5
485.118	87.5
485.336	97.5
485.554	93.5
485.772	98.5
485.99	109.5
486.209	122.5
486.427	107.5
486.645	129.5
486.863	150.5
487.081	109.5
487.299	111.5
487.517	95.5
487.735	111.5
487.953	101.5
488.171	98.5
488.389	108.5
488.607	106.5
488.825	103.5
489.043	99.5
489.261	92.5
489.479	101.5
489.696	99.5
489.914	82.5
490.132	94.5
490.35	95.5
490.568	107.5
490.786	94.5
491.003	94.5
491.221	108.5
491.439	103.5
491.657	103.5
491.874	109.5
492.092	102.5
492.31	112.5
492.527	111.5
492.745	106.5
492.963	99.5
493.18	97.5
493.398	100.5
493.615	100.5
493.833	92.5
494.05	92.5
494.268	108.5
494.485	102.5
494.703	103.5
494.92	95.5
495.138	108.5
495.355	99.5
495.573	82.5
495.79	91.5
496.008	86.5
496.225	90.5
496.442	96.5
496.66	104.5
496.877	95.5
497.094	95.5
497.312	86.5
497.529	72.5
497.746	103.5
497.963	98.5
498.181	88.5
498.398	99.5
498.615	132.5
498.832	117.5
499.049	88.5
499.267	93.5
499.484	92.5
499.701	96.5
499.918	95.5
500.135	92.5
500.352	105.5
500.569	102.5
500.786	108.5
501.003	100.5
501.22	91.5
501.437	113.5
501.654	110.5
501.871	142.5
502.088	95.5
502.305	90.5
502.522	97.5
502.739	93.5
502.956	92.5
503.172	98.5
503.389	107.5
503.606	137.5
503.823	123.5
504.04	99.5
504.256	88.5
504.473	93.5
504.69	90.5
504.907	95.5
505.123	89.5
505.34	97.5
505.557	96.5
505.773	99.5
505.99	105.5
506.207	94.5
506.423	101.5
506.64	99.5
506.856	86.5
507.073	91.5
507.289	92.5
507.506	119.5
507.722	154.5
507.939	156.5
508.155	94.5
508.372	110.5
508.588	105.5
508.805	107.5
509.021	103.5
509.238	95.5
509.454	100.5
509.67	107.5
509.887	127.5
510.103	148.5
510.319	302.5
510.536	1135.5
510.752	4096.5
510.968	1041.5
511.184	207.5
511.401	154.5
511.617	112.5
511.833	115.5
512.049	113.5
512.265	113.5
512.481	98.5
512.698	108.5
512.914	93.5
513.13	94.5
513.346	103.5
513.562	110.5
513.778	116.5
513.994	109.5
514.21	128.5
514.426	144.5
514.642	213.5
514.858	183.5
515.074	282.5
515.29	901.5
515.506	3254.5
515.721	1124.5
515.937	266.5
516.153	168.5
516.369	112.5
516.585	112.5
516.801	136.5
517.016	103.5
517.232	100.5
517.448	89.5
517.664	112.5
517.879	98.5
518.095	106.5
518.311	111.5
518.527	121.5
518.742	92.5
518.958	111.5
519.173	107.5
519.389	105.5
519.605	94.5
519.82	107.5
520.036	130.5
520.251	167.5
520.467	158.5
520.682	141.5
520.898	131.5
521.113	156.5
521.329	196.5
521.544	360.5
521.76	1202.5
521.975	5579.5
522.19	3158.5
522.406	611.5
522.621	192.5
522.836	145.5
523.052	135.5
523.267	105.5
523.482	104.5
523.698	122.5
523.913	166.5
524.128	130.5
524.343	104.5
524.559	106.5
524.774	101.5
524.989	108.5
525.204	121.5
525.419	108.5
525.634	88.5
525.849	97.5
526.064	107.5
526.28	100.5
526.495	101.5
526.71	102.5
526.925	100.5
527.14	89.5
527.355	88.5
527.57	90.5
527.785	80.5
527.999	105.5
528.214	106.5
528.429	102.5
528.644	105.5
528.859	106.5
529.074	104.5
529.289	186.5
529.503	304.5
529.718	142.5
529.933	94.5
