Data from Circ_1998_H10_HRD10591_00086.txt Node
Date: Wed Jan 03 11:27:06 EST 2024
User: Yrep
Spectrometer: HR+D1059
Trigger mode: 1
Integration Time (sec): 1.000000E-1
Scans to average: 1
Electric dark correction enabled: true
Nonlinearity correction enabled: false
Boxcar width: 0
XAxis mode: Wavelengths
Number of Pixels in Spectrum: 2048
>>>>>Begin Spectral Data<<<<<
223.165	-18.69
223.4	-18.69
223.635	-18.69
223.869	-28.69
224.104	-17.69
224.338	-16.69
224.573	-14.69
224.808	-11.69
225.042	-16.69
225.277	1.31
225.511	4.31
225.746	4.31
225.98	5.31
226.215	21.31
226.449	23.31
226.683	2.31
226.918	37.31
227.152	25.31
227.387	50.31
227.621	45.31
227.856	43.31
228.09	40.31
228.324	51.31
228.559	61.31
228.793	70.31
229.027	76.31
229.262	82.31
229.496	66.31
229.73	105.31
229.964	97.31
230.199	77.31
230.433	67.31
230.667	86.31
230.901	79.31
231.136	93.31
231.37	93.31
231.604	89.31
231.838	74.31
232.072	89.31
232.306	83.31
232.541	75.31
232.775	93.31
233.009	83.31
233.243	79.31
233.477	88.31
233.711	96.31
233.945	92.31
234.179	84.31
234.413	91.31
234.647	83.31
234.881	75.31
235.115	89.31
235.349	90.31
235.583	80.31
235.817	88.31
236.051	79.31
236.285	78.31
236.519	84.31
236.753	65.31
236.987	86.31
237.221	112.31
237.455	105.31
237.689	95.31
237.922	81.31
238.156	76.31
238.39	86.31
238.624	76.31
238.858	86.31
239.091	81.31
239.325	80.31
239.559	82.31
239.793	88.31
240.027	80.31
240.26	73.31
240.494	84.31
240.728	76.31
240.961	84.31
241.195	90.31
241.429	71.31
241.662	74.31
241.896	72.31
242.13	67.31
242.363	84.31
242.597	77.31
242.83	81.31
243.064	72.31
243.298	83.31
243.531	76.31
243.765	73.31
243.998	79.31
244.232	91.31
244.465	90.31
244.699	84.31
244.932	86.31
245.166	83.31
245.399	63.31
245.633	76.31
245.866	78.31
246.099	87.31
246.333	76.31
246.566	81.31
246.8	77.31
247.033	93.31
247.266	72.31
247.5	89.31
247.733	83.31
247.966	79.31
248.2	84.31
248.433	84.31
248.666	82.31
248.899	93.31
249.133	94.31
249.366	124.31
249.599	116.31
249.832	86.31
250.066	98.31
250.299	93.31
250.532	108.31
250.765	93.31
250.998	89.31
251.231	87.31
251.465	90.31
251.698	83.31
251.931	101.31
252.164	81.31
252.397	90.31
252.63	85.31
252.863	83.31
253.096	71.31
253.329	79.31
253.562	85.31
253.795	76.31
254.028	91.31
254.261	81.31
254.494	90.31
254.727	98.31
254.96	87.31
255.193	68.31
255.426	81.31
255.659	101.31
255.892	102.31
256.124	111.31
256.357	89.31
256.59	95.31
256.823	90.31
257.056	81.31
257.289	84.31
257.521	105.31
257.754	82.31
257.987	79.31
258.22	110.31
258.452	100.31
258.685	98.31
258.918	89.31
259.151	82.31
259.383	88.31
259.616	93.31
259.849	84.31
260.081	86.31
260.314	85.31
260.547	101.31
260.779	116.31
261.012	148.31
261.244	132.31
261.477	105.31
261.71	107.31
261.942	146.31
262.175	148.31
262.407	105.31
262.64	81.31
262.872	96.31
263.105	105.31
263.337	81.31
263.57	87.31
263.802	85.31
264.035	82.31
264.267	85.31
264.499	91.31
264.732	87.31
264.964	82.31
265.197	83.31
265.429	90.31
265.661	91.31
265.894	93.31
266.126	82.31
266.358	88.31
266.591	84.31
266.823	85.31
267.055	87.31
267.287	95.31
267.52	94.31
267.752	93.31
267.984	79.31
268.216	81.31
268.448	90.31
268.681	94.31
268.913	93.31
269.145	79.31
269.377	93.31
269.609	88.31
269.841	84.31
270.073	85.31
270.306	87.31
270.538	83.31
270.77	84.31
271.002	101.31
271.234	92.31
271.466	101.31
271.698	113.31
271.93	95.31
272.162	85.31
272.394	78.31
272.626	92.31
272.858	86.31
273.09	89.31
273.322	76.31
273.553	78.31
273.785	96.31
274.017	89.31
274.249	98.31
274.481	88.31
274.713	98.31
274.945	93.31
275.176	113.31
275.408	114.31
275.64	125.31
275.872	139.31
276.104	127.31
276.335	98.31
276.567	128.31
276.799	176.31
277.031	224.31
277.262	271.31
277.494	185.31
277.726	111.31
277.957	98.31
278.189	85.31
278.421	91.31
278.652	105.31
278.884	91.31
279.115	92.31
279.347	100.31
279.579	118.31
279.81	163.31
280.042	280.31
280.273	397.31
280.505	258.31
280.736	131.31
280.968	93.31
281.199	91.31
281.431	111.31
281.662	95.31
281.894	108.31
282.125	123.31
282.356	159.31
282.588	203.31
282.819	151.31
283.051	96.31
283.282	62.31
283.513	81.31
283.745	93.31
283.976	83.31
284.207	96.31
284.439	95.31
284.67	84.31
284.901	90.31
285.132	73.31
285.364	97.31
285.595	103.31
285.826	107.31
286.057	81.31
286.288	93.31
286.52	93.31
286.751	79.31
286.982	97.31
287.213	103.31
287.444	94.31
287.675	94.31
287.906	95.31
288.138	105.31
288.369	97.31
288.6	96.31
288.831	85.31
289.062	88.31
289.293	97.31
289.524	95.31
289.755	90.31
289.986	95.31
290.217	91.31
290.448	63.31
290.679	76.31
290.91	91.31
291.141	104.31
291.371	88.31
291.602	100.31
291.833	89.31
292.064	92.31
292.295	90.31
292.526	91.31
292.757	89.31
292.987	91.31
293.218	92.31
293.449	89.31
293.68	103.31
293.91	99.31
294.141	88.31
294.372	95.31
294.603	98.31
294.833	90.31
295.064	89.31
295.295	91.31
295.525	103.31
295.756	104.31
295.987	134.31
296.217	183.31
296.448	159.31
296.679	104.31
296.909	80.31
297.14	84.31
297.37	99.31
297.601	96.31
297.831	93.31
298.062	108.31
298.292	87.31
298.523	107.31
298.753	77.31
298.984	95.31
299.214	77.31
299.445	103.31
299.675	105.31
299.905	97.31
300.136	82.31
300.366	89.31
300.597	105.31
300.827	99.31
301.057	105.31
301.288	116.31
301.518	102.31
301.748	84.31
301.979	146.31
302.209	117.31
302.439	105.31
302.669	94.31
302.9	94.31
303.13	105.31
303.36	138.31
303.59	157.31
303.82	201.31
304.051	131.31
304.281	115.31
304.511	88.31
304.741	91.31
304.971	80.31
305.201	95.31
305.431	93.31
305.661	89.31
305.891	92.31
306.121	107.31
306.352	124.31
306.582	124.31
306.812	119.31
307.042	138.31
307.272	207.31
307.502	235.31
307.731	209.31
307.961	151.31
308.191	120.31
308.421	101.31
308.651	84.31
308.881	101.31
309.111	88.31
309.341	102.31
309.571	113.31
309.8	108.31
310.03	106.31
310.26	103.31
310.49	116.31
310.72	111.31
310.949	135.31
311.179	142.31
311.409	97.31
311.639	95.31
311.868	107.31
312.098	111.31
312.328	111.31
312.557	138.31
312.787	135.31
313.017	119.31
313.246	107.31
313.476	92.31
313.706	98.31
313.935	100.31
314.165	121.31
314.394	125.31
314.624	109.31
314.853	129.31
315.083	103.31
315.312	88.31
315.542	96.31
315.771	95.31
316.001	97.31
316.23	91.31
316.46	88.31
316.689	104.31
316.919	94.31
317.148	100.31
317.377	106.31
317.607	99.31
317.836	117.31
318.065	97.31
318.295	89.31
318.524	98.31
318.753	111.31
318.983	99.31
319.212	97.31
319.441	132.31
319.67	122.31
319.9	91.31
320.129	103.31
320.358	100.31
320.587	92.31
320.816	105.31
321.046	109.31
321.275	105.31
321.504	103.31
321.733	112.31
321.962	120.31
322.191	134.31
322.42	127.31
322.649	132.31
322.878	128.31
323.108	132.31
323.337	182.31
323.566	190.31
323.795	197.31
324.024	302.31
324.253	639.31
324.482	1490.31
324.71	3123.31
324.939	4259.31
325.168	1464.31
325.397	374.31
325.626	201.31
325.855	165.31
326.084	166.31
326.313	171.31
326.542	211.31
326.77	332.31
326.999	735.31
327.228	1595.31
327.457	3047.31
327.686	2423.31
327.914	830.31
328.143	825.31
328.372	1071.31
328.6	565.31
328.829	241.31
329.058	229.31
329.287	227.31
329.515	236.31
329.744	381.31
329.972	807.31
330.201	1748.31
330.43	2570.31
330.658	1055.31
330.887	405.31
331.115	241.31
331.344	149.31
331.572	129.31
331.801	136.31
332.03	148.31
332.258	144.31
332.486	128.31
332.715	122.31
332.943	124.31
333.172	140.31
333.4	163.31
333.629	219.31
333.857	345.31
334.085	719.31
334.314	1580.31
334.542	3215.31
334.771	2938.31
334.999	693.31
335.227	238.31
335.455	168.31
335.684	135.31
335.912	117.31
336.14	116.31
336.369	105.31
336.597	103.31
336.825	114.31
337.053	109.31
337.281	96.31
337.51	113.31
337.738	107.31
337.966	111.31
338.194	117.31
338.422	125.31
338.65	104.31
338.878	97.31
339.106	91.31
339.334	113.31
339.562	94.31
339.79	87.31
340.018	90.31
340.246	104.31
340.474	112.31
340.702	107.31
340.93	103.31
341.158	96.31
341.386	107.31
341.614	97.31
341.842	101.31
342.07	89.31
342.298	99.31
342.526	106.31
342.754	101.31
342.981	93.31
343.209	96.31
343.437	101.31
343.665	90.31
343.893	85.31
344.12	101.31
344.348	95.31
344.576	96.31
344.804	110.31
345.031	111.31
345.259	112.31
345.487	101.31
345.714	112.31
345.942	109.31
346.17	108.31
346.397	87.31
346.625	110.31
346.853	112.31
347.08	87.31
347.308	107.31
347.535	93.31
347.763	112.31
347.99	111.31
348.218	111.31
348.445	138.31
348.673	112.31
348.9	83.31
349.128	103.31
349.355	81.31
349.583	82.31
349.81	107.31
350.037	115.31
350.265	90.31
350.492	103.31
350.72	89.31
350.947	109.31
351.174	116.31
351.402	117.31
351.629	114.31
351.856	119.31
352.083	121.31
352.311	122.31
352.538	126.31
352.765	130.31
352.992	125.31
353.22	122.31
353.447	106.31
353.674	102.31
353.901	98.31
354.128	102.31
354.355	93.31
354.583	88.31
354.81	97.31
355.037	110.31
355.264	91.31
355.491	89.31
355.718	95.31
355.945	91.31
356.172	94.31
356.399	107.31
356.626	93.31
356.853	84.31
357.08	101.31
357.307	105.31
357.534	91.31
357.761	92.31
357.988	97.31
358.215	98.31
358.441	85.31
358.668	93.31
358.895	97.31
359.122	81.31
359.349	92.31
359.576	114.31
359.802	124.31
360.029	143.31
360.256	161.31
360.483	119.31
360.709	104.31
360.936	105.31
361.163	96.31
361.39	105.31
361.616	111.31
361.843	90.31
362.07	96.31
362.296	108.31
362.523	108.31
362.749	100.31
362.976	103.31
363.203	108.31
363.429	101.31
363.656	101.31
363.882	97.31
364.109	100.31
364.335	92.31
364.562	97.31
364.788	90.31
365.015	107.31
365.241	108.31
365.468	131.31
365.694	124.31
365.92	107.31
366.147	114.31
366.373	94.31
366.599	99.31
366.826	95.31
367.052	94.31
367.278	99.31
367.505	103.31
367.731	100.31
367.957	105.31
368.184	110.31
368.41	119.31
368.636	139.31
368.862	132.31
369.089	129.31
369.315	109.31
369.541	91.31
369.767	86.31
369.993	103.31
370.219	101.31
370.445	98.31
370.672	84.31
370.898	105.31
371.124	100.31
371.35	95.31
371.576	98.31
371.802	100.31
372.028	94.31
372.254	85.31
372.48	81.31
372.706	82.31
372.932	97.31
373.158	83.31
373.384	89.31
373.61	97.31
373.835	87.31
374.061	100.31
374.287	113.31
374.513	100.31
374.739	90.31
374.965	94.31
375.191	93.31
375.416	95.31
375.642	93.31
375.868	106.31
376.094	113.31
376.319	106.31
376.545	94.31
376.771	97.31
376.997	86.31
377.222	99.31
377.448	116.31
377.674	107.31
377.899	84.31
378.125	90.31
378.35	87.31
378.576	83.31
378.802	79.31
379.027	92.31
379.253	103.31
379.478	100.31
379.704	96.31
379.929	97.31
380.155	92.31
380.38	87.31
380.606	110.31
380.831	96.31
381.057	97.31
381.282	108.31
381.507	94.31
381.733	100.31
381.958	96.31
382.184	102.31
382.409	109.31
382.634	96.31
382.86	87.31
383.085	101.31
383.31	100.31
383.535	104.31
383.761	95.31
383.986	105.31
384.211	99.31
384.436	92.31
384.662	108.31
384.887	108.31
385.112	108.31
385.337	103.31
385.562	106.31
385.787	101.31
386.013	111.31
386.238	115.31
386.463	109.31
386.688	99.31
386.913	97.31
387.138	110.31
387.363	91.31
387.588	90.31
387.813	101.31
388.038	109.31
388.263	104.31
388.488	109.31
388.713	87.31
388.938	91.31
389.163	102.31
389.387	86.31
389.612	104.31
389.837	83.31
390.062	84.31
390.287	84.31
390.512	96.31
390.736	83.31
390.961	81.31
391.186	80.31
391.411	89.31
391.636	94.31
391.86	87.31
392.085	91.31
392.31	92.31
392.534	77.31
392.759	93.31
392.984	99.31
393.208	87.31
393.433	95.31
393.658	100.31
393.882	94.31
394.107	91.31
394.331	108.31
394.556	83.31
394.78	93.31
395.005	80.31
395.229	99.31
395.454	88.31
395.678	90.31
395.903	91.31
396.127	90.31
396.352	107.31
396.576	95.31
396.801	104.31
397.025	87.31
397.249	90.31
397.474	100.31
397.698	91.31
397.922	75.31
398.147	79.31
398.371	88.31
398.595	79.31
398.82	87.31
399.044	84.31
399.268	107.31
399.492	95.31
399.717	103.31
399.941	102.31
400.165	128.31
400.389	98.31
400.613	98.31
400.837	84.31
401.062	95.31
401.286	93.31
401.51	95.31
401.734	95.31
401.958	124.31
402.182	164.31
402.406	214.31
402.63	157.31
402.854	116.31
403.078	92.31
403.302	92.31
403.526	105.31
403.75	90.31
403.974	89.31
404.198	109.31
404.422	101.31
404.645	102.31
404.869	110.31
405.093	154.31
405.317	171.31
405.541	182.31
405.765	119.31
405.988	151.31
406.212	233.31
406.436	356.31
406.66	227.31
406.883	129.31
407.107	115.31
407.331	114.31
407.555	120.31
407.778	125.31
408.002	105.31
408.226	93.31
408.449	83.31
408.673	105.31
408.896	93.31
409.12	113.31
409.344	97.31
409.567	99.31
409.791	97.31
410.014	88.31
410.238	104.31
410.461	98.31
410.685	108.31
410.908	98.31
411.132	121.31
411.355	101.31
411.578	95.31
411.802	89.31
412.025	96.31
412.249	116.31
412.472	158.31
412.695	174.31
412.919	123.31
413.142	101.31
413.365	92.31
413.589	92.31
413.812	90.31
414.035	109.31
414.258	106.31
414.482	99.31
414.705	99.31
414.928	95.31
415.151	91.31
415.374	101.31
415.597	89.31
415.821	99.31
416.044	86.31
416.267	91.31
416.49	77.31
416.713	98.31
416.936	94.31
417.159	93.31
417.382	118.31
417.605	115.31
417.828	136.31
418.051	103.31
418.274	101.31
418.497	81.31
418.72	93.31
418.943	91.31
419.166	96.31
419.389	99.31
419.611	92.31
419.834	92.31
420.057	113.31
420.28	112.31
420.503	95.31
420.726	100.31
420.948	107.31
421.171	113.31
421.394	107.31
421.617	95.31
421.839	82.31
422.062	99.31
422.285	106.31
422.507	109.31
422.73	119.31
422.953	101.31
423.175	96.31
423.398	81.31
423.621	96.31
423.843	87.31
424.066	96.31
424.288	97.31
424.511	109.31
424.733	121.31
424.956	131.31
425.178	112.31
425.401	141.31
425.623	122.31
425.846	92.31
426.068	111.31
426.291	105.31
426.513	106.31
426.735	99.31
426.958	117.31
427.18	133.31
427.402	224.31
427.625	319.31
427.847	331.31
428.069	340.31
428.292	173.31
428.514	121.31
428.736	111.31
428.958	85.31
429.181	91.31
429.403	91.31
429.625	90.31
429.847	123.31
430.069	133.31
430.292	116.31
430.514	93.31
430.736	96.31
430.958	94.31
431.18	72.31
431.402	87.31
431.624	91.31
431.846	96.31
432.068	84.31
432.29	82.31
432.512	93.31
432.734	92.31
432.956	98.31
433.178	119.31
433.4	122.31
433.622	97.31
433.844	104.31
434.066	105.31
434.287	91.31
434.509	85.31
434.731	105.31
434.953	107.31
435.175	102.31
435.397	92.31
435.618	92.31
435.84	119.31
436.062	170.31
436.284	160.31
436.505	123.31
436.727	129.31
436.949	97.31
437.17	95.31
437.392	100.31
437.614	111.31
437.835	137.31
438.057	171.31
438.278	152.31
438.5	132.31
438.721	173.31
438.943	120.31
439.165	97.31
439.386	105.31
439.608	112.31
439.829	137.31
440.05	192.31
440.272	237.31
440.493	128.31
440.715	101.31
440.936	100.31
441.158	96.31
441.379	94.31
441.6	105.31
441.822	121.31
442.043	115.31
442.264	139.31
442.486	135.31
442.707	106.31
442.928	142.31
443.149	204.31
443.371	205.31
443.592	159.31
443.813	157.31
444.034	137.31
444.255	95.31
444.476	87.31
444.698	86.31
444.919	102.31
445.14	159.31
445.361	169.31
445.582	161.31
445.803	248.31
446.024	227.31
446.245	210.31
446.466	147.31
446.687	99.31
446.908	89.31
447.129	96.31
447.35	93.31
447.571	106.31
447.792	116.31
448.013	113.31
448.234	138.31
448.455	138.31
448.675	157.31
448.896	170.31
449.117	112.31
449.338	129.31
449.559	164.31
449.779	187.31
450	101.31
450.221	99.31
450.442	104.31
450.662	120.31
450.883	141.31
451.104	165.31
451.324	119.31
451.545	107.31
451.766	95.31
451.986	95.31
452.207	105.31
452.428	100.31
452.648	114.31
452.869	127.31
453.089	140.31
453.31	159.31
453.53	113.31
453.751	114.31
453.971	139.31
454.192	146.31
454.412	113.31
454.633	93.31
454.853	109.31
455.073	96.31
455.294	104.31
455.514	115.31
455.734	113.31
455.955	87.31
456.175	100.31
456.395	79.31
456.616	97.31
456.836	86.31
457.056	84.31
457.276	92.31
457.497	101.31
457.717	97.31
457.937	101.31
458.157	91.31
458.377	92.31
458.598	126.31
458.818	253.31
459.038	287.31
459.258	185.31
459.478	100.31
459.698	113.31
459.918	103.31
460.138	76.31
460.358	95.31
460.578	111.31
460.798	107.31
461.018	96.31
461.238	93.31
461.458	81.31
461.678	91.31
461.898	84.31
462.118	92.31
462.338	92.31
462.558	91.31
462.777	104.31
462.997	118.31
463.217	138.31
463.437	99.31
463.657	99.31
463.876	88.31
464.096	98.31
464.316	100.31
464.536	97.31
464.755	104.31
464.975	147.31
465.195	284.31
465.414	259.31
465.634	127.31
465.854	101.31
466.073	88.31
466.293	99.31
466.512	90.31
466.732	95.31
466.951	110.31
467.171	113.31
467.391	132.31
467.61	184.31
467.829	284.31
468.049	922.31
468.268	1445.31
468.488	335.31
468.707	123.31
468.927	98.31
469.146	101.31
469.365	89.31
469.585	111.31
469.804	121.31
470.023	135.31
470.243	122.31
470.462	150.31
470.681	159.31
470.901	124.31
471.12	121.31
471.339	129.31
471.558	155.31
471.777	214.31
471.997	444.31
472.216	1906.31
472.435	4475.31
472.654	934.31
472.873	222.31
473.092	136.31
473.311	114.31
473.53	96.31
473.749	84.31
473.968	108.31
474.187	145.31
474.406	122.31
474.625	96.31
474.844	92.31
475.063	92.31
475.282	94.31
475.501	95.31
475.72	108.31
475.939	103.31
476.158	96.31
476.377	104.31
476.596	105.31
476.814	107.31
477.033	112.31
477.252	111.31
477.471	82.31
477.69	99.31
477.908	90.31
478.127	97.31
478.346	91.31
478.564	92.31
478.783	135.31
479.002	119.31
479.22	129.31
479.439	150.31
479.658	155.31
479.876	147.31
480.095	152.31
480.313	171.31
480.532	235.31
480.751	429.31
480.969	1736.31
481.188	7492.31
481.406	4238.31
481.624	551.31
481.843	186.31
482.061	131.31
482.28	106.31
482.498	107.31
482.717	111.31
482.935	108.31
483.153	105.31
483.372	100.31
483.59	84.31
483.808	109.31
484.027	103.31
484.245	99.31
484.463	107.31
484.681	108.31
484.9	101.31
485.118	107.31
485.336	94.31
485.554	90.31
485.772	109.31
485.99	105.31
486.209	112.31
486.427	114.31
486.645	142.31
486.863	132.31
487.081	115.31
487.299	105.31
487.517	88.31
487.735	116.31
487.953	83.31
488.171	100.31
488.389	104.31
488.607	109.31
488.825	92.31
489.043	94.31
489.261	91.31
489.479	93.31
489.696	90.31
489.914	106.31
490.132	94.31
490.35	99.31
490.568	82.31
490.786	86.31
491.003	107.31
491.221	106.31
491.439	109.31
491.657	104.31
491.874	95.31
492.092	87.31
492.31	106.31
492.527	112.31
492.745	119.31
492.963	106.31
493.18	92.31
493.398	112.31
493.615	90.31
493.833	88.31
494.05	104.31
494.268	111.31
494.485	96.31
494.703	96.31
494.92	83.31
495.138	89.31
495.355	98.31
495.573	96.31
495.79	96.31
496.008	85.31
496.225	97.31
496.442	92.31
496.66	115.31
496.877	89.31
497.094	103.31
497.312	84.31
497.529	76.31
497.746	93.31
497.963	96.31
498.181	104.31
498.398	112.31
498.615	138.31
498.832	113.31
499.049	105.31
499.267	111.31
499.484	90.31
499.701	90.31
499.918	105.31
500.135	99.31
500.352	108.31
500.569	112.31
500.786	115.31
501.003	105.31
501.22	100.31
501.437	96.31
501.654	110.31
501.871	148.31
502.088	99.31
502.305	104.31
502.522	78.31
502.739	101.31
502.956	101.31
503.172	98.31
503.389	119.31
503.606	138.31
503.823	116.31
504.04	93.31
504.256	97.31
504.473	98.31
504.69	100.31
504.907	111.31
505.123	97.31
505.34	91.31
505.557	84.31
505.773	84.31
505.99	81.31
506.207	86.31
506.423	87.31
506.64	93.31
506.856	84.31
507.073	90.31
507.289	80.31
507.506	99.31
507.722	152.31
507.939	136.31
508.155	115.31
508.372	100.31
508.588	108.31
508.805	123.31
509.021	104.31
509.238	104.31
509.454	105.31
509.67	111.31
509.887	107.31
510.103	151.31
510.319	271.31
510.536	1063.31
510.752	3761.31
