Data from Circ_1998_H10_HRD10591_00040.txt Node
Date: Wed Jan 03 11:26:56 EST 2024
User: Yrep
Spectrometer: HR+D1059
Trigger mode: 1
Integration Time (sec): 1.000000E-1
Scans to average: 1
Electric dark correction enabled: true
Nonlinearity correction enabled: false
Boxcar width: 0
XAxis mode: Wavelengths
Number of Pixels in Spectrum: 2048
>>>>>Begin Spectral Data<<<<<
223.165	-24.06
223.4	-24.06
223.635	-24.06
223.869	-16.06
224.104	-27.06
224.338	-21.06
224.573	-8.06
224.808	-3.06
225.042	0.94
225.277	-2.06
225.511	-4.06
225.746	5.94
225.98	6.94
226.215	4.94
226.449	24.94
226.683	15.94
226.918	16.94
227.152	28.94
227.387	40.94
227.621	30.94
227.856	41.94
228.09	44.94
228.324	59.94
228.559	54.94
228.793	54.94
229.027	67.94
229.262	83.94
229.496	93.94
229.73	104.94
229.964	107.94
230.199	82.94
230.433	76.94
230.667	87.94
230.901	95.94
231.136	78.94
231.37	82.94
231.604	75.94
231.838	83.94
232.072	83.94
232.306	90.94
232.541	91.94
232.775	83.94
233.009	86.94
233.243	94.94
233.477	70.94
233.711	94.94
233.945	76.94
234.179	78.94
234.413	87.94
234.647	80.94
234.881	80.94
235.115	68.94
235.349	67.94
235.583	79.94
235.817	80.94
236.051	83.94
236.285	85.94
236.519	80.94
236.753	81.94
236.987	98.94
237.221	108.94
237.455	97.94
237.689	98.94
237.922	78.94
238.156	71.94
238.39	67.94
238.624	76.94
238.858	74.94
239.091	84.94
239.325	88.94
239.559	90.94
239.793	98.94
240.027	74.94
240.26	87.94
240.494	88.94
240.728	83.94
240.961	81.94
241.195	88.94
241.429	85.94
241.662	86.94
241.896	73.94
242.13	81.94
242.363	76.94
242.597	74.94
242.83	85.94
243.064	78.94
243.298	98.94
243.531	92.94
243.765	71.94
243.998	84.94
244.232	95.94
244.465	97.94
244.699	88.94
244.932	82.94
245.166	85.94
245.399	85.94
245.633	70.94
245.866	82.94
246.099	85.94
246.333	86.94
246.566	89.94
246.8	95.94
247.033	90.94
247.266	91.94
247.5	76.94
247.733	86.94
247.966	74.94
248.2	96.94
248.433	89.94
248.666	78.94
248.899	80.94
249.133	101.94
249.366	110.94
249.599	132.94
249.832	100.94
250.066	87.94
250.299	88.94
250.532	90.94
250.765	96.94
250.998	83.94
251.231	88.94
251.465	81.94
251.698	87.94
251.931	91.94
252.164	83.94
252.397	78.94
252.63	73.94
252.863	80.94
253.096	96.94
253.329	80.94
253.562	86.94
253.795	70.94
254.028	85.94
254.261	89.94
254.494	74.94
254.727	88.94
254.96	84.94
255.193	94.94
255.426	80.94
255.659	83.94
255.892	108.94
256.124	103.94
256.357	89.94
256.59	84.94
256.823	92.94
257.056	95.94
257.289	87.94
257.521	84.94
257.754	100.94
257.987	98.94
258.22	98.94
258.452	115.94
258.685	111.94
258.918	98.94
259.151	85.94
259.383	86.94
259.616	88.94
259.849	93.94
260.081	72.94
260.314	85.94
260.547	108.94
260.779	110.94
261.012	119.94
261.244	111.94
261.477	98.94
261.71	116.94
261.942	148.94
262.175	155.94
262.407	90.94
262.64	84.94
262.872	93.94
263.105	97.94
263.337	79.94
263.57	71.94
263.802	77.94
264.035	82.94
264.267	91.94
264.499	90.94
264.732	89.94
264.964	69.94
265.197	85.94
265.429	97.94
265.661	83.94
265.894	79.94
266.126	85.94
266.358	81.94
266.591	86.94
266.823	76.94
267.055	68.94
267.287	88.94
267.52	83.94
267.752	75.94
267.984	90.94
268.216	69.94
268.448	98.94
268.681	88.94
268.913	96.94
269.145	78.94
269.377	98.94
269.609	77.94
269.841	85.94
270.073	104.94
270.306	94.94
270.538	85.94
270.77	76.94
271.002	95.94
271.234	98.94
271.466	92.94
271.698	92.94
271.93	98.94
272.162	92.94
272.394	105.94
272.626	87.94
272.858	79.94
273.09	97.94
273.322	86.94
273.553	67.94
273.785	84.94
274.017	91.94
274.249	99.94
274.481	89.94
274.713	90.94
274.945	108.94
275.176	83.94
275.408	94.94
275.64	129.94
275.872	152.94
276.104	129.94
276.335	109.94
276.567	121.94
276.799	174.94
277.031	220.94
277.262	286.94
277.494	191.94
277.726	115.94
277.957	101.94
278.189	105.94
278.421	97.94
278.652	88.94
278.884	90.94
279.115	100.94
279.347	104.94
279.579	118.94
279.81	148.94
280.042	247.94
280.273	373.94
280.505	241.94
280.736	126.94
280.968	84.94
281.199	101.94
281.431	100.94
281.662	102.94
281.894	86.94
282.125	110.94
282.356	153.94
282.588	202.94
282.819	144.94
283.051	97.94
283.282	102.94
283.513	85.94
283.745	100.94
283.976	100.94
284.207	84.94
284.439	95.94
284.67	83.94
284.901	82.94
285.132	73.94
285.364	75.94
285.595	92.94
285.826	94.94
286.057	98.94
286.288	88.94
286.52	86.94
286.751	98.94
286.982	93.94
287.213	81.94
287.444	97.94
287.675	79.94
287.906	104.94
288.138	92.94
288.369	92.94
288.6	102.94
288.831	103.94
289.062	92.94
289.293	87.94
289.524	91.94
289.755	105.94
289.986	91.94
290.217	90.94
290.448	99.94
290.679	88.94
290.91	85.94
291.141	85.94
291.371	93.94
291.602	92.94
291.833	87.94
292.064	83.94
292.295	95.94
292.526	86.94
292.757	90.94
292.987	97.94
293.218	100.94
293.449	93.94
293.68	84.94
293.91	82.94
294.141	93.94
294.372	99.94
294.603	96.94
294.833	101.94
295.064	93.94
295.295	100.94
295.525	96.94
295.756	111.94
295.987	140.94
296.217	191.94
296.448	166.94
296.679	96.94
296.909	90.94
297.14	92.94
297.37	94.94
297.601	82.94
297.831	97.94
298.062	75.94
298.292	102.94
298.523	81.94
298.753	90.94
298.984	84.94
299.214	85.94
299.445	92.94
299.675	105.94
299.905	110.94
300.136	89.94
300.366	88.94
300.597	98.94
300.827	110.94
301.057	119.94
301.288	120.94
301.518	102.94
301.748	95.94
301.979	110.94
302.209	116.94
302.439	103.94
302.669	97.94
302.9	91.94
303.13	91.94
303.36	115.94
303.59	143.94
303.82	171.94
304.051	124.94
304.281	103.94
304.511	98.94
304.741	102.94
304.971	90.94
305.201	105.94
305.431	105.94
305.661	93.94
305.891	87.94
306.121	100.94
306.352	105.94
306.582	124.94
306.812	116.94
307.042	162.94
307.272	184.94
307.502	237.94
307.731	202.94
307.961	144.94
308.191	110.94
308.421	104.94
308.651	107.94
308.881	113.94
309.111	92.94
309.341	96.94
309.571	111.94
309.8	114.94
310.03	118.94
310.26	108.94
310.49	126.94
310.72	114.94
310.949	125.94
311.179	131.94
311.409	98.94
311.639	91.94
311.868	102.94
312.098	97.94
312.328	115.94
312.557	116.94
312.787	134.94
313.017	115.94
313.246	108.94
313.476	110.94
313.706	119.94
313.935	114.94
314.165	118.94
314.394	110.94
314.624	98.94
314.853	106.94
315.083	97.94
315.312	105.94
315.542	87.94
315.771	94.94
316.001	109.94
316.23	100.94
316.46	88.94
316.689	95.94
316.919	102.94
317.148	92.94
317.377	110.94
317.607	107.94
317.836	104.94
318.065	95.94
318.295	104.94
318.524	104.94
318.753	103.94
318.983	103.94
319.212	130.94
319.441	118.94
319.67	136.94
319.9	96.94
320.129	93.94
320.358	104.94
320.587	106.94
320.816	110.94
321.046	120.94
321.275	123.94
321.504	91.94
321.733	107.94
321.962	100.94
322.191	121.94
322.42	111.94
322.649	132.94
322.878	146.94
323.108	156.94
323.337	169.94
323.566	187.94
323.795	205.94
324.024	295.94
324.253	576.94
324.482	1272.94
324.71	2601.94
324.939	3505.94
325.168	1244.94
325.397	347.94
325.626	200.94
325.855	168.94
326.084	145.94
326.313	148.94
326.542	206.94
326.77	328.94
326.999	624.94
327.228	1306.94
327.457	2435.94
327.686	2014.94
327.914	731.94
328.143	763.94
328.372	987.94
328.6	542.94
328.829	231.94
329.058	235.94
329.287	242.94
329.515	233.94
329.744	355.94
329.972	714.94
330.201	1537.94
330.43	2283.94
330.658	976.94
330.887	379.94
331.115	229.94
331.344	161.94
331.572	129.94
331.801	149.94
332.03	153.94
332.258	153.94
332.486	122.94
332.715	115.94
332.943	126.94
333.172	143.94
333.4	159.94
333.629	186.94
333.857	313.94
334.085	627.94
334.314	1390.94
334.542	2848.94
334.771	2607.94
334.999	618.94
335.227	221.94
335.455	140.94
335.684	124.94
335.912	116.94
336.14	122.94
336.369	121.94
336.597	125.94
336.825	111.94
337.053	102.94
337.281	103.94
337.51	90.94
337.738	100.94
337.966	107.94
338.194	119.94
338.422	108.94
338.65	100.94
338.878	100.94
339.106	87.94
339.334	97.94
339.562	94.94
339.79	97.94
340.018	99.94
340.246	103.94
340.474	119.94
340.702	108.94
340.93	95.94
341.158	104.94
341.386	103.94
341.614	121.94
341.842	104.94
342.07	86.94
342.298	94.94
342.526	110.94
342.754	99.94
342.981	90.94
343.209	82.94
343.437	106.94
343.665	100.94
343.893	77.94
344.12	98.94
344.348	91.94
344.576	104.94
344.804	109.94
345.031	95.94
345.259	115.94
345.487	107.94
345.714	105.94
345.942	103.94
346.17	98.94
346.397	98.94
346.625	116.94
346.853	107.94
347.08	106.94
347.308	88.94
347.535	124.94
347.763	119.94
347.99	120.94
348.218	112.94
348.445	134.94
348.673	117.94
348.9	100.94
349.128	96.94
349.355	96.94
349.583	89.94
349.81	92.94
350.037	102.94
350.265	79.94
350.492	103.94
350.72	97.94
350.947	107.94
351.174	136.94
351.402	123.94
351.629	130.94
351.856	117.94
352.083	118.94
352.311	131.94
352.538	154.94
352.765	136.94
352.992	130.94
353.22	126.94
353.447	97.94
353.674	119.94
353.901	93.94
354.128	104.94
354.355	94.94
354.583	90.94
354.81	97.94
355.037	108.94
355.264	94.94
355.491	92.94
355.718	94.94
355.945	102.94
356.172	102.94
356.399	107.94
356.626	104.94
356.853	92.94
357.08	96.94
357.307	72.94
357.534	85.94
357.761	88.94
357.988	98.94
358.215	98.94
358.441	90.94
358.668	93.94
358.895	84.94
359.122	86.94
359.349	85.94
359.576	101.94
359.802	119.94
360.029	156.94
360.256	149.94
360.483	122.94
360.709	96.94
360.936	98.94
361.163	97.94
361.39	100.94
361.616	123.94
361.843	87.94
362.07	108.94
362.296	100.94
362.523	109.94
362.749	97.94
362.976	98.94
363.203	98.94
363.429	89.94
363.656	78.94
363.882	90.94
364.109	94.94
364.335	91.94
364.562	106.94
364.788	106.94
365.015	97.94
365.241	110.94
365.468	121.94
365.694	139.94
365.92	115.94
366.147	108.94
366.373	96.94
366.599	86.94
366.826	92.94
367.052	92.94
367.278	98.94
367.505	90.94
367.731	87.94
367.957	98.94
368.184	87.94
368.41	107.94
368.636	128.94
368.862	130.94
369.089	144.94
369.315	87.94
369.541	106.94
369.767	99.94
369.993	110.94
370.219	99.94
370.445	95.94
370.672	84.94
370.898	103.94
371.124	88.94
371.35	92.94
371.576	86.94
371.802	88.94
372.028	77.94
372.254	76.94
372.48	85.94
372.706	68.94
372.932	86.94
373.158	88.94
373.384	106.94
373.61	99.94
373.835	88.94
374.061	97.94
374.287	94.94
374.513	90.94
374.739	90.94
374.965	91.94
375.191	88.94
375.416	82.94
375.642	81.94
375.868	96.94
376.094	90.94
376.319	78.94
376.545	88.94
376.771	86.94
376.997	79.94
377.222	108.94
377.448	88.94
377.674	94.94
377.899	96.94
378.125	81.94
378.35	98.94
378.576	78.94
378.802	88.94
379.027	92.94
379.253	101.94
379.478	87.94
379.704	94.94
379.929	98.94
380.155	98.94
380.38	100.94
380.606	97.94
380.831	97.94
381.057	93.94
381.282	94.94
381.507	98.94
381.733	84.94
381.958	93.94
382.184	106.94
382.409	84.94
382.634	113.94
382.86	82.94
383.085	91.94
383.31	100.94
383.535	90.94
383.761	94.94
383.986	94.94
384.211	85.94
384.436	104.94
384.662	102.94
384.887	104.94
385.112	93.94
385.337	97.94
385.562	110.94
385.787	116.94
386.013	115.94
386.238	120.94
386.463	112.94
386.688	123.94
386.913	106.94
387.138	109.94
387.363	103.94
387.588	99.94
387.813	95.94
388.038	113.94
388.263	115.94
388.488	110.94
388.713	98.94
388.938	110.94
389.163	92.94
389.387	89.94
389.612	94.94
389.837	102.94
390.062	95.94
390.287	82.94
390.512	75.94
390.736	97.94
390.961	94.94
391.186	93.94
391.411	99.94
391.636	83.94
391.86	91.94
392.085	88.94
392.31	92.94
392.534	83.94
392.759	80.94
392.984	80.94
393.208	97.94
393.433	105.94
393.658	89.94
393.882	90.94
394.107	77.94
394.331	90.94
394.556	96.94
394.78	82.94
395.005	89.94
395.229	75.94
395.454	91.94
395.678	92.94
395.903	84.94
396.127	91.94
396.352	95.94
396.576	93.94
396.801	95.94
397.025	94.94
397.249	103.94
397.474	94.94
397.698	76.94
397.922	91.94
398.147	104.94
398.371	86.94
398.595	90.94
398.82	92.94
399.044	89.94
399.268	94.94
399.492	89.94
399.717	93.94
399.941	92.94
400.165	105.94
400.389	97.94
400.613	85.94
400.837	85.94
401.062	95.94
401.286	86.94
401.51	77.94
401.734	109.94
401.958	105.94
402.182	172.94
402.406	222.94
402.63	171.94
402.854	112.94
403.078	108.94
403.302	106.94
403.526	100.94
403.75	91.94
403.974	88.94
404.198	81.94
404.422	91.94
404.645	86.94
404.869	108.94
405.093	137.94
405.317	176.94
405.541	144.94
405.765	147.94
405.988	154.94
406.212	242.94
406.436	379.94
406.66	246.94
406.883	140.94
407.107	108.94
407.331	106.94
407.555	128.94
407.778	115.94
408.002	97.94
408.226	98.94
408.449	96.94
408.673	91.94
408.896	88.94
409.12	109.94
409.344	95.94
409.567	93.94
409.791	81.94
410.014	104.94
410.238	101.94
410.461	95.94
410.685	112.94
410.908	88.94
411.132	104.94
411.355	109.94
411.578	94.94
411.802	95.94
412.025	94.94
412.249	104.94
412.472	135.94
412.695	164.94
412.919	115.94
413.142	99.94
413.365	101.94
413.589	90.94
413.812	84.94
414.035	97.94
414.258	100.94
414.482	100.94
414.705	88.94
414.928	99.94
415.151	92.94
415.374	100.94
415.597	92.94
415.821	94.94
416.044	88.94
416.267	94.94
416.49	87.94
416.713	98.94
416.936	90.94
417.159	100.94
417.382	106.94
417.605	130.94
417.828	113.94
418.051	116.94
418.274	98.94
418.497	80.94
418.72	82.94
418.943	83.94
419.166	93.94
419.389	89.94
419.611	86.94
419.834	79.94
420.057	92.94
420.28	103.94
420.503	94.94
420.726	88.94
420.948	96.94
421.171	115.94
421.394	93.94
421.617	94.94
421.839	88.94
422.062	96.94
422.285	92.94
422.507	96.94
422.73	125.94
422.953	103.94
423.175	93.94
423.398	87.94
423.621	84.94
423.843	96.94
424.066	89.94
424.288	90.94
424.511	103.94
424.733	99.94
424.956	136.94
425.178	123.94
425.401	115.94
425.623	109.94
425.846	109.94
426.068	100.94
426.291	115.94
426.513	95.94
426.735	92.94
426.958	106.94
427.18	135.94
427.402	201.94
427.625	307.94
427.847	298.94
428.069	270.94
428.292	164.94
428.514	111.94
428.736	95.94
428.958	94.94
429.181	103.94
429.403	74.94
429.625	104.94
429.847	117.94
430.069	114.94
430.292	106.94
430.514	73.94
430.736	90.94
430.958	109.94
431.18	88.94
431.402	99.94
431.624	88.94
431.846	94.94
432.068	100.94
432.29	90.94
432.512	100.94
432.734	91.94
432.956	105.94
433.178	105.94
433.4	96.94
433.622	76.94
433.844	94.94
434.066	94.94
434.287	105.94
434.509	87.94
434.731	94.94
434.953	86.94
435.175	89.94
435.397	89.94
435.618	90.94
435.84	109.94
436.062	154.94
436.284	144.94
436.505	109.94
436.727	118.94
436.949	110.94
437.17	90.94
437.392	102.94
437.614	103.94
437.835	142.94
438.057	158.94
438.278	137.94
438.5	124.94
438.721	159.94
438.943	111.94
439.165	91.94
439.386	74.94
439.608	107.94
439.829	144.94
440.05	179.94
440.272	224.94
440.493	119.94
440.715	94.94
440.936	87.94
441.158	109.94
441.379	92.94
441.6	108.94
441.822	114.94
442.043	105.94
442.264	137.94
442.486	129.94
442.707	119.94
442.928	118.94
443.149	212.94
443.371	202.94
443.592	154.94
443.813	138.94
444.034	130.94
444.255	108.94
444.476	87.94
444.698	105.94
444.919	93.94
445.14	139.94
445.361	149.94
445.582	145.94
445.803	215.94
446.024	202.94
446.245	180.94
446.466	137.94
446.687	103.94
446.908	106.94
447.129	82.94
447.35	93.94
447.571	104.94
447.792	105.94
448.013	101.94
448.234	141.94
448.455	112.94
448.675	140.94
448.896	134.94
449.117	129.94
449.338	122.94
449.559	155.94
449.779	157.94
450	108.94
450.221	93.94
450.442	118.94
450.662	125.94
450.883	143.94
451.104	174.94
451.324	117.94
451.545	91.94
451.766	99.94
451.986	89.94
452.207	85.94
452.428	102.94
452.648	120.94
452.869	132.94
453.089	151.94
453.31	176.94
453.53	123.94
453.751	120.94
453.971	127.94
454.192	154.94
454.412	116.94
454.633	100.94
454.853	97.94
455.073	90.94
455.294	96.94
455.514	104.94
455.734	93.94
455.955	86.94
456.175	94.94
456.395	90.94
456.616	92.94
456.836	87.94
457.056	92.94
457.276	90.94
457.497	83.94
457.717	87.94
457.937	92.94
458.157	104.94
458.377	106.94
458.598	126.94
458.818	254.94
459.038	284.94
459.258	184.94
459.478	104.94
459.698	91.94
459.918	76.94
460.138	80.94
460.358	85.94
460.578	108.94
460.798	108.94
461.018	95.94
461.238	96.94
461.458	100.94
461.678	98.94
461.898	83.94
462.118	88.94
462.338	76.94
462.558	104.94
462.777	94.94
462.997	128.94
463.217	142.94
463.437	110.94
463.657	90.94
463.876	90.94
464.096	90.94
464.316	94.94
464.536	115.94
464.755	99.94
464.975	136.94
465.195	289.94
465.414	282.94
465.634	114.94
465.854	99.94
466.073	90.94
466.293	103.94
466.512	89.94
466.732	79.94
466.951	102.94
467.171	104.94
467.391	136.94
467.61	184.94
467.829	299.94
468.049	878.94
468.268	1305.94
468.488	300.94
468.707	144.94
468.927	118.94
469.146	94.94
469.365	105.94
469.585	111.94
469.804	114.94
470.023	105.94
470.243	109.94
470.462	118.94
470.681	164.94
470.901	116.94
471.12	116.94
471.339	124.94
471.558	141.94
471.777	179.94
471.997	433.94
472.216	1716.94
472.435	4034.94
472.654	866.94
472.873	224.94
473.092	113.94
473.311	105.94
473.53	98.94
473.749	94.94
473.968	131.94
474.187	149.94
474.406	121.94
474.625	99.94
474.844	93.94
475.063	94.94
475.282	89.94
475.501	102.94
475.72	89.94
475.939	106.94
476.158	89.94
476.377	99.94
476.596	106.94
476.814	98.94
477.033	104.94
477.252	108.94
477.471	90.94
477.69	87.94
477.908	100.94
478.127	96.94
478.346	104.94
478.564	95.94
478.783	116.94
479.002	117.94
479.22	117.94
479.439	151.94
479.658	142.94
479.876	142.94
480.095	140.94
480.313	153.94
480.532	193.94
480.751	406.94
480.969	1562.94
481.188	6882.94
481.406	3834.94
481.624	503.94
481.843	151.94
482.061	131.94
482.28	120.94
482.498	104.94
482.717	95.94
482.935	102.94
483.153	99.94
483.372	94.94
483.59	96.94
483.808	103.94
484.027	98.94
484.245	93.94
484.463	100.94
484.681	108.94
484.9	98.94
485.118	104.94
485.336	115.94
485.554	104.94
485.772	94.94
485.99	119.94
486.209	104.94
486.427	119.94
486.645	139.94
486.863	142.94
487.081	104.94
487.299	86.94
487.517	86.94
487.735	101.94
487.953	96.94
488.171	114.94
488.389	107.94
488.607	99.94
488.825	103.94
489.043	92.94
489.261	100.94
489.479	88.94
489.696	78.94
489.914	82.94
490.132	98.94
490.35	80.94
490.568	92.94
490.786	92.94
491.003	91.94
491.221	102.94
491.439	112.94
491.657	107.94
491.874	96.94
492.092	112.94
492.31	107.94
492.527	98.94
492.745	96.94
492.963	86.94
493.18	90.94
493.398	82.94
493.615	110.94
493.833	107.94
494.05	81.94
494.268	98.94
494.485	83.94
494.703	95.94
494.92	89.94
495.138	103.94
495.355	96.94
495.573	86.94
495.79	87.94
496.008	107.94
496.225	84.94
496.442	100.94
496.66	88.94
496.877	94.94
497.094	94.94
497.312	83.94
497.529	99.94
497.746	93.94
497.963	112.94
498.181	95.94
498.398	90.94
498.615	119.94
498.832	124.94
499.049	91.94
499.267	88.94
499.484	83.94
499.701	87.94
499.918	106.94
500.135	105.94
500.352	95.94
500.569	107.94
500.786	98.94
501.003	98.94
501.22	94.94
501.437	94.94
501.654	106.94
501.871	142.94
502.088	102.94
502.305	75.94
502.522	90.94
502.739	99.94
502.956	103.94
503.172	108.94
503.389	121.94
503.606	143.94
503.823	115.94
504.04	111.94
504.256	99.94
504.473	91.94
504.69	103.94
504.907	94.94
505.123	82.94
505.34	97.94
505.557	103.94
505.773	106.94
505.99	111.94
506.207	80.94
506.423	91.94
506.64	105.94
506.856	104.94
507.073	100.94
507.289	107.94
507.506	104.94
507.722	141.94
507.939	154.94
508.155	109.94
508.372	97.94
508.588	85.94
508.805	114.94
509.021	107.94
509.238	112.94
509.454	109.94
509.67	123.94
509.887	124.94
510.103	159.94
510.319	296.94
510.536	1205.94
510.752	4246.94
510.968	1100.94
511.184	214.94
511.401	154.94
