Data from Circ_1998_H10_HRD10591_00017.txt Node
Date: Wed Jan 03 11:26:52 EST 2024
User: Yrep
Spectrometer: HR+D1059
Trigger mode: 1
Integration Time (sec): 1.000000E-1
Scans to average: 1
Electric dark correction enabled: true
Nonlinearity correction enabled: false
Boxcar width: 0
XAxis mode: Wavelengths
Number of Pixels in Spectrum: 2048
>>>>>Begin Spectral Data<<<<<
223.165	-20.62
223.4	-20.62
223.635	-20.62
223.869	-23.62
224.104	-21.62
224.338	-6.62
224.573	-17.62
224.808	-11.62
225.042	-10.62
225.277	-6.62
225.511	-11.62
225.746	12.38
225.98	7.38
226.215	13.38
226.449	18.38
226.683	21.38
226.918	26.38
227.152	31.38
227.387	25.38
227.621	33.38
227.856	46.38
228.09	44.38
228.324	49.38
228.559	61.38
228.793	51.38
229.027	58.38
229.262	87.38
229.496	85.38
229.73	116.38
229.964	103.38
230.199	77.38
230.433	78.38
230.667	82.38
230.901	85.38
231.136	75.38
231.37	83.38
231.604	89.38
231.838	78.38
232.072	71.38
232.306	80.38
232.541	91.38
232.775	89.38
233.009	96.38
233.243	97.38
233.477	83.38
233.711	93.38
233.945	70.38
234.179	88.38
234.413	80.38
234.647	90.38
234.881	90.38
235.115	91.38
235.349	71.38
235.583	79.38
235.817	100.38
236.051	89.38
236.285	89.38
236.519	85.38
236.753	85.38
236.987	82.38
237.221	96.38
237.455	93.38
237.689	82.38
237.922	89.38
238.156	81.38
238.39	88.38
238.624	83.38
238.858	76.38
239.091	76.38
239.325	81.38
239.559	92.38
239.793	89.38
240.027	91.38
240.26	82.38
240.494	99.38
240.728	94.38
240.961	89.38
241.195	75.38
241.429	77.38
241.662	85.38
241.896	82.38
242.13	90.38
242.363	83.38
242.597	71.38
242.83	80.38
243.064	79.38
243.298	75.38
243.531	85.38
243.765	85.38
243.998	80.38
244.232	88.38
244.465	102.38
244.699	91.38
244.932	79.38
245.166	86.38
245.399	86.38
245.633	89.38
245.866	83.38
246.099	91.38
246.333	87.38
246.566	87.38
246.8	82.38
247.033	89.38
247.266	64.38
247.5	81.38
247.733	61.38
247.966	75.38
248.2	77.38
248.433	98.38
248.666	82.38
248.899	67.38
249.133	81.38
249.366	108.38
249.599	108.38
249.832	87.38
250.066	81.38
250.299	90.38
250.532	95.38
250.765	96.38
250.998	74.38
251.231	92.38
251.465	93.38
251.698	102.38
251.931	75.38
252.164	90.38
252.397	99.38
252.63	88.38
252.863	85.38
253.096	83.38
253.329	82.38
253.562	72.38
253.795	100.38
254.028	83.38
254.261	84.38
254.494	91.38
254.727	97.38
254.96	86.38
255.193	91.38
255.426	92.38
255.659	79.38
255.892	99.38
256.124	96.38
256.357	81.38
256.59	83.38
256.823	72.38
257.056	81.38
257.289	87.38
257.521	77.38
257.754	91.38
257.987	83.38
258.22	81.38
258.452	100.38
258.685	90.38
258.918	76.38
259.151	88.38
259.383	84.38
259.616	83.38
259.849	65.38
260.081	87.38
260.314	93.38
260.547	76.38
260.779	104.38
261.012	118.38
261.244	105.38
261.477	105.38
261.71	102.38
261.942	129.38
262.175	146.38
262.407	97.38
262.64	93.38
262.872	88.38
263.105	84.38
263.337	91.38
263.57	75.38
263.802	86.38
264.035	83.38
264.267	83.38
264.499	88.38
264.732	92.38
264.964	90.38
265.197	86.38
265.429	87.38
265.661	92.38
265.894	81.38
266.126	89.38
266.358	89.38
266.591	89.38
266.823	82.38
267.055	85.38
267.287	97.38
267.52	81.38
267.752	88.38
267.984	81.38
268.216	91.38
268.448	91.38
268.681	105.38
268.913	89.38
269.145	83.38
269.377	100.38
269.609	89.38
269.841	82.38
270.073	93.38
270.306	85.38
270.538	86.38
270.77	94.38
271.002	90.38
271.234	86.38
271.466	90.38
271.698	96.38
271.93	81.38
272.162	93.38
272.394	91.38
272.626	76.38
272.858	87.38
273.09	83.38
273.322	75.38
273.553	81.38
273.785	83.38
274.017	94.38
274.249	84.38
274.481	100.38
274.713	88.38
274.945	87.38
275.176	91.38
275.408	100.38
275.64	105.38
275.872	126.38
276.104	114.38
276.335	92.38
276.567	110.38
276.799	140.38
277.031	162.38
277.262	201.38
277.494	131.38
277.726	118.38
277.957	109.38
278.189	89.38
278.421	98.38
278.652	104.38
278.884	81.38
279.115	97.38
279.347	89.38
279.579	97.38
279.81	140.38
280.042	177.38
280.273	241.38
280.505	168.38
280.736	112.38
280.968	97.38
281.199	92.38
281.431	92.38
281.662	91.38
281.894	91.38
282.125	104.38
282.356	151.38
282.588	179.38
282.819	137.38
283.051	88.38
283.282	99.38
283.513	98.38
283.745	84.38
283.976	93.38
284.207	92.38
284.439	83.38
284.67	90.38
284.901	107.38
285.132	103.38
285.364	88.38
285.595	76.38
285.826	101.38
286.057	85.38
286.288	100.38
286.52	92.38
286.751	91.38
286.982	98.38
287.213	79.38
287.444	91.38
287.675	95.38
287.906	88.38
288.138	93.38
288.369	107.38
288.6	95.38
288.831	106.38
289.062	89.38
289.293	95.38
289.524	92.38
289.755	97.38
289.986	84.38
290.217	93.38
290.448	92.38
290.679	98.38
290.91	99.38
291.141	87.38
291.371	96.38
291.602	84.38
291.833	93.38
292.064	89.38
292.295	108.38
292.526	100.38
292.757	93.38
292.987	103.38
293.218	88.38
293.449	94.38
293.68	92.38
293.91	90.38
294.141	98.38
294.372	89.38
294.603	85.38
294.833	79.38
295.064	87.38
295.295	89.38
295.525	87.38
295.756	109.38
295.987	119.38
296.217	167.38
296.448	139.38
296.679	91.38
296.909	100.38
297.14	91.38
297.37	111.38
297.601	87.38
297.831	77.38
298.062	108.38
298.292	98.38
298.523	90.38
298.753	101.38
298.984	90.38
299.214	78.38
299.445	95.38
299.675	107.38
299.905	99.38
300.136	99.38
300.366	102.38
300.597	96.38
300.827	92.38
301.057	102.38
301.288	103.38
301.518	115.38
301.748	109.38
301.979	116.38
302.209	101.38
302.439	105.38
302.669	75.38
302.9	88.38
303.13	88.38
303.36	118.38
303.59	138.38
303.82	149.38
304.051	101.38
304.281	96.38
304.511	92.38
304.741	90.38
304.971	103.38
305.201	99.38
305.431	83.38
305.661	103.38
305.891	101.38
306.121	93.38
306.352	115.38
306.582	122.38
306.812	100.38
307.042	112.38
307.272	157.38
307.502	180.38
307.731	170.38
307.961	123.38
308.191	100.38
308.421	97.38
308.651	100.38
308.881	64.38
309.111	110.38
309.341	105.38
309.571	107.38
309.8	102.38
310.03	115.38
310.26	108.38
310.49	116.38
310.72	104.38
310.949	118.38
311.179	98.38
311.409	105.38
311.639	103.38
311.868	113.38
312.098	103.38
312.328	96.38
312.557	114.38
312.787	126.38
313.017	125.38
313.246	113.38
313.476	97.38
313.706	112.38
313.935	94.38
314.165	114.38
314.394	115.38
314.624	98.38
314.853	99.38
315.083	96.38
315.312	107.38
315.542	98.38
315.771	98.38
316.001	101.38
316.23	96.38
316.46	91.38
316.689	83.38
316.919	100.38
317.148	112.38
317.377	96.38
317.607	96.38
317.836	102.38
318.065	81.38
318.295	106.38
318.524	93.38
318.753	99.38
318.983	108.38
319.212	115.38
319.441	115.38
319.67	108.38
319.9	100.38
320.129	95.38
320.358	105.38
320.587	90.38
320.816	107.38
321.046	107.38
321.275	99.38
321.504	98.38
321.733	114.38
321.962	120.38
322.191	116.38
322.42	122.38
322.649	128.38
322.878	136.38
323.108	140.38
323.337	145.38
323.566	158.38
323.795	208.38
324.024	278.38
324.253	572.38
324.482	1248.38
324.71	2691.38
324.939	3636.38
325.168	1247.38
325.397	351.38
325.626	185.38
325.855	173.38
326.084	151.38
326.313	185.38
326.542	200.38
326.77	302.38
326.999	667.38
327.228	1381.38
327.457	2717.38
327.686	2118.38
327.914	625.38
328.143	531.38
328.372	683.38
328.6	393.38
328.829	192.38
329.058	191.38
329.287	201.38
329.515	169.38
329.744	261.38
329.972	520.38
330.201	1049.38
330.43	1443.38
330.658	644.38
330.887	300.38
331.115	193.38
331.344	127.38
331.572	137.38
331.801	136.38
332.03	117.38
332.258	120.38
332.486	123.38
332.715	115.38
332.943	114.38
333.172	121.38
333.4	124.38
333.629	165.38
333.857	234.38
334.085	446.38
334.314	966.38
334.542	1883.38
334.771	1745.38
334.999	439.38
335.227	175.38
335.455	125.38
335.684	99.38
335.912	111.38
336.14	109.38
336.369	119.38
336.597	134.38
336.825	116.38
337.053	95.38
337.281	87.38
337.51	117.38
337.738	99.38
337.966	115.38
338.194	110.38
338.422	107.38
338.65	95.38
338.878	93.38
339.106	96.38
339.334	101.38
339.562	85.38
339.79	100.38
340.018	97.38
340.246	99.38
340.474	97.38
340.702	109.38
340.93	94.38
341.158	111.38
341.386	94.38
341.614	102.38
341.842	99.38
342.07	95.38
342.298	98.38
342.526	99.38
342.754	88.38
342.981	104.38
343.209	90.38
343.437	105.38
343.665	95.38
343.893	112.38
344.12	100.38
344.348	89.38
344.576	97.38
344.804	95.38
345.031	106.38
345.259	112.38
345.487	97.38
345.714	94.38
345.942	97.38
346.17	105.38
346.397	108.38
346.625	84.38
346.853	107.38
347.08	102.38
347.308	96.38
347.535	105.38
347.763	115.38
347.99	109.38
348.218	106.38
348.445	123.38
348.673	103.38
348.9	98.38
349.128	94.38
349.355	96.38
349.583	100.38
349.81	96.38
350.037	98.38
350.265	104.38
350.492	94.38
350.72	100.38
350.947	121.38
351.174	114.38
351.402	127.38
351.629	114.38
351.856	116.38
352.083	112.38
352.311	112.38
352.538	101.38
352.765	112.38
352.992	116.38
353.22	107.38
353.447	103.38
353.674	99.38
353.901	97.38
354.128	110.38
354.355	97.38
354.583	100.38
354.81	90.38
355.037	93.38
355.264	93.38
355.491	93.38
355.718	104.38
355.945	81.38
356.172	84.38
356.399	98.38
356.626	115.38
356.853	97.38
357.08	97.38
357.307	89.38
357.534	107.38
357.761	97.38
357.988	95.38
358.215	99.38
358.441	94.38
358.668	93.38
358.895	97.38
359.122	105.38
359.349	98.38
359.576	119.38
359.802	103.38
360.029	154.38
360.256	143.38
360.483	121.38
360.709	104.38
360.936	98.38
361.163	113.38
361.39	105.38
361.616	114.38
361.843	107.38
362.07	107.38
362.296	114.38
362.523	104.38
362.749	102.38
362.976	91.38
363.203	106.38
363.429	79.38
363.656	111.38
363.882	85.38
364.109	94.38
364.335	117.38
364.562	110.38
364.788	99.38
365.015	99.38
365.241	103.38
365.468	122.38
365.694	124.38
365.92	123.38
366.147	104.38
366.373	94.38
366.599	79.38
366.826	93.38
367.052	83.38
367.278	90.38
367.505	94.38
367.731	98.38
367.957	93.38
368.184	103.38
368.41	101.38
368.636	122.38
368.862	125.38
369.089	131.38
369.315	101.38
369.541	95.38
369.767	85.38
369.993	114.38
370.219	99.38
370.445	97.38
370.672	89.38
370.898	88.38
371.124	99.38
371.35	86.38
371.576	64.38
371.802	87.38
372.028	82.38
372.254	100.38
372.48	90.38
372.706	89.38
372.932	88.38
373.158	97.38
373.384	92.38
373.61	91.38
373.835	97.38
374.061	101.38
374.287	84.38
374.513	99.38
374.739	100.38
374.965	81.38
375.191	90.38
375.416	87.38
375.642	87.38
375.868	85.38
376.094	103.38
376.319	71.38
376.545	76.38
376.771	103.38
376.997	92.38
377.222	102.38
377.448	103.38
377.674	97.38
377.899	99.38
378.125	87.38
378.35	92.38
378.576	97.38
378.802	89.38
379.027	95.38
379.253	96.38
379.478	85.38
379.704	103.38
379.929	84.38
380.155	104.38
380.38	90.38
380.606	104.38
380.831	113.38
381.057	99.38
381.282	93.38
381.507	107.38
381.733	89.38
381.958	117.38
382.184	106.38
382.409	116.38
382.634	114.38
382.86	103.38
383.085	106.38
383.31	98.38
383.535	108.38
383.761	103.38
383.986	115.38
384.211	105.38
384.436	100.38
384.662	116.38
384.887	107.38
385.112	135.38
385.337	115.38
385.562	111.38
385.787	132.38
386.013	123.38
386.238	139.38
386.463	128.38
386.688	133.38
386.913	116.38
387.138	127.38
387.363	119.38
387.588	116.38
387.813	101.38
388.038	119.38
388.263	124.38
388.488	119.38
388.713	89.38
388.938	98.38
389.163	105.38
389.387	82.38
389.612	96.38
389.837	102.38
390.062	80.38
390.287	96.38
390.512	89.38
390.736	96.38
390.961	100.38
391.186	91.38
391.411	94.38
391.636	95.38
391.86	86.38
392.085	97.38
392.31	87.38
392.534	89.38
392.759	86.38
392.984	95.38
393.208	100.38
393.433	103.38
393.658	95.38
393.882	86.38
394.107	93.38
394.331	101.38
394.556	100.38
394.78	93.38
395.005	91.38
395.229	96.38
395.454	89.38
395.678	96.38
395.903	84.38
396.127	96.38
396.352	77.38
396.576	94.38
396.801	88.38
397.025	101.38
397.249	97.38
397.474	101.38
397.698	85.38
397.922	78.38
398.147	85.38
398.371	97.38
398.595	85.38
398.82	82.38
399.044	92.38
399.268	80.38
399.492	81.38
399.717	89.38
399.941	88.38
400.165	97.38
400.389	91.38
400.613	80.38
400.837	97.38
401.062	94.38
401.286	101.38
401.51	94.38
401.734	84.38
401.958	110.38
402.182	155.38
402.406	199.38
402.63	160.38
402.854	105.38
403.078	98.38
403.302	89.38
403.526	103.38
403.75	75.38
403.974	104.38
404.198	84.38
404.422	97.38
404.645	103.38
404.869	94.38
405.093	116.38
405.317	146.38
405.541	141.38
405.765	114.38
405.988	147.38
406.212	199.38
406.436	304.38
406.66	197.38
406.883	125.38
407.107	108.38
407.331	105.38
407.555	114.38
407.778	111.38
408.002	107.38
408.226	91.38
408.449	88.38
408.673	80.38
408.896	95.38
409.12	100.38
409.344	99.38
409.567	98.38
409.791	80.38
410.014	100.38
410.238	93.38
410.461	85.38
410.685	86.38
410.908	88.38
411.132	103.38
411.355	101.38
411.578	100.38
411.802	83.38
412.025	91.38
412.249	118.38
412.472	139.38
412.695	152.38
412.919	110.38
413.142	99.38
413.365	102.38
413.589	85.38
413.812	92.38
414.035	106.38
414.258	95.38
414.482	92.38
414.705	90.38
414.928	91.38
415.151	101.38
415.374	104.38
415.597	95.38
415.821	96.38
416.044	99.38
416.267	103.38
416.49	74.38
416.713	89.38
416.936	89.38
417.159	90.38
417.382	98.38
417.605	111.38
417.828	108.38
418.051	99.38
418.274	88.38
418.497	89.38
418.72	90.38
418.943	79.38
419.166	96.38
419.389	81.38
419.611	81.38
419.834	91.38
420.057	110.38
420.28	103.38
420.503	91.38
420.726	84.38
420.948	93.38
421.171	116.38
421.394	107.38
421.617	90.38
421.839	97.38
422.062	91.38
422.285	89.38
422.507	115.38
422.73	124.38
422.953	99.38
423.175	95.38
423.398	89.38
423.621	86.38
423.843	88.38
424.066	99.38
424.288	90.38
424.511	93.38
424.733	108.38
424.956	115.38
425.178	122.38
425.401	124.38
425.623	105.38
425.846	103.38
426.068	108.38
426.291	101.38
426.513	95.38
426.735	89.38
426.958	95.38
427.18	114.38
427.402	197.38
427.625	285.38
427.847	253.38
428.069	263.38
428.292	132.38
428.514	105.38
428.736	87.38
428.958	77.38
429.181	77.38
429.403	87.38
429.625	89.38
429.847	109.38
430.069	111.38
430.292	101.38
430.514	85.38
430.736	81.38
430.958	92.38
431.18	84.38
431.402	71.38
431.624	99.38
431.846	98.38
432.068	85.38
432.29	87.38
432.512	98.38
432.734	90.38
432.956	98.38
433.178	94.38
433.4	126.38
433.622	106.38
433.844	96.38
434.066	103.38
434.287	92.38
434.509	94.38
434.731	84.38
434.953	93.38
435.175	85.38
435.397	95.38
435.618	97.38
435.84	124.38
436.062	171.38
436.284	140.38
436.505	110.38
436.727	107.38
436.949	90.38
437.17	94.38
437.392	88.38
437.614	99.38
437.835	124.38
438.057	152.38
438.278	127.38
438.5	129.38
438.721	160.38
438.943	131.38
439.165	96.38
439.386	97.38
439.608	116.38
439.829	130.38
440.05	174.38
440.272	209.38
440.493	116.38
440.715	91.38
440.936	86.38
441.158	89.38
441.379	106.38
441.6	113.38
441.822	109.38
442.043	111.38
442.264	128.38
442.486	125.38
442.707	110.38
442.928	116.38
443.149	175.38
443.371	193.38
443.592	149.38
443.813	153.38
444.034	149.38
444.255	108.38
444.476	98.38
444.698	94.38
444.919	75.38
445.14	137.38
445.361	152.38
445.582	157.38
445.803	215.38
446.024	200.38
446.245	217.38
446.466	149.38
446.687	96.38
446.908	89.38
447.129	92.38
447.35	90.38
447.571	96.38
447.792	103.38
448.013	112.38
448.234	118.38
448.455	111.38
448.675	151.38
448.896	146.38
449.117	120.38
449.338	128.38
449.559	161.38
449.779	179.38
450	111.38
450.221	103.38
450.442	85.38
450.662	106.38
450.883	125.38
451.104	138.38
451.324	108.38
451.545	113.38
451.766	95.38
451.986	100.38
452.207	87.38
452.428	84.38
452.648	95.38
452.869	128.38
453.089	119.38
453.31	151.38
453.53	111.38
453.751	91.38
453.971	116.38
454.192	139.38
454.412	99.38
454.633	90.38
454.853	99.38
455.073	104.38
455.294	97.38
455.514	113.38
455.734	103.38
455.955	85.38
456.175	90.38
456.395	85.38
456.616	85.38
456.836	86.38
457.056	85.38
457.276	80.38
457.497	83.38
457.717	89.38
457.937	106.38
458.157	89.38
458.377	122.38
458.598	124.38
458.818	200.38
459.038	254.38
459.258	164.38
459.478	116.38
459.698	84.38
459.918	89.38
460.138	82.38
460.358	83.38
460.578	99.38
460.798	116.38
461.018	99.38
461.238	82.38
461.458	91.38
461.678	88.38
461.898	93.38
462.118	91.38
462.338	88.38
462.558	91.38
462.777	89.38
462.997	109.38
463.217	110.38
463.437	104.38
463.657	91.38
463.876	91.38
464.096	100.38
464.316	103.38
464.536	105.38
464.755	112.38
464.975	124.38
465.195	240.38
465.414	234.38
465.634	116.38
465.854	81.38
466.073	81.38
466.293	87.38
466.512	104.38
466.732	76.38
466.951	106.38
467.171	98.38
467.391	114.38
467.61	148.38
467.829	208.38
468.049	573.38
468.268	831.38
468.488	217.38
468.707	115.38
468.927	115.38
469.146	90.38
469.365	89.38
469.585	91.38
469.804	99.38
470.023	122.38
470.243	107.38
470.462	126.38
470.681	135.38
470.901	123.38
471.12	110.38
471.339	104.38
471.558	118.38
471.777	160.38
471.997	305.38
472.216	1129.38
472.435	2539.38
472.654	588.38
472.873	183.38
473.092	111.38
473.311	97.38
473.53	101.38
473.749	93.38
473.968	110.38
474.187	127.38
474.406	120.38
474.625	99.38
474.844	96.38
475.063	87.38
475.282	95.38
475.501	88.38
475.72	95.38
475.939	82.38
476.158	101.38
476.377	92.38
476.596	97.38
476.814	103.38
477.033	119.38
477.252	95.38
477.471	91.38
477.69	95.38
477.908	100.38
478.127	103.38
478.346	105.38
478.564	108.38
478.783	90.38
479.002	100.38
479.22	111.38
479.439	124.38
479.658	137.38
479.876	124.38
480.095	131.38
480.313	121.38
480.532	165.38
480.751	290.38
480.969	1035.38
481.188	4445.38
481.406	2492.38
481.624	366.38
481.843	133.38
482.061	111.38
482.28	100.38
482.498	92.38
482.717	92.38
482.935	101.38
483.153	89.38
483.372	98.38
483.59	89.38
483.808	91.38
484.027	91.38
484.245	108.38
484.463	101.38
484.681	111.38
484.9	95.38
485.118	112.38
485.336	98.38
485.554	106.38
485.772	97.38
485.99	113.38
486.209	119.38
486.427	111.38
486.645	122.38
486.863	149.38
487.081	100.38
487.299	108.38
487.517	100.38
487.735	88.38
487.953	84.38
488.171	123.38
488.389	101.38
488.607	109.38
488.825	99.38
489.043	85.38
489.261	91.38
489.479	88.38
489.696	99.38
489.914	101.38
490.132	109.38
490.35	95.38
490.568	93.38
490.786	91.38
491.003	96.38
491.221	106.38
491.439	108.38
491.657	118.38
491.874	89.38
492.092	97.38
492.31	89.38
492.527	94.38
492.745	77.38
492.963	99.38
493.18	105.38
493.398	90.38
493.615	108.38
493.833	100.38
494.05	93.38
494.268	94.38
494.485	93.38
494.703	93.38
494.92	98.38
495.138	81.38
495.355	98.38
495.573	91.38
495.79	80.38
496.008	86.38
496.225	83.38
496.442	87.38
496.66	100.38
496.877	98.38
497.094	93.38
497.312	87.38
497.529	96.38
497.746	92.38
497.963	89.38
498.181	94.38
498.398	106.38
498.615	126.38
498.832	118.38
499.049	92.38
499.267	91.38
499.484	116.38
499.701	101.38
499.918	104.38
500.135	95.38
500.352	103.38
500.569	93.38
500.786	115.38
501.003	87.38
501.22	92.38
501.437	96.38
501.654	94.38
501.871	110.38
502.088	95.38
502.305	93.38
502.522	83.38
502.739	83.38
502.956	99.38
503.172	85.38
503.389	108.38
503.606	132.38
503.823	121.38
504.04	93.38
504.256	96.38
504.473	93.38
504.69	101.38
504.907	111.38
505.123	85.38
505.34	91.38
505.557	99.38
505.773	90.38
505.99	100.38
506.207	85.38
506.423	98.38
506.64	90.38
506.856	101.38
507.073	97.38
507.289	94.38
507.506	86.38
507.722	136.38
507.939	131.38
508.155	107.38
508.372	76.38
508.588	104.38
508.805	94.38
509.021	92.38
509.238	100.38
509.454	108.38
509.67	90.38
509.887	100.38
510.103	136.38
510.319	243.38
510.536	914.38
510.752	3198.38
510.968	855.38
511.184	175.38
511.401	138.38
511.617	113.38
