Data from Circ_1998_H10_HRD10591_00075.txt Node
Date: Wed Jan 03 11:27:03 EST 2024
User: Yrep
Spectrometer: HR+D1059
Trigger mode: 1
Integration Time (sec): 1.000000E-1
Scans to average: 1
Electric dark correction enabled: true
Nonlinearity correction enabled: false
Boxcar width: 0
XAxis mode: Wavelengths
Number of Pixels in Spectrum: 2048
>>>>>Begin Spectral Data<<<<<
223.165	-11.06
223.4	-11.06
223.635	-11.06
223.869	-13.06
224.104	-36.06
224.338	-19.06
224.573	-5.06
224.808	-8.06
225.042	-4.06
225.277	-9.06
225.511	0.94
225.746	0.94
225.98	12.94
226.215	-8.06
226.449	15.94
226.683	36.94
226.918	14.94
227.152	30.94
227.387	33.94
227.621	39.94
227.856	43.94
228.09	36.94
228.324	51.94
228.559	60.94
228.793	70.94
229.027	56.94
229.262	69.94
229.496	70.94
229.73	67.94
229.964	74.94
230.199	85.94
230.433	62.94
230.667	75.94
230.901	52.94
231.136	73.94
231.37	80.94
231.604	85.94
231.838	73.94
232.072	78.94
232.306	67.94
232.541	82.94
232.775	76.94
233.009	72.94
233.243	78.94
233.477	85.94
233.711	86.94
233.945	69.94
234.179	79.94
234.413	69.94
234.647	54.94
234.881	90.94
235.115	83.94
235.349	78.94
235.583	77.94
235.817	78.94
236.051	84.94
236.285	83.94
236.519	70.94
236.753	75.94
236.987	89.94
237.221	82.94
237.455	80.94
237.689	65.94
237.922	71.94
238.156	65.94
238.39	75.94
238.624	65.94
238.858	95.94
239.091	79.94
239.325	82.94
239.559	77.94
239.793	85.94
240.027	70.94
240.26	70.94
240.494	75.94
240.728	85.94
240.961	81.94
241.195	82.94
241.429	82.94
241.662	81.94
241.896	58.94
242.13	80.94
242.363	88.94
242.597	69.94
242.83	80.94
243.064	75.94
243.298	67.94
243.531	76.94
243.765	61.94
243.998	77.94
244.232	87.94
244.465	86.94
244.699	68.94
244.932	74.94
245.166	63.94
245.399	63.94
245.633	77.94
245.866	64.94
246.099	74.94
246.333	75.94
246.566	78.94
246.8	73.94
247.033	81.94
247.266	82.94
247.5	63.94
247.733	71.94
247.966	77.94
248.2	80.94
248.433	79.94
248.666	78.94
248.899	75.94
249.133	67.94
249.366	77.94
249.599	65.94
249.832	86.94
250.066	95.94
250.299	66.94
250.532	77.94
250.765	91.94
250.998	79.94
251.231	92.94
251.465	79.94
251.698	77.94
251.931	91.94
252.164	85.94
252.397	70.94
252.63	72.94
252.863	82.94
253.096	84.94
253.329	75.94
253.562	74.94
253.795	75.94
254.028	81.94
254.261	77.94
254.494	83.94
254.727	79.94
254.96	70.94
255.193	76.94
255.426	73.94
255.659	65.94
255.892	72.94
256.124	74.94
256.357	77.94
256.59	88.94
256.823	73.94
257.056	80.94
257.289	71.94
257.521	85.94
257.754	76.94
257.987	83.94
258.22	78.94
258.452	78.94
258.685	77.94
258.918	102.94
259.151	81.94
259.383	77.94
259.616	82.94
259.849	93.94
260.081	87.94
260.314	94.94
260.547	78.94
260.779	79.94
261.012	89.94
261.244	82.94
261.477	83.94
261.71	84.94
261.942	84.94
262.175	102.94
262.407	81.94
262.64	86.94
262.872	82.94
263.105	88.94
263.337	91.94
263.57	70.94
263.802	79.94
264.035	90.94
264.267	91.94
264.499	90.94
264.732	98.94
264.964	80.94
265.197	91.94
265.429	72.94
265.661	89.94
265.894	83.94
266.126	91.94
266.358	85.94
266.591	93.94
266.823	83.94
267.055	81.94
267.287	81.94
267.52	74.94
267.752	92.94
267.984	69.94
268.216	74.94
268.448	82.94
268.681	87.94
268.913	86.94
269.145	87.94
269.377	81.94
269.609	85.94
269.841	69.94
270.073	77.94
270.306	84.94
270.538	85.94
270.77	81.94
271.002	72.94
271.234	78.94
271.466	80.94
271.698	85.94
271.93	79.94
272.162	90.94
272.394	99.94
272.626	72.94
272.858	72.94
273.09	89.94
273.322	91.94
273.553	75.94
273.785	82.94
274.017	78.94
274.249	87.94
274.481	94.94
274.713	94.94
274.945	76.94
275.176	81.94
275.408	99.94
275.64	91.94
275.872	80.94
276.104	98.94
276.335	95.94
276.567	76.94
276.799	111.94
277.031	95.94
277.262	95.94
277.494	95.94
277.726	86.94
277.957	70.94
278.189	87.94
278.421	79.94
278.652	86.94
278.884	82.94
279.115	77.94
279.347	91.94
279.579	72.94
279.81	80.94
280.042	91.94
280.273	101.94
280.505	97.94
280.736	81.94
280.968	90.94
281.199	92.94
281.431	82.94
281.662	91.94
281.894	75.94
282.125	71.94
282.356	90.94
282.588	98.94
282.819	94.94
283.051	83.94
283.282	76.94
283.513	73.94
283.745	73.94
283.976	86.94
284.207	83.94
284.439	78.94
284.67	81.94
284.901	74.94
285.132	87.94
285.364	89.94
285.595	83.94
285.826	70.94
286.057	85.94
286.288	83.94
286.52	85.94
286.751	83.94
286.982	83.94
287.213	85.94
287.444	82.94
287.675	61.94
287.906	88.94
288.138	70.94
288.369	89.94
288.6	76.94
288.831	75.94
289.062	77.94
289.293	87.94
289.524	90.94
289.755	78.94
289.986	79.94
290.217	87.94
290.448	86.94
290.679	87.94
290.91	95.94
291.141	87.94
291.371	93.94
291.602	89.94
291.833	81.94
292.064	83.94
292.295	77.94
292.526	77.94
292.757	79.94
292.987	87.94
293.218	79.94
293.449	76.94
293.68	90.94
293.91	82.94
294.141	78.94
294.372	97.94
294.603	78.94
294.833	79.94
295.064	86.94
295.295	99.94
295.525	90.94
295.756	96.94
295.987	88.94
296.217	89.94
296.448	100.94
296.679	87.94
296.909	98.94
297.14	97.94
297.37	87.94
297.601	89.94
297.831	91.94
298.062	84.94
298.292	85.94
298.523	87.94
298.753	88.94
298.984	85.94
299.214	74.94
299.445	84.94
299.675	95.94
299.905	84.94
300.136	96.94
300.366	79.94
300.597	88.94
300.827	92.94
301.057	78.94
301.288	98.94
301.518	92.94
301.748	78.94
301.979	90.94
302.209	86.94
302.439	75.94
302.669	66.94
302.9	80.94
303.13	88.94
303.36	81.94
303.59	84.94
303.82	110.94
304.051	90.94
304.281	87.94
304.511	92.94
304.741	91.94
304.971	77.94
305.201	79.94
305.431	76.94
305.661	82.94
305.891	70.94
306.121	88.94
306.352	77.94
306.582	87.94
306.812	96.94
307.042	90.94
307.272	90.94
307.502	108.94
307.731	111.94
307.961	103.94
308.191	93.94
308.421	88.94
308.651	88.94
308.881	78.94
309.111	97.94
309.341	87.94
309.571	81.94
309.8	89.94
310.03	87.94
310.26	69.94
310.49	67.94
310.72	84.94
310.949	85.94
311.179	91.94
311.409	86.94
311.639	96.94
311.868	78.94
312.098	90.94
312.328	92.94
312.557	91.94
312.787	84.94
313.017	82.94
313.246	77.94
313.476	78.94
313.706	82.94
313.935	84.94
314.165	83.94
314.394	78.94
314.624	98.94
314.853	89.94
315.083	95.94
315.312	93.94
315.542	90.94
315.771	94.94
316.001	87.94
316.23	86.94
316.46	87.94
316.689	76.94
316.919	90.94
317.148	98.94
317.377	82.94
317.607	94.94
317.836	86.94
318.065	82.94
318.295	86.94
318.524	79.94
318.753	78.94
318.983	89.94
319.212	92.94
319.441	99.94
319.67	91.94
319.9	76.94
320.129	81.94
320.358	88.94
320.587	87.94
320.816	91.94
321.046	89.94
321.275	82.94
321.504	75.94
321.733	83.94
321.962	95.94
322.191	78.94
322.42	90.94
322.649	81.94
322.878	94.94
323.108	79.94
323.337	104.94
323.566	86.94
323.795	102.94
324.024	101.94
324.253	127.94
324.482	226.94
324.71	322.94
324.939	403.94
325.168	219.94
325.397	121.94
325.626	96.94
325.855	105.94
326.084	95.94
326.313	98.94
326.542	89.94
326.77	105.94
326.999	138.94
327.228	221.94
327.457	322.94
327.686	277.94
327.914	147.94
328.143	155.94
328.372	139.94
328.6	110.94
328.829	109.94
329.058	91.94
329.287	95.94
329.515	94.94
329.744	94.94
329.972	123.94
330.201	182.94
330.43	239.94
330.658	157.94
330.887	94.94
331.115	97.94
331.344	89.94
331.572	99.94
331.801	101.94
332.03	81.94
332.258	93.94
332.486	106.94
332.715	84.94
332.943	86.94
333.172	113.94
333.4	93.94
333.629	103.94
333.857	118.94
334.085	133.94
334.314	168.94
334.542	267.94
334.771	249.94
334.999	129.94
335.227	107.94
335.455	97.94
335.684	97.94
335.912	95.94
336.14	84.94
336.369	81.94
336.597	88.94
336.825	95.94
337.053	85.94
337.281	89.94
337.51	73.94
337.738	93.94
337.966	87.94
338.194	77.94
338.422	80.94
338.65	89.94
338.878	94.94
339.106	87.94
339.334	91.94
339.562	98.94
339.79	102.94
340.018	88.94
340.246	93.94
340.474	97.94
340.702	90.94
340.93	82.94
341.158	93.94
341.386	71.94
341.614	88.94
341.842	85.94
342.07	94.94
342.298	72.94
342.526	80.94
342.754	75.94
342.981	79.94
343.209	88.94
343.437	101.94
343.665	89.94
343.893	98.94
344.12	82.94
344.348	86.94
344.576	81.94
344.804	87.94
345.031	79.94
345.259	80.94
345.487	79.94
345.714	100.94
345.942	73.94
346.17	93.94
346.397	69.94
346.625	80.94
346.853	82.94
347.08	94.94
347.308	74.94
347.535	73.94
347.763	73.94
347.99	79.94
348.218	93.94
348.445	85.94
348.673	90.94
348.9	94.94
349.128	85.94
349.355	74.94
349.583	94.94
349.81	92.94
350.037	86.94
350.265	89.94
350.492	89.94
350.72	91.94
350.947	97.94
351.174	90.94
351.402	92.94
351.629	84.94
351.856	78.94
352.083	82.94
352.311	88.94
352.538	83.94
352.765	94.94
352.992	89.94
353.22	87.94
353.447	77.94
353.674	86.94
353.901	74.94
354.128	72.94
354.355	85.94
354.583	76.94
354.81	84.94
355.037	94.94
355.264	91.94
355.491	77.94
355.718	77.94
355.945	85.94
356.172	70.94
356.399	88.94
356.626	81.94
356.853	96.94
357.08	85.94
357.307	75.94
357.534	74.94
357.761	86.94
357.988	87.94
358.215	76.94
358.441	82.94
358.668	82.94
358.895	91.94
359.122	84.94
359.349	78.94
359.576	88.94
359.802	77.94
360.029	87.94
360.256	80.94
360.483	93.94
360.709	91.94
360.936	94.94
361.163	85.94
361.39	88.94
361.616	85.94
361.843	70.94
362.07	81.94
362.296	91.94
362.523	71.94
362.749	89.94
362.976	84.94
363.203	86.94
363.429	88.94
363.656	79.94
363.882	78.94
364.109	93.94
364.335	83.94
364.562	77.94
364.788	82.94
365.015	78.94
365.241	87.94
365.468	95.94
365.694	89.94
365.92	81.94
366.147	93.94
366.373	77.94
366.599	82.94
366.826	80.94
367.052	88.94
367.278	88.94
367.505	88.94
367.731	79.94
367.957	78.94
368.184	81.94
368.41	78.94
368.636	89.94
368.862	79.94
369.089	82.94
369.315	81.94
369.541	99.94
369.767	77.94
369.993	82.94
370.219	79.94
370.445	78.94
370.672	82.94
370.898	87.94
371.124	85.94
371.35	78.94
371.576	83.94
371.802	81.94
372.028	81.94
372.254	82.94
372.48	73.94
372.706	93.94
372.932	93.94
373.158	81.94
373.384	83.94
373.61	87.94
373.835	86.94
374.061	76.94
374.287	92.94
374.513	104.94
374.739	90.94
374.965	79.94
375.191	88.94
375.416	79.94
375.642	90.94
375.868	80.94
376.094	73.94
376.319	78.94
376.545	89.94
376.771	83.94
376.997	88.94
377.222	73.94
377.448	86.94
377.674	69.94
377.899	90.94
378.125	80.94
378.35	81.94
378.576	81.94
378.802	95.94
379.027	73.94
379.253	94.94
379.478	87.94
379.704	83.94
379.929	79.94
380.155	71.94
380.38	79.94
380.606	87.94
380.831	89.94
381.057	82.94
381.282	84.94
381.507	85.94
381.733	72.94
381.958	78.94
382.184	94.94
382.409	86.94
382.634	88.94
382.86	89.94
383.085	94.94
383.31	90.94
383.535	87.94
383.761	94.94
383.986	89.94
384.211	82.94
384.436	90.94
384.662	79.94
384.887	91.94
385.112	78.94
385.337	80.94
385.562	100.94
385.787	77.94
386.013	95.94
386.238	97.94
386.463	70.94
386.688	91.94
386.913	84.94
387.138	100.94
387.363	75.94
387.588	83.94
387.813	74.94
388.038	77.94
388.263	88.94
388.488	79.94
388.713	85.94
388.938	81.94
389.163	86.94
389.387	87.94
389.612	86.94
389.837	74.94
390.062	78.94
390.287	74.94
390.512	78.94
390.736	79.94
390.961	86.94
391.186	80.94
391.411	90.94
391.636	84.94
391.86	89.94
392.085	80.94
392.31	90.94
392.534	83.94
392.759	90.94
392.984	86.94
393.208	93.94
393.433	82.94
393.658	91.94
393.882	89.94
394.107	74.94
394.331	76.94
394.556	82.94
394.78	78.94
395.005	93.94
395.229	94.94
395.454	77.94
395.678	82.94
395.903	75.94
396.127	90.94
396.352	85.94
396.576	79.94
396.801	91.94
397.025	91.94
397.249	83.94
397.474	85.94
397.698	71.94
397.922	90.94
398.147	81.94
398.371	80.94
398.595	79.94
398.82	73.94
399.044	75.94
399.268	83.94
399.492	64.94
399.717	86.94
399.941	83.94
400.165	79.94
400.389	94.94
400.613	81.94
400.837	74.94
401.062	73.94
401.286	82.94
401.51	66.94
401.734	90.94
401.958	79.94
402.182	91.94
402.406	107.94
402.63	86.94
402.854	80.94
403.078	87.94
403.302	83.94
403.526	75.94
403.75	78.94
403.974	83.94
404.198	77.94
404.422	83.94
404.645	82.94
404.869	80.94
405.093	81.94
405.317	88.94
405.541	71.94
405.765	89.94
405.988	93.94
406.212	110.94
406.436	142.94
406.66	107.94
406.883	80.94
407.107	90.94
407.331	78.94
407.555	75.94
407.778	92.94
408.002	88.94
408.226	87.94
408.449	85.94
408.673	83.94
408.896	89.94
409.12	85.94
409.344	79.94
409.567	89.94
409.791	65.94
410.014	84.94
410.238	79.94
410.461	85.94
410.685	80.94
410.908	77.94
411.132	81.94
411.355	82.94
411.578	97.94
411.802	80.94
412.025	87.94
412.249	81.94
412.472	83.94
412.695	71.94
412.919	89.94
413.142	99.94
413.365	86.94
413.589	76.94
413.812	89.94
414.035	93.94
414.258	84.94
414.482	74.94
414.705	75.94
414.928	87.94
415.151	74.94
415.374	74.94
415.597	89.94
415.821	82.94
416.044	90.94
416.267	82.94
416.49	75.94
416.713	82.94
416.936	96.94
417.159	77.94
417.382	83.94
417.605	81.94
417.828	87.94
418.051	77.94
418.274	80.94
418.497	98.94
418.72	78.94
418.943	76.94
419.166	85.94
419.389	61.94
419.611	75.94
419.834	84.94
420.057	75.94
420.28	96.94
420.503	80.94
420.726	97.94
420.948	78.94
421.171	89.94
421.394	82.94
421.617	81.94
421.839	85.94
422.062	86.94
422.285	75.94
422.507	86.94
422.73	91.94
422.953	87.94
423.175	82.94
423.398	85.94
423.621	89.94
423.843	67.94
424.066	78.94
424.288	81.94
424.511	74.94
424.733	85.94
424.956	84.94
425.178	83.94
425.401	77.94
425.623	80.94
425.846	95.94
426.068	80.94
426.291	78.94
426.513	95.94
426.735	81.94
426.958	80.94
427.18	75.94
427.402	88.94
427.625	99.94
427.847	106.94
428.069	98.94
428.292	89.94
428.514	83.94
428.736	74.94
428.958	89.94
429.181	82.94
429.403	89.94
429.625	88.94
429.847	93.94
430.069	86.94
430.292	60.94
430.514	83.94
430.736	88.94
430.958	78.94
431.18	85.94
431.402	82.94
431.624	88.94
431.846	78.94
432.068	81.94
432.29	90.94
432.512	97.94
432.734	61.94
432.956	79.94
433.178	92.94
433.4	91.94
433.622	79.94
433.844	67.94
434.066	73.94
434.287	86.94
434.509	94.94
434.731	85.94
434.953	82.94
435.175	76.94
435.397	84.94
435.618	81.94
435.84	82.94
436.062	92.94
436.284	76.94
436.505	78.94
436.727	81.94
436.949	93.94
437.17	93.94
437.392	85.94
437.614	101.94
437.835	93.94
438.057	85.94
438.278	83.94
438.5	83.94
438.721	79.94
438.943	87.94
439.165	89.94
439.386	77.94
439.608	79.94
439.829	85.94
440.05	95.94
440.272	99.94
440.493	80.94
440.715	86.94
440.936	77.94
441.158	82.94
441.379	95.94
441.6	80.94
441.822	62.94
442.043	81.94
442.264	71.94
442.486	88.94
442.707	75.94
442.928	98.94
443.149	93.94
443.371	80.94
443.592	88.94
443.813	76.94
444.034	81.94
444.255	75.94
444.476	67.94
444.698	70.94
444.919	80.94
445.14	134.94
445.361	101.94
445.582	99.94
445.803	79.94
446.024	87.94
446.245	88.94
446.466	89.94
446.687	73.94
446.908	85.94
447.129	92.94
447.35	93.94
447.571	76.94
447.792	78.94
448.013	89.94
448.234	82.94
448.455	90.94
448.675	78.94
448.896	94.94
449.117	83.94
449.338	90.94
449.559	80.94
449.779	88.94
450	101.94
450.221	80.94
450.442	72.94
450.662	82.94
450.883	85.94
451.104	78.94
451.324	88.94
451.545	80.94
451.766	77.94
451.986	72.94
452.207	71.94
452.428	64.94
452.648	92.94
452.869	80.94
453.089	104.94
453.31	91.94
453.53	75.94
453.751	88.94
453.971	91.94
454.192	78.94
454.412	74.94
454.633	72.94
454.853	88.94
455.073	79.94
455.294	77.94
455.514	84.94
455.734	81.94
455.955	93.94
456.175	66.94
456.395	79.94
456.616	86.94
456.836	98.94
457.056	87.94
457.276	79.94
457.497	74.94
457.717	78.94
457.937	95.94
458.157	77.94
458.377	85.94
458.598	83.94
458.818	107.94
459.038	104.94
459.258	93.94
459.478	82.94
459.698	84.94
459.918	84.94
460.138	86.94
460.358	74.94
460.578	90.94
460.798	71.94
461.018	88.94
461.238	84.94
461.458	77.94
461.678	90.94
461.898	81.94
462.118	70.94
462.338	75.94
462.558	85.94
462.777	73.94
462.997	90.94
463.217	77.94
463.437	85.94
463.657	74.94
463.876	79.94
464.096	85.94
464.316	91.94
464.536	82.94
464.755	91.94
464.975	94.94
465.195	100.94
465.414	102.94
465.634	80.94
465.854	93.94
466.073	82.94
466.293	86.94
466.512	79.94
466.732	99.94
466.951	79.94
467.171	78.94
467.391	89.94
467.61	97.94
467.829	89.94
468.049	171.94
468.268	209.94
468.488	101.94
468.707	91.94
468.927	102.94
469.146	91.94
469.365	90.94
469.585	71.94
469.804	83.94
470.023	85.94
470.243	85.94
470.462	74.94
470.681	104.94
470.901	71.94
471.12	92.94
471.339	82.94
471.558	85.94
471.777	97.94
471.997	122.94
472.216	231.94
472.435	443.94
472.654	162.94
472.873	102.94
473.092	86.94
473.311	91.94
473.53	87.94
473.749	81.94
473.968	87.94
474.187	83.94
474.406	85.94
474.625	75.94
474.844	79.94
475.063	80.94
475.282	90.94
475.501	94.94
475.72	87.94
475.939	73.94
476.158	73.94
476.377	97.94
476.596	80.94
476.814	71.94
477.033	65.94
477.252	88.94
477.471	86.94
477.69	77.94
477.908	86.94
478.127	89.94
478.346	75.94
478.564	83.94
478.783	91.94
479.002	86.94
479.22	94.94
479.439	83.94
479.658	94.94
479.876	86.94
480.095	99.94
480.313	95.94
480.532	99.94
480.751	115.94
480.969	208.94
481.188	672.94
481.406	441.94
481.624	130.94
481.843	92.94
482.061	87.94
482.28	89.94
482.498	90.94
482.717	83.94
482.935	78.94
483.153	66.94
483.372	81.94
483.59	97.94
483.808	94.94
484.027	87.94
484.245	89.94
484.463	79.94
484.681	86.94
484.9	86.94
485.118	85.94
485.336	67.94
485.554	77.94
485.772	77.94
485.99	80.94
486.209	89.94
486.427	87.94
486.645	90.94
486.863	88.94
487.081	92.94
487.299	104.94
487.517	93.94
487.735	88.94
487.953	93.94
488.171	86.94
488.389	75.94
488.607	86.94
488.825	81.94
489.043	89.94
489.261	92.94
489.479	87.94
489.696	79.94
489.914	70.94
490.132	81.94
490.35	82.94
490.568	83.94
490.786	89.94
491.003	88.94
491.221	83.94
491.439	82.94
491.657	82.94
491.874	94.94
492.092	80.94
492.31	79.94
492.527	99.94
492.745	85.94
492.963	91.94
493.18	76.94
493.398	100.94
493.615	84.94
493.833	85.94
494.05	74.94
494.268	80.94
494.485	82.94
494.703	93.94
494.92	90.94
495.138	79.94
495.355	90.94
495.573	82.94
495.79	85.94
496.008	94.94
496.225	94.94
496.442	77.94
496.66	91.94
496.877	81.94
497.094	81.94
497.312	91.94
497.529	73.94
497.746	74.94
497.963	95.94
498.181	83.94
498.398	86.94
498.615	97.94
498.832	85.94
499.049	88.94
499.267	79.94
499.484	101.94
499.701	80.94
499.918	86.94
500.135	79.94
500.352	82.94
500.569	85.94
500.786	81.94
501.003	90.94
501.22	83.94
501.437	77.94
501.654	74.94
501.871	85.94
502.088	91.94
502.305	95.94
502.522	81.94
502.739	77.94
502.956	71.94
503.172	80.94
503.389	84.94
503.606	81.94
503.823	80.94
504.04	88.94
504.256	87.94
504.473	100.94
504.69	86.94
504.907	89.94
505.123	83.94
505.34	90.94
505.557	76.94
505.773	85.94
505.99	97.94
506.207	90.94
506.423	86.94
506.64	92.94
506.856	78.94
507.073	71.94
507.289	91.94
507.506	83.94
507.722	107.94
507.939	98.94
508.155	73.94
508.372	82.94
508.588	83.94
508.805	80.94
509.021	80.94
509.238	84.94
509.454	80.94
509.67	82.94
509.887	93.94
510.103	98.94
510.319	120.94
510.536	326.94
510.752	956.94
510.968	329.94
511.184	113.94
511.401	93.94
511.617	90.94
511.833	89.94
512.049	80.94
512.265	93.94
512.481	85.94
512.698	89.94
512.914	90.94
513.13	87.94
513.346	77.94
513.562	95.94
513.778	98.94
513.994	89.94
514.21	77.94
514.426	103.94
514.642	104.94
514.858	85.94
515.074	104.94
515.29	207.94
515.506	643.94
515.721	290.94
515.937	109.94
516.153	96.94
516.369	92.94
516.585	89.94
516.801	80.94
517.016	89.94
517.232	77.94
517.448	103.94
517.664	103.94
517.879	82.94
518.095	88.94
518.311	81.94
518.527	82.94
518.742	95.94
