Data from Circ_1998_H10_HRD10591_00032.txt Node
Date: Wed Jan 03 11:26:55 EST 2024
User: Yrep
Spectrometer: HR+D1059
Trigger mode: 1
Integration Time (sec): 1.000000E-1
Scans to average: 1
Electric dark correction enabled: true
Nonlinearity correction enabled: false
Boxcar width: 0
XAxis mode: Wavelengths
Number of Pixels in Spectrum: 2048
>>>>>Begin Spectral Data<<<<<
223.165	-19
223.4	-19
223.635	-19
223.869	-16
224.104	-24
224.338	-20
224.573	-8
224.808	-7
225.042	-7
225.277	0
225.511	6
225.746	1
225.98	-3
226.215	8
226.449	15
226.683	17
226.918	20
227.152	37
227.387	16
227.621	46
227.856	42
228.09	47
228.324	50
228.559	50
228.793	56
229.027	75
229.262	77
229.496	79
229.73	99
229.964	83
230.199	80
230.433	80
230.667	88
230.901	83
231.136	99
231.37	85
231.604	84
231.838	83
232.072	83
232.306	96
232.541	63
232.775	93
233.009	89
233.243	84
233.477	106
233.711	91
233.945	88
234.179	84
234.413	85
234.647	82
234.881	90
235.115	78
235.349	64
235.583	80
235.817	75
236.051	85
236.285	92
236.519	72
236.753	72
236.987	93
237.221	80
237.455	92
237.689	83
237.922	77
238.156	84
238.39	94
238.624	85
238.858	73
239.091	81
239.325	95
239.559	92
239.793	99
240.027	83
240.26	82
240.494	83
240.728	75
240.961	86
241.195	98
241.429	74
241.662	84
241.896	75
242.13	83
242.363	69
242.597	81
242.83	85
243.064	88
243.298	77
243.531	73
243.765	95
243.998	70
244.232	111
244.465	82
244.699	91
244.932	82
245.166	83
245.399	94
245.633	61
245.866	86
246.099	74
246.333	85
246.566	85
246.8	77
247.033	79
247.266	76
247.5	87
247.733	81
247.966	90
248.2	82
248.433	85
248.666	73
248.899	88
249.133	96
249.366	119
249.599	115
249.832	85
250.066	86
250.299	92
250.532	96
250.765	98
250.998	91
251.231	90
251.465	80
251.698	84
251.931	101
252.164	84
252.397	80
252.63	90
252.863	86
253.096	92
253.329	88
253.562	87
253.795	83
254.028	99
254.261	78
254.494	102
254.727	97
254.96	71
255.193	88
255.426	85
255.659	84
255.892	94
256.124	103
256.357	78
256.59	95
256.823	101
257.056	105
257.289	94
257.521	87
257.754	89
257.987	81
258.22	98
258.452	81
258.685	97
258.918	100
259.151	81
259.383	95
259.616	85
259.849	87
260.081	94
260.314	91
260.547	94
260.779	84
261.012	108
261.244	125
261.477	103
261.71	104
261.942	144
262.175	142
262.407	103
262.64	79
262.872	88
263.105	101
263.337	101
263.57	88
263.802	89
264.035	91
264.267	74
264.499	76
264.732	82
264.964	101
265.197	96
265.429	86
265.661	65
265.894	73
266.126	86
266.358	73
266.591	89
266.823	83
267.055	82
267.287	93
267.52	94
267.752	85
267.984	85
268.216	89
268.448	89
268.681	81
268.913	88
269.145	97
269.377	92
269.609	82
269.841	82
270.073	66
270.306	92
270.538	92
270.77	106
271.002	77
271.234	92
271.466	101
271.698	89
271.93	95
272.162	88
272.394	87
272.626	88
272.858	87
273.09	105
273.322	96
273.553	101
273.785	94
274.017	90
274.249	99
274.481	82
274.713	83
274.945	92
275.176	98
275.408	107
275.64	122
275.872	129
276.104	117
276.335	103
276.567	111
276.799	153
277.031	189
277.262	222
277.494	164
277.726	106
277.957	96
278.189	88
278.421	80
278.652	104
278.884	81
279.115	96
279.347	104
279.579	121
279.81	141
280.042	223
280.273	345
280.505	205
280.736	113
280.968	103
281.199	89
281.431	104
281.662	95
281.894	112
282.125	119
282.356	140
282.588	170
282.819	151
283.051	98
283.282	75
283.513	89
283.745	93
283.976	80
284.207	81
284.439	87
284.67	95
284.901	89
285.132	77
285.364	85
285.595	84
285.826	93
286.057	93
286.288	104
286.52	94
286.751	99
286.982	98
287.213	94
287.444	81
287.675	97
287.906	88
288.138	100
288.369	109
288.6	104
288.831	93
289.062	82
289.293	96
289.524	98
289.755	89
289.986	85
290.217	100
290.448	95
290.679	81
290.91	101
291.141	85
291.371	96
291.602	92
291.833	95
292.064	91
292.295	94
292.526	98
292.757	88
292.987	94
293.218	81
293.449	78
293.68	93
293.91	76
294.141	104
294.372	104
294.603	85
294.833	97
295.064	92
295.295	91
295.525	89
295.756	112
295.987	133
296.217	171
296.448	159
296.679	103
296.909	97
297.14	96
297.37	94
297.601	111
297.831	100
298.062	88
298.292	103
298.523	99
298.753	92
298.984	101
299.214	86
299.445	103
299.675	109
299.905	111
300.136	110
300.366	97
300.597	83
300.827	95
301.057	107
301.288	119
301.518	128
301.748	85
301.979	127
302.209	113
302.439	100
302.669	98
302.9	103
303.13	111
303.36	116
303.59	141
303.82	171
304.051	115
304.281	95
304.511	99
304.741	95
304.971	97
305.201	93
305.431	80
305.661	89
305.891	104
306.121	103
306.352	111
306.582	123
306.812	123
307.042	129
307.272	172
307.502	219
307.731	189
307.961	161
308.191	102
308.421	105
308.651	95
308.881	100
309.111	96
309.341	100
309.571	111
309.8	107
310.03	113
310.26	105
310.49	101
310.72	114
310.949	131
311.179	124
311.409	110
311.639	118
311.868	121
312.098	99
312.328	108
312.557	123
312.787	137
313.017	109
313.246	113
313.476	101
313.706	109
313.935	112
314.165	113
314.394	138
314.624	122
314.853	103
315.083	107
315.312	108
315.542	113
315.771	105
316.001	106
316.23	97
316.46	103
316.689	107
316.919	101
317.148	111
317.377	105
317.607	111
317.836	99
318.065	97
318.295	94
318.524	108
318.753	100
318.983	97
319.212	101
319.441	128
319.67	129
319.9	116
320.129	104
320.358	104
320.587	95
320.816	105
321.046	110
321.275	108
321.504	107
321.733	101
321.962	103
322.191	121
322.42	135
322.649	137
322.878	124
323.108	148
323.337	162
323.566	181
323.795	213
324.024	296
324.253	591
324.482	1298
324.71	2735
324.939	3650
325.168	1233
325.397	347
325.626	191
325.855	151
326.084	141
326.313	168
326.542	202
326.77	313
326.999	663
327.228	1400
327.457	2657
327.686	2081
327.914	716
328.143	654
328.372	844
328.6	448
328.829	237
329.058	219
329.287	232
329.515	193
329.744	317
329.972	645
330.201	1323
330.43	1951
330.658	788
330.887	340
331.115	219
331.344	149
331.572	143
331.801	128
332.03	127
332.258	111
332.486	125
332.715	123
332.943	116
333.172	140
333.4	151
333.629	197
333.857	279
334.085	575
334.314	1251
334.542	2459
334.771	2187
334.999	543
335.227	211
335.455	162
335.684	130
335.912	113
336.14	111
336.369	132
336.597	124
336.825	122
337.053	120
337.281	92
337.51	100
337.738	117
337.966	104
338.194	119
338.422	88
338.65	104
338.878	101
339.106	93
339.334	89
339.562	109
339.79	95
340.018	110
340.246	105
340.474	95
340.702	105
340.93	98
341.158	111
341.386	113
341.614	96
341.842	109
342.07	110
342.298	115
342.526	99
342.754	87
342.981	85
343.209	91
343.437	92
343.665	81
343.893	103
344.12	101
344.348	92
344.576	98
344.804	100
345.031	117
345.259	123
345.487	116
345.714	109
345.942	95
346.17	101
346.397	95
346.625	101
346.853	96
347.08	92
347.308	96
347.535	111
347.763	115
347.99	111
348.218	103
348.445	116
348.673	107
348.9	103
349.128	94
349.355	85
349.583	92
349.81	91
350.037	112
350.265	100
350.492	96
350.72	92
350.947	100
351.174	121
351.402	114
351.629	100
351.856	98
352.083	104
352.311	124
352.538	136
352.765	117
352.992	128
353.22	113
353.447	114
353.674	119
353.901	104
354.128	96
354.355	100
354.583	94
354.81	90
355.037	99
355.264	105
355.491	104
355.718	83
355.945	86
356.172	98
356.399	104
356.626	93
356.853	83
357.08	92
357.307	83
357.534	112
357.761	99
357.988	107
358.215	95
358.441	92
358.668	95
358.895	95
359.122	72
359.349	90
359.576	99
359.802	123
360.029	153
360.256	155
360.483	134
360.709	89
360.936	103
361.163	96
361.39	105
361.616	104
361.843	99
362.07	100
362.296	120
362.523	101
362.749	108
362.976	105
363.203	97
363.429	103
363.656	85
363.882	88
364.109	90
364.335	104
364.562	99
364.788	95
365.015	104
365.241	116
365.468	132
365.694	120
365.92	111
366.147	94
366.373	85
366.599	80
366.826	97
367.052	98
367.278	105
367.505	103
367.731	88
367.957	96
368.184	109
368.41	109
368.636	133
368.862	154
369.089	101
369.315	99
369.541	97
369.767	90
369.993	103
370.219	93
370.445	83
370.672	92
370.898	92
371.124	93
371.35	87
371.576	97
371.802	78
372.028	89
372.254	89
372.48	78
372.706	77
372.932	84
373.158	87
373.384	103
373.61	90
373.835	95
374.061	93
374.287	95
374.513	94
374.739	83
374.965	83
375.191	87
375.416	89
375.642	105
375.868	90
376.094	98
376.319	84
376.545	92
376.771	93
376.997	95
377.222	86
377.448	108
377.674	93
377.899	84
378.125	83
378.35	91
378.576	106
378.802	92
379.027	75
379.253	101
379.478	108
379.704	96
379.929	93
380.155	76
380.38	106
380.606	95
380.831	95
381.057	102
381.282	91
381.507	80
381.733	89
381.958	101
382.184	99
382.409	105
382.634	104
382.86	104
383.085	107
383.31	103
383.535	104
383.761	99
383.986	92
384.211	96
384.436	103
384.662	108
384.887	116
385.112	100
385.337	122
385.562	118
385.787	97
386.013	112
386.238	129
386.463	116
386.688	114
386.913	104
387.138	99
387.363	97
387.588	91
387.813	105
388.038	106
388.263	121
388.488	113
388.713	79
388.938	84
389.163	105
389.387	92
389.612	90
389.837	103
390.062	83
390.287	103
390.512	108
390.736	95
390.961	73
391.186	89
391.411	92
391.636	86
391.86	83
392.085	90
392.31	77
392.534	81
392.759	95
392.984	82
393.208	91
393.433	100
393.658	91
393.882	101
394.107	95
394.331	79
394.556	88
394.78	85
395.005	79
395.229	98
395.454	89
395.678	94
395.903	94
396.127	88
396.352	95
396.576	95
396.801	100
397.025	86
397.249	90
397.474	89
397.698	101
397.922	73
398.147	97
398.371	82
398.595	88
398.82	95
399.044	83
399.268	77
399.492	93
399.717	85
399.941	96
400.165	88
400.389	99
400.613	97
400.837	89
401.062	96
401.286	101
401.51	100
401.734	100
401.958	110
402.182	160
402.406	205
402.63	156
402.854	122
403.078	99
403.302	97
403.526	89
403.75	100
403.974	90
404.198	79
404.422	88
404.645	90
404.869	104
405.093	144
405.317	156
405.541	145
405.765	114
405.988	151
406.212	228
406.436	329
406.66	218
406.883	132
407.107	117
407.331	100
407.555	135
407.778	115
408.002	94
408.226	90
408.449	100
408.673	99
408.896	111
409.12	109
409.344	107
409.567	94
409.791	98
410.014	90
410.238	117
410.461	82
410.685	97
410.908	97
411.132	112
411.355	108
411.578	109
411.802	91
412.025	101
412.249	108
412.472	129
412.695	153
412.919	123
413.142	91
413.365	97
413.589	94
413.812	98
414.035	97
414.258	87
414.482	103
414.705	92
414.928	81
415.151	109
415.374	84
415.597	88
415.821	97
416.044	103
416.267	95
416.49	77
416.713	102
416.936	95
417.159	91
417.382	109
417.605	116
417.828	120
418.051	116
418.274	85
418.497	87
418.72	100
418.943	83
419.166	86
419.389	92
419.611	88
419.834	109
420.057	109
420.28	104
420.503	110
420.726	82
420.948	87
421.171	106
421.394	102
421.617	96
421.839	116
422.062	107
422.285	99
422.507	104
422.73	127
422.953	105
423.175	87
423.398	88
423.621	89
423.843	93
424.066	87
424.288	99
424.511	104
424.733	112
424.956	129
425.178	131
425.401	117
425.623	135
425.846	86
426.068	94
426.291	90
426.513	99
426.735	101
426.958	116
427.18	131
427.402	219
427.625	315
427.847	287
428.069	281
428.292	138
428.514	112
428.736	114
428.958	103
429.181	87
429.403	92
429.625	95
429.847	99
430.069	124
430.292	111
430.514	102
430.736	100
430.958	84
431.18	89
431.402	84
431.624	87
431.846	83
432.068	101
432.29	92
432.512	92
432.734	86
432.956	97
433.178	95
433.4	112
433.622	102
433.844	93
434.066	95
434.287	88
434.509	96
434.731	96
434.953	107
435.175	90
435.397	96
435.618	112
435.84	129
436.062	149
436.284	153
436.505	128
436.727	133
436.949	105
437.17	94
437.392	109
437.614	104
437.835	141
438.057	163
438.278	160
438.5	118
438.721	145
438.943	115
439.165	103
439.386	111
439.608	114
439.829	131
440.05	176
440.272	220
440.493	124
440.715	94
440.936	90
441.158	102
441.379	94
441.6	105
441.822	107
442.043	114
442.264	116
442.486	127
442.707	108
442.928	127
443.149	183
443.371	178
443.592	139
443.813	148
444.034	133
444.255	109
444.476	93
444.698	97
444.919	98
445.14	154
445.361	156
445.582	146
445.803	222
446.024	213
446.245	194
446.466	133
446.687	94
446.908	98
447.129	112
447.35	103
447.571	88
447.792	95
448.013	115
448.234	138
448.455	125
448.675	162
448.896	153
449.117	127
449.338	119
449.559	153
449.779	182
450	114
450.221	100
450.442	107
450.662	119
450.883	146
451.104	156
451.324	97
451.545	101
451.766	88
451.986	92
452.207	106
452.428	109
452.648	116
452.869	153
453.089	140
453.31	159
453.53	109
453.751	101
453.971	130
454.192	147
454.412	118
454.633	95
454.853	99
455.073	73
455.294	95
455.514	124
455.734	117
455.955	104
456.175	86
456.395	88
456.616	87
456.836	99
457.056	92
457.276	95
457.497	87
457.717	83
457.937	104
458.157	95
458.377	108
458.598	135
458.818	235
459.038	269
459.258	171
459.478	108
459.698	103
459.918	93
460.138	83
460.358	85
460.578	90
460.798	97
461.018	95
461.238	88
461.458	97
461.678	86
461.898	106
462.118	90
462.338	100
462.558	80
462.777	87
462.997	102
463.217	115
463.437	112
463.657	99
463.876	99
464.096	95
464.316	108
464.536	100
464.755	109
464.975	143
465.195	271
465.414	269
465.634	117
465.854	73
466.073	97
466.293	98
466.512	104
466.732	91
466.951	119
467.171	113
467.391	116
467.61	156
467.829	264
468.049	723
468.268	1068
468.488	255
468.707	123
468.927	94
469.146	88
469.365	85
469.585	84
469.804	114
470.023	97
470.243	114
470.462	137
470.681	159
470.901	112
471.12	119
471.339	112
471.558	125
471.777	164
471.997	364
472.216	1479
472.435	3350
472.654	740
472.873	197
473.092	121
473.311	109
473.53	84
473.749	115
473.968	112
474.187	131
474.406	120
474.625	94
474.844	98
475.063	99
475.282	92
475.501	95
475.72	101
475.939	104
476.158	90
476.377	83
476.596	97
476.814	114
477.033	93
477.252	96
477.471	90
477.69	98
477.908	107
478.127	95
478.346	97
478.564	104
478.783	109
479.002	118
479.22	121
479.439	147
479.658	159
479.876	127
480.095	153
480.313	139
480.532	193
480.751	354
480.969	1365
481.188	5906
481.406	3211
481.624	444
481.843	155
482.061	121
482.28	107
482.498	105
482.717	97
482.935	101
483.153	97
483.372	94
483.59	90
483.808	105
484.027	115
484.245	93
484.463	93
484.681	117
484.9	96
485.118	88
485.336	92
485.554	101
485.772	108
485.99	97
486.209	114
486.427	121
486.645	135
486.863	149
487.081	140
487.299	103
487.517	116
487.735	97
487.953	101
488.171	111
488.389	100
488.607	115
488.825	101
489.043	82
489.261	111
489.479	98
489.696	92
489.914	95
490.132	101
490.35	104
490.568	102
490.786	82
491.003	90
491.221	106
491.439	102
491.657	85
491.874	101
492.092	109
492.31	96
492.527	107
492.745	112
492.963	99
493.18	94
493.398	99
493.615	99
493.833	108
494.05	93
494.268	99
494.485	90
494.703	109
494.92	96
495.138	86
495.355	108
495.573	91
495.79	115
496.008	94
496.225	100
496.442	98
496.66	101
496.877	96
497.094	96
497.312	89
497.529	99
497.746	96
497.963	97
498.181	105
498.398	114
498.615	125
498.832	111
499.049	98
499.267	112
499.484	97
499.701	104
499.918	92
500.135	76
500.352	87
500.569	94
500.786	97
501.003	104
501.22	97
501.437	99
501.654	107
501.871	135
502.088	103
502.305	106
502.522	104
502.739	101
502.956	106
503.172	98
503.389	115
503.606	133
503.823	109
504.04	112
504.256	98
504.473	100
504.69	100
504.907	106
505.123	99
505.34	84
505.557	96
505.773	103
505.99	102
506.207	101
506.423	91
506.64	99
506.856	99
507.073	99
507.289	109
507.506	119
507.722	157
507.939	157
508.155	115
508.372	111
508.588	109
508.805	119
509.021	99
509.238	110
509.454	100
509.67	101
509.887	117
510.103	150
510.319	265
510.536	1015
510.752	3595
510.968	955
511.184	196
511.401	136
511.617	109
511.833	107
512.049	93
512.265	100
512.481	104
512.698	93
512.914	92
513.13	108
513.346	107
513.562	101
513.778	103
513.994	122
514.21	122
514.426	155
514.642	184
514.858	171
515.074	254
515.29	791
515.506	2892
515.721	971
515.937	239
516.153	145
516.369	127
516.585	100
516.801	107
517.016	107
517.232	112
517.448	95
517.664	104
517.879	113
518.095	106
518.311	115
518.527	114
518.742	101
518.958	95
519.173	106
519.389	105
519.605	119
519.82	101
520.036	128
520.251	159
520.467	141
520.682	141
520.898	137
521.113	147
521.329	187
521.544	324
521.76	1059
521.975	4836
522.19	2802
522.406	593
522.621	184
522.836	128
523.052	110
523.267	97
523.482	114
523.698	119
523.913	147
524.128	125
524.343	115
524.559	101
524.774	92
524.989	113
525.204	130
525.419	109
525.634	84
525.849	95
526.064	101
526.28	94
526.495	91
526.71	95
526.925	86
527.14	96
527.355	97
527.57	82
527.785	93
527.999	106
528.214	100
528.429	95
528.644	107
528.859	107
529.074	115
529.289	177
529.503	297
529.718	129
529.933	101
530.148	79
530.363	92
530.577	85
530.792	109
531.007	111
531.221	99
531.436	97
531.651	94
531.865	87
532.08	83
532.295	89
532.509	105
532.724	107
532.938	111
533.153	98
533.367	83
533.582	100
533.796	95
534.011	91
534.225	91
534.44	90
534.654	91
534.868	97
535.083	96
535.297	99
535.511	107
535.726	124
535.94	104
536.154	91
536.369	101
536.583	104
536.797	95
537.011	79
537.225	100
537.44	101
537.654	98
537.868	96
538.082	96
538.296	87
538.51	99
538.724	101
538.938	92
539.153	109
539.367	135
539.581	107
539.795	98
540.009	96
540.222	95
540.436	100
540.65	102
540.864	100
541.078	114
541.292	103
541.506	88
541.72	76
541.934	98
542.147	106
542.361	94
542.575	91
542.789	89
543.002	93
543.216	83
543.43	123
543.644	97
543.857	102
544.071	94
544.285	109
544.498	101
544.712	84
544.925	100
545.139	88
545.352	78
545.566	85
545.779	102
545.993	100
546.206	103
546.42	85
546.633	99
546.847	89
547.06	103
547.274	75
547.487	103
547.7	95
547.914	98
548.127	96
548.34	101
548.554	91
548.767	101
548.98	105
549.193	82
549.407	90
549.62	89
549.833	97
550.046	99
550.259	91
550.473	96
550.686	93
550.899	106
551.112	83
551.325	93
551.538	121
551.751	99
551.964	108
552.177	86
552.39	82
552.603	93
552.816	85
553.029	89
553.242	95
553.455	115
553.667	128
553.88	116
554.093	116
554.306	118
554.519	126
554.732	113
554.944	91
555.157	81
555.37	91
555.583	101
555.795	84
556.008	84
556.221	87
556.433	85
556.646	101
556.859	90
557.071	97
557.284	89
557.496	103
557.709	95
557.921	102
558.134	102
558.346	82
558.559	86
558.771	92
558.984	110
559.196	108
559.409	110
559.621	104
559.833	91
560.046	94
560.258	109
560.47	143
560.683	99
560.895	91
561.107	94
561.32	95
561.532	80
561.744	98
561.956	95
562.168	101
562.381	92
562.593	85
562.805	88
563.017	98
563.229	91
563.441	93
563.653	80
563.865	87
564.077	83
564.289	91
564.501	92
564.713	105
564.925	102
565.137	125
565.349	103
565.561	83
565.773	82
565.985	96
566.197	91
566.408	95
566.62	82
566.832	88
567.044	88
567.255	93
567.467	93
567.679	96
567.891	91
568.102	83
568.314	97
568.526	83
568.737	104
568.949	97
569.161	86
569.372	87
569.584	90
569.795	93
570.007	122
570.218	290
570.43	155
570.641	95
570.853	98
571.064	97
571.276	87
571.487	95
571.698	83
571.91	79
572.121	87
572.333	87
572.544	101
572.755	99
572.966	84
573.178	78
573.389	95
573.6	78
573.811	96
574.023	99
574.234	99
574.445	83
574.656	100
574.867	95
575.078	85
575.289	99
575.501	91
575.712	96
575.923	94
576.134	96
576.345	97
576.556	92
576.767	87
576.978	83
