Data from Circ_1998_H10_HRD10591_00042.txt Node
Date: Wed Jan 03 11:26:57 EST 2024
User: Yrep
Spectrometer: HR+D1059
Trigger mode: 1
Integration Time (sec): 1.000000E-1
Scans to average: 1
Electric dark correction enabled: true
Nonlinearity correction enabled: false
Boxcar width: 0
XAxis mode: Wavelengths
Number of Pixels in Spectrum: 2048
>>>>>Begin Spectral Data<<<<<
223.165	-14.88
223.4	-14.88
223.635	-14.88
223.869	-12.88
224.104	-26.88
224.338	-7.88
224.573	-13.88
224.808	-16.88
225.042	-5.88
225.277	-5.88
225.511	0.12
225.746	-8.88
225.98	18.12
226.215	22.12
226.449	17.12
226.683	14.12
226.918	16.12
227.152	26.12
227.387	36.12
227.621	51.12
227.856	46.12
228.09	45.12
228.324	44.12
228.559	56.12
228.793	66.12
229.027	58.12
229.262	51.12
229.496	78.12
229.73	109.12
229.964	117.12
230.199	74.12
230.433	84.12
230.667	62.12
230.901	95.12
231.136	77.12
231.37	104.12
231.604	90.12
231.838	74.12
232.072	87.12
232.306	84.12
232.541	96.12
232.775	86.12
233.009	90.12
233.243	85.12
233.477	81.12
233.711	61.12
233.945	95.12
234.179	86.12
234.413	91.12
234.647	83.12
234.881	82.12
235.115	79.12
235.349	86.12
235.583	93.12
235.817	76.12
236.051	90.12
236.285	80.12
236.519	84.12
236.753	97.12
236.987	83.12
237.221	89.12
237.455	86.12
237.689	73.12
237.922	71.12
238.156	68.12
238.39	75.12
238.624	90.12
238.858	95.12
239.091	79.12
239.325	87.12
239.559	106.12
239.793	96.12
240.027	91.12
240.26	88.12
240.494	81.12
240.728	78.12
240.961	90.12
241.195	77.12
241.429	94.12
241.662	78.12
241.896	80.12
242.13	82.12
242.363	74.12
242.597	85.12
242.83	71.12
243.064	75.12
243.298	88.12
243.531	90.12
243.765	82.12
243.998	80.12
244.232	87.12
244.465	94.12
244.699	78.12
244.932	74.12
245.166	77.12
245.399	74.12
245.633	86.12
245.866	86.12
246.099	79.12
246.333	73.12
246.566	78.12
246.8	91.12
247.033	78.12
247.266	92.12
247.5	83.12
247.733	81.12
247.966	75.12
248.2	86.12
248.433	84.12
248.666	80.12
248.899	83.12
249.133	104.12
249.366	122.12
249.599	119.12
249.832	83.12
250.066	92.12
250.299	98.12
250.532	102.12
250.765	90.12
250.998	92.12
251.231	79.12
251.465	89.12
251.698	99.12
251.931	94.12
252.164	82.12
252.397	90.12
252.63	90.12
252.863	93.12
253.096	76.12
253.329	96.12
253.562	88.12
253.795	81.12
254.028	77.12
254.261	70.12
254.494	83.12
254.727	89.12
254.96	103.12
255.193	95.12
255.426	73.12
255.659	91.12
255.892	110.12
256.124	107.12
256.357	102.12
256.59	101.12
256.823	95.12
257.056	101.12
257.289	95.12
257.521	97.12
257.754	100.12
257.987	96.12
258.22	95.12
258.452	116.12
258.685	111.12
258.918	82.12
259.151	84.12
259.383	101.12
259.616	82.12
259.849	92.12
260.081	88.12
260.314	99.12
260.547	106.12
260.779	110.12
261.012	126.12
261.244	144.12
261.477	116.12
261.71	122.12
261.942	146.12
262.175	162.12
262.407	121.12
262.64	94.12
262.872	81.12
263.105	90.12
263.337	99.12
263.57	87.12
263.802	81.12
264.035	84.12
264.267	97.12
264.499	83.12
264.732	79.12
264.964	90.12
265.197	79.12
265.429	90.12
265.661	80.12
265.894	76.12
266.126	93.12
266.358	80.12
266.591	77.12
266.823	87.12
267.055	87.12
267.287	95.12
267.52	92.12
267.752	89.12
267.984	88.12
268.216	91.12
268.448	91.12
268.681	98.12
268.913	86.12
269.145	74.12
269.377	75.12
269.609	82.12
269.841	82.12
270.073	82.12
270.306	88.12
270.538	90.12
270.77	86.12
271.002	95.12
271.234	82.12
271.466	104.12
271.698	101.12
271.93	81.12
272.162	90.12
272.394	90.12
272.626	103.12
272.858	89.12
273.09	88.12
273.322	76.12
273.553	81.12
273.785	93.12
274.017	87.12
274.249	98.12
274.481	95.12
274.713	103.12
274.945	92.12
275.176	107.12
275.408	117.12
275.64	145.12
275.872	154.12
276.104	112.12
276.335	112.12
276.567	150.12
276.799	179.12
277.031	246.12
277.262	282.12
277.494	215.12
277.726	123.12
277.957	105.12
278.189	99.12
278.421	101.12
278.652	90.12
278.884	114.12
279.115	103.12
279.347	126.12
279.579	111.12
279.81	177.12
280.042	303.12
280.273	444.12
280.505	282.12
280.736	130.12
280.968	104.12
281.199	90.12
281.431	91.12
281.662	88.12
281.894	102.12
282.125	119.12
282.356	179.12
282.588	210.12
282.819	156.12
283.051	100.12
283.282	88.12
283.513	91.12
283.745	86.12
283.976	92.12
284.207	83.12
284.439	100.12
284.67	88.12
284.901	100.12
285.132	94.12
285.364	93.12
285.595	98.12
285.826	97.12
286.057	96.12
286.288	82.12
286.52	96.12
286.751	91.12
286.982	92.12
287.213	82.12
287.444	89.12
287.675	94.12
287.906	102.12
288.138	97.12
288.369	101.12
288.6	102.12
288.831	91.12
289.062	90.12
289.293	89.12
289.524	91.12
289.755	94.12
289.986	86.12
290.217	86.12
290.448	90.12
290.679	94.12
290.91	96.12
291.141	90.12
291.371	90.12
291.602	81.12
291.833	90.12
292.064	91.12
292.295	89.12
292.526	92.12
292.757	106.12
292.987	91.12
293.218	82.12
293.449	85.12
293.68	91.12
293.91	86.12
294.141	91.12
294.372	98.12
294.603	104.12
294.833	96.12
295.064	88.12
295.295	97.12
295.525	102.12
295.756	125.12
295.987	139.12
296.217	205.12
296.448	185.12
296.679	112.12
296.909	88.12
297.14	102.12
297.37	84.12
297.601	93.12
297.831	100.12
298.062	110.12
298.292	94.12
298.523	106.12
298.753	72.12
298.984	82.12
299.214	95.12
299.445	85.12
299.675	89.12
299.905	106.12
300.136	92.12
300.366	84.12
300.597	80.12
300.827	110.12
301.057	106.12
301.288	119.12
301.518	105.12
301.748	123.12
301.979	132.12
302.209	112.12
302.439	95.12
302.669	104.12
302.9	98.12
303.13	116.12
303.36	114.12
303.59	170.12
303.82	191.12
304.051	125.12
304.281	92.12
304.511	97.12
304.741	90.12
304.971	83.12
305.201	80.12
305.431	100.12
305.661	87.12
305.891	89.12
306.121	92.12
306.352	117.12
306.582	127.12
306.812	140.12
307.042	159.12
307.272	234.12
307.502	250.12
307.731	231.12
307.961	144.12
308.191	104.12
308.421	100.12
308.651	105.12
308.881	100.12
309.111	93.12
309.341	113.12
309.571	123.12
309.8	128.12
310.03	130.12
310.26	118.12
310.49	113.12
310.72	129.12
310.949	140.12
311.179	124.12
311.409	105.12
311.639	118.12
311.868	120.12
312.098	115.12
312.328	113.12
312.557	128.12
312.787	154.12
313.017	142.12
313.246	104.12
313.476	89.12
313.706	102.12
313.935	107.12
314.165	106.12
314.394	131.12
314.624	106.12
314.853	131.12
315.083	107.12
315.312	106.12
315.542	83.12
315.771	104.12
316.001	99.12
316.23	95.12
316.46	88.12
316.689	105.12
316.919	90.12
317.148	104.12
317.377	110.12
317.607	97.12
317.836	100.12
318.065	96.12
318.295	100.12
318.524	117.12
318.753	91.12
318.983	110.12
319.212	111.12
319.441	130.12
319.67	137.12
319.9	107.12
320.129	109.12
320.358	102.12
320.587	121.12
320.816	132.12
321.046	129.12
321.275	116.12
321.504	89.12
321.733	98.12
321.962	130.12
322.191	123.12
322.42	127.12
322.649	156.12
322.878	140.12
323.108	169.12
323.337	172.12
323.566	197.12
323.795	233.12
324.024	340.12
324.253	706.12
324.482	1590.12
324.71	3336.12
324.939	4530.12
325.168	1529.12
325.397	433.12
325.626	222.12
325.855	176.12
326.084	180.12
326.313	176.12
326.542	225.12
326.77	384.12
326.999	766.12
327.228	1694.12
327.457	3175.12
327.686	2525.12
327.914	892.12
328.143	918.12
328.372	1206.12
328.6	635.12
328.829	290.12
329.058	276.12
329.287	284.12
329.515	249.12
329.744	413.12
329.972	858.12
330.201	1877.12
330.43	2773.12
330.658	1146.12
330.887	475.12
331.115	257.12
331.344	161.12
331.572	154.12
331.801	160.12
332.03	135.12
332.258	122.12
332.486	128.12
332.715	127.12
332.943	135.12
333.172	169.12
333.4	161.12
333.629	223.12
333.857	352.12
334.085	766.12
334.314	1701.12
334.542	3492.12
334.771	3225.12
334.999	746.12
335.227	256.12
335.455	178.12
335.684	146.12
335.912	142.12
336.14	129.12
336.369	122.12
336.597	131.12
336.825	107.12
337.053	107.12
337.281	106.12
337.51	115.12
337.738	116.12
337.966	106.12
338.194	123.12
338.422	112.12
338.65	107.12
338.878	106.12
339.106	89.12
339.334	104.12
339.562	102.12
339.79	110.12
340.018	98.12
340.246	105.12
340.474	106.12
340.702	96.12
340.93	109.12
341.158	116.12
341.386	106.12
341.614	113.12
341.842	119.12
342.07	116.12
342.298	118.12
342.526	97.12
342.754	100.12
342.981	96.12
343.209	99.12
343.437	109.12
343.665	98.12
343.893	88.12
344.12	104.12
344.348	111.12
344.576	98.12
344.804	90.12
345.031	118.12
345.259	122.12
345.487	112.12
345.714	106.12
345.942	106.12
346.17	90.12
346.397	98.12
346.625	94.12
346.853	100.12
347.08	114.12
347.308	115.12
347.535	104.12
347.763	118.12
347.99	122.12
348.218	118.12
348.445	124.12
348.673	119.12
348.9	107.12
349.128	86.12
349.355	94.12
349.583	95.12
349.81	108.12
350.037	96.12
350.265	99.12
350.492	110.12
350.72	111.12
350.947	115.12
351.174	139.12
351.402	146.12
351.629	137.12
351.856	116.12
352.083	121.12
352.311	139.12
352.538	155.12
352.765	143.12
352.992	154.12
353.22	132.12
353.447	119.12
353.674	108.12
353.901	93.12
354.128	101.12
354.355	115.12
354.583	96.12
354.81	91.12
355.037	92.12
355.264	100.12
355.491	96.12
355.718	91.12
355.945	96.12
356.172	103.12
356.399	91.12
356.626	102.12
356.853	103.12
357.08	107.12
357.307	93.12
357.534	86.12
357.761	97.12
357.988	102.12
358.215	94.12
358.441	98.12
358.668	85.12
358.895	102.12
359.122	96.12
359.349	89.12
359.576	108.12
359.802	127.12
360.029	185.12
360.256	172.12
360.483	133.12
360.709	102.12
360.936	104.12
361.163	107.12
361.39	106.12
361.616	117.12
361.843	115.12
362.07	110.12
362.296	106.12
362.523	118.12
362.749	100.12
362.976	111.12
363.203	95.12
363.429	94.12
363.656	107.12
363.882	106.12
364.109	104.12
364.335	99.12
364.562	103.12
364.788	102.12
365.015	105.12
365.241	117.12
365.468	134.12
365.694	141.12
365.92	124.12
366.147	115.12
366.373	97.12
366.599	91.12
366.826	98.12
367.052	89.12
367.278	114.12
367.505	98.12
367.731	105.12
367.957	108.12
368.184	112.12
368.41	114.12
368.636	144.12
368.862	147.12
369.089	122.12
369.315	114.12
369.541	113.12
369.767	102.12
369.993	120.12
370.219	107.12
370.445	95.12
370.672	89.12
370.898	86.12
371.124	102.12
371.35	89.12
371.576	88.12
371.802	83.12
372.028	87.12
372.254	92.12
372.48	80.12
372.706	80.12
372.932	93.12
373.158	100.12
373.384	99.12
373.61	99.12
373.835	96.12
374.061	97.12
374.287	99.12
374.513	108.12
374.739	95.12
374.965	89.12
375.191	84.12
375.416	93.12
375.642	92.12
375.868	90.12
376.094	105.12
376.319	116.12
376.545	98.12
376.771	104.12
376.997	91.12
377.222	102.12
377.448	100.12
377.674	96.12
377.899	93.12
378.125	85.12
378.35	95.12
378.576	93.12
378.802	91.12
379.027	94.12
379.253	82.12
379.478	86.12
379.704	100.12
379.929	105.12
380.155	99.12
380.38	112.12
380.606	92.12
380.831	87.12
381.057	102.12
381.282	104.12
381.507	88.12
381.733	110.12
381.958	89.12
382.184	99.12
382.409	102.12
382.634	113.12
382.86	106.12
383.085	107.12
383.31	86.12
383.535	100.12
383.761	110.12
383.986	111.12
384.211	95.12
384.436	95.12
384.662	98.12
384.887	96.12
385.112	99.12
385.337	109.12
385.562	113.12
385.787	121.12
386.013	126.12
386.238	135.12
386.463	109.12
386.688	100.12
386.913	95.12
387.138	111.12
387.363	109.12
387.588	103.12
387.813	118.12
388.038	102.12
388.263	117.12
388.488	107.12
388.713	96.12
388.938	86.12
389.163	88.12
389.387	86.12
389.612	99.12
389.837	99.12
390.062	99.12
390.287	97.12
390.512	78.12
390.736	82.12
390.961	86.12
391.186	98.12
391.411	94.12
391.636	90.12
391.86	85.12
392.085	96.12
392.31	91.12
392.534	88.12
392.759	98.12
392.984	99.12
393.208	105.12
393.433	96.12
393.658	108.12
393.882	91.12
394.107	88.12
394.331	95.12
394.556	75.12
394.78	91.12
395.005	100.12
395.229	90.12
395.454	83.12
395.678	91.12
395.903	95.12
396.127	88.12
396.352	97.12
396.576	93.12
396.801	89.12
397.025	103.12
397.249	94.12
397.474	83.12
397.698	91.12
397.922	86.12
398.147	91.12
398.371	96.12
398.595	103.12
398.82	94.12
399.044	86.12
399.268	85.12
399.492	86.12
399.717	104.12
399.941	91.12
400.165	112.12
400.389	111.12
400.613	93.12
400.837	95.12
401.062	94.12
401.286	115.12
401.51	98.12
401.734	102.12
401.958	130.12
402.182	177.12
402.406	246.12
402.63	177.12
402.854	104.12
403.078	95.12
403.302	101.12
403.526	99.12
403.75	92.12
403.974	102.12
404.198	92.12
404.422	107.12
404.645	99.12
404.869	111.12
405.093	151.12
405.317	175.12
405.541	184.12
405.765	148.12
405.988	171.12
406.212	278.12
406.436	432.12
406.66	264.12
406.883	139.12
407.107	119.12
407.331	130.12
407.555	110.12
407.778	115.12
408.002	102.12
408.226	103.12
408.449	88.12
408.673	94.12
408.896	113.12
409.12	100.12
409.344	85.12
409.567	83.12
409.791	92.12
410.014	82.12
410.238	95.12
410.461	97.12
410.685	93.12
410.908	116.12
411.132	111.12
411.355	116.12
411.578	108.12
411.802	97.12
412.025	102.12
412.249	113.12
412.472	140.12
412.695	169.12
412.919	144.12
413.142	108.12
413.365	102.12
413.589	97.12
413.812	104.12
414.035	90.12
414.258	110.12
414.482	93.12
414.705	89.12
414.928	106.12
415.151	123.12
415.374	101.12
415.597	92.12
415.821	101.12
416.044	97.12
416.267	92.12
416.49	78.12
416.713	99.12
416.936	96.12
417.159	96.12
417.382	103.12
417.605	119.12
417.828	157.12
418.051	110.12
418.274	90.12
418.497	89.12
418.72	72.12
418.943	95.12
419.166	92.12
419.389	78.12
419.611	111.12
419.834	98.12
420.057	101.12
420.28	97.12
420.503	86.12
420.726	89.12
420.948	100.12
421.171	113.12
421.394	118.12
421.617	90.12
421.839	93.12
422.062	107.12
422.285	86.12
422.507	100.12
422.73	115.12
422.953	95.12
423.175	85.12
423.398	123.12
423.621	95.12
423.843	87.12
424.066	94.12
424.288	94.12
424.511	106.12
424.733	100.12
424.956	150.12
425.178	128.12
425.401	130.12
425.623	121.12
425.846	86.12
426.068	95.12
426.291	98.12
426.513	105.12
426.735	104.12
426.958	111.12
427.18	126.12
427.402	219.12
427.625	377.12
427.847	373.12
428.069	318.12
428.292	175.12
428.514	110.12
428.736	92.12
428.958	110.12
429.181	90.12
429.403	106.12
429.625	86.12
429.847	86.12
430.069	122.12
430.292	90.12
430.514	78.12
430.736	95.12
430.958	94.12
431.18	80.12
431.402	95.12
431.624	92.12
431.846	95.12
432.068	87.12
432.29	90.12
432.512	91.12
432.734	94.12
432.956	115.12
433.178	120.12
433.4	113.12
433.622	102.12
433.844	74.12
434.066	91.12
434.287	102.12
434.509	97.12
434.731	100.12
434.953	74.12
435.175	98.12
435.397	100.12
435.618	98.12
435.84	123.12
436.062	168.12
436.284	142.12
436.505	122.12
436.727	119.12
436.949	87.12
437.17	94.12
437.392	106.12
437.614	126.12
437.835	137.12
438.057	175.12
438.278	153.12
438.5	121.12
438.721	178.12
438.943	124.12
439.165	88.12
439.386	83.12
439.608	114.12
439.829	136.12
440.05	198.12
440.272	227.12
440.493	122.12
440.715	109.12
440.936	89.12
441.158	109.12
441.379	102.12
441.6	117.12
441.822	109.12
442.043	122.12
442.264	138.12
442.486	124.12
442.707	119.12
442.928	138.12
443.149	232.12
443.371	242.12
443.592	161.12
443.813	150.12
444.034	127.12
444.255	109.12
444.476	94.12
444.698	90.12
444.919	107.12
445.14	139.12
445.361	171.12
445.582	170.12
445.803	259.12
446.024	237.12
446.245	204.12
446.466	161.12
446.687	103.12
446.908	101.12
447.129	103.12
447.35	89.12
447.571	100.12
447.792	115.12
448.013	123.12
448.234	132.12
448.455	136.12
448.675	152.12
448.896	152.12
449.117	118.12
449.338	122.12
449.559	177.12
449.779	190.12
450	120.12
450.221	98.12
450.442	99.12
450.662	117.12
450.883	166.12
451.104	172.12
451.324	119.12
451.545	83.12
451.766	91.12
451.986	96.12
452.207	92.12
452.428	112.12
452.648	116.12
452.869	155.12
453.089	163.12
453.31	189.12
453.53	116.12
453.751	119.12
453.971	153.12
454.192	163.12
454.412	109.12
454.633	89.12
454.853	94.12
455.073	103.12
455.294	102.12
455.514	121.12
455.734	102.12
455.955	87.12
456.175	89.12
456.395	105.12
456.616	103.12
456.836	86.12
457.056	90.12
457.276	76.12
457.497	97.12
457.717	85.12
457.937	96.12
458.157	91.12
458.377	111.12
458.598	144.12
458.818	280.12
459.038	329.12
459.258	175.12
459.478	103.12
459.698	84.12
459.918	90.12
460.138	94.12
460.358	80.12
460.578	93.12
460.798	91.12
461.018	106.12
461.238	100.12
461.458	96.12
461.678	89.12
461.898	102.12
462.118	91.12
462.338	95.12
462.558	95.12
462.777	92.12
462.997	97.12
463.217	130.12
463.437	117.12
463.657	114.12
463.876	95.12
464.096	100.12
464.316	111.12
464.536	121.12
464.755	110.12
464.975	158.12
465.195	332.12
465.414	334.12
465.634	119.12
465.854	112.12
466.073	92.12
466.293	84.12
466.512	108.12
466.732	90.12
466.951	101.12
467.171	118.12
467.391	122.12
467.61	200.12
467.829	323.12
468.049	1064.12
468.268	1599.12
468.488	360.12
468.707	148.12
468.927	112.12
469.146	100.12
469.365	101.12
469.585	115.12
469.804	134.12
470.023	133.12
470.243	122.12
470.462	145.12
470.681	166.12
470.901	135.12
471.12	117.12
471.339	131.12
471.558	152.12
471.777	216.12
471.997	496.12
472.216	2095.12
472.435	4926.12
472.654	1016.12
472.873	236.12
473.092	141.12
473.311	112.12
473.53	93.12
473.749	111.12
473.968	110.12
474.187	148.12
474.406	123.12
474.625	115.12
474.844	89.12
475.063	99.12
475.282	87.12
475.501	94.12
475.72	97.12
475.939	99.12
476.158	100.12
476.377	108.12
476.596	105.12
476.814	108.12
477.033	109.12
477.252	90.12
477.471	108.12
477.69	102.12
477.908	91.12
478.127	112.12
478.346	104.12
478.564	111.12
478.783	131.12
479.002	121.12
479.22	128.12
479.439	145.12
479.658	183.12
479.876	150.12
480.095	144.12
480.313	181.12
480.532	250.12
480.751	476.12
480.969	1834.12
481.188	8274.12
481.406	4589.12
481.624	603.12
481.843	196.12
482.061	124.12
482.28	110.12
482.498	104.12
482.717	108.12
482.935	115.12
483.153	105.12
483.372	103.12
483.59	106.12
483.808	103.12
484.027	98.12
484.245	105.12
484.463	113.12
484.681	118.12
484.9	94.12
485.118	99.12
485.336	91.12
485.554	109.12
485.772	122.12
485.99	118.12
486.209	114.12
486.427	114.12
486.645	145.12
486.863	152.12
487.081	108.12
487.299	102.12
487.517	102.12
487.735	98.12
487.953	107.12
488.171	98.12
488.389	104.12
488.607	117.12
488.825	95.12
489.043	93.12
489.261	83.12
489.479	89.12
489.696	98.12
489.914	94.12
490.132	94.12
490.35	100.12
490.568	88.12
490.786	96.12
491.003	84.12
491.221	94.12
491.439	90.12
491.657	83.12
491.874	94.12
492.092	87.12
492.31	82.12
492.527	112.12
492.745	107.12
492.963	94.12
493.18	100.12
493.398	104.12
493.615	101.12
493.833	104.12
494.05	102.12
494.268	91.12
494.485	101.12
494.703	109.12
494.92	88.12
495.138	95.12
495.355	104.12
495.573	98.12
495.79	99.12
496.008	112.12
496.225	83.12
496.442	97.12
496.66	100.12
496.877	110.12
497.094	96.12
497.312	97.12
497.529	98.12
497.746	97.12
497.963	101.12
498.181	102.12
498.398	111.12
498.615	136.12
498.832	108.12
499.049	111.12
499.267	99.12
499.484	82.12
499.701	110.12
499.918	100.12
500.135	82.12
500.352	99.12
500.569	111.12
500.786	92.12
501.003	102.12
501.22	95.12
501.437	99.12
501.654	111.12
501.871	135.12
502.088	106.12
502.305	95.12
502.522	101.12
502.739	100.12
502.956	97.12
503.172	107.12
503.389	111.12
503.606	154.12
503.823	115.12
504.04	112.12
504.256	91.12
504.473	95.12
504.69	71.12
504.907	95.12
505.123	98.12
505.34	95.12
505.557	99.12
505.773	106.12
505.99	90.12
506.207	98.12
506.423	95.12
506.64	90.12
506.856	100.12
507.073	88.12
507.289	94.12
507.506	124.12
507.722	173.12
507.939	181.12
508.155	121.12
508.372	90.12
508.588	95.12
508.805	117.12
509.021	107.12
509.238	100.12
509.454	112.12
509.67	124.12
509.887	121.12
510.103	174.12
