Data from Circ_1998_H10_HRD10591_00056.txt Node
Date: Wed Jan 03 11:27:00 EST 2024
User: Yrep
Spectrometer: HR+D1059
Trigger mode: 1
Integration Time (sec): 1.000000E-1
Scans to average: 1
Electric dark correction enabled: true
Nonlinearity correction enabled: false
Boxcar width: 0
XAxis mode: Wavelengths
Number of Pixels in Spectrum: 2048
>>>>>Begin Spectral Data<<<<<
223.165	-13.81
223.4	-13.81
223.635	-13.81
223.869	-20.81
224.104	-22.81
224.338	-10.81
224.573	-11.81
224.808	-17.81
225.042	0.19
225.277	4.19
225.511	2.19
225.746	2.19
225.98	1.19
226.215	7.19
226.449	16.19
226.683	23.19
226.918	18.19
227.152	23.19
227.387	26.19
227.621	41.19
227.856	37.19
228.09	44.19
228.324	49.19
228.559	42.19
228.793	60.19
229.027	45.19
229.262	66.19
229.496	81.19
229.73	103.19
229.964	91.19
230.199	65.19
230.433	83.19
230.667	88.19
230.901	84.19
231.136	72.19
231.37	74.19
231.604	67.19
231.838	75.19
232.072	69.19
232.306	77.19
232.541	78.19
232.775	91.19
233.009	84.19
233.243	91.19
233.477	83.19
233.711	82.19
233.945	89.19
234.179	78.19
234.413	74.19
234.647	82.19
234.881	89.19
235.115	80.19
235.349	88.19
235.583	82.19
235.817	80.19
236.051	85.19
236.285	77.19
236.519	80.19
236.753	63.19
236.987	92.19
237.221	91.19
237.455	94.19
237.689	89.19
237.922	76.19
238.156	71.19
238.39	72.19
238.624	75.19
238.858	75.19
239.091	80.19
239.325	93.19
239.559	84.19
239.793	86.19
240.027	71.19
240.26	95.19
240.494	83.19
240.728	86.19
240.961	78.19
241.195	81.19
241.429	81.19
241.662	80.19
241.896	75.19
242.13	78.19
242.363	73.19
242.597	64.19
242.83	80.19
243.064	82.19
243.298	80.19
243.531	74.19
243.765	70.19
243.998	100.19
244.232	85.19
244.465	78.19
244.699	78.19
244.932	84.19
245.166	81.19
245.399	87.19
245.633	81.19
245.866	65.19
246.099	70.19
246.333	67.19
246.566	91.19
246.8	77.19
247.033	89.19
247.266	94.19
247.5	86.19
247.733	87.19
247.966	75.19
248.2	90.19
248.433	96.19
248.666	78.19
248.899	78.19
249.133	95.19
249.366	118.19
249.599	111.19
249.832	76.19
250.066	97.19
250.299	80.19
250.532	90.19
250.765	90.19
250.998	84.19
251.231	96.19
251.465	72.19
251.698	88.19
251.931	96.19
252.164	82.19
252.397	85.19
252.63	87.19
252.863	79.19
253.096	96.19
253.329	81.19
253.562	72.19
253.795	74.19
254.028	73.19
254.261	68.19
254.494	87.19
254.727	81.19
254.96	87.19
255.193	80.19
255.426	86.19
255.659	72.19
255.892	93.19
256.124	115.19
256.357	75.19
256.59	89.19
256.823	92.19
257.056	86.19
257.289	95.19
257.521	90.19
257.754	91.19
257.987	91.19
258.22	99.19
258.452	95.19
258.685	106.19
258.918	76.19
259.151	84.19
259.383	82.19
259.616	95.19
259.849	89.19
260.081	85.19
260.314	93.19
260.547	91.19
260.779	110.19
261.012	106.19
261.244	123.19
261.477	103.19
261.71	113.19
261.942	155.19
262.175	156.19
262.407	99.19
262.64	86.19
262.872	83.19
263.105	94.19
263.337	93.19
263.57	92.19
263.802	82.19
264.035	79.19
264.267	82.19
264.499	79.19
264.732	84.19
264.964	91.19
265.197	95.19
265.429	79.19
265.661	87.19
265.894	74.19
266.126	82.19
266.358	81.19
266.591	87.19
266.823	94.19
267.055	82.19
267.287	90.19
267.52	98.19
267.752	87.19
267.984	100.19
268.216	93.19
268.448	91.19
268.681	84.19
268.913	94.19
269.145	94.19
269.377	95.19
269.609	91.19
269.841	88.19
270.073	88.19
270.306	86.19
270.538	76.19
270.77	85.19
271.002	97.19
271.234	88.19
271.466	82.19
271.698	96.19
271.93	88.19
272.162	95.19
272.394	87.19
272.626	88.19
272.858	92.19
273.09	88.19
273.322	79.19
273.553	87.19
273.785	88.19
274.017	72.19
274.249	95.19
274.481	94.19
274.713	90.19
274.945	95.19
275.176	88.19
275.408	112.19
275.64	127.19
275.872	158.19
276.104	121.19
276.335	106.19
276.567	133.19
276.799	177.19
277.031	235.19
277.262	285.19
277.494	206.19
277.726	108.19
277.957	113.19
278.189	89.19
278.421	92.19
278.652	94.19
278.884	83.19
279.115	101.19
279.347	108.19
279.579	122.19
279.81	154.19
280.042	254.19
280.273	381.19
280.505	246.19
280.736	127.19
280.968	100.19
281.199	94.19
281.431	90.19
281.662	87.19
281.894	107.19
282.125	106.19
282.356	156.19
282.588	184.19
282.819	134.19
283.051	95.19
283.282	88.19
283.513	81.19
283.745	87.19
283.976	87.19
284.207	96.19
284.439	81.19
284.67	83.19
284.901	85.19
285.132	81.19
285.364	91.19
285.595	84.19
285.826	87.19
286.057	61.19
286.288	98.19
286.52	84.19
286.751	88.19
286.982	82.19
287.213	74.19
287.444	79.19
287.675	101.19
287.906	89.19
288.138	86.19
288.369	109.19
288.6	96.19
288.831	94.19
289.062	95.19
289.293	93.19
289.524	82.19
289.755	85.19
289.986	85.19
290.217	96.19
290.448	84.19
290.679	94.19
290.91	81.19
291.141	90.19
291.371	85.19
291.602	90.19
291.833	99.19
292.064	95.19
292.295	74.19
292.526	84.19
292.757	97.19
292.987	88.19
293.218	108.19
293.449	90.19
293.68	85.19
293.91	91.19
294.141	90.19
294.372	88.19
294.603	88.19
294.833	91.19
295.064	89.19
295.295	98.19
295.525	97.19
295.756	110.19
295.987	150.19
296.217	199.19
296.448	163.19
296.679	104.19
296.909	98.19
297.14	86.19
297.37	99.19
297.601	93.19
297.831	88.19
298.062	81.19
298.292	87.19
298.523	89.19
298.753	85.19
298.984	83.19
299.214	76.19
299.445	89.19
299.675	112.19
299.905	96.19
300.136	95.19
300.366	94.19
300.597	88.19
300.827	94.19
301.057	96.19
301.288	125.19
301.518	91.19
301.748	106.19
301.979	125.19
302.209	107.19
302.439	78.19
302.669	97.19
302.9	92.19
303.13	100.19
303.36	137.19
303.59	153.19
303.82	168.19
304.051	127.19
304.281	105.19
304.511	80.19
304.741	88.19
304.971	81.19
305.201	91.19
305.431	77.19
305.661	93.19
305.891	92.19
306.121	112.19
306.352	116.19
306.582	120.19
306.812	132.19
307.042	141.19
307.272	196.19
307.502	228.19
307.731	215.19
307.961	157.19
308.191	99.19
308.421	94.19
308.651	89.19
308.881	105.19
309.111	97.19
309.341	100.19
309.571	114.19
309.8	114.19
310.03	96.19
310.26	119.19
310.49	116.19
310.72	126.19
310.949	134.19
311.179	115.19
311.409	110.19
311.639	105.19
311.868	118.19
312.098	90.19
312.328	104.19
312.557	118.19
312.787	146.19
313.017	125.19
313.246	97.19
313.476	102.19
313.706	103.19
313.935	108.19
314.165	118.19
314.394	117.19
314.624	115.19
314.853	106.19
315.083	100.19
315.312	102.19
315.542	91.19
315.771	96.19
316.001	102.19
316.23	98.19
316.46	95.19
316.689	99.19
316.919	95.19
317.148	111.19
317.377	108.19
317.607	104.19
317.836	93.19
318.065	100.19
318.295	106.19
318.524	104.19
318.753	102.19
318.983	94.19
319.212	114.19
319.441	130.19
319.67	122.19
319.9	113.19
320.129	87.19
320.358	108.19
320.587	102.19
320.816	96.19
321.046	117.19
321.275	94.19
321.504	95.19
321.733	108.19
321.962	106.19
322.191	112.19
322.42	128.19
322.649	125.19
322.878	138.19
323.108	139.19
323.337	146.19
323.566	187.19
323.795	223.19
324.024	282.19
324.253	606.19
324.482	1298.19
324.71	2820.19
324.939	3697.19
325.168	1299.19
325.397	352.19
325.626	190.19
325.855	170.19
326.084	173.19
326.313	166.19
326.542	196.19
326.77	321.19
326.999	672.19
327.228	1399.19
327.457	2621.19
327.686	2065.19
327.914	744.19
328.143	812.19
328.372	1058.19
328.6	556.19
328.829	240.19
329.058	215.19
329.287	254.19
329.515	247.19
329.744	364.19
329.972	759.19
330.201	1652.19
330.43	2400.19
330.658	1006.19
330.887	407.19
331.115	228.19
331.344	160.19
331.572	159.19
331.801	150.19
332.03	157.19
332.258	99.19
332.486	119.19
332.715	132.19
332.943	120.19
333.172	152.19
333.4	142.19
333.629	208.19
333.857	306.19
334.085	664.19
334.314	1462.19
334.542	3010.19
334.771	2786.19
334.999	652.19
335.227	244.19
335.455	156.19
335.684	117.19
335.912	118.19
336.14	103.19
336.369	100.19
336.597	125.19
336.825	110.19
337.053	94.19
337.281	114.19
337.51	106.19
337.738	102.19
337.966	109.19
338.194	104.19
338.422	116.19
338.65	98.19
338.878	103.19
339.106	102.19
339.334	97.19
339.562	103.19
339.79	94.19
340.018	99.19
340.246	108.19
340.474	111.19
340.702	96.19
340.93	103.19
341.158	103.19
341.386	111.19
341.614	111.19
341.842	100.19
342.07	97.19
342.298	100.19
342.526	97.19
342.754	86.19
342.981	100.19
343.209	78.19
343.437	94.19
343.665	100.19
343.893	87.19
344.12	74.19
344.348	99.19
344.576	82.19
344.804	102.19
345.031	114.19
345.259	121.19
345.487	115.19
345.714	106.19
345.942	96.19
346.17	87.19
346.397	102.19
346.625	114.19
346.853	93.19
347.08	93.19
347.308	116.19
347.535	111.19
347.763	120.19
347.99	109.19
348.218	106.19
348.445	136.19
348.673	104.19
348.9	98.19
349.128	108.19
349.355	89.19
349.583	86.19
349.81	83.19
350.037	96.19
350.265	101.19
350.492	97.19
350.72	98.19
350.947	118.19
351.174	124.19
351.402	124.19
351.629	117.19
351.856	109.19
352.083	126.19
352.311	109.19
352.538	116.19
352.765	128.19
352.992	134.19
353.22	128.19
353.447	115.19
353.674	107.19
353.901	99.19
354.128	108.19
354.355	101.19
354.583	118.19
354.81	121.19
355.037	91.19
355.264	79.19
355.491	80.19
355.718	90.19
355.945	108.19
356.172	79.19
356.399	94.19
356.626	97.19
356.853	85.19
357.08	101.19
357.307	95.19
357.534	94.19
357.761	92.19
357.988	106.19
358.215	90.19
358.441	98.19
358.668	94.19
358.895	94.19
359.122	97.19
359.349	101.19
359.576	100.19
359.802	132.19
360.029	153.19
360.256	164.19
360.483	122.19
360.709	93.19
360.936	103.19
361.163	113.19
361.39	115.19
361.616	107.19
361.843	97.19
362.07	102.19
362.296	114.19
362.523	102.19
362.749	101.19
362.976	88.19
363.203	92.19
363.429	83.19
363.656	86.19
363.882	93.19
364.109	97.19
364.335	99.19
364.562	92.19
364.788	110.19
365.015	87.19
365.241	110.19
365.468	125.19
365.694	117.19
365.92	106.19
366.147	96.19
366.373	97.19
366.599	93.19
366.826	96.19
367.052	103.19
367.278	108.19
367.505	85.19
367.731	97.19
367.957	101.19
368.184	102.19
368.41	99.19
368.636	129.19
368.862	144.19
369.089	132.19
369.315	103.19
369.541	102.19
369.767	104.19
369.993	102.19
370.219	110.19
370.445	100.19
370.672	87.19
370.898	79.19
371.124	91.19
371.35	86.19
371.576	81.19
371.802	98.19
372.028	70.19
372.254	84.19
372.48	73.19
372.706	75.19
372.932	91.19
373.158	89.19
373.384	94.19
373.61	102.19
373.835	80.19
374.061	89.19
374.287	104.19
374.513	82.19
374.739	91.19
374.965	89.19
375.191	85.19
375.416	89.19
375.642	89.19
375.868	99.19
376.094	94.19
376.319	91.19
376.545	69.19
376.771	94.19
376.997	103.19
377.222	86.19
377.448	90.19
377.674	93.19
377.899	89.19
378.125	94.19
378.35	97.19
378.576	86.19
378.802	86.19
379.027	83.19
379.253	100.19
379.478	92.19
379.704	103.19
379.929	79.19
380.155	103.19
380.38	87.19
380.606	100.19
380.831	107.19
381.057	98.19
381.282	108.19
381.507	94.19
381.733	94.19
381.958	104.19
382.184	106.19
382.409	93.19
382.634	86.19
382.86	116.19
383.085	95.19
383.31	87.19
383.535	115.19
383.761	87.19
383.986	79.19
384.211	83.19
384.436	82.19
384.662	97.19
384.887	103.19
385.112	102.19
385.337	114.19
385.562	97.19
385.787	97.19
386.013	112.19
386.238	155.19
386.463	113.19
386.688	99.19
386.913	97.19
387.138	98.19
387.363	105.19
387.588	97.19
387.813	112.19
388.038	104.19
388.263	95.19
388.488	103.19
388.713	91.19
388.938	100.19
389.163	78.19
389.387	97.19
389.612	71.19
389.837	95.19
390.062	90.19
390.287	102.19
390.512	85.19
390.736	100.19
390.961	85.19
391.186	95.19
391.411	86.19
391.636	81.19
391.86	104.19
392.085	88.19
392.31	82.19
392.534	74.19
392.759	95.19
392.984	86.19
393.208	82.19
393.433	87.19
393.658	94.19
393.882	101.19
394.107	85.19
394.331	86.19
394.556	82.19
394.78	84.19
395.005	90.19
395.229	94.19
395.454	101.19
395.678	87.19
395.903	88.19
396.127	83.19
396.352	89.19
396.576	92.19
396.801	82.19
397.025	86.19
397.249	114.19
397.474	89.19
397.698	84.19
397.922	97.19
398.147	92.19
398.371	89.19
398.595	92.19
398.82	86.19
399.044	66.19
399.268	87.19
399.492	91.19
399.717	109.19
399.941	73.19
400.165	108.19
400.389	102.19
400.613	85.19
400.837	89.19
401.062	95.19
401.286	99.19
401.51	104.19
401.734	101.19
401.958	117.19
402.182	153.19
402.406	237.19
402.63	158.19
402.854	118.19
403.078	98.19
403.302	99.19
403.526	101.19
403.75	90.19
403.974	75.19
404.198	88.19
404.422	95.19
404.645	106.19
404.869	109.19
405.093	128.19
405.317	180.19
405.541	161.19
405.765	130.19
405.988	144.19
406.212	236.19
406.436	364.19
406.66	260.19
406.883	130.19
407.107	107.19
407.331	121.19
407.555	114.19
407.778	114.19
408.002	101.19
408.226	104.19
408.449	109.19
408.673	95.19
408.896	94.19
409.12	101.19
409.344	97.19
409.567	102.19
409.791	97.19
410.014	110.19
410.238	89.19
410.461	87.19
410.685	87.19
410.908	97.19
411.132	95.19
411.355	106.19
411.578	104.19
411.802	88.19
412.025	77.19
412.249	112.19
412.472	128.19
412.695	148.19
412.919	111.19
413.142	110.19
413.365	91.19
413.589	85.19
413.812	91.19
414.035	93.19
414.258	96.19
414.482	97.19
414.705	98.19
414.928	96.19
415.151	78.19
415.374	89.19
415.597	93.19
415.821	96.19
416.044	100.19
416.267	109.19
416.49	105.19
416.713	88.19
416.936	88.19
417.159	90.19
417.382	102.19
417.605	106.19
417.828	133.19
418.051	109.19
418.274	93.19
418.497	79.19
418.72	69.19
418.943	92.19
419.166	96.19
419.389	85.19
419.611	101.19
419.834	103.19
420.057	95.19
420.28	97.19
420.503	98.19
420.726	96.19
420.948	91.19
421.171	105.19
421.394	104.19
421.617	76.19
421.839	66.19
422.062	93.19
422.285	99.19
422.507	90.19
422.73	120.19
422.953	96.19
423.175	79.19
423.398	95.19
423.621	90.19
423.843	91.19
424.066	95.19
424.288	110.19
424.511	94.19
424.733	118.19
424.956	121.19
425.178	105.19
425.401	117.19
425.623	111.19
425.846	115.19
426.068	108.19
426.291	110.19
426.513	97.19
426.735	105.19
426.958	104.19
427.18	114.19
427.402	216.19
427.625	340.19
427.847	306.19
428.069	281.19
428.292	150.19
428.514	111.19
428.736	92.19
428.958	94.19
429.181	88.19
429.403	61.19
429.625	101.19
429.847	108.19
430.069	125.19
430.292	94.19
430.514	87.19
430.736	93.19
430.958	95.19
431.18	87.19
431.402	94.19
431.624	96.19
431.846	91.19
432.068	90.19
432.29	84.19
432.512	85.19
432.734	93.19
432.956	102.19
433.178	113.19
433.4	107.19
433.622	100.19
433.844	92.19
434.066	89.19
434.287	108.19
434.509	100.19
434.731	92.19
434.953	89.19
435.175	87.19
435.397	91.19
435.618	102.19
435.84	120.19
436.062	152.19
436.284	149.19
436.505	112.19
436.727	111.19
436.949	101.19
437.17	90.19
437.392	91.19
437.614	101.19
437.835	133.19
438.057	185.19
438.278	149.19
438.5	117.19
438.721	148.19
438.943	129.19
439.165	95.19
439.386	100.19
439.608	98.19
439.829	122.19
440.05	182.19
440.272	222.19
440.493	123.19
440.715	97.19
440.936	88.19
441.158	85.19
441.379	94.19
441.6	104.19
441.822	112.19
442.043	105.19
442.264	123.19
442.486	119.19
442.707	107.19
442.928	136.19
443.149	208.19
443.371	200.19
443.592	150.19
443.813	125.19
444.034	121.19
444.255	89.19
444.476	91.19
444.698	102.19
444.919	92.19
445.14	134.19
445.361	146.19
445.582	154.19
445.803	210.19
446.024	211.19
446.245	192.19
446.466	156.19
446.687	113.19
446.908	85.19
447.129	100.19
447.35	108.19
447.571	106.19
447.792	94.19
448.013	112.19
448.234	132.19
448.455	124.19
448.675	133.19
448.896	148.19
449.117	106.19
449.338	122.19
449.559	163.19
449.779	149.19
450	107.19
450.221	105.19
450.442	108.19
450.662	105.19
450.883	137.19
451.104	154.19
451.324	123.19
451.545	87.19
451.766	92.19
451.986	77.19
452.207	100.19
452.428	100.19
452.648	109.19
452.869	148.19
453.089	159.19
453.31	151.19
453.53	88.19
453.751	94.19
453.971	135.19
454.192	156.19
454.412	107.19
454.633	102.19
454.853	84.19
455.073	94.19
455.294	82.19
455.514	112.19
455.734	103.19
455.955	85.19
456.175	64.19
456.395	82.19
456.616	86.19
456.836	91.19
457.056	91.19
457.276	87.19
457.497	91.19
457.717	81.19
457.937	88.19
458.157	102.19
458.377	92.19
458.598	137.19
458.818	234.19
459.038	273.19
459.258	169.19
459.478	96.19
459.698	78.19
459.918	78.19
460.138	92.19
460.358	86.19
460.578	96.19
460.798	96.19
461.018	108.19
461.238	93.19
461.458	83.19
461.678	86.19
461.898	89.19
462.118	78.19
462.338	76.19
462.558	86.19
462.777	82.19
462.997	125.19
463.217	138.19
463.437	117.19
463.657	93.19
463.876	97.19
464.096	86.19
464.316	113.19
464.536	111.19
464.755	123.19
464.975	137.19
465.195	298.19
465.414	268.19
465.634	137.19
465.854	114.19
466.073	90.19
466.293	93.19
466.512	98.19
466.732	103.19
466.951	106.19
467.171	117.19
467.391	110.19
467.61	181.19
467.829	324.19
468.049	928.19
468.268	1421.19
468.488	319.19
468.707	125.19
468.927	100.19
469.146	109.19
469.365	105.19
469.585	91.19
469.804	119.19
470.023	126.19
470.243	122.19
470.462	130.19
470.681	145.19
470.901	117.19
471.12	123.19
471.339	107.19
471.558	138.19
471.777	198.19
471.997	465.19
472.216	1822.19
472.435	4326.19
472.654	920.19
472.873	206.19
473.092	128.19
473.311	105.19
473.53	101.19
473.749	89.19
473.968	105.19
474.187	143.19
474.406	110.19
474.625	110.19
474.844	73.19
475.063	84.19
475.282	88.19
475.501	97.19
475.72	107.19
475.939	86.19
476.158	89.19
476.377	97.19
476.596	80.19
476.814	112.19
477.033	105.19
477.252	93.19
477.471	95.19
477.69	86.19
477.908	99.19
478.127	98.19
478.346	106.19
478.564	111.19
478.783	111.19
479.002	135.19
479.22	115.19
479.439	131.19
479.658	143.19
479.876	121.19
480.095	151.19
480.313	159.19
480.532	237.19
480.751	425.19
480.969	1664.19
481.188	7348.19
481.406	4074.19
481.624	530.19
481.843	169.19
482.061	129.19
482.28	112.19
482.498	98.19
482.717	101.19
482.935	83.19
483.153	108.19
483.372	96.19
483.59	86.19
483.808	98.19
484.027	89.19
484.245	91.19
484.463	115.19
484.681	103.19
484.9	90.19
485.118	89.19
485.336	109.19
485.554	107.19
485.772	114.19
485.99	108.19
486.209	132.19
486.427	111.19
486.645	119.19
486.863	136.19
487.081	110.19
487.299	100.19
487.517	106.19
487.735	100.19
487.953	87.19
488.171	100.19
488.389	93.19
488.607	112.19
488.825	108.19
489.043	110.19
489.261	98.19
489.479	91.19
489.696	89.19
489.914	89.19
490.132	91.19
490.35	86.19
490.568	92.19
490.786	64.19
491.003	88.19
491.221	117.19
491.439	95.19
491.657	107.19
491.874	109.19
492.092	98.19
492.31	105.19
492.527	111.19
492.745	94.19
492.963	100.19
493.18	88.19
493.398	86.19
493.615	110.19
493.833	116.19
494.05	75.19
494.268	82.19
494.485	89.19
494.703	87.19
494.92	99.19
495.138	87.19
495.355	104.19
495.573	90.19
495.79	92.19
496.008	96.19
496.225	84.19
496.442	94.19
496.66	101.19
496.877	93.19
497.094	103.19
497.312	108.19
497.529	90.19
497.746	89.19
497.963	99.19
498.181	105.19
498.398	96.19
498.615	126.19
498.832	116.19
499.049	102.19
499.267	84.19
499.484	89.19
499.701	104.19
499.918	94.19
500.135	91.19
500.352	97.19
500.569	97.19
500.786	116.19
501.003	95.19
501.22	105.19
501.437	95.19
501.654	113.19
501.871	141.19
502.088	93.19
502.305	82.19
502.522	96.19
502.739	88.19
502.956	87.19
503.172	94.19
503.389	120.19
503.606	132.19
503.823	106.19
504.04	95.19
504.256	76.19
504.473	85.19
504.69	81.19
504.907	101.19
505.123	97.19
505.34	84.19
505.557	94.19
505.773	92.19
505.99	91.19
506.207	84.19
506.423	95.19
506.64	96.19
506.856	87.19
507.073	87.19
507.289	93.19
507.506	112.19
507.722	156.19
507.939	149.19
508.155	112.19
508.372	97.19
508.588	94.19
508.805	103.19
509.021	108.19
509.238	112.19
509.454	85.19
509.67	113.19
509.887	110.19
510.103	144.19
510.319	300.19
510.536	1132.19
510.752	4189.19
510.968	1078.19
511.184	209.19
511.401	150.19
511.617	133.19
