Data from Circ_1998_H10_HRD10591_00001.txt Node
Date: Wed Jan 03 11:26:49 EST 2024
User: Yrep
Spectrometer: HR+D1059
Trigger mode: 1
Integration Time (sec): 1.000000E-1
Scans to average: 1
Electric dark correction enabled: true
Nonlinearity correction enabled: false
Boxcar width: 0
XAxis mode: Wavelengths
Number of Pixels in Spectrum: 2048
>>>>>Begin Spectral Data<<<<<
223.165	-21.94
223.4	-21.94
223.635	-21.94
223.869	-14.94
224.104	-21.94
224.338	-15.94
224.573	-17.94
224.808	-11.94
225.042	-15.94
225.277	-1.94
225.511	-1.94
225.746	2.06
225.98	4.06
226.215	9.06
226.449	14.06
226.683	36.06
226.918	24.06
227.152	35.06
227.387	27.06
227.621	45.06
227.856	43.06
228.09	62.06
228.324	44.06
228.559	56.06
228.793	46.06
229.027	85.06
229.262	75.06
229.496	79.06
229.73	99.06
229.964	91.06
230.199	79.06
230.433	67.06
230.667	80.06
230.901	86.06
231.136	96.06
231.37	80.06
231.604	86.06
231.838	88.06
232.072	78.06
232.306	75.06
232.541	83.06
232.775	73.06
233.009	83.06
233.243	83.06
233.477	76.06
233.711	92.06
233.945	83.06
234.179	74.06
234.413	72.06
234.647	80.06
234.881	74.06
235.115	98.06
235.349	70.06
235.583	89.06
235.817	83.06
236.051	59.06
236.285	62.06
236.519	72.06
236.753	78.06
236.987	80.06
237.221	87.06
237.455	86.06
237.689	81.06
237.922	82.06
238.156	88.06
238.39	82.06
238.624	71.06
238.858	83.06
239.091	80.06
239.325	83.06
239.559	94.06
239.793	75.06
240.027	74.06
240.26	79.06
240.494	78.06
240.728	94.06
240.961	73.06
241.195	81.06
241.429	78.06
241.662	91.06
241.896	88.06
242.13	78.06
242.363	72.06
242.597	73.06
242.83	91.06
243.064	74.06
243.298	100.06
243.531	77.06
243.765	82.06
243.998	80.06
244.232	94.06
244.465	87.06
244.699	88.06
244.932	77.06
245.166	82.06
245.399	82.06
245.633	88.06
245.866	88.06
246.099	75.06
246.333	77.06
246.566	75.06
246.8	90.06
247.033	78.06
247.266	65.06
247.5	90.06
247.733	67.06
247.966	75.06
248.2	94.06
248.433	86.06
248.666	88.06
248.899	88.06
249.133	96.06
249.366	94.06
249.599	95.06
249.832	72.06
250.066	84.06
250.299	76.06
250.532	84.06
250.765	89.06
250.998	90.06
251.231	86.06
251.465	86.06
251.698	86.06
251.931	87.06
252.164	82.06
252.397	93.06
252.63	85.06
252.863	68.06
253.096	83.06
253.329	87.06
253.562	72.06
253.795	83.06
254.028	73.06
254.261	81.06
254.494	89.06
254.727	87.06
254.96	96.06
255.193	88.06
255.426	81.06
255.659	84.06
255.892	89.06
256.124	90.06
256.357	94.06
256.59	80.06
256.823	76.06
257.056	82.06
257.289	70.06
257.521	102.06
257.754	102.06
257.987	93.06
258.22	83.06
258.452	105.06
258.685	102.06
258.918	83.06
259.151	71.06
259.383	76.06
259.616	95.06
259.849	83.06
260.081	91.06
260.314	76.06
260.547	83.06
260.779	94.06
261.012	107.06
261.244	98.06
261.477	96.06
261.71	111.06
261.942	113.06
262.175	141.06
262.407	101.06
262.64	91.06
262.872	71.06
263.105	83.06
263.337	82.06
263.57	79.06
263.802	88.06
264.035	91.06
264.267	71.06
264.499	85.06
264.732	88.06
264.964	82.06
265.197	74.06
265.429	83.06
265.661	82.06
265.894	84.06
266.126	74.06
266.358	86.06
266.591	91.06
266.823	90.06
267.055	76.06
267.287	79.06
267.52	81.06
267.752	91.06
267.984	96.06
268.216	74.06
268.448	97.06
268.681	93.06
268.913	87.06
269.145	88.06
269.377	84.06
269.609	88.06
269.841	86.06
270.073	92.06
270.306	75.06
270.538	89.06
270.77	89.06
271.002	96.06
271.234	98.06
271.466	97.06
271.698	87.06
271.93	97.06
272.162	102.06
272.394	84.06
272.626	91.06
272.858	96.06
273.09	97.06
273.322	96.06
273.553	84.06
273.785	90.06
274.017	83.06
274.249	90.06
274.481	88.06
274.713	90.06
274.945	92.06
275.176	90.06
275.408	89.06
275.64	112.06
275.872	103.06
276.104	108.06
276.335	96.06
276.567	111.06
276.799	128.06
277.031	161.06
277.262	160.06
277.494	135.06
277.726	94.06
277.957	90.06
278.189	93.06
278.421	109.06
278.652	97.06
278.884	105.06
279.115	95.06
279.347	83.06
279.579	90.06
279.81	114.06
280.042	161.06
280.273	216.06
280.505	168.06
280.736	111.06
280.968	84.06
281.199	84.06
281.431	92.06
281.662	99.06
281.894	92.06
282.125	110.06
282.356	128.06
282.588	158.06
282.819	134.06
283.051	107.06
283.282	82.06
283.513	99.06
283.745	86.06
283.976	102.06
284.207	93.06
284.439	75.06
284.67	103.06
284.901	108.06
285.132	81.06
285.364	94.06
285.595	73.06
285.826	88.06
286.057	79.06
286.288	100.06
286.52	84.06
286.751	89.06
286.982	87.06
287.213	92.06
287.444	93.06
287.675	85.06
287.906	77.06
288.138	98.06
288.369	98.06
288.6	88.06
288.831	96.06
289.062	95.06
289.293	85.06
289.524	90.06
289.755	79.06
289.986	89.06
290.217	93.06
290.448	88.06
290.679	80.06
290.91	78.06
291.141	91.06
291.371	99.06
291.602	91.06
291.833	92.06
292.064	94.06
292.295	94.06
292.526	96.06
292.757	95.06
292.987	90.06
293.218	88.06
293.449	87.06
293.68	94.06
293.91	79.06
294.141	90.06
294.372	102.06
294.603	94.06
294.833	87.06
295.064	95.06
295.295	92.06
295.525	86.06
295.756	98.06
295.987	114.06
296.217	167.06
296.448	140.06
296.679	99.06
296.909	94.06
297.14	83.06
297.37	96.06
297.601	84.06
297.831	81.06
298.062	94.06
298.292	95.06
298.523	89.06
298.753	95.06
298.984	86.06
299.214	99.06
299.445	93.06
299.675	88.06
299.905	86.06
300.136	95.06
300.366	98.06
300.597	95.06
300.827	93.06
301.057	95.06
301.288	121.06
301.518	98.06
301.748	102.06
301.979	108.06
302.209	100.06
302.439	99.06
302.669	100.06
302.9	89.06
303.13	94.06
303.36	97.06
303.59	123.06
303.82	114.06
304.051	102.06
304.281	91.06
304.511	100.06
304.741	108.06
304.971	95.06
305.201	93.06
305.431	84.06
305.661	92.06
305.891	70.06
306.121	87.06
306.352	98.06
306.582	113.06
306.812	95.06
307.042	125.06
307.272	142.06
307.502	154.06
307.731	142.06
307.961	113.06
308.191	90.06
308.421	98.06
308.651	95.06
308.881	96.06
309.111	105.06
309.341	87.06
309.571	91.06
309.8	95.06
310.03	94.06
310.26	104.06
310.49	109.06
310.72	112.06
310.949	102.06
311.179	115.06
311.409	110.06
311.639	95.06
311.868	100.06
312.098	99.06
312.328	104.06
312.557	133.06
312.787	130.06
313.017	111.06
313.246	86.06
313.476	92.06
313.706	82.06
313.935	96.06
314.165	113.06
314.394	118.06
314.624	118.06
314.853	111.06
315.083	104.06
315.312	90.06
315.542	81.06
315.771	99.06
316.001	108.06
316.23	97.06
316.46	86.06
316.689	94.06
316.919	95.06
317.148	99.06
317.377	104.06
317.607	87.06
317.836	95.06
318.065	111.06
318.295	89.06
318.524	88.06
318.753	86.06
318.983	102.06
319.212	97.06
319.441	125.06
319.67	128.06
319.9	113.06
320.129	102.06
320.358	90.06
320.587	94.06
320.816	106.06
321.046	97.06
321.275	98.06
321.504	102.06
321.733	102.06
321.962	101.06
322.191	107.06
322.42	114.06
322.649	124.06
322.878	122.06
323.108	136.06
323.337	144.06
323.566	169.06
323.795	185.06
324.024	256.06
324.253	518.06
324.482	1131.06
324.71	2403.06
324.939	3288.06
325.168	1186.06
325.397	332.06
325.626	178.06
325.855	156.06
326.084	141.06
326.313	151.06
326.542	207.06
326.77	292.06
326.999	594.06
327.228	1257.06
327.457	2491.06
327.686	1964.06
327.914	596.06
328.143	475.06
328.372	538.06
328.6	318.06
328.829	155.06
329.058	190.06
329.287	195.06
329.515	156.06
329.744	235.06
329.972	387.06
330.201	826.06
330.43	1178.06
330.658	540.06
330.887	255.06
331.115	185.06
331.344	119.06
331.572	128.06
331.801	116.06
332.03	130.06
332.258	110.06
332.486	110.06
332.715	110.06
332.943	111.06
333.172	124.06
333.4	132.06
333.629	150.06
333.857	203.06
334.085	355.06
334.314	745.06
334.542	1478.06
334.771	1388.06
334.999	375.06
335.227	161.06
335.455	117.06
335.684	122.06
335.912	108.06
336.14	106.06
336.369	109.06
336.597	105.06
336.825	95.06
337.053	97.06
337.281	100.06
337.51	98.06
337.738	99.06
337.966	97.06
338.194	112.06
338.422	88.06
338.65	103.06
338.878	86.06
339.106	94.06
339.334	94.06
339.562	90.06
339.79	81.06
340.018	86.06
340.246	89.06
340.474	94.06
340.702	98.06
340.93	71.06
341.158	106.06
341.386	100.06
341.614	105.06
341.842	106.06
342.07	81.06
342.298	98.06
342.526	100.06
342.754	99.06
342.981	87.06
343.209	100.06
343.437	101.06
343.665	97.06
343.893	81.06
344.12	87.06
344.348	86.06
344.576	83.06
344.804	78.06
345.031	103.06
345.259	107.06
345.487	95.06
345.714	81.06
345.942	95.06
346.17	95.06
346.397	110.06
346.625	107.06
346.853	104.06
347.08	84.06
347.308	99.06
347.535	104.06
347.763	108.06
347.99	103.06
348.218	112.06
348.445	109.06
348.673	101.06
348.9	107.06
349.128	103.06
349.355	81.06
349.583	101.06
349.81	96.06
350.037	103.06
350.265	104.06
350.492	104.06
350.72	85.06
350.947	99.06
351.174	120.06
351.402	118.06
351.629	112.06
351.856	112.06
352.083	103.06
352.311	112.06
352.538	123.06
352.765	123.06
352.992	126.06
353.22	124.06
353.447	104.06
353.674	104.06
353.901	97.06
354.128	102.06
354.355	96.06
354.583	118.06
354.81	110.06
355.037	114.06
355.264	103.06
355.491	95.06
355.718	92.06
355.945	104.06
356.172	86.06
356.399	108.06
356.626	116.06
356.853	100.06
357.08	95.06
357.307	106.06
357.534	99.06
357.761	98.06
357.988	107.06
358.215	117.06
358.441	117.06
358.668	128.06
358.895	98.06
359.122	97.06
359.349	80.06
359.576	100.06
359.802	107.06
360.029	134.06
360.256	135.06
360.483	123.06
360.709	106.06
360.936	95.06
361.163	79.06
361.39	104.06
361.616	122.06
361.843	84.06
362.07	96.06
362.296	113.06
362.523	107.06
362.749	96.06
362.976	88.06
363.203	94.06
363.429	97.06
363.656	83.06
363.882	94.06
364.109	89.06
364.335	93.06
364.562	96.06
364.788	88.06
365.015	98.06
365.241	104.06
365.468	119.06
365.694	109.06
365.92	97.06
366.147	95.06
366.373	97.06
366.599	96.06
366.826	96.06
367.052	98.06
367.278	96.06
367.505	96.06
367.731	90.06
367.957	112.06
368.184	102.06
368.41	110.06
368.636	114.06
368.862	134.06
369.089	122.06
369.315	98.06
369.541	99.06
369.767	105.06
369.993	106.06
370.219	89.06
370.445	91.06
370.672	103.06
370.898	92.06
371.124	93.06
371.35	92.06
371.576	97.06
371.802	87.06
372.028	80.06
372.254	95.06
372.48	103.06
372.706	93.06
372.932	90.06
373.158	96.06
373.384	88.06
373.61	90.06
373.835	77.06
374.061	95.06
374.287	100.06
374.513	94.06
374.739	102.06
374.965	108.06
375.191	84.06
375.416	88.06
375.642	94.06
375.868	106.06
376.094	90.06
376.319	85.06
376.545	95.06
376.771	88.06
376.997	97.06
377.222	82.06
377.448	107.06
377.674	87.06
377.899	98.06
378.125	105.06
378.35	109.06
378.576	96.06
378.802	83.06
379.027	105.06
379.253	106.06
379.478	93.06
379.704	103.06
379.929	110.06
380.155	105.06
380.38	99.06
380.606	108.06
380.831	109.06
381.057	114.06
381.282	131.06
381.507	124.06
381.733	105.06
381.958	112.06
382.184	107.06
382.409	118.06
382.634	117.06
382.86	119.06
383.085	122.06
383.31	140.06
383.535	121.06
383.761	124.06
383.986	115.06
384.211	128.06
384.436	114.06
384.662	126.06
384.887	125.06
385.112	125.06
385.337	142.06
385.562	139.06
385.787	140.06
386.013	176.06
386.238	157.06
386.463	136.06
386.688	150.06
386.913	142.06
387.138	142.06
387.363	139.06
387.588	123.06
387.813	122.06
388.038	142.06
388.263	174.06
388.488	159.06
388.713	93.06
388.938	96.06
389.163	103.06
389.387	93.06
389.612	88.06
389.837	105.06
390.062	83.06
390.287	82.06
390.512	96.06
390.736	81.06
390.961	88.06
391.186	80.06
391.411	93.06
391.636	91.06
391.86	90.06
392.085	99.06
392.31	92.06
392.534	80.06
392.759	95.06
392.984	84.06
393.208	111.06
393.433	116.06
393.658	126.06
393.882	92.06
394.107	91.06
394.331	95.06
394.556	99.06
394.78	88.06
395.005	93.06
395.229	82.06
395.454	106.06
395.678	93.06
395.903	88.06
396.127	111.06
396.352	95.06
396.576	97.06
396.801	98.06
397.025	106.06
397.249	91.06
397.474	88.06
397.698	92.06
397.922	78.06
398.147	84.06
398.371	96.06
398.595	103.06
398.82	99.06
399.044	92.06
399.268	84.06
399.492	85.06
399.717	80.06
399.941	99.06
400.165	92.06
400.389	91.06
400.613	92.06
400.837	79.06
401.062	92.06
401.286	88.06
401.51	107.06
401.734	103.06
401.958	103.06
402.182	135.06
402.406	190.06
402.63	142.06
402.854	106.06
403.078	109.06
403.302	91.06
403.526	86.06
403.75	104.06
403.974	90.06
404.198	96.06
404.422	82.06
404.645	97.06
404.869	89.06
405.093	119.06
405.317	139.06
405.541	136.06
405.765	138.06
405.988	141.06
406.212	208.06
406.436	279.06
406.66	182.06
406.883	121.06
407.107	91.06
407.331	90.06
407.555	109.06
407.778	113.06
408.002	103.06
408.226	103.06
408.449	104.06
408.673	105.06
408.896	103.06
409.12	106.06
409.344	103.06
409.567	100.06
409.791	93.06
410.014	91.06
410.238	100.06
410.461	80.06
410.685	92.06
410.908	103.06
411.132	98.06
411.355	115.06
411.578	100.06
411.802	88.06
412.025	107.06
412.249	111.06
412.472	130.06
412.695	161.06
412.919	113.06
413.142	95.06
413.365	99.06
413.589	92.06
413.812	94.06
414.035	88.06
414.258	85.06
414.482	97.06
414.705	101.06
414.928	88.06
415.151	96.06
415.374	98.06
415.597	89.06
415.821	105.06
416.044	98.06
416.267	97.06
416.49	83.06
416.713	91.06
416.936	84.06
417.159	93.06
417.382	103.06
417.605	109.06
417.828	98.06
418.051	103.06
418.274	91.06
418.497	99.06
418.72	91.06
418.943	81.06
419.166	91.06
419.389	72.06
419.611	92.06
419.834	87.06
420.057	96.06
420.28	86.06
420.503	78.06
420.726	95.06
420.948	105.06
421.171	103.06
421.394	99.06
421.617	94.06
421.839	84.06
422.062	92.06
422.285	118.06
422.507	99.06
422.73	126.06
422.953	126.06
423.175	95.06
423.398	98.06
423.621	87.06
423.843	88.06
424.066	91.06
424.288	88.06
424.511	97.06
424.733	99.06
424.956	118.06
425.178	105.06
425.401	96.06
425.623	114.06
425.846	97.06
426.068	98.06
426.291	107.06
426.513	115.06
426.735	94.06
426.958	109.06
427.18	124.06
427.402	177.06
427.625	239.06
427.847	229.06
428.069	214.06
428.292	113.06
428.514	86.06
428.736	95.06
428.958	84.06
429.181	80.06
429.403	101.06
429.625	91.06
429.847	105.06
430.069	112.06
430.292	98.06
430.514	95.06
430.736	88.06
430.958	82.06
431.18	88.06
431.402	73.06
431.624	98.06
431.846	86.06
432.068	86.06
432.29	100.06
432.512	76.06
432.734	76.06
432.956	96.06
433.178	99.06
433.4	105.06
433.622	94.06
433.844	90.06
434.066	94.06
434.287	79.06
434.509	80.06
434.731	93.06
434.953	81.06
435.175	87.06
435.397	104.06
435.618	93.06
435.84	129.06
436.062	140.06
436.284	140.06
436.505	123.06
436.727	110.06
436.949	100.06
437.17	74.06
437.392	91.06
437.614	95.06
437.835	115.06
438.057	144.06
438.278	125.06
438.5	107.06
438.721	143.06
438.943	130.06
439.165	98.06
439.386	94.06
439.608	97.06
439.829	108.06
440.05	156.06
440.272	202.06
440.493	125.06
440.715	104.06
440.936	77.06
441.158	102.06
441.379	102.06
441.6	93.06
441.822	114.06
442.043	100.06
442.264	112.06
442.486	106.06
442.707	105.06
442.928	119.06
443.149	177.06
443.371	170.06
443.592	127.06
443.813	131.06
444.034	128.06
444.255	88.06
444.476	102.06
444.698	94.06
444.919	93.06
445.14	143.06
445.361	125.06
445.582	135.06
445.803	200.06
446.024	191.06
446.245	180.06
446.466	110.06
446.687	107.06
446.908	92.06
447.129	92.06
447.35	87.06
447.571	102.06
447.792	98.06
448.013	107.06
448.234	113.06
448.455	106.06
448.675	115.06
448.896	144.06
449.117	121.06
449.338	117.06
449.559	121.06
449.779	141.06
450	102.06
450.221	92.06
450.442	99.06
450.662	100.06
450.883	117.06
451.104	135.06
451.324	107.06
451.545	95.06
451.766	82.06
451.986	86.06
452.207	86.06
452.428	99.06
452.648	110.06
452.869	126.06
453.089	124.06
453.31	137.06
453.53	105.06
453.751	98.06
453.971	104.06
454.192	128.06
454.412	111.06
454.633	93.06
454.853	91.06
455.073	91.06
455.294	99.06
455.514	109.06
455.734	107.06
455.955	86.06
456.175	92.06
456.395	83.06
456.616	87.06
456.836	82.06
457.056	83.06
457.276	83.06
457.497	97.06
457.717	65.06
457.937	87.06
458.157	99.06
458.377	102.06
458.598	106.06
458.818	199.06
459.038	218.06
459.258	158.06
459.478	112.06
459.698	106.06
459.918	87.06
460.138	79.06
460.358	86.06
460.578	86.06
460.798	96.06
461.018	83.06
461.238	92.06
461.458	77.06
461.678	89.06
461.898	88.06
462.118	96.06
462.338	80.06
462.558	90.06
462.777	88.06
462.997	81.06
463.217	108.06
463.437	93.06
463.657	92.06
463.876	96.06
464.096	104.06
464.316	95.06
464.536	89.06
464.755	85.06
464.975	124.06
465.195	226.06
465.414	214.06
465.634	109.06
465.854	98.06
466.073	92.06
466.293	97.06
466.512	94.06
466.732	101.06
466.951	88.06
467.171	90.06
467.391	97.06
467.61	136.06
467.829	193.06
468.049	466.06
468.268	673.06
468.488	188.06
468.707	116.06
468.927	95.06
469.146	95.06
469.365	85.06
469.585	107.06
469.804	112.06
470.023	110.06
470.243	87.06
470.462	128.06
470.681	130.06
470.901	110.06
471.12	105.06
471.339	98.06
471.558	108.06
471.777	151.06
471.997	256.06
472.216	917.06
472.435	2008.06
472.654	496.06
472.873	162.06
473.092	107.06
473.311	97.06
473.53	95.06
473.749	89.06
473.968	111.06
474.187	129.06
474.406	113.06
474.625	95.06
474.844	91.06
475.063	102.06
475.282	92.06
475.501	87.06
475.72	89.06
475.939	95.06
476.158	95.06
476.377	93.06
476.596	99.06
476.814	100.06
477.033	98.06
477.252	100.06
477.471	90.06
477.69	100.06
477.908	89.06
478.127	80.06
478.346	106.06
478.564	112.06
478.783	99.06
479.002	111.06
479.22	97.06
479.439	111.06
479.658	122.06
479.876	113.06
480.095	107.06
480.313	129.06
480.532	156.06
480.751	244.06
480.969	826.06
481.188	3552.06
481.406	2082.06
481.624	333.06
481.843	126.06
482.061	100.06
482.28	98.06
482.498	91.06
482.717	108.06
482.935	100.06
483.153	86.06
483.372	96.06
483.59	93.06
483.808	104.06
484.027	96.06
484.245	106.06
484.463	103.06
484.681	95.06
484.9	92.06
485.118	94.06
485.336	103.06
485.554	105.06
485.772	109.06
485.99	119.06
486.209	120.06
486.427	110.06
486.645	130.06
486.863	125.06
487.081	123.06
487.299	117.06
487.517	89.06
487.735	96.06
487.953	90.06
488.171	86.06
488.389	103.06
488.607	131.06
488.825	97.06
489.043	96.06
489.261	96.06
489.479	87.06
489.696	93.06
489.914	84.06
490.132	90.06
490.35	91.06
490.568	81.06
490.786	96.06
491.003	81.06
491.221	109.06
491.439	98.06
491.657	91.06
491.874	90.06
492.092	87.06
492.31	91.06
492.527	93.06
492.745	106.06
492.963	97.06
493.18	91.06
493.398	102.06
493.615	94.06
493.833	104.06
494.05	108.06
494.268	99.06
494.485	105.06
494.703	86.06
494.92	87.06
495.138	97.06
495.355	93.06
495.573	98.06
495.79	97.06
496.008	113.06
496.225	110.06
496.442	85.06
496.66	97.06
496.877	93.06
497.094	83.06
497.312	91.06
497.529	88.06
497.746	88.06
497.963	105.06
498.181	88.06
498.398	116.06
498.615	113.06
498.832	112.06
499.049	87.06
499.267	97.06
499.484	86.06
499.701	98.06
499.918	102.06
500.135	106.06
500.352	107.06
500.569	98.06
500.786	89.06
501.003	89.06
501.22	94.06
501.437	82.06
501.654	83.06
501.871	129.06
502.088	100.06
502.305	92.06
502.522	98.06
502.739	84.06
502.956	101.06
503.172	100.06
503.389	99.06
503.606	112.06
503.823	98.06
504.04	90.06
504.256	97.06
504.473	100.06
504.69	84.06
504.907	95.06
505.123	92.06
505.34	86.06
505.557	90.06
505.773	114.06
505.99	100.06
506.207	95.06
506.423	83.06
506.64	75.06
506.856	89.06
507.073	75.06
507.289	90.06
507.506	103.06
507.722	122.06
507.939	143.06
508.155	112.06
508.372	98.06
508.588	100.06
508.805	100.06
509.021	93.06
509.238	100.06
509.454	95.06
509.67	108.06
509.887	109.06
510.103	144.06
510.319	232.06
510.536	880.06
510.752	3169.06
510.968	815.06
511.184	174.06
511.401	129.06
511.617	110.06
511.833	106.06
512.049	99.06
512.265	98.06
512.481	89.06
