Data from Circ_1998_H10_HRD10591_00036.txt Node
Date: Wed Jan 03 11:26:56 EST 2024
User: Yrep
Spectrometer: HR+D1059
Trigger mode: 1
Integration Time (sec): 1.000000E-1
Scans to average: 1
Electric dark correction enabled: true
Nonlinearity correction enabled: false
Boxcar width: 0
XAxis mode: Wavelengths
Number of Pixels in Spectrum: 2048
>>>>>Begin Spectral Data<<<<<
223.165	-7.94
223.4	-7.94
223.635	-7.94
223.869	-18.94
224.104	-17.94
224.338	-19.94
224.573	-12.94
224.808	-9.94
225.042	-30.94
225.277	2.06
225.511	-4.94
225.746	15.06
225.98	-7.94
226.215	13.06
226.449	14.06
226.683	23.06
226.918	30.06
227.152	34.06
227.387	36.06
227.621	40.06
227.856	29.06
228.09	51.06
228.324	42.06
228.559	60.06
228.793	74.06
229.027	69.06
229.262	68.06
229.496	74.06
229.73	90.06
229.964	83.06
230.199	76.06
230.433	87.06
230.667	70.06
230.901	76.06
231.136	78.06
231.37	78.06
231.604	94.06
231.838	85.06
232.072	78.06
232.306	75.06
232.541	81.06
232.775	86.06
233.009	87.06
233.243	89.06
233.477	89.06
233.711	89.06
233.945	95.06
234.179	87.06
234.413	97.06
234.647	92.06
234.881	83.06
235.115	81.06
235.349	81.06
235.583	93.06
235.817	81.06
236.051	77.06
236.285	76.06
236.519	68.06
236.753	80.06
236.987	81.06
237.221	85.06
237.455	93.06
237.689	82.06
237.922	72.06
238.156	66.06
238.39	89.06
238.624	80.06
238.858	80.06
239.091	80.06
239.325	79.06
239.559	79.06
239.793	82.06
240.027	74.06
240.26	84.06
240.494	78.06
240.728	81.06
240.961	73.06
241.195	79.06
241.429	90.06
241.662	71.06
241.896	72.06
242.13	75.06
242.363	90.06
242.597	84.06
242.83	95.06
243.064	67.06
243.298	79.06
243.531	76.06
243.765	81.06
243.998	88.06
244.232	77.06
244.465	85.06
244.699	86.06
244.932	82.06
245.166	78.06
245.399	85.06
245.633	72.06
245.866	83.06
246.099	75.06
246.333	78.06
246.566	84.06
246.8	86.06
247.033	89.06
247.266	74.06
247.5	74.06
247.733	76.06
247.966	87.06
248.2	79.06
248.433	86.06
248.666	77.06
248.899	90.06
249.133	87.06
249.366	112.06
249.599	104.06
249.832	90.06
250.066	100.06
250.299	90.06
250.532	80.06
250.765	89.06
250.998	73.06
251.231	82.06
251.465	90.06
251.698	77.06
251.931	71.06
252.164	81.06
252.397	77.06
252.63	91.06
252.863	80.06
253.096	73.06
253.329	86.06
253.562	92.06
253.795	94.06
254.028	84.06
254.261	88.06
254.494	85.06
254.727	62.06
254.96	82.06
255.193	66.06
255.426	82.06
255.659	93.06
255.892	103.06
256.124	87.06
256.357	85.06
256.59	96.06
256.823	90.06
257.056	100.06
257.289	94.06
257.521	76.06
257.754	79.06
257.987	90.06
258.22	96.06
258.452	101.06
258.685	98.06
258.918	82.06
259.151	86.06
259.383	96.06
259.616	76.06
259.849	74.06
260.081	84.06
260.314	90.06
260.547	85.06
260.779	88.06
261.012	101.06
261.244	107.06
261.477	97.06
261.71	106.06
261.942	111.06
262.175	133.06
262.407	106.06
262.64	94.06
262.872	84.06
263.105	79.06
263.337	79.06
263.57	88.06
263.802	85.06
264.035	78.06
264.267	88.06
264.499	77.06
264.732	98.06
264.964	89.06
265.197	77.06
265.429	100.06
265.661	79.06
265.894	98.06
266.126	93.06
266.358	85.06
266.591	85.06
266.823	76.06
267.055	88.06
267.287	87.06
267.52	96.06
267.752	87.06
267.984	80.06
268.216	100.06
268.448	85.06
268.681	75.06
268.913	82.06
269.145	81.06
269.377	88.06
269.609	73.06
269.841	84.06
270.073	92.06
270.306	96.06
270.538	105.06
270.77	74.06
271.002	73.06
271.234	97.06
271.466	96.06
271.698	86.06
271.93	84.06
272.162	92.06
272.394	97.06
272.626	89.06
272.858	90.06
273.09	84.06
273.322	98.06
273.553	87.06
273.785	91.06
274.017	91.06
274.249	91.06
274.481	82.06
274.713	65.06
274.945	77.06
275.176	82.06
275.408	94.06
275.64	114.06
275.872	117.06
276.104	95.06
276.335	107.06
276.567	104.06
276.799	135.06
277.031	165.06
277.262	178.06
277.494	139.06
277.726	90.06
277.957	94.06
278.189	93.06
278.421	101.06
278.652	80.06
278.884	97.06
279.115	108.06
279.347	104.06
279.579	115.06
279.81	127.06
280.042	189.06
280.273	253.06
280.505	184.06
280.736	95.06
280.968	100.06
281.199	96.06
281.431	98.06
281.662	98.06
281.894	89.06
282.125	92.06
282.356	131.06
282.588	157.06
282.819	121.06
283.051	86.06
283.282	81.06
283.513	88.06
283.745	91.06
283.976	94.06
284.207	100.06
284.439	82.06
284.67	89.06
284.901	73.06
285.132	77.06
285.364	81.06
285.595	87.06
285.826	77.06
286.057	82.06
286.288	107.06
286.52	81.06
286.751	89.06
286.982	80.06
287.213	83.06
287.444	97.06
287.675	79.06
287.906	82.06
288.138	90.06
288.369	99.06
288.6	101.06
288.831	101.06
289.062	91.06
289.293	84.06
289.524	78.06
289.755	100.06
289.986	84.06
290.217	82.06
290.448	104.06
290.679	82.06
290.91	97.06
291.141	104.06
291.371	82.06
291.602	81.06
291.833	92.06
292.064	99.06
292.295	97.06
292.526	103.06
292.757	91.06
292.987	82.06
293.218	100.06
293.449	92.06
293.68	87.06
293.91	100.06
294.141	100.06
294.372	79.06
294.603	99.06
294.833	91.06
295.064	90.06
295.295	87.06
295.525	87.06
295.756	94.06
295.987	132.06
296.217	143.06
296.448	152.06
296.679	95.06
296.909	92.06
297.14	84.06
297.37	98.06
297.601	96.06
297.831	100.06
298.062	99.06
298.292	98.06
298.523	96.06
298.753	88.06
298.984	88.06
299.214	86.06
299.445	109.06
299.675	91.06
299.905	116.06
300.136	81.06
300.366	85.06
300.597	94.06
300.827	97.06
301.057	105.06
301.288	100.06
301.518	108.06
301.748	97.06
301.979	108.06
302.209	100.06
302.439	106.06
302.669	85.06
302.9	101.06
303.13	108.06
303.36	101.06
303.59	130.06
303.82	145.06
304.051	117.06
304.281	96.06
304.511	97.06
304.741	101.06
304.971	97.06
305.201	99.06
305.431	85.06
305.661	94.06
305.891	99.06
306.121	100.06
306.352	116.06
306.582	113.06
306.812	109.06
307.042	110.06
307.272	147.06
307.502	177.06
307.731	161.06
307.961	119.06
308.191	98.06
308.421	73.06
308.651	91.06
308.881	95.06
309.111	109.06
309.341	102.06
309.571	107.06
309.8	103.06
310.03	90.06
310.26	108.06
310.49	100.06
310.72	100.06
310.949	117.06
311.179	91.06
311.409	97.06
311.639	97.06
311.868	108.06
312.098	103.06
312.328	86.06
312.557	109.06
312.787	118.06
313.017	107.06
313.246	99.06
313.476	100.06
313.706	94.06
313.935	96.06
314.165	95.06
314.394	109.06
314.624	103.06
314.853	104.06
315.083	110.06
315.312	80.06
315.542	104.06
315.771	100.06
316.001	108.06
316.23	106.06
316.46	99.06
316.689	89.06
316.919	106.06
317.148	99.06
317.377	106.06
317.607	113.06
317.836	104.06
318.065	85.06
318.295	99.06
318.524	98.06
318.753	93.06
318.983	98.06
319.212	106.06
319.441	113.06
319.67	106.06
319.9	93.06
320.129	104.06
320.358	94.06
320.587	101.06
320.816	103.06
321.046	119.06
321.275	88.06
321.504	83.06
321.733	100.06
321.962	109.06
322.191	115.06
322.42	97.06
322.649	128.06
322.878	127.06
323.108	121.06
323.337	152.06
323.566	161.06
323.795	179.06
324.024	257.06
324.253	498.06
324.482	1077.06
324.71	2311.06
324.939	3052.06
325.168	1064.06
325.397	305.06
325.626	163.06
325.855	147.06
326.084	139.06
326.313	152.06
326.542	173.06
326.77	280.06
326.999	553.06
327.228	1209.06
327.457	2307.06
327.686	1848.06
327.914	590.06
328.143	526.06
328.372	651.06
328.6	353.06
328.829	184.06
329.058	172.06
329.287	175.06
329.515	194.06
329.744	260.06
329.972	486.06
330.201	1000.06
330.43	1395.06
330.658	602.06
330.887	261.06
331.115	173.06
331.344	113.06
331.572	116.06
331.801	122.06
332.03	118.06
332.258	118.06
332.486	103.06
332.715	113.06
332.943	108.06
333.172	128.06
333.4	145.06
333.629	161.06
333.857	237.06
334.085	427.06
334.314	908.06
334.542	1812.06
334.771	1693.06
334.999	439.06
335.227	177.06
335.455	132.06
335.684	110.06
335.912	115.06
336.14	106.06
336.369	107.06
336.597	114.06
336.825	109.06
337.053	102.06
337.281	103.06
337.51	94.06
337.738	109.06
337.966	105.06
338.194	116.06
338.422	100.06
338.65	97.06
338.878	101.06
339.106	99.06
339.334	86.06
339.562	89.06
339.79	83.06
340.018	91.06
340.246	101.06
340.474	110.06
340.702	112.06
340.93	100.06
341.158	96.06
341.386	102.06
341.614	96.06
341.842	93.06
342.07	104.06
342.298	112.06
342.526	97.06
342.754	89.06
342.981	94.06
343.209	65.06
343.437	91.06
343.665	102.06
343.893	102.06
344.12	107.06
344.348	99.06
344.576	91.06
344.804	107.06
345.031	100.06
345.259	100.06
345.487	103.06
345.714	87.06
345.942	89.06
346.17	78.06
346.397	78.06
346.625	100.06
346.853	82.06
347.08	83.06
347.308	89.06
347.535	98.06
347.763	109.06
347.99	115.06
348.218	112.06
348.445	110.06
348.673	110.06
348.9	102.06
349.128	103.06
349.355	103.06
349.583	101.06
349.81	96.06
350.037	92.06
350.265	90.06
350.492	95.06
350.72	89.06
350.947	101.06
351.174	104.06
351.402	120.06
351.629	107.06
351.856	112.06
352.083	116.06
352.311	115.06
352.538	116.06
352.765	125.06
352.992	123.06
353.22	116.06
353.447	105.06
353.674	109.06
353.901	107.06
354.128	100.06
354.355	89.06
354.583	101.06
354.81	110.06
355.037	108.06
355.264	93.06
355.491	98.06
355.718	79.06
355.945	85.06
356.172	103.06
356.399	109.06
356.626	106.06
356.853	107.06
357.08	100.06
357.307	98.06
357.534	90.06
357.761	85.06
357.988	98.06
358.215	94.06
358.441	91.06
358.668	98.06
358.895	96.06
359.122	91.06
359.349	85.06
359.576	98.06
359.802	105.06
360.029	146.06
360.256	130.06
360.483	113.06
360.709	88.06
360.936	104.06
361.163	105.06
361.39	101.06
361.616	101.06
361.843	98.06
362.07	113.06
362.296	110.06
362.523	93.06
362.749	94.06
362.976	93.06
363.203	92.06
363.429	78.06
363.656	99.06
363.882	90.06
364.109	89.06
364.335	92.06
364.562	93.06
364.788	98.06
365.015	113.06
365.241	101.06
365.468	127.06
365.694	107.06
365.92	91.06
366.147	98.06
366.373	82.06
366.599	97.06
366.826	100.06
367.052	94.06
367.278	87.06
367.505	88.06
367.731	91.06
367.957	94.06
368.184	99.06
368.41	116.06
368.636	116.06
368.862	114.06
369.089	127.06
369.315	105.06
369.541	88.06
369.767	113.06
369.993	105.06
370.219	105.06
370.445	85.06
370.672	88.06
370.898	96.06
371.124	92.06
371.35	79.06
371.576	92.06
371.802	79.06
372.028	96.06
372.254	81.06
372.48	97.06
372.706	94.06
372.932	98.06
373.158	107.06
373.384	90.06
373.61	98.06
373.835	93.06
374.061	91.06
374.287	88.06
374.513	90.06
374.739	100.06
374.965	75.06
375.191	97.06
375.416	90.06
375.642	100.06
375.868	84.06
376.094	93.06
376.319	89.06
376.545	81.06
376.771	87.06
376.997	88.06
377.222	92.06
377.448	94.06
377.674	87.06
377.899	85.06
378.125	83.06
378.35	88.06
378.576	95.06
378.802	79.06
379.027	90.06
379.253	93.06
379.478	87.06
379.704	98.06
379.929	87.06
380.155	87.06
380.38	90.06
380.606	77.06
380.831	94.06
381.057	95.06
381.282	86.06
381.507	94.06
381.733	96.06
381.958	96.06
382.184	91.06
382.409	95.06
382.634	91.06
382.86	89.06
383.085	103.06
383.31	100.06
383.535	97.06
383.761	100.06
383.986	99.06
384.211	102.06
384.436	105.06
384.662	107.06
384.887	107.06
385.112	103.06
385.337	124.06
385.562	93.06
385.787	101.06
386.013	109.06
386.238	115.06
386.463	109.06
386.688	93.06
386.913	110.06
387.138	110.06
387.363	113.06
387.588	104.06
387.813	117.06
388.038	109.06
388.263	114.06
388.488	103.06
388.713	79.06
388.938	95.06
389.163	100.06
389.387	104.06
389.612	86.06
389.837	97.06
390.062	93.06
390.287	72.06
390.512	89.06
390.736	86.06
390.961	98.06
391.186	94.06
391.411	80.06
391.636	100.06
391.86	77.06
392.085	100.06
392.31	87.06
392.534	87.06
392.759	87.06
392.984	96.06
393.208	86.06
393.433	89.06
393.658	87.06
393.882	96.06
394.107	91.06
394.331	84.06
394.556	96.06
394.78	90.06
395.005	93.06
395.229	90.06
395.454	92.06
395.678	85.06
395.903	104.06
396.127	100.06
396.352	94.06
396.576	91.06
396.801	78.06
397.025	95.06
397.249	90.06
397.474	94.06
397.698	91.06
397.922	85.06
398.147	91.06
398.371	76.06
398.595	82.06
398.82	96.06
399.044	93.06
399.268	94.06
399.492	88.06
399.717	102.06
399.941	93.06
400.165	105.06
400.389	93.06
400.613	88.06
400.837	88.06
401.062	89.06
401.286	100.06
401.51	88.06
401.734	104.06
401.958	115.06
402.182	129.06
402.406	176.06
402.63	139.06
402.854	91.06
403.078	101.06
403.302	79.06
403.526	81.06
403.75	76.06
403.974	98.06
404.198	91.06
404.422	93.06
404.645	98.06
404.869	89.06
405.093	124.06
405.317	150.06
405.541	131.06
405.765	109.06
405.988	125.06
406.212	189.06
406.436	284.06
406.66	179.06
406.883	111.06
407.107	103.06
407.331	107.06
407.555	99.06
407.778	92.06
408.002	94.06
408.226	83.06
408.449	104.06
408.673	84.06
408.896	91.06
409.12	106.06
409.344	89.06
409.567	107.06
409.791	102.06
410.014	91.06
410.238	96.06
410.461	98.06
410.685	99.06
410.908	87.06
411.132	100.06
411.355	84.06
411.578	104.06
411.802	101.06
412.025	94.06
412.249	104.06
412.472	107.06
412.695	149.06
412.919	106.06
413.142	97.06
413.365	83.06
413.589	90.06
413.812	93.06
414.035	78.06
414.258	101.06
414.482	97.06
414.705	84.06
414.928	94.06
415.151	98.06
415.374	92.06
415.597	81.06
415.821	83.06
416.044	77.06
416.267	81.06
416.49	90.06
416.713	100.06
416.936	85.06
417.159	81.06
417.382	93.06
417.605	94.06
417.828	101.06
418.051	105.06
418.274	96.06
418.497	79.06
418.72	81.06
418.943	91.06
419.166	85.06
419.389	84.06
419.611	107.06
419.834	82.06
420.057	80.06
420.28	90.06
420.503	97.06
420.726	84.06
420.948	109.06
421.171	106.06
421.394	109.06
421.617	102.06
421.839	93.06
422.062	79.06
422.285	77.06
422.507	115.06
422.73	101.06
422.953	92.06
423.175	92.06
423.398	82.06
423.621	88.06
423.843	105.06
424.066	88.06
424.288	82.06
424.511	87.06
424.733	115.06
424.956	112.06
425.178	122.06
425.401	99.06
425.623	112.06
425.846	94.06
426.068	92.06
426.291	79.06
426.513	101.06
426.735	89.06
426.958	95.06
427.18	111.06
427.402	176.06
427.625	238.06
427.847	247.06
428.069	229.06
428.292	123.06
428.514	105.06
428.736	83.06
428.958	100.06
429.181	101.06
429.403	90.06
429.625	77.06
429.847	96.06
430.069	100.06
430.292	97.06
430.514	75.06
430.736	80.06
430.958	81.06
431.18	89.06
431.402	72.06
431.624	102.06
431.846	95.06
432.068	89.06
432.29	88.06
432.512	89.06
432.734	83.06
432.956	94.06
433.178	114.06
433.4	118.06
433.622	99.06
433.844	78.06
434.066	93.06
434.287	91.06
434.509	94.06
434.731	82.06
434.953	93.06
435.175	95.06
435.397	92.06
435.618	104.06
435.84	101.06
436.062	144.06
436.284	133.06
436.505	99.06
436.727	109.06
436.949	116.06
437.17	91.06
437.392	98.06
437.614	98.06
437.835	122.06
438.057	142.06
438.278	126.06
438.5	116.06
438.721	154.06
438.943	119.06
439.165	82.06
439.386	104.06
439.608	96.06
439.829	113.06
440.05	147.06
440.272	185.06
440.493	109.06
440.715	104.06
440.936	92.06
441.158	83.06
441.379	93.06
441.6	91.06
441.822	99.06
442.043	98.06
442.264	119.06
442.486	113.06
442.707	92.06
442.928	122.06
443.149	149.06
443.371	148.06
443.592	131.06
443.813	130.06
444.034	127.06
444.255	87.06
444.476	90.06
444.698	93.06
444.919	84.06
445.14	143.06
445.361	128.06
445.582	131.06
445.803	186.06
446.024	188.06
446.245	179.06
446.466	130.06
446.687	94.06
446.908	90.06
447.129	85.06
447.35	102.06
447.571	96.06
447.792	90.06
448.013	108.06
448.234	119.06
448.455	111.06
448.675	114.06
448.896	135.06
449.117	114.06
449.338	105.06
449.559	146.06
449.779	157.06
450	99.06
450.221	103.06
450.442	111.06
450.662	100.06
450.883	103.06
451.104	106.06
451.324	100.06
451.545	89.06
451.766	100.06
451.986	89.06
452.207	100.06
452.428	92.06
452.648	113.06
452.869	121.06
453.089	130.06
453.31	135.06
453.53	85.06
453.751	109.06
453.971	121.06
454.192	122.06
454.412	115.06
454.633	98.06
454.853	87.06
455.073	84.06
455.294	88.06
455.514	97.06
455.734	106.06
455.955	79.06
456.175	77.06
456.395	100.06
456.616	87.06
456.836	86.06
457.056	83.06
457.276	92.06
457.497	80.06
457.717	89.06
457.937	84.06
458.157	95.06
458.377	89.06
458.598	133.06
458.818	182.06
459.038	221.06
459.258	135.06
459.478	96.06
459.698	96.06
459.918	94.06
460.138	93.06
460.358	89.06
460.578	83.06
460.798	92.06
461.018	91.06
461.238	104.06
461.458	98.06
461.678	88.06
461.898	80.06
462.118	74.06
462.338	81.06
462.558	98.06
462.777	80.06
462.997	100.06
463.217	106.06
463.437	98.06
463.657	97.06
463.876	87.06
464.096	89.06
464.316	105.06
464.536	95.06
464.755	101.06
464.975	120.06
465.195	212.06
465.414	201.06
465.634	102.06
465.854	96.06
466.073	86.06
466.293	105.06
466.512	87.06
466.732	84.06
466.951	95.06
467.171	100.06
467.391	112.06
467.61	135.06
467.829	226.06
468.049	593.06
468.268	877.06
468.488	227.06
468.707	103.06
468.927	104.06
469.146	89.06
469.365	86.06
469.585	88.06
469.804	96.06
470.023	105.06
470.243	93.06
470.462	112.06
470.681	121.06
470.901	114.06
471.12	114.06
471.339	117.06
471.558	118.06
471.777	161.06
471.997	329.06
472.216	1188.06
472.435	2641.06
472.654	593.06
472.873	172.06
473.092	95.06
473.311	107.06
473.53	97.06
473.749	97.06
473.968	120.06
474.187	127.06
474.406	104.06
474.625	99.06
474.844	96.06
475.063	86.06
475.282	100.06
475.501	88.06
475.72	95.06
475.939	91.06
476.158	91.06
476.377	94.06
476.596	99.06
476.814	105.06
477.033	113.06
477.252	91.06
477.471	84.06
477.69	75.06
477.908	96.06
478.127	93.06
478.346	88.06
478.564	96.06
478.783	116.06
479.002	111.06
479.22	111.06
479.439	124.06
479.658	142.06
479.876	105.06
480.095	129.06
480.313	135.06
480.532	171.06
480.751	303.06
480.969	1053.06
481.188	4615.06
481.406	2583.06
481.624	379.06
481.843	140.06
482.061	119.06
482.28	98.06
482.498	94.06
482.717	109.06
482.935	95.06
483.153	105.06
483.372	96.06
483.59	91.06
483.808	90.06
484.027	97.06
484.245	95.06
484.463	103.06
484.681	94.06
484.9	96.06
485.118	85.06
485.336	96.06
485.554	95.06
485.772	106.06
485.99	116.06
486.209	100.06
486.427	111.06
486.645	126.06
486.863	122.06
487.081	100.06
487.299	93.06
487.517	96.06
487.735	105.06
487.953	92.06
488.171	88.06
488.389	109.06
488.607	105.06
488.825	101.06
489.043	97.06
489.261	89.06
489.479	99.06
489.696	90.06
489.914	85.06
490.132	84.06
490.35	98.06
490.568	105.06
490.786	100.06
491.003	101.06
491.221	82.06
491.439	88.06
491.657	108.06
491.874	99.06
492.092	104.06
492.31	103.06
492.527	110.06
492.745	105.06
492.963	104.06
493.18	96.06
493.398	89.06
493.615	101.06
493.833	93.06
494.05	92.06
494.268	84.06
494.485	92.06
494.703	91.06
494.92	83.06
495.138	89.06
495.355	99.06
495.573	93.06
495.79	97.06
496.008	92.06
496.225	99.06
496.442	76.06
496.66	93.06
496.877	110.06
497.094	84.06
497.312	101.06
497.529	92.06
497.746	88.06
497.963	97.06
498.181	93.06
498.398	97.06
498.615	116.06
498.832	110.06
499.049	85.06
499.267	94.06
499.484	88.06
499.701	80.06
499.918	93.06
500.135	112.06
500.352	95.06
500.569	94.06
500.786	93.06
501.003	81.06
501.22	88.06
501.437	101.06
501.654	106.06
501.871	114.06
502.088	97.06
502.305	89.06
502.522	88.06
502.739	98.06
502.956	87.06
503.172	99.06
503.389	111.06
503.606	123.06
503.823	104.06
504.04	101.06
504.256	89.06
504.473	88.06
504.69	90.06
504.907	101.06
505.123	77.06
505.34	93.06
505.557	95.06
505.773	91.06
505.99	96.06
506.207	82.06
506.423	83.06
506.64	91.06
506.856	87.06
507.073	84.06
507.289	90.06
507.506	110.06
507.722	124.06
507.939	130.06
508.155	95.06
508.372	101.06
508.588	99.06
508.805	87.06
509.021	91.06
509.238	101.06
509.454	101.06
509.67	98.06
509.887	124.06
510.103	152.06
510.319	237.06
510.536	858.06
510.752	3036.06
510.968	795.06
511.184	168.06
511.401	111.06
511.617	112.06
511.833	107.06
512.049	102.06
512.265	105.06
512.481	91.06
