Data from Circ_1998_H10_HRD10591_00089.txt Node
Date: Wed Jan 03 11:27:06 EST 2024
User: Yrep
Spectrometer: HR+D1059
Trigger mode: 1
Integration Time (sec): 1.000000E-1
Scans to average: 1
Electric dark correction enabled: true
Nonlinearity correction enabled: false
Boxcar width: 0
XAxis mode: Wavelengths
Number of Pixels in Spectrum: 2048
>>>>>Begin Spectral Data<<<<<
223.165	-14
223.4	-14
223.635	-14
223.869	-5
224.104	-15
224.338	-20
224.573	-25
224.808	-14
225.042	-6
225.277	-12
225.511	-10
225.746	-10
225.98	21
226.215	12
226.449	15
226.683	17
226.918	26
227.152	40
227.387	33
227.621	34
227.856	37
228.09	46
228.324	62
228.559	57
228.793	49
229.027	68
229.262	75
229.496	72
229.73	90
229.964	87
230.199	74
230.433	63
230.667	73
230.901	74
231.136	73
231.37	76
231.604	69
231.838	74
232.072	85
232.306	89
232.541	80
232.775	81
233.009	90
233.243	73
233.477	75
233.711	86
233.945	72
234.179	69
234.413	93
234.647	89
234.881	95
235.115	80
235.349	71
235.583	73
235.817	73
236.051	77
236.285	69
236.519	84
236.753	93
236.987	93
237.221	86
237.455	101
237.689	74
237.922	71
238.156	59
238.39	75
238.624	75
238.858	65
239.091	83
239.325	78
239.559	99
239.793	80
240.027	75
240.26	75
240.494	91
240.728	78
240.961	72
241.195	75
241.429	72
241.662	80
241.896	71
242.13	77
242.363	74
242.597	78
242.83	76
243.064	78
243.298	84
243.531	78
243.765	91
243.998	75
244.232	102
244.465	97
244.699	78
244.932	69
245.166	71
245.399	73
245.633	80
245.866	94
246.099	75
246.333	79
246.566	77
246.8	93
247.033	90
247.266	85
247.5	95
247.733	87
247.966	79
248.2	91
248.433	83
248.666	80
248.899	74
249.133	91
249.366	107
249.599	103
249.832	94
250.066	72
250.299	89
250.532	103
250.765	76
250.998	85
251.231	83
251.465	76
251.698	93
251.931	85
252.164	83
252.397	79
252.63	87
252.863	76
253.096	79
253.329	78
253.562	68
253.795	91
254.028	71
254.261	82
254.494	79
254.727	77
254.96	81
255.193	88
255.426	94
255.659	80
255.892	96
256.124	92
256.357	83
256.59	88
256.823	92
257.056	102
257.289	90
257.521	92
257.754	74
257.987	79
258.22	92
258.452	103
258.685	97
258.918	93
259.151	89
259.383	82
259.616	98
259.849	86
260.081	87
260.314	89
260.547	91
260.779	79
261.012	109
261.244	110
261.477	112
261.71	113
261.942	142
262.175	148
262.407	87
262.64	75
262.872	90
263.105	90
263.337	77
263.57	87
263.802	91
264.035	79
264.267	85
264.499	88
264.732	81
264.964	85
265.197	87
265.429	92
265.661	74
265.894	88
266.126	67
266.358	74
266.591	93
266.823	74
267.055	91
267.287	79
267.52	71
267.752	79
267.984	83
268.216	94
268.448	69
268.681	83
268.913	69
269.145	89
269.377	73
269.609	92
269.841	72
270.073	71
270.306	78
270.538	90
270.77	95
271.002	85
271.234	102
271.466	96
271.698	93
271.93	91
272.162	81
272.394	99
272.626	80
272.858	89
273.09	68
273.322	88
273.553	85
273.785	72
274.017	87
274.249	90
274.481	91
274.713	81
274.945	89
275.176	84
275.408	101
275.64	137
275.872	141
276.104	107
276.335	102
276.567	117
276.799	177
277.031	203
277.262	245
277.494	182
277.726	111
277.957	83
278.189	78
278.421	89
278.652	84
278.884	75
279.115	94
279.347	108
279.579	113
279.81	144
280.042	250
280.273	350
280.505	212
280.736	113
280.968	99
281.199	91
281.431	101
281.662	88
281.894	108
282.125	114
282.356	131
282.588	187
282.819	141
283.051	88
283.282	93
283.513	99
283.745	87
283.976	72
284.207	87
284.439	78
284.67	72
284.901	72
285.132	86
285.364	87
285.595	84
285.826	91
286.057	79
286.288	80
286.52	88
286.751	79
286.982	78
287.213	68
287.444	84
287.675	99
287.906	104
288.138	73
288.369	96
288.6	103
288.831	84
289.062	83
289.293	89
289.524	84
289.755	80
289.986	77
290.217	92
290.448	83
290.679	87
290.91	80
291.141	88
291.371	95
291.602	84
291.833	73
292.064	86
292.295	76
292.526	101
292.757	95
292.987	95
293.218	78
293.449	87
293.68	76
293.91	94
294.141	85
294.372	74
294.603	86
294.833	85
295.064	96
295.295	95
295.525	96
295.756	111
295.987	126
296.217	180
296.448	146
296.679	99
296.909	83
297.14	98
297.37	88
297.601	89
297.831	90
298.062	83
298.292	84
298.523	89
298.753	94
298.984	82
299.214	99
299.445	85
299.675	101
299.905	104
300.136	97
300.366	88
300.597	93
300.827	93
301.057	97
301.288	115
301.518	115
301.748	104
301.979	125
302.209	106
302.439	109
302.669	101
302.9	91
303.13	102
303.36	121
303.59	149
303.82	164
304.051	116
304.281	84
304.511	98
304.741	84
304.971	101
305.201	87
305.431	90
305.661	83
305.891	87
306.121	96
306.352	109
306.582	116
306.812	128
307.042	156
307.272	190
307.502	231
307.731	219
307.961	150
308.191	111
308.421	91
308.651	96
308.881	95
309.111	89
309.341	98
309.571	104
309.8	99
310.03	115
310.26	116
310.49	110
310.72	128
310.949	121
311.179	103
311.409	94
311.639	104
311.868	103
312.098	86
312.328	99
312.557	97
312.787	113
313.017	125
313.246	80
313.476	93
313.706	109
313.935	97
314.165	116
314.394	112
314.624	105
314.853	118
315.083	103
315.312	104
315.542	87
315.771	98
316.001	99
316.23	78
316.46	79
316.689	102
316.919	99
317.148	105
317.377	96
317.607	103
317.836	107
318.065	99
318.295	95
318.524	96
318.753	100
318.983	98
319.212	113
319.441	124
319.67	118
319.9	92
320.129	106
320.358	91
320.587	113
320.816	110
321.046	113
321.275	101
321.504	87
321.733	104
321.962	115
322.191	125
322.42	106
322.649	123
322.878	121
323.108	137
323.337	164
323.566	165
323.795	172
324.024	269
324.253	537
324.482	1161
324.71	2447
324.939	3179
325.168	1140
325.397	318
325.626	154
325.855	150
326.084	142
326.313	151
326.542	155
326.77	285
326.999	573
327.228	1228
327.457	2299
327.686	1879
327.914	679
328.143	726
328.372	973
328.6	509
328.829	219
329.058	206
329.287	214
329.515	215
329.744	337
329.972	692
330.201	1554
330.43	2239
330.658	889
330.887	337
331.115	227
331.344	128
331.572	122
331.801	134
332.03	128
332.258	113
332.486	115
332.715	115
332.943	138
333.172	135
333.4	153
333.629	184
333.857	299
334.085	637
334.314	1417
334.542	2778
334.771	2535
334.999	599
335.227	216
335.455	154
335.684	118
335.912	112
336.14	109
336.369	118
336.597	99
336.825	122
337.053	93
337.281	88
337.51	107
337.738	98
337.966	108
338.194	102
338.422	109
338.65	101
338.878	92
339.106	90
339.334	103
339.562	92
339.79	90
340.018	100
340.246	94
340.474	94
340.702	87
340.93	97
341.158	95
341.386	103
341.614	114
341.842	100
342.07	94
342.298	96
342.526	95
342.754	85
342.981	80
343.209	100
343.437	95
343.665	88
343.893	88
344.12	94
344.348	87
344.576	81
344.804	97
345.031	101
345.259	120
345.487	94
345.714	92
345.942	79
346.17	73
346.397	99
346.625	81
346.853	95
347.08	97
347.308	100
347.535	109
347.763	111
347.99	101
348.218	120
348.445	103
348.673	98
348.9	99
349.128	87
349.355	88
349.583	86
349.81	94
350.037	81
350.265	85
350.492	94
350.72	88
350.947	87
351.174	114
351.402	131
351.629	111
351.856	104
352.083	114
352.311	120
352.538	125
352.765	135
352.992	128
353.22	126
353.447	112
353.674	114
353.901	91
354.128	94
354.355	95
354.583	83
354.81	91
355.037	88
355.264	95
355.491	96
355.718	83
355.945	94
356.172	88
356.399	86
356.626	75
356.853	98
357.08	89
357.307	96
357.534	102
357.761	88
357.988	87
358.215	88
358.441	91
358.668	87
358.895	97
359.122	86
359.349	83
359.576	105
359.802	93
360.029	130
360.256	136
360.483	101
360.709	89
360.936	92
361.163	107
361.39	104
361.616	102
361.843	101
362.07	102
362.296	109
362.523	89
362.749	94
362.976	108
363.203	81
363.429	96
363.656	86
363.882	101
364.109	92
364.335	89
364.562	101
364.788	91
365.015	95
365.241	98
365.468	119
365.694	117
365.92	102
366.147	88
366.373	105
366.599	93
366.826	91
367.052	105
367.278	85
367.505	92
367.731	76
367.957	89
368.184	86
368.41	99
368.636	129
368.862	142
369.089	125
369.315	113
369.541	84
369.767	110
369.993	87
370.219	94
370.445	78
370.672	92
370.898	77
371.124	70
371.35	77
371.576	99
371.802	72
372.028	95
372.254	89
372.48	92
372.706	86
372.932	81
373.158	82
373.384	101
373.61	79
373.835	83
374.061	87
374.287	95
374.513	84
374.739	92
374.965	88
375.191	88
375.416	76
375.642	80
375.868	103
376.094	97
376.319	93
376.545	90
376.771	83
376.997	78
377.222	80
377.448	89
377.674	89
377.899	87
378.125	99
378.35	91
378.576	102
378.802	94
379.027	79
379.253	87
379.478	80
379.704	92
379.929	105
380.155	97
380.38	99
380.606	97
380.831	100
381.057	107
381.282	96
381.507	98
381.733	94
381.958	86
382.184	93
382.409	103
382.634	115
382.86	93
383.085	84
383.31	91
383.535	93
383.761	100
383.986	107
384.211	92
384.436	108
384.662	92
384.887	93
385.112	99
385.337	81
385.562	82
385.787	102
386.013	85
386.238	122
386.463	115
386.688	106
386.913	100
387.138	103
387.363	92
387.588	92
387.813	88
388.038	88
388.263	95
388.488	95
388.713	96
388.938	80
389.163	103
389.387	88
389.612	97
389.837	86
390.062	89
390.287	91
390.512	91
390.736	99
390.961	90
391.186	84
391.411	97
391.636	96
391.86	92
392.085	77
392.31	73
392.534	80
392.759	91
392.984	89
393.208	85
393.433	82
393.658	89
393.882	84
394.107	92
394.331	95
394.556	93
394.78	98
395.005	78
395.229	69
395.454	85
395.678	76
395.903	87
396.127	81
396.352	85
396.576	86
396.801	80
397.025	80
397.249	85
397.474	79
397.698	88
397.922	83
398.147	101
398.371	70
398.595	92
398.82	85
399.044	82
399.268	79
399.492	84
399.717	82
399.941	84
400.165	89
400.389	108
400.613	91
400.837	79
401.062	89
401.286	98
401.51	81
401.734	96
401.958	106
402.182	144
402.406	206
402.63	133
402.854	115
403.078	97
403.302	87
403.526	90
403.75	90
403.974	81
404.198	94
404.422	112
404.645	92
404.869	114
405.093	128
405.317	160
405.541	153
405.765	115
405.988	139
406.212	224
406.436	334
406.66	200
406.883	125
407.107	99
407.331	107
407.555	107
407.778	101
408.002	102
408.226	95
408.449	84
408.673	101
408.896	103
409.12	88
409.344	85
409.567	91
409.791	69
410.014	82
410.238	94
410.461	81
410.685	91
410.908	95
411.132	111
411.355	110
411.578	92
411.802	93
412.025	79
412.249	103
412.472	123
412.695	152
412.919	102
413.142	95
413.365	75
413.589	84
413.812	83
414.035	89
414.258	95
414.482	93
414.705	77
414.928	93
415.151	71
415.374	79
415.597	89
415.821	94
416.044	83
416.267	99
416.49	87
416.713	81
416.936	101
417.159	94
417.382	95
417.605	114
417.828	117
418.051	104
418.274	95
418.497	79
418.72	93
418.943	93
419.166	91
419.389	84
419.611	94
419.834	89
420.057	97
420.28	99
420.503	100
420.726	89
420.948	93
421.171	100
421.394	94
421.617	87
421.839	91
422.062	95
422.285	91
422.507	106
422.73	107
422.953	85
423.175	94
423.398	76
423.621	80
423.843	96
424.066	94
424.288	102
424.511	91
424.733	106
424.956	124
425.178	112
425.401	111
425.623	122
425.846	100
426.068	107
426.291	90
426.513	80
426.735	88
426.958	88
427.18	140
427.402	179
427.625	277
427.847	292
428.069	281
428.292	145
428.514	104
428.736	80
428.958	89
429.181	92
429.403	89
429.625	84
429.847	79
430.069	99
430.292	105
430.514	84
430.736	91
430.958	78
431.18	89
431.402	91
431.624	100
431.846	91
432.068	86
432.29	87
432.512	79
432.734	90
432.956	92
433.178	93
433.4	118
433.622	96
433.844	100
434.066	78
434.287	101
434.509	99
434.731	101
434.953	77
435.175	97
435.397	87
435.618	102
435.84	121
436.062	146
436.284	141
436.505	95
436.727	108
436.949	97
437.17	95
437.392	103
437.614	95
437.835	119
438.057	167
438.278	135
438.5	130
438.721	144
438.943	97
439.165	94
439.386	94
439.608	104
439.829	114
440.05	183
440.272	201
440.493	108
440.715	92
440.936	73
441.158	109
441.379	100
441.6	92
441.822	109
442.043	105
442.264	122
442.486	109
442.707	108
442.928	140
443.149	166
443.371	178
443.592	148
443.813	135
444.034	113
444.255	103
444.476	97
444.698	85
444.919	102
445.14	116
445.361	124
445.582	142
445.803	184
446.024	183
446.245	183
446.466	121
446.687	86
446.908	80
447.129	88
447.35	93
447.571	91
447.792	108
448.013	109
448.234	127
448.455	120
448.675	126
448.896	133
449.117	123
449.338	113
449.559	150
449.779	155
450	99
450.221	92
450.442	80
450.662	105
450.883	134
451.104	139
451.324	109
451.545	99
451.766	103
451.986	89
452.207	93
452.428	99
452.648	92
452.869	135
453.089	138
453.31	142
453.53	98
453.751	98
453.971	111
454.192	136
454.412	108
454.633	107
454.853	92
455.073	88
455.294	89
455.514	103
455.734	103
455.955	88
456.175	86
456.395	87
456.616	88
456.836	76
457.056	90
457.276	87
457.497	83
457.717	90
457.937	72
458.157	91
458.377	89
458.598	130
458.818	221
459.038	247
459.258	150
459.478	93
459.698	83
459.918	93
460.138	92
460.358	96
460.578	84
460.798	96
461.018	104
461.238	99
461.458	91
461.678	87
461.898	82
462.118	81
462.338	102
462.558	79
462.777	89
462.997	112
463.217	120
463.437	102
463.657	100
463.876	93
464.096	93
464.316	115
464.536	115
464.755	104
464.975	129
465.195	250
465.414	249
465.634	102
465.854	97
466.073	97
466.293	86
466.512	95
466.732	100
466.951	99
467.171	101
467.391	120
467.61	167
467.829	285
468.049	899
468.268	1345
468.488	307
468.707	125
468.927	94
469.146	95
469.365	88
469.585	89
469.804	105
470.023	128
470.243	102
470.462	138
470.681	158
470.901	108
471.12	126
471.339	100
471.558	128
471.777	195
471.997	428
472.216	1796
472.435	4079
472.654	877
472.873	209
473.092	110
473.311	101
473.53	92
473.749	96
473.968	101
474.187	147
474.406	122
474.625	95
474.844	89
475.063	100
475.282	95
475.501	86
475.72	98
475.939	84
476.158	92
476.377	95
476.596	95
476.814	105
477.033	101
477.252	94
477.471	105
477.69	102
477.908	96
478.127	94
478.346	101
478.564	101
478.783	102
479.002	111
479.22	110
479.439	141
479.658	145
479.876	132
480.095	139
480.313	165
480.532	191
480.751	409
480.969	1579
481.188	7079
481.406	3852
481.624	507
481.843	150
482.061	118
482.28	102
482.498	104
482.717	111
482.935	110
483.153	98
483.372	96
483.59	111
483.808	92
484.027	89
484.245	96
484.463	87
484.681	117
484.9	90
485.118	97
485.336	88
485.554	106
485.772	116
485.99	109
486.209	114
486.427	108
486.645	114
486.863	125
487.081	101
487.299	97
487.517	103
487.735	95
487.953	83
488.171	86
488.389	93
488.607	96
488.825	100
489.043	84
489.261	97
489.479	96
489.696	87
489.914	77
490.132	86
490.35	99
490.568	97
490.786	100
491.003	91
491.221	87
491.439	94
491.657	87
491.874	96
492.092	95
492.31	85
492.527	94
492.745	94
492.963	87
493.18	93
493.398	104
493.615	103
493.833	85
494.05	95
494.268	80
494.485	92
494.703	100
494.92	88
495.138	93
495.355	92
495.573	101
495.79	92
496.008	93
496.225	89
496.442	96
496.66	97
496.877	96
497.094	104
497.312	94
497.529	88
497.746	97
497.963	85
498.181	108
498.398	85
498.615	111
498.832	124
499.049	86
499.267	96
499.484	93
499.701	86
499.918	102
500.135	84
500.352	89
500.569	97
500.786	108
501.003	95
501.22	91
501.437	100
501.654	96
501.871	128
502.088	91
502.305	87
502.522	81
502.739	98
502.956	97
503.172	93
503.389	106
503.606	135
503.823	105
504.04	91
504.256	94
504.473	88
504.69	96
504.907	94
505.123	90
505.34	91
505.557	100
505.773	89
505.99	97
506.207	93
506.423	101
506.64	94
506.856	97
507.073	97
507.289	99
507.506	102
507.722	127
507.939	147
508.155	88
508.372	80
508.588	88
508.805	92
509.021	105
509.238	100
509.454	94
509.67	105
509.887	116
510.103	150
510.319	244
510.536	1050
510.752	3735
510.968	988
511.184	194
511.401	144
511.617	103
511.833	115
512.049	110
512.265	97
512.481	102
512.698	88
512.914	103
513.13	105
513.346	100
513.562	111
513.778	112
513.994	110
514.21	128
514.426	157
514.642	200
514.858	159
515.074	230
515.29	789
515.506	2864
515.721	965
515.937	237
516.153	153
516.369	116
516.585	134
516.801	108
517.016	89
517.232	93
517.448	94
517.664	92
517.879	98
518.095	96
518.311	118
518.527	116
518.742	100
518.958	105
519.173	103
519.389	95
519.605	111
519.82	97
520.036	120
520.251	155
520.467	146
520.682	124
520.898	116
521.113	149
521.329	181
521.544	312
521.76	1030
521.975	4899
522.19	2789
522.406	533
522.621	185
522.836	124
523.052	96
523.267	103
523.482	99
523.698	110
523.913	166
524.128	133
524.343	110
524.559	86
524.774	83
524.989	105
525.204	138
525.419	109
525.634	105
525.849	93
526.064	98
526.28	99
526.495	89
526.71	90
526.925	94
527.14	90
527.355	92
527.57	95
527.785	88
527.999	88
528.214	76
528.429	79
528.644	100
528.859	100
529.074	95
529.289	157
529.503	267
529.718	117
529.933	87
530.148	91
530.363	100
530.577	101
530.792	85
531.007	96
531.221	98
531.436	91
531.651	95
531.865	87
532.08	83
532.295	80
532.509	97
532.724	87
532.938	104
533.153	100
533.367	101
533.582	95
533.796	92
534.011	90
534.225	95
534.44	94
534.654	95
534.868	103
535.083	100
535.297	102
535.511	93
535.726	117
535.94	105
536.154	118
536.369	91
536.583	103
536.797	92
537.011	84
537.225	90
537.44	81
537.654	97
537.868	102
538.082	87
538.296	103
538.51	94
538.724	92
538.938	100
539.153	97
539.367	119
539.581	116
539.795	88
540.009	85
540.222	92
540.436	94
540.65	83
540.864	98
541.078	108
541.292	91
541.506	93
541.72	76
541.934	90
542.147	83
542.361	87
542.575	81
542.789	99
543.002	89
543.216	104
543.43	110
543.644	103
543.857	99
544.071	85
544.285	92
544.498	87
544.712	90
544.925	93
545.139	86
545.352	84
545.566	100
545.779	79
545.993	86
546.206	86
546.42	92
546.633	88
546.847	93
547.06	88
547.274	71
547.487	91
547.7	90
547.914	84
548.127	87
548.34	81
548.554	90
548.767	84
548.98	101
549.193	91
549.407	90
549.62	87
549.833	79
550.046	96
550.259	105
550.473	83
550.686	87
550.899	78
551.112	88
551.325	96
551.538	110
551.751	110
551.964	97
552.177	88
552.39	93
552.603	96
552.816	102
553.029	92
553.242	111
553.455	107
553.667	109
553.88	122
554.093	106
554.306	116
554.519	129
554.732	94
554.944	78
555.157	96
555.37	96
555.583	100
555.795	98
556.008	89
556.221	94
556.433	85
556.646	95
556.859	97
557.071	78
557.284	93
557.496	96
557.709	77
557.921	81
558.134	84
558.346	88
558.559	85
558.771	80
558.984	89
559.196	101
559.409	94
559.621	90
559.833	90
560.046	92
560.258	119
560.47	171
560.683	101
560.895	96
561.107	86
561.32	98
561.532	86
561.744	95
561.956	88
562.168	95
562.381	85
562.593	91
562.805	93
563.017	94
563.229	93
563.441	86
563.653	83
563.865	83
564.077	77
564.289	83
564.501	84
564.713	95
564.925	103
565.137	105
565.349	90
565.561	81
565.773	102
565.985	97
566.197	93
566.408	92
566.62	89
566.832	79
567.044	79
567.255	80
567.467	92
567.679	81
567.891	83
568.102	83
568.314	89
568.526	85
568.737	87
568.949	97
569.161	79
569.372	89
569.584	92
569.795	89
570.007	120
570.218	321
570.43	149
570.641	99
570.853	99
571.064	73
571.276	94
571.487	75
571.698	92
571.91	89
572.121	100
572.333	89
572.544	82
572.755	78
572.966	83
573.178	80
573.389	93
573.6	92
573.811	74
574.023	88
574.234	101
574.445	72
574.656	93
574.867	84
575.078	81
575.289	83
575.501	87
575.712	88
575.923	95
576.134	90
576.345	96
576.556	84
576.767	84
576.978	103
577.188	91
577.399	93
577.61	80
577.821	104
578.032	128
578.243	359
578.454	1050
578.665	281
578.875	105
579.086	109
579.297	93
579.508	81
579.718	83
579.929	85
580.14	97
