Data from Circ_1998_H10_HRD10591_00093.txt Node
Date: Wed Jan 03 11:27:07 EST 2024
User: Yrep
Spectrometer: HR+D1059
Trigger mode: 1
Integration Time (sec): 1.000000E-1
Scans to average: 1
Electric dark correction enabled: true
Nonlinearity correction enabled: false
Boxcar width: 0
XAxis mode: Wavelengths
Number of Pixels in Spectrum: 2048
>>>>>Begin Spectral Data<<<<<
223.165	-24.38
223.4	-24.38
223.635	-24.38
223.869	-24.38
224.104	-24.38
224.338	-16.38
224.573	-23.38
224.808	-15.38
225.042	-10.38
225.277	-8.38
225.511	-6.38
225.746	13.62
225.98	26.62
226.215	15.62
226.449	22.62
226.683	13.62
226.918	28.62
227.152	32.62
227.387	47.62
227.621	51.62
227.856	48.62
228.09	43.62
228.324	57.62
228.559	49.62
228.793	66.62
229.027	62.62
229.262	74.62
229.496	76.62
229.73	95.62
229.964	119.62
230.199	78.62
230.433	61.62
230.667	65.62
230.901	70.62
231.136	81.62
231.37	82.62
231.604	76.62
231.838	80.62
232.072	84.62
232.306	87.62
232.541	85.62
232.775	75.62
233.009	77.62
233.243	71.62
233.477	68.62
233.711	98.62
233.945	77.62
234.179	86.62
234.413	77.62
234.647	78.62
234.881	89.62
235.115	76.62
235.349	88.62
235.583	81.62
235.817	63.62
236.051	78.62
236.285	80.62
236.519	76.62
236.753	74.62
236.987	83.62
237.221	91.62
237.455	98.62
237.689	78.62
237.922	84.62
238.156	83.62
238.39	84.62
238.624	59.62
238.858	76.62
239.091	76.62
239.325	79.62
239.559	100.62
239.793	83.62
240.027	90.62
240.26	67.62
240.494	84.62
240.728	82.62
240.961	88.62
241.195	72.62
241.429	71.62
241.662	81.62
241.896	79.62
242.13	83.62
242.363	65.62
242.597	74.62
242.83	76.62
243.064	83.62
243.298	83.62
243.531	71.62
243.765	72.62
243.998	96.62
244.232	86.62
244.465	99.62
244.699	91.62
244.932	85.62
245.166	75.62
245.399	87.62
245.633	88.62
245.866	98.62
246.099	95.62
246.333	85.62
246.566	72.62
246.8	86.62
247.033	84.62
247.266	61.62
247.5	88.62
247.733	81.62
247.966	73.62
248.2	73.62
248.433	88.62
248.666	74.62
248.899	88.62
249.133	107.62
249.366	106.62
249.599	115.62
249.832	98.62
250.066	96.62
250.299	92.62
250.532	101.62
250.765	86.62
250.998	99.62
251.231	94.62
251.465	73.62
251.698	94.62
251.931	94.62
252.164	91.62
252.397	87.62
252.63	90.62
252.863	75.62
253.096	80.62
253.329	81.62
253.562	82.62
253.795	87.62
254.028	82.62
254.261	88.62
254.494	84.62
254.727	82.62
254.96	78.62
255.193	77.62
255.426	81.62
255.659	83.62
255.892	95.62
256.124	102.62
256.357	89.62
256.59	85.62
256.823	89.62
257.056	86.62
257.289	95.62
257.521	96.62
257.754	81.62
257.987	92.62
258.22	109.62
258.452	106.62
258.685	111.62
258.918	95.62
259.151	76.62
259.383	95.62
259.616	79.62
259.849	86.62
260.081	86.62
260.314	89.62
260.547	90.62
260.779	89.62
261.012	123.62
261.244	121.62
261.477	109.62
261.71	123.62
261.942	143.62
262.175	155.62
262.407	102.62
262.64	88.62
262.872	92.62
263.105	74.62
263.337	103.62
263.57	91.62
263.802	91.62
264.035	85.62
264.267	104.62
264.499	71.62
264.732	95.62
264.964	83.62
265.197	89.62
265.429	93.62
265.661	75.62
265.894	79.62
266.126	103.62
266.358	85.62
266.591	97.62
266.823	82.62
267.055	82.62
267.287	80.62
267.52	94.62
267.752	83.62
267.984	74.62
268.216	89.62
268.448	106.62
268.681	90.62
268.913	94.62
269.145	90.62
269.377	83.62
269.609	91.62
269.841	90.62
270.073	85.62
270.306	87.62
270.538	90.62
270.77	99.62
271.002	92.62
271.234	87.62
271.466	109.62
271.698	103.62
271.93	78.62
272.162	97.62
272.394	106.62
272.626	91.62
272.858	91.62
273.09	85.62
273.322	83.62
273.553	84.62
273.785	86.62
274.017	101.62
274.249	110.62
274.481	88.62
274.713	88.62
274.945	95.62
275.176	104.62
275.408	114.62
275.64	129.62
275.872	158.62
276.104	134.62
276.335	105.62
276.567	119.62
276.799	179.62
277.031	224.62
277.262	274.62
277.494	192.62
277.726	121.62
277.957	106.62
278.189	90.62
278.421	110.62
278.652	97.62
278.884	98.62
279.115	111.62
279.347	93.62
279.579	110.62
279.81	162.62
280.042	256.62
280.273	395.62
280.505	259.62
280.736	132.62
280.968	96.62
281.199	107.62
281.431	98.62
281.662	84.62
281.894	89.62
282.125	112.62
282.356	134.62
282.588	189.62
282.819	161.62
283.051	80.62
283.282	106.62
283.513	91.62
283.745	95.62
283.976	96.62
284.207	107.62
284.439	103.62
284.67	90.62
284.901	92.62
285.132	107.62
285.364	80.62
285.595	104.62
285.826	102.62
286.057	87.62
286.288	92.62
286.52	96.62
286.751	91.62
286.982	90.62
287.213	84.62
287.444	76.62
287.675	93.62
287.906	100.62
288.138	86.62
288.369	99.62
288.6	98.62
288.831	90.62
289.062	92.62
289.293	84.62
289.524	96.62
289.755	96.62
289.986	90.62
290.217	88.62
290.448	91.62
290.679	87.62
290.91	86.62
291.141	83.62
291.371	90.62
291.602	94.62
291.833	83.62
292.064	84.62
292.295	105.62
292.526	86.62
292.757	96.62
292.987	91.62
293.218	94.62
293.449	87.62
293.68	90.62
293.91	90.62
294.141	94.62
294.372	90.62
294.603	88.62
294.833	79.62
295.064	95.62
295.295	95.62
295.525	98.62
295.756	114.62
295.987	143.62
296.217	185.62
296.448	166.62
296.679	111.62
296.909	76.62
297.14	111.62
297.37	100.62
297.601	79.62
297.831	95.62
298.062	110.62
298.292	92.62
298.523	90.62
298.753	97.62
298.984	90.62
299.214	90.62
299.445	98.62
299.675	100.62
299.905	92.62
300.136	98.62
300.366	117.62
300.597	85.62
300.827	100.62
301.057	113.62
301.288	120.62
301.518	111.62
301.748	109.62
301.979	126.62
302.209	100.62
302.439	85.62
302.669	94.62
302.9	100.62
303.13	109.62
303.36	107.62
303.59	159.62
303.82	173.62
304.051	103.62
304.281	101.62
304.511	104.62
304.741	90.62
304.971	94.62
305.201	110.62
305.431	101.62
305.661	99.62
305.891	94.62
306.121	103.62
306.352	114.62
306.582	123.62
306.812	114.62
307.042	150.62
307.272	207.62
307.502	239.62
307.731	236.62
307.961	153.62
308.191	104.62
308.421	86.62
308.651	88.62
308.881	95.62
309.111	107.62
309.341	112.62
309.571	112.62
309.8	106.62
310.03	113.62
310.26	116.62
310.49	98.62
310.72	106.62
310.949	112.62
311.179	114.62
311.409	108.62
311.639	104.62
311.868	106.62
312.098	104.62
312.328	99.62
312.557	135.62
312.787	132.62
313.017	118.62
313.246	102.62
313.476	113.62
313.706	102.62
313.935	102.62
314.165	102.62
314.394	111.62
314.624	104.62
314.853	120.62
315.083	106.62
315.312	105.62
315.542	90.62
315.771	84.62
316.001	89.62
316.23	100.62
316.46	103.62
316.689	99.62
316.919	108.62
317.148	107.62
317.377	106.62
317.607	105.62
317.836	109.62
318.065	100.62
318.295	86.62
318.524	97.62
318.753	103.62
318.983	114.62
319.212	114.62
319.441	134.62
319.67	134.62
319.9	111.62
320.129	98.62
320.358	105.62
320.587	96.62
320.816	112.62
321.046	115.62
321.275	112.62
321.504	108.62
321.733	92.62
321.962	100.62
322.191	101.62
322.42	135.62
322.649	137.62
322.878	137.62
323.108	148.62
323.337	156.62
323.566	172.62
323.795	187.62
324.024	280.62
324.253	562.62
324.482	1234.62
324.71	2646.62
324.939	3561.62
325.168	1250.62
325.397	344.62
325.626	176.62
325.855	158.62
326.084	157.62
326.313	152.62
326.542	185.62
326.77	306.62
326.999	627.62
327.228	1299.62
327.457	2476.62
327.686	2025.62
327.914	746.62
328.143	784.62
328.372	1058.62
328.6	564.62
328.829	231.62
329.058	227.62
329.287	240.62
329.515	226.62
329.744	364.62
329.972	764.62
330.201	1643.62
330.43	2488.62
330.658	1006.62
330.887	373.62
331.115	219.62
331.344	154.62
331.572	130.62
331.801	146.62
332.03	149.62
332.258	142.62
332.486	104.62
332.715	120.62
332.943	138.62
333.172	157.62
333.4	163.62
333.629	201.62
333.857	306.62
334.085	702.62
334.314	1519.62
334.542	3082.62
334.771	2857.62
334.999	699.62
335.227	238.62
335.455	166.62
335.684	134.62
335.912	126.62
336.14	104.62
336.369	124.62
336.597	128.62
336.825	111.62
337.053	99.62
337.281	104.62
337.51	103.62
337.738	106.62
337.966	106.62
338.194	109.62
338.422	119.62
338.65	99.62
338.878	105.62
339.106	111.62
339.334	107.62
339.562	95.62
339.79	97.62
340.018	98.62
340.246	115.62
340.474	126.62
340.702	92.62
340.93	90.62
341.158	98.62
341.386	98.62
341.614	106.62
341.842	95.62
342.07	102.62
342.298	115.62
342.526	93.62
342.754	91.62
342.981	100.62
343.209	87.62
343.437	113.62
343.665	82.62
343.893	97.62
344.12	87.62
344.348	98.62
344.576	86.62
344.804	99.62
345.031	104.62
345.259	121.62
345.487	108.62
345.714	101.62
345.942	102.62
346.17	90.62
346.397	107.62
346.625	105.62
346.853	95.62
347.08	102.62
347.308	97.62
347.535	112.62
347.763	111.62
347.99	111.62
348.218	113.62
348.445	123.62
348.673	111.62
348.9	104.62
349.128	97.62
349.355	81.62
349.583	100.62
349.81	100.62
350.037	89.62
350.265	89.62
350.492	91.62
350.72	97.62
350.947	118.62
351.174	112.62
351.402	139.62
351.629	119.62
351.856	106.62
352.083	98.62
352.311	119.62
352.538	128.62
352.765	137.62
352.992	130.62
353.22	123.62
353.447	103.62
353.674	112.62
353.901	92.62
354.128	108.62
354.355	100.62
354.583	104.62
354.81	96.62
355.037	102.62
355.264	110.62
355.491	96.62
355.718	103.62
355.945	93.62
356.172	91.62
356.399	100.62
356.626	102.62
356.853	88.62
357.08	98.62
357.307	90.62
357.534	94.62
357.761	93.62
357.988	83.62
358.215	102.62
358.441	97.62
358.668	104.62
358.895	86.62
359.122	85.62
359.349	81.62
359.576	79.62
359.802	119.62
360.029	158.62
360.256	139.62
360.483	126.62
360.709	101.62
360.936	118.62
361.163	104.62
361.39	102.62
361.616	111.62
361.843	105.62
362.07	106.62
362.296	120.62
362.523	110.62
362.749	103.62
362.976	94.62
363.203	94.62
363.429	83.62
363.656	98.62
363.882	91.62
364.109	103.62
364.335	112.62
364.562	85.62
364.788	94.62
365.015	107.62
365.241	108.62
365.468	129.62
365.694	119.62
365.92	119.62
366.147	87.62
366.373	92.62
366.599	101.62
366.826	97.62
367.052	94.62
367.278	82.62
367.505	98.62
367.731	99.62
367.957	100.62
368.184	100.62
368.41	118.62
368.636	134.62
368.862	160.62
369.089	136.62
369.315	100.62
369.541	81.62
369.767	118.62
369.993	104.62
370.219	110.62
370.445	94.62
370.672	97.62
370.898	89.62
371.124	92.62
371.35	94.62
371.576	99.62
371.802	105.62
372.028	86.62
372.254	88.62
372.48	99.62
372.706	85.62
372.932	88.62
373.158	97.62
373.384	100.62
373.61	115.62
373.835	85.62
374.061	102.62
374.287	104.62
374.513	91.62
374.739	104.62
374.965	98.62
375.191	94.62
375.416	89.62
375.642	94.62
375.868	87.62
376.094	73.62
376.319	93.62
376.545	90.62
376.771	94.62
376.997	88.62
377.222	87.62
377.448	85.62
377.674	86.62
377.899	90.62
378.125	89.62
378.35	84.62
378.576	91.62
378.802	92.62
379.027	98.62
379.253	78.62
379.478	98.62
379.704	96.62
379.929	95.62
380.155	85.62
380.38	99.62
380.606	100.62
380.831	99.62
381.057	95.62
381.282	97.62
381.507	97.62
381.733	109.62
381.958	103.62
382.184	103.62
382.409	91.62
382.634	97.62
382.86	102.62
383.085	93.62
383.31	94.62
383.535	83.62
383.761	96.62
383.986	98.62
384.211	92.62
384.436	99.62
384.662	100.62
384.887	109.62
385.112	88.62
385.337	97.62
385.562	104.62
385.787	107.62
386.013	107.62
386.238	132.62
386.463	93.62
386.688	95.62
386.913	86.62
387.138	107.62
387.363	90.62
387.588	94.62
387.813	113.62
388.038	99.62
388.263	95.62
388.488	107.62
388.713	91.62
388.938	97.62
389.163	79.62
389.387	80.62
389.612	77.62
389.837	77.62
390.062	100.62
390.287	84.62
390.512	82.62
390.736	86.62
390.961	82.62
391.186	95.62
391.411	95.62
391.636	91.62
391.86	81.62
392.085	88.62
392.31	96.62
392.534	91.62
392.759	92.62
392.984	80.62
393.208	90.62
393.433	96.62
393.658	100.62
393.882	84.62
394.107	87.62
394.331	86.62
394.556	87.62
394.78	93.62
395.005	76.62
395.229	89.62
395.454	86.62
395.678	87.62
395.903	72.62
396.127	81.62
396.352	92.62
396.576	101.62
396.801	79.62
397.025	84.62
397.249	95.62
397.474	90.62
397.698	97.62
397.922	100.62
398.147	93.62
398.371	84.62
398.595	94.62
398.82	61.62
399.044	81.62
399.268	78.62
399.492	98.62
399.717	105.62
399.941	104.62
400.165	87.62
400.389	101.62
400.613	99.62
400.837	94.62
401.062	94.62
401.286	95.62
401.51	91.62
401.734	103.62
401.958	121.62
402.182	170.62
402.406	215.62
402.63	152.62
402.854	107.62
403.078	97.62
403.302	90.62
403.526	89.62
403.75	105.62
403.974	89.62
404.198	79.62
404.422	102.62
404.645	104.62
404.869	118.62
405.093	140.62
405.317	156.62
405.541	173.62
405.765	119.62
405.988	145.62
406.212	238.62
406.436	349.62
406.66	238.62
406.883	144.62
407.107	116.62
407.331	116.62
407.555	115.62
407.778	112.62
408.002	110.62
408.226	88.62
408.449	94.62
408.673	88.62
408.896	91.62
409.12	97.62
409.344	90.62
409.567	94.62
409.791	98.62
410.014	100.62
410.238	91.62
410.461	97.62
410.685	80.62
410.908	95.62
411.132	112.62
411.355	114.62
411.578	107.62
411.802	89.62
412.025	99.62
412.249	114.62
412.472	124.62
412.695	148.62
412.919	107.62
413.142	106.62
413.365	98.62
413.589	95.62
413.812	94.62
414.035	110.62
414.258	105.62
414.482	100.62
414.705	92.62
414.928	99.62
415.151	94.62
415.374	83.62
415.597	100.62
415.821	115.62
416.044	100.62
416.267	119.62
416.49	86.62
416.713	102.62
416.936	86.62
417.159	99.62
417.382	100.62
417.605	106.62
417.828	128.62
418.051	98.62
418.274	104.62
418.497	83.62
418.72	68.62
418.943	99.62
419.166	95.62
419.389	90.62
419.611	100.62
419.834	84.62
420.057	109.62
420.28	104.62
420.503	101.62
420.726	99.62
420.948	101.62
421.171	119.62
421.394	104.62
421.617	78.62
421.839	102.62
422.062	99.62
422.285	91.62
422.507	113.62
422.73	111.62
422.953	87.62
423.175	92.62
423.398	90.62
423.621	86.62
423.843	93.62
424.066	91.62
424.288	91.62
424.511	102.62
424.733	105.62
424.956	121.62
425.178	121.62
425.401	126.62
425.623	131.62
425.846	99.62
426.068	105.62
426.291	105.62
426.513	99.62
426.735	104.62
426.958	99.62
427.18	130.62
427.402	204.62
427.625	303.62
427.847	298.62
428.069	285.62
428.292	152.62
428.514	107.62
428.736	111.62
428.958	99.62
429.181	100.62
429.403	92.62
429.625	104.62
429.847	96.62
430.069	104.62
430.292	99.62
430.514	88.62
430.736	105.62
430.958	92.62
431.18	96.62
431.402	78.62
431.624	99.62
431.846	96.62
432.068	98.62
432.29	97.62
432.512	86.62
432.734	92.62
432.956	97.62
433.178	115.62
433.4	96.62
433.622	99.62
433.844	104.62
434.066	96.62
434.287	83.62
434.509	87.62
434.731	87.62
434.953	81.62
435.175	92.62
435.397	99.62
435.618	102.62
435.84	115.62
436.062	143.62
436.284	137.62
436.505	116.62
436.727	106.62
436.949	99.62
437.17	101.62
437.392	95.62
437.614	99.62
437.835	150.62
438.057	168.62
438.278	154.62
438.5	140.62
438.721	149.62
438.943	107.62
439.165	110.62
439.386	105.62
439.608	108.62
439.829	114.62
440.05	162.62
440.272	213.62
440.493	119.62
440.715	92.62
440.936	88.62
441.158	92.62
441.379	93.62
441.6	108.62
441.822	104.62
442.043	104.62
442.264	135.62
442.486	120.62
442.707	117.62
442.928	126.62
443.149	200.62
443.371	186.62
443.592	148.62
443.813	150.62
444.034	130.62
444.255	100.62
444.476	100.62
444.698	98.62
444.919	92.62
445.14	139.62
445.361	127.62
445.582	145.62
445.803	214.62
446.024	198.62
446.245	177.62
446.466	141.62
446.687	111.62
446.908	104.62
447.129	96.62
447.35	97.62
447.571	96.62
447.792	105.62
448.013	114.62
448.234	146.62
448.455	105.62
448.675	140.62
448.896	153.62
449.117	119.62
449.338	119.62
449.559	160.62
449.779	162.62
450	89.62
450.221	97.62
450.442	93.62
450.662	108.62
450.883	134.62
451.104	147.62
451.324	107.62
451.545	93.62
451.766	83.62
451.986	99.62
452.207	93.62
452.428	96.62
452.648	123.62
452.869	152.62
453.089	161.62
453.31	150.62
453.53	107.62
453.751	90.62
453.971	125.62
454.192	146.62
454.412	109.62
454.633	103.62
454.853	100.62
455.073	96.62
455.294	108.62
455.514	109.62
455.734	87.62
455.955	97.62
456.175	109.62
456.395	81.62
456.616	73.62
456.836	89.62
457.056	87.62
457.276	107.62
457.497	92.62
457.717	99.62
457.937	99.62
458.157	97.62
458.377	105.62
458.598	129.62
458.818	229.62
459.038	257.62
459.258	172.62
459.478	110.62
459.698	88.62
459.918	98.62
460.138	90.62
460.358	78.62
460.578	102.62
460.798	94.62
461.018	89.62
461.238	86.62
461.458	88.62
461.678	96.62
461.898	78.62
462.118	85.62
462.338	81.62
462.558	97.62
462.777	108.62
462.997	113.62
463.217	125.62
463.437	107.62
463.657	103.62
463.876	104.62
464.096	100.62
464.316	98.62
464.536	123.62
464.755	123.62
464.975	141.62
465.195	286.62
465.414	273.62
465.634	124.62
465.854	98.62
466.073	106.62
466.293	90.62
466.512	92.62
466.732	100.62
466.951	106.62
467.171	108.62
467.391	120.62
467.61	179.62
467.829	296.62
468.049	974.62
468.268	1473.62
468.488	329.62
468.707	137.62
468.927	107.62
469.146	81.62
469.365	89.62
469.585	112.62
469.804	111.62
470.023	129.62
470.243	120.62
470.462	133.62
470.681	175.62
470.901	106.62
471.12	115.62
471.339	127.62
471.558	142.62
471.777	204.62
471.997	496.62
472.216	1879.62
472.435	4418.62
472.654	946.62
472.873	238.62
473.092	126.62
473.311	115.62
473.53	109.62
473.749	120.62
473.968	111.62
474.187	131.62
474.406	121.62
474.625	95.62
474.844	102.62
475.063	94.62
475.282	99.62
475.501	89.62
475.72	102.62
475.939	98.62
476.158	97.62
476.377	98.62
476.596	98.62
476.814	116.62
477.033	113.62
477.252	95.62
477.471	100.62
477.69	102.62
477.908	107.62
478.127	102.62
478.346	114.62
478.564	96.62
478.783	117.62
479.002	128.62
479.22	116.62
479.439	137.62
479.658	141.62
479.876	139.62
480.095	123.62
480.313	172.62
480.532	221.62
480.751	447.62
480.969	1700.62
481.188	7612.62
481.406	4177.62
481.624	549.62
481.843	178.62
482.061	139.62
482.28	118.62
482.498	120.62
482.717	100.62
482.935	93.62
483.153	105.62
483.372	97.62
483.59	81.62
483.808	79.62
484.027	98.62
484.245	106.62
484.463	102.62
484.681	101.62
484.9	113.62
485.118	96.62
485.336	104.62
485.554	88.62
485.772	100.62
485.99	120.62
486.209	102.62
486.427	107.62
486.645	137.62
486.863	138.62
487.081	119.62
487.299	102.62
487.517	101.62
487.735	87.62
487.953	97.62
488.171	93.62
488.389	99.62
488.607	113.62
488.825	96.62
489.043	99.62
489.261	98.62
489.479	107.62
489.696	87.62
489.914	104.62
490.132	100.62
490.35	100.62
490.568	96.62
490.786	93.62
491.003	94.62
491.221	86.62
491.439	97.62
491.657	93.62
491.874	92.62
492.092	95.62
492.31	90.62
492.527	105.62
492.745	109.62
492.963	98.62
493.18	90.62
493.398	111.62
493.615	99.62
493.833	89.62
494.05	102.62
494.268	94.62
494.485	86.62
494.703	92.62
494.92	90.62
495.138	88.62
495.355	97.62
495.573	95.62
495.79	73.62
496.008	82.62
496.225	91.62
496.442	97.62
496.66	108.62
496.877	93.62
497.094	98.62
497.312	95.62
497.529	92.62
497.746	98.62
497.963	87.62
498.181	89.62
498.398	105.62
498.615	138.62
498.832	124.62
499.049	95.62
499.267	86.62
499.484	96.62
499.701	96.62
499.918	93.62
500.135	112.62
500.352	104.62
500.569	101.62
500.786	102.62
501.003	95.62
501.22	94.62
501.437	105.62
501.654	98.62
501.871	147.62
502.088	112.62
502.305	86.62
502.522	106.62
502.739	96.62
502.956	102.62
503.172	96.62
503.389	117.62
503.606	129.62
503.823	98.62
504.04	93.62
504.256	87.62
504.473	100.62
504.69	92.62
504.907	100.62
505.123	93.62
505.34	84.62
505.557	90.62
505.773	95.62
505.99	95.62
506.207	85.62
506.423	87.62
506.64	89.62
506.856	95.62
507.073	101.62
507.289	95.62
507.506	97.62
507.722	134.62
507.939	127.62
508.155	114.62
508.372	95.62
508.588	84.62
508.805	102.62
509.021	94.62
509.238	102.62
509.454	106.62
509.67	108.62
509.887	111.62
510.103	164.62
510.319	272.62
510.536	1078.62
510.752	3846.62
510.968	1007.62
