Data from Circ_1998_H10_HRD10591_00010.txt Node
Date: Wed Jan 03 11:26:50 EST 2024
User: Yrep
Spectrometer: HR+D1059
Trigger mode: 1
Integration Time (sec): 1.000000E-1
Scans to average: 1
Electric dark correction enabled: true
Nonlinearity correction enabled: false
Boxcar width: 0
XAxis mode: Wavelengths
Number of Pixels in Spectrum: 2048
>>>>>Begin Spectral Data<<<<<
223.165	-27.94
223.4	-27.94
223.635	-27.94
223.869	-11.94
224.104	-13.94
224.338	-22.94
224.573	-21.94
224.808	-3.94
225.042	4.06
225.277	-8.94
225.511	-3.94
225.746	2.06
225.98	2.06
226.215	21.06
226.449	18.06
226.683	17.06
226.918	24.06
227.152	27.06
227.387	43.06
227.621	38.06
227.856	50.06
228.09	45.06
228.324	46.06
228.559	61.06
228.793	67.06
229.027	81.06
229.262	69.06
229.496	77.06
229.73	82.06
229.964	92.06
230.199	66.06
230.433	76.06
230.667	75.06
230.901	86.06
231.136	81.06
231.37	67.06
231.604	73.06
231.838	73.06
232.072	82.06
232.306	85.06
232.541	71.06
232.775	81.06
233.009	89.06
233.243	90.06
233.477	77.06
233.711	85.06
233.945	94.06
234.179	76.06
234.413	75.06
234.647	86.06
234.881	70.06
235.115	82.06
235.349	85.06
235.583	76.06
235.817	80.06
236.051	77.06
236.285	72.06
236.519	80.06
236.753	88.06
236.987	77.06
237.221	71.06
237.455	97.06
237.689	86.06
237.922	74.06
238.156	79.06
238.39	77.06
238.624	63.06
238.858	77.06
239.091	82.06
239.325	74.06
239.559	91.06
239.793	81.06
240.027	89.06
240.26	69.06
240.494	85.06
240.728	92.06
240.961	69.06
241.195	80.06
241.429	72.06
241.662	83.06
241.896	62.06
242.13	66.06
242.363	82.06
242.597	77.06
242.83	77.06
243.064	72.06
243.298	86.06
243.531	75.06
243.765	82.06
243.998	76.06
244.232	77.06
244.465	78.06
244.699	79.06
244.932	77.06
245.166	78.06
245.399	78.06
245.633	87.06
245.866	78.06
246.099	72.06
246.333	77.06
246.566	70.06
246.8	84.06
247.033	99.06
247.266	77.06
247.5	91.06
247.733	82.06
247.966	88.06
248.2	90.06
248.433	83.06
248.666	89.06
248.899	88.06
249.133	90.06
249.366	111.06
249.599	105.06
249.832	92.06
250.066	81.06
250.299	86.06
250.532	86.06
250.765	96.06
250.998	85.06
251.231	90.06
251.465	74.06
251.698	80.06
251.931	94.06
252.164	81.06
252.397	88.06
252.63	92.06
252.863	82.06
253.096	87.06
253.329	90.06
253.562	70.06
253.795	82.06
254.028	106.06
254.261	78.06
254.494	88.06
254.727	81.06
254.96	82.06
255.193	80.06
255.426	75.06
255.659	82.06
255.892	89.06
256.124	99.06
256.357	88.06
256.59	84.06
256.823	74.06
257.056	89.06
257.289	94.06
257.521	94.06
257.754	87.06
257.987	78.06
258.22	98.06
258.452	90.06
258.685	88.06
258.918	101.06
259.151	103.06
259.383	85.06
259.616	87.06
259.849	86.06
260.081	65.06
260.314	94.06
260.547	78.06
260.779	75.06
261.012	105.06
261.244	102.06
261.477	101.06
261.71	103.06
261.942	130.06
262.175	131.06
262.407	97.06
262.64	88.06
262.872	86.06
263.105	82.06
263.337	86.06
263.57	76.06
263.802	94.06
264.035	82.06
264.267	73.06
264.499	74.06
264.732	71.06
264.964	82.06
265.197	95.06
265.429	103.06
265.661	67.06
265.894	80.06
266.126	86.06
266.358	92.06
266.591	95.06
266.823	86.06
267.055	81.06
267.287	97.06
267.52	77.06
267.752	89.06
267.984	87.06
268.216	81.06
268.448	92.06
268.681	94.06
268.913	94.06
269.145	91.06
269.377	90.06
269.609	80.06
269.841	81.06
270.073	81.06
270.306	100.06
270.538	88.06
270.77	86.06
271.002	90.06
271.234	99.06
271.466	104.06
271.698	96.06
271.93	70.06
272.162	95.06
272.394	95.06
272.626	76.06
272.858	82.06
273.09	85.06
273.322	89.06
273.553	95.06
273.785	76.06
274.017	78.06
274.249	66.06
274.481	92.06
274.713	79.06
274.945	79.06
275.176	91.06
275.408	112.06
275.64	112.06
275.872	114.06
276.104	103.06
276.335	107.06
276.567	104.06
276.799	162.06
277.031	162.06
277.262	184.06
277.494	135.06
277.726	105.06
277.957	86.06
278.189	94.06
278.421	80.06
278.652	103.06
278.884	90.06
279.115	98.06
279.347	88.06
279.579	102.06
279.81	115.06
280.042	175.06
280.273	233.06
280.505	158.06
280.736	104.06
280.968	93.06
281.199	98.06
281.431	87.06
281.662	95.06
281.894	102.06
282.125	106.06
282.356	129.06
282.588	173.06
282.819	137.06
283.051	99.06
283.282	90.06
283.513	87.06
283.745	89.06
283.976	77.06
284.207	76.06
284.439	82.06
284.67	86.06
284.901	75.06
285.132	78.06
285.364	99.06
285.595	86.06
285.826	104.06
286.057	96.06
286.288	86.06
286.52	76.06
286.751	89.06
286.982	75.06
287.213	104.06
287.444	91.06
287.675	80.06
287.906	94.06
288.138	90.06
288.369	88.06
288.6	88.06
288.831	83.06
289.062	93.06
289.293	89.06
289.524	94.06
289.755	85.06
289.986	92.06
290.217	78.06
290.448	78.06
290.679	91.06
290.91	88.06
291.141	83.06
291.371	98.06
291.602	81.06
291.833	84.06
292.064	86.06
292.295	93.06
292.526	87.06
292.757	99.06
292.987	95.06
293.218	78.06
293.449	90.06
293.68	91.06
293.91	84.06
294.141	99.06
294.372	86.06
294.603	84.06
294.833	90.06
295.064	86.06
295.295	96.06
295.525	85.06
295.756	93.06
295.987	133.06
296.217	177.06
296.448	150.06
296.679	110.06
296.909	81.06
297.14	102.06
297.37	90.06
297.601	91.06
297.831	75.06
298.062	98.06
298.292	95.06
298.523	90.06
298.753	73.06
298.984	85.06
299.214	90.06
299.445	101.06
299.675	87.06
299.905	94.06
300.136	93.06
300.366	91.06
300.597	103.06
300.827	97.06
301.057	95.06
301.288	109.06
301.518	113.06
301.748	107.06
301.979	107.06
302.209	104.06
302.439	93.06
302.669	94.06
302.9	82.06
303.13	100.06
303.36	96.06
303.59	133.06
303.82	144.06
304.051	109.06
304.281	90.06
304.511	90.06
304.741	92.06
304.971	100.06
305.201	94.06
305.431	89.06
305.661	93.06
305.891	92.06
306.121	106.06
306.352	114.06
306.582	102.06
306.812	102.06
307.042	129.06
307.272	137.06
307.502	173.06
307.731	181.06
307.961	137.06
308.191	102.06
308.421	95.06
308.651	100.06
308.881	85.06
309.111	84.06
309.341	99.06
309.571	91.06
309.8	106.06
310.03	108.06
310.26	99.06
310.49	102.06
310.72	103.06
310.949	115.06
311.179	111.06
311.409	99.06
311.639	107.06
311.868	111.06
312.098	91.06
312.328	107.06
312.557	107.06
312.787	121.06
313.017	115.06
313.246	104.06
313.476	108.06
313.706	92.06
313.935	102.06
314.165	103.06
314.394	107.06
314.624	106.06
314.853	106.06
315.083	100.06
315.312	101.06
315.542	101.06
315.771	94.06
316.001	83.06
316.23	95.06
316.46	89.06
316.689	97.06
316.919	99.06
317.148	111.06
317.377	101.06
317.607	107.06
317.836	98.06
318.065	95.06
318.295	93.06
318.524	95.06
318.753	95.06
318.983	93.06
319.212	93.06
319.441	118.06
319.67	111.06
319.9	112.06
320.129	88.06
320.358	107.06
320.587	96.06
320.816	106.06
321.046	107.06
321.275	112.06
321.504	94.06
321.733	96.06
321.962	109.06
322.191	91.06
322.42	115.06
322.649	132.06
322.878	114.06
323.108	138.06
323.337	145.06
323.566	176.06
323.795	210.06
324.024	261.06
324.253	541.06
324.482	1201.06
324.71	2523.06
324.939	3444.06
325.168	1205.06
325.397	316.06
325.626	190.06
325.855	155.06
326.084	138.06
326.313	152.06
326.542	179.06
326.77	277.06
326.999	630.06
327.228	1314.06
327.457	2529.06
327.686	2033.06
327.914	613.06
328.143	523.06
328.372	617.06
328.6	349.06
328.829	204.06
329.058	199.06
329.287	183.06
329.515	179.06
329.744	241.06
329.972	489.06
330.201	946.06
330.43	1397.06
330.658	597.06
330.887	287.06
331.115	198.06
331.344	131.06
331.572	122.06
331.801	129.06
332.03	138.06
332.258	126.06
332.486	99.06
332.715	106.06
332.943	122.06
333.172	114.06
333.4	135.06
333.629	168.06
333.857	223.06
334.085	422.06
334.314	875.06
334.542	1769.06
334.771	1623.06
334.999	423.06
335.227	186.06
335.455	142.06
335.684	110.06
335.912	112.06
336.14	113.06
336.369	121.06
336.597	104.06
336.825	90.06
337.053	89.06
337.281	91.06
337.51	105.06
337.738	114.06
337.966	92.06
338.194	101.06
338.422	102.06
338.65	101.06
338.878	97.06
339.106	87.06
339.334	98.06
339.562	104.06
339.79	81.06
340.018	99.06
340.246	82.06
340.474	92.06
340.702	104.06
340.93	89.06
341.158	99.06
341.386	100.06
341.614	113.06
341.842	101.06
342.07	84.06
342.298	97.06
342.526	98.06
342.754	96.06
342.981	82.06
343.209	84.06
343.437	99.06
343.665	94.06
343.893	96.06
344.12	100.06
344.348	94.06
344.576	83.06
344.804	91.06
345.031	95.06
345.259	108.06
345.487	90.06
345.714	110.06
345.942	97.06
346.17	90.06
346.397	84.06
346.625	89.06
346.853	90.06
347.08	105.06
347.308	95.06
347.535	100.06
347.763	116.06
347.99	94.06
348.218	107.06
348.445	104.06
348.673	103.06
348.9	104.06
349.128	100.06
349.355	89.06
349.583	89.06
349.81	94.06
350.037	102.06
350.265	89.06
350.492	93.06
350.72	112.06
350.947	116.06
351.174	121.06
351.402	118.06
351.629	126.06
351.856	111.06
352.083	104.06
352.311	108.06
352.538	131.06
352.765	121.06
352.992	122.06
353.22	137.06
353.447	109.06
353.674	109.06
353.901	95.06
354.128	93.06
354.355	90.06
354.583	108.06
354.81	106.06
355.037	109.06
355.264	90.06
355.491	81.06
355.718	103.06
355.945	98.06
356.172	94.06
356.399	85.06
356.626	91.06
356.853	99.06
357.08	86.06
357.307	95.06
357.534	95.06
357.761	99.06
357.988	103.06
358.215	112.06
358.441	105.06
358.668	102.06
358.895	90.06
359.122	96.06
359.349	80.06
359.576	101.06
359.802	124.06
360.029	134.06
360.256	134.06
360.483	126.06
360.709	101.06
360.936	90.06
361.163	107.06
361.39	99.06
361.616	102.06
361.843	86.06
362.07	112.06
362.296	93.06
362.523	94.06
362.749	97.06
362.976	104.06
363.203	93.06
363.429	99.06
363.656	87.06
363.882	88.06
364.109	95.06
364.335	97.06
364.562	97.06
364.788	97.06
365.015	97.06
365.241	115.06
365.468	106.06
365.694	99.06
365.92	91.06
366.147	86.06
366.373	77.06
366.599	88.06
366.826	77.06
367.052	82.06
367.278	102.06
367.505	87.06
367.731	93.06
367.957	89.06
368.184	94.06
368.41	97.06
368.636	133.06
368.862	123.06
369.089	114.06
369.315	105.06
369.541	96.06
369.767	105.06
369.993	90.06
370.219	96.06
370.445	82.06
370.672	96.06
370.898	88.06
371.124	100.06
371.35	90.06
371.576	89.06
371.802	97.06
372.028	81.06
372.254	96.06
372.48	82.06
372.706	94.06
372.932	83.06
373.158	83.06
373.384	101.06
373.61	97.06
373.835	98.06
374.061	91.06
374.287	91.06
374.513	96.06
374.739	81.06
374.965	76.06
375.191	89.06
375.416	109.06
375.642	89.06
375.868	100.06
376.094	91.06
376.319	100.06
376.545	95.06
376.771	90.06
376.997	91.06
377.222	93.06
377.448	87.06
377.674	84.06
377.899	104.06
378.125	71.06
378.35	95.06
378.576	100.06
378.802	90.06
379.027	96.06
379.253	101.06
379.478	108.06
379.704	84.06
379.929	106.06
380.155	87.06
380.38	116.06
380.606	113.06
380.831	99.06
381.057	118.06
381.282	103.06
381.507	102.06
381.733	108.06
381.958	111.06
382.184	111.06
382.409	115.06
382.634	114.06
382.86	109.06
383.085	116.06
383.31	105.06
383.535	110.06
383.761	113.06
383.986	110.06
384.211	102.06
384.436	115.06
384.662	124.06
384.887	119.06
385.112	123.06
385.337	134.06
385.562	123.06
385.787	138.06
386.013	137.06
386.238	141.06
386.463	124.06
386.688	126.06
386.913	123.06
387.138	127.06
387.363	128.06
387.588	115.06
387.813	104.06
388.038	129.06
388.263	127.06
388.488	138.06
388.713	103.06
388.938	94.06
389.163	93.06
389.387	101.06
389.612	79.06
389.837	89.06
390.062	97.06
390.287	90.06
390.512	90.06
390.736	86.06
390.961	95.06
391.186	102.06
391.411	105.06
391.636	83.06
391.86	90.06
392.085	70.06
392.31	85.06
392.534	81.06
392.759	73.06
392.984	73.06
393.208	112.06
393.433	111.06
393.658	109.06
393.882	83.06
394.107	87.06
394.331	69.06
394.556	77.06
394.78	96.06
395.005	93.06
395.229	89.06
395.454	89.06
395.678	94.06
395.903	98.06
396.127	93.06
396.352	80.06
396.576	77.06
396.801	93.06
397.025	101.06
397.249	79.06
397.474	103.06
397.698	98.06
397.922	85.06
398.147	90.06
398.371	87.06
398.595	90.06
398.82	86.06
399.044	89.06
399.268	75.06
399.492	93.06
399.717	91.06
399.941	83.06
400.165	96.06
400.389	91.06
400.613	98.06
400.837	93.06
401.062	83.06
401.286	95.06
401.51	104.06
401.734	105.06
401.958	110.06
402.182	149.06
402.406	195.06
402.63	138.06
402.854	112.06
403.078	95.06
403.302	83.06
403.526	95.06
403.75	102.06
403.974	92.06
404.198	91.06
404.422	95.06
404.645	89.06
404.869	100.06
405.093	121.06
405.317	151.06
405.541	135.06
405.765	128.06
405.988	138.06
406.212	210.06
406.436	309.06
406.66	215.06
406.883	123.06
407.107	113.06
407.331	105.06
407.555	117.06
407.778	98.06
408.002	104.06
408.226	109.06
408.449	101.06
408.673	104.06
408.896	105.06
409.12	103.06
409.344	89.06
409.567	95.06
409.791	92.06
410.014	97.06
410.238	90.06
410.461	103.06
410.685	99.06
410.908	103.06
411.132	133.06
411.355	112.06
411.578	94.06
411.802	92.06
412.025	92.06
412.249	112.06
412.472	114.06
412.695	140.06
412.919	117.06
413.142	89.06
413.365	91.06
413.589	90.06
413.812	96.06
414.035	104.06
414.258	83.06
414.482	101.06
414.705	88.06
414.928	92.06
415.151	89.06
415.374	93.06
415.597	90.06
415.821	88.06
416.044	93.06
416.267	94.06
416.49	86.06
416.713	93.06
416.936	92.06
417.159	92.06
417.382	94.06
417.605	105.06
417.828	113.06
418.051	104.06
418.274	74.06
418.497	74.06
418.72	94.06
418.943	98.06
419.166	87.06
419.389	91.06
419.611	102.06
419.834	105.06
420.057	102.06
420.28	96.06
420.503	97.06
420.726	96.06
420.948	103.06
421.171	93.06
421.394	87.06
421.617	77.06
421.839	93.06
422.062	96.06
422.285	109.06
422.507	94.06
422.73	111.06
422.953	110.06
423.175	72.06
423.398	90.06
423.621	97.06
423.843	87.06
424.066	91.06
424.288	89.06
424.511	96.06
424.733	97.06
424.956	113.06
425.178	106.06
425.401	112.06
425.623	101.06
425.846	92.06
426.068	108.06
426.291	90.06
426.513	103.06
426.735	105.06
426.958	103.06
427.18	126.06
427.402	177.06
427.625	273.06
427.847	245.06
428.069	227.06
428.292	130.06
428.514	95.06
428.736	91.06
428.958	96.06
429.181	92.06
429.403	92.06
429.625	99.06
429.847	91.06
430.069	111.06
430.292	106.06
430.514	86.06
430.736	89.06
430.958	91.06
431.18	86.06
431.402	81.06
431.624	78.06
431.846	92.06
432.068	78.06
432.29	102.06
432.512	96.06
432.734	91.06
432.956	111.06
433.178	111.06
433.4	112.06
433.622	89.06
433.844	94.06
434.066	82.06
434.287	97.06
434.509	96.06
434.731	85.06
434.953	99.06
435.175	85.06
435.397	101.06
435.618	104.06
435.84	111.06
436.062	155.06
436.284	135.06
436.505	121.06
436.727	114.06
436.949	95.06
437.17	76.06
437.392	103.06
437.614	107.06
437.835	129.06
438.057	142.06
438.278	123.06
438.5	121.06
438.721	151.06
438.943	119.06
439.165	88.06
439.386	80.06
439.608	96.06
439.829	117.06
440.05	142.06
440.272	209.06
440.493	115.06
440.715	108.06
440.936	95.06
441.158	85.06
441.379	85.06
441.6	98.06
441.822	111.06
442.043	109.06
442.264	120.06
442.486	121.06
442.707	110.06
442.928	125.06
443.149	182.06
443.371	172.06
443.592	135.06
443.813	129.06
444.034	132.06
444.255	104.06
444.476	78.06
444.698	88.06
444.919	85.06
445.14	146.06
445.361	145.06
445.582	149.06
445.803	201.06
446.024	187.06
446.245	191.06
446.466	127.06
446.687	85.06
446.908	89.06
447.129	86.06
447.35	100.06
447.571	111.06
447.792	92.06
448.013	98.06
448.234	103.06
448.455	114.06
448.675	137.06
448.896	135.06
449.117	115.06
449.338	110.06
449.559	173.06
449.779	159.06
450	105.06
450.221	93.06
450.442	106.06
450.662	109.06
450.883	124.06
451.104	134.06
451.324	105.06
451.545	95.06
451.766	96.06
451.986	90.06
452.207	83.06
452.428	97.06
452.648	109.06
452.869	130.06
453.089	155.06
453.31	140.06
453.53	103.06
453.751	92.06
453.971	113.06
454.192	143.06
454.412	87.06
454.633	87.06
454.853	81.06
455.073	95.06
455.294	96.06
455.514	98.06
455.734	99.06
455.955	98.06
456.175	82.06
456.395	82.06
456.616	77.06
456.836	93.06
457.056	102.06
457.276	100.06
457.497	82.06
457.717	77.06
457.937	89.06
458.157	87.06
458.377	99.06
458.598	123.06
458.818	209.06
459.038	236.06
459.258	150.06
459.478	89.06
459.698	85.06
459.918	97.06
460.138	75.06
460.358	74.06
460.578	89.06
460.798	86.06
461.018	87.06
461.238	83.06
461.458	87.06
461.678	86.06
461.898	92.06
462.118	91.06
462.338	78.06
462.558	98.06
462.777	95.06
462.997	96.06
463.217	116.06
463.437	100.06
463.657	90.06
463.876	97.06
464.096	92.06
464.316	89.06
464.536	96.06
464.755	109.06
464.975	118.06
465.195	240.06
465.414	224.06
465.634	93.06
465.854	97.06
466.073	98.06
466.293	108.06
466.512	102.06
466.732	99.06
466.951	94.06
467.171	103.06
467.391	113.06
467.61	146.06
467.829	215.06
468.049	549.06
468.268	797.06
468.488	232.06
468.707	119.06
468.927	99.06
469.146	91.06
469.365	96.06
469.585	104.06
469.804	108.06
470.023	121.06
470.243	117.06
470.462	130.06
470.681	137.06
470.901	111.06
471.12	96.06
471.339	125.06
471.558	121.06
471.777	153.06
471.997	294.06
472.216	1081.06
472.435	2512.06
472.654	585.06
472.873	181.06
473.092	105.06
473.311	99.06
473.53	94.06
473.749	88.06
473.968	99.06
474.187	133.06
474.406	117.06
474.625	82.06
474.844	94.06
475.063	77.06
475.282	98.06
475.501	84.06
475.72	76.06
475.939	87.06
476.158	80.06
476.377	91.06
476.596	95.06
476.814	105.06
477.033	91.06
477.252	103.06
477.471	92.06
477.69	109.06
477.908	109.06
478.127	109.06
478.346	107.06
478.564	112.06
478.783	114.06
479.002	83.06
479.22	104.06
479.439	109.06
479.658	138.06
479.876	117.06
480.095	122.06
480.313	127.06
480.532	166.06
480.751	297.06
480.969	975.06
481.188	4273.06
481.406	2393.06
481.624	345.06
481.843	136.06
482.061	109.06
482.28	109.06
482.498	94.06
482.717	99.06
482.935	106.06
483.153	96.06
483.372	98.06
483.59	90.06
483.808	92.06
484.027	93.06
484.245	106.06
484.463	105.06
484.681	96.06
484.9	97.06
485.118	99.06
485.336	97.06
485.554	90.06
485.772	111.06
485.99	115.06
486.209	118.06
486.427	113.06
486.645	108.06
486.863	138.06
487.081	109.06
487.299	92.06
487.517	91.06
487.735	103.06
487.953	108.06
488.171	88.06
488.389	93.06
488.607	94.06
488.825	80.06
489.043	89.06
489.261	90.06
489.479	83.06
489.696	76.06
489.914	98.06
490.132	84.06
490.35	82.06
490.568	85.06
490.786	94.06
491.003	101.06
491.221	80.06
491.439	84.06
491.657	95.06
491.874	111.06
492.092	87.06
492.31	84.06
492.527	91.06
492.745	112.06
492.963	103.06
493.18	115.06
493.398	89.06
493.615	106.06
493.833	106.06
494.05	97.06
494.268	90.06
494.485	102.06
494.703	82.06
494.92	92.06
495.138	89.06
495.355	83.06
495.573	103.06
495.79	93.06
496.008	87.06
496.225	88.06
496.442	93.06
496.66	79.06
496.877	103.06
497.094	96.06
497.312	83.06
497.529	95.06
497.746	102.06
497.963	77.06
498.181	102.06
498.398	97.06
498.615	98.06
498.832	105.06
499.049	98.06
499.267	87.06
499.484	99.06
499.701	83.06
499.918	102.06
500.135	96.06
500.352	101.06
500.569	108.06
500.786	100.06
501.003	91.06
501.22	82.06
501.437	82.06
501.654	96.06
501.871	121.06
502.088	94.06
502.305	99.06
502.522	83.06
502.739	95.06
502.956	81.06
503.172	96.06
503.389	103.06
503.606	125.06
503.823	111.06
504.04	97.06
504.256	95.06
504.473	89.06
504.69	90.06
504.907	106.06
505.123	92.06
505.34	106.06
505.557	87.06
505.773	97.06
505.99	95.06
506.207	97.06
506.423	97.06
506.64	86.06
506.856	90.06
507.073	95.06
507.289	99.06
507.506	104.06
507.722	122.06
507.939	129.06
508.155	107.06
508.372	97.06
508.588	113.06
508.805	102.06
509.021	102.06
509.238	115.06
509.454	102.06
509.67	109.06
509.887	116.06
510.103	125.06
510.319	244.06
510.536	921.06
510.752	3325.06
510.968	895.06
511.184	181.06
511.401	135.06
511.617	110.06
511.833	121.06
512.049	101.06
512.265	89.06
512.481	104.06
