Data from Circ_1998_H10_HRD10591_00076.txt Node
Date: Wed Jan 03 11:27:04 EST 2024
User: Yrep
Spectrometer: HR+D1059
Trigger mode: 1
Integration Time (sec): 1.000000E-1
Scans to average: 1
Electric dark correction enabled: true
Nonlinearity correction enabled: false
Boxcar width: 0
XAxis mode: Wavelengths
Number of Pixels in Spectrum: 2048
>>>>>Begin Spectral Data<<<<<
223.165	-23.56
223.4	-23.56
223.635	-23.56
223.869	-25.56
224.104	-24.56
224.338	-12.56
224.573	-13.56
224.808	-14.56
225.042	-5.56
225.277	-0.56
225.511	-8.56
225.746	-5.56
225.98	30.44
226.215	0.44
226.449	20.44
226.683	20.44
226.918	26.44
227.152	36.44
227.387	40.44
227.621	36.44
227.856	31.44
228.09	45.44
228.324	44.44
228.559	56.44
228.793	66.44
229.027	70.44
229.262	80.44
229.496	71.44
229.73	103.44
229.964	106.44
230.199	77.44
230.433	80.44
230.667	73.44
230.901	77.44
231.136	76.44
231.37	81.44
231.604	87.44
231.838	95.44
232.072	70.44
232.306	87.44
232.541	83.44
232.775	81.44
233.009	94.44
233.243	85.44
233.477	81.44
233.711	86.44
233.945	89.44
234.179	75.44
234.413	76.44
234.647	82.44
234.881	86.44
235.115	82.44
235.349	83.44
235.583	76.44
235.817	80.44
236.051	79.44
236.285	63.44
236.519	75.44
236.753	97.44
236.987	84.44
237.221	91.44
237.455	107.44
237.689	97.44
237.922	81.44
238.156	76.44
238.39	96.44
238.624	64.44
238.858	78.44
239.091	84.44
239.325	91.44
239.559	92.44
239.793	91.44
240.027	80.44
240.26	63.44
240.494	97.44
240.728	67.44
240.961	72.44
241.195	79.44
241.429	86.44
241.662	78.44
241.896	71.44
242.13	59.44
242.363	64.44
242.597	74.44
242.83	81.44
243.064	76.44
243.298	73.44
243.531	83.44
243.765	89.44
243.998	91.44
244.232	89.44
244.465	104.44
244.699	84.44
244.932	90.44
245.166	69.44
245.399	72.44
245.633	89.44
245.866	81.44
246.099	80.44
246.333	72.44
246.566	65.44
246.8	83.44
247.033	72.44
247.266	75.44
247.5	88.44
247.733	75.44
247.966	79.44
248.2	87.44
248.433	60.44
248.666	97.44
248.899	90.44
249.133	105.44
249.366	128.44
249.599	129.44
249.832	91.44
250.066	84.44
250.299	98.44
250.532	88.44
250.765	78.44
250.998	96.44
251.231	87.44
251.465	89.44
251.698	99.44
251.931	95.44
252.164	97.44
252.397	90.44
252.63	87.44
252.863	82.44
253.096	78.44
253.329	84.44
253.562	88.44
253.795	82.44
254.028	89.44
254.261	91.44
254.494	94.44
254.727	83.44
254.96	99.44
255.193	87.44
255.426	79.44
255.659	79.44
255.892	99.44
256.124	106.44
256.357	74.44
256.59	90.44
256.823	81.44
257.056	107.44
257.289	87.44
257.521	97.44
257.754	102.44
257.987	98.44
258.22	107.44
258.452	110.44
258.685	105.44
258.918	92.44
259.151	82.44
259.383	83.44
259.616	62.44
259.849	92.44
260.081	88.44
260.314	96.44
260.547	98.44
260.779	110.44
261.012	128.44
261.244	131.44
261.477	119.44
261.71	119.44
261.942	151.44
262.175	138.44
262.407	111.44
262.64	86.44
262.872	93.44
263.105	88.44
263.337	86.44
263.57	90.44
263.802	90.44
264.035	83.44
264.267	89.44
264.499	91.44
264.732	90.44
264.964	106.44
265.197	95.44
265.429	90.44
265.661	88.44
265.894	93.44
266.126	84.44
266.358	81.44
266.591	77.44
266.823	78.44
267.055	92.44
267.287	99.44
267.52	94.44
267.752	94.44
267.984	84.44
268.216	72.44
268.448	93.44
268.681	97.44
268.913	79.44
269.145	106.44
269.377	106.44
269.609	85.44
269.841	96.44
270.073	80.44
270.306	97.44
270.538	74.44
270.77	80.44
271.002	83.44
271.234	105.44
271.466	111.44
271.698	99.44
271.93	91.44
272.162	100.44
272.394	88.44
272.626	81.44
272.858	99.44
273.09	84.44
273.322	90.44
273.553	96.44
273.785	92.44
274.017	98.44
274.249	93.44
274.481	102.44
274.713	101.44
274.945	90.44
275.176	105.44
275.408	109.44
275.64	137.44
275.872	162.44
276.104	131.44
276.335	112.44
276.567	129.44
276.799	200.44
277.031	258.44
277.262	287.44
277.494	219.44
277.726	119.44
277.957	107.44
278.189	115.44
278.421	96.44
278.652	90.44
278.884	86.44
279.115	90.44
279.347	124.44
279.579	105.44
279.81	186.44
280.042	316.44
280.273	419.44
280.505	268.44
280.736	143.44
280.968	109.44
281.199	98.44
281.431	89.44
281.662	101.44
281.894	105.44
282.125	120.44
282.356	160.44
282.588	207.44
282.819	138.44
283.051	100.44
283.282	90.44
283.513	94.44
283.745	96.44
283.976	93.44
284.207	87.44
284.439	101.44
284.67	107.44
284.901	92.44
285.132	83.44
285.364	83.44
285.595	78.44
285.826	90.44
286.057	105.44
286.288	100.44
286.52	100.44
286.751	93.44
286.982	99.44
287.213	86.44
287.444	88.44
287.675	92.44
287.906	99.44
288.138	99.44
288.369	97.44
288.6	98.44
288.831	87.44
289.062	87.44
289.293	85.44
289.524	98.44
289.755	89.44
289.986	95.44
290.217	96.44
290.448	90.44
290.679	91.44
290.91	93.44
291.141	99.44
291.371	92.44
291.602	81.44
291.833	75.44
292.064	99.44
292.295	97.44
292.526	98.44
292.757	112.44
292.987	93.44
293.218	96.44
293.449	87.44
293.68	91.44
293.91	96.44
294.141	90.44
294.372	98.44
294.603	92.44
294.833	102.44
295.064	98.44
295.295	106.44
295.525	82.44
295.756	120.44
295.987	154.44
296.217	207.44
296.448	168.44
296.679	102.44
296.909	98.44
297.14	99.44
297.37	103.44
297.601	88.44
297.831	95.44
298.062	110.44
298.292	100.44
298.523	96.44
298.753	81.44
298.984	83.44
299.214	91.44
299.445	101.44
299.675	104.44
299.905	110.44
300.136	93.44
300.366	106.44
300.597	111.44
300.827	92.44
301.057	111.44
301.288	128.44
301.518	113.44
301.748	112.44
301.979	138.44
302.209	133.44
302.439	122.44
302.669	105.44
302.9	100.44
303.13	104.44
303.36	121.44
303.59	163.44
303.82	182.44
304.051	119.44
304.281	102.44
304.511	92.44
304.741	94.44
304.971	92.44
305.201	106.44
305.431	86.44
305.661	95.44
305.891	95.44
306.121	109.44
306.352	122.44
306.582	141.44
306.812	116.44
307.042	161.44
307.272	234.44
307.502	273.44
307.731	238.44
307.961	162.44
308.191	117.44
308.421	105.44
308.651	108.44
308.881	98.44
309.111	119.44
309.341	91.44
309.571	115.44
309.8	104.44
310.03	131.44
310.26	114.44
310.49	114.44
310.72	106.44
310.949	132.44
311.179	125.44
311.409	106.44
311.639	118.44
311.868	111.44
312.098	122.44
312.328	129.44
312.557	143.44
312.787	142.44
313.017	120.44
313.246	108.44
313.476	87.44
313.706	102.44
313.935	109.44
314.165	119.44
314.394	134.44
314.624	117.44
314.853	123.44
315.083	107.44
315.312	99.44
315.542	95.44
315.771	97.44
316.001	103.44
316.23	108.44
316.46	88.44
316.689	94.44
316.919	117.44
317.148	115.44
317.377	100.44
317.607	102.44
317.836	112.44
318.065	109.44
318.295	95.44
318.524	104.44
318.753	112.44
318.983	109.44
319.212	119.44
319.441	142.44
319.67	132.44
319.9	110.44
320.129	101.44
320.358	112.44
320.587	104.44
320.816	128.44
321.046	104.44
321.275	120.44
321.504	104.44
321.733	105.44
321.962	103.44
322.191	124.44
322.42	121.44
322.649	150.44
322.878	140.44
323.108	136.44
323.337	182.44
323.566	183.44
323.795	229.44
324.024	312.44
324.253	604.44
324.482	1341.44
324.71	2792.44
324.939	3754.44
325.168	1370.44
325.397	358.44
325.626	190.44
325.855	170.44
326.084	160.44
326.313	168.44
326.542	198.44
326.77	336.44
326.999	649.44
327.228	1364.44
327.457	2550.44
327.686	2106.44
327.914	796.44
328.143	862.44
328.372	1193.44
328.6	640.44
328.829	282.44
329.058	252.44
329.287	269.44
329.515	252.44
329.744	402.44
329.972	874.44
330.201	1819.44
330.43	2694.44
330.658	1136.44
330.887	459.44
331.115	267.44
331.344	154.44
331.572	160.44
331.801	164.44
332.03	169.44
332.258	134.44
332.486	112.44
332.715	123.44
332.943	140.44
333.172	148.44
333.4	177.44
333.629	212.44
333.857	373.44
334.085	782.44
334.314	1651.44
334.542	3354.44
334.771	3094.44
334.999	704.44
335.227	266.44
335.455	150.44
335.684	128.44
335.912	127.44
336.14	122.44
336.369	117.44
336.597	141.44
336.825	124.44
337.053	96.44
337.281	109.44
337.51	125.44
337.738	112.44
337.966	107.44
338.194	107.44
338.422	115.44
338.65	100.44
338.878	103.44
339.106	86.44
339.334	108.44
339.562	97.44
339.79	96.44
340.018	108.44
340.246	109.44
340.474	118.44
340.702	106.44
340.93	112.44
341.158	117.44
341.386	118.44
341.614	118.44
341.842	96.44
342.07	96.44
342.298	102.44
342.526	98.44
342.754	97.44
342.981	105.44
343.209	91.44
343.437	95.44
343.665	104.44
343.893	93.44
344.12	91.44
344.348	102.44
344.576	101.44
344.804	90.44
345.031	118.44
345.259	136.44
345.487	116.44
345.714	106.44
345.942	113.44
346.17	102.44
346.397	105.44
346.625	106.44
346.853	98.44
347.08	96.44
347.308	105.44
347.535	114.44
347.763	127.44
347.99	124.44
348.218	133.44
348.445	126.44
348.673	115.44
348.9	90.44
349.128	105.44
349.355	96.44
349.583	92.44
349.81	97.44
350.037	104.44
350.265	110.44
350.492	81.44
350.72	113.44
350.947	113.44
351.174	140.44
351.402	146.44
351.629	120.44
351.856	123.44
352.083	139.44
352.311	122.44
352.538	123.44
352.765	152.44
352.992	124.44
353.22	127.44
353.447	118.44
353.674	111.44
353.901	95.44
354.128	111.44
354.355	99.44
354.583	102.44
354.81	97.44
355.037	93.44
355.264	99.44
355.491	100.44
355.718	86.44
355.945	92.44
356.172	102.44
356.399	95.44
356.626	90.44
356.853	99.44
357.08	100.44
357.307	100.44
357.534	98.44
357.761	94.44
357.988	102.44
358.215	89.44
358.441	95.44
358.668	91.44
358.895	104.44
359.122	104.44
359.349	84.44
359.576	108.44
359.802	122.44
360.029	188.44
360.256	180.44
360.483	135.44
360.709	96.44
360.936	104.44
361.163	95.44
361.39	114.44
361.616	123.44
361.843	121.44
362.07	115.44
362.296	125.44
362.523	113.44
362.749	126.44
362.976	104.44
363.203	90.44
363.429	94.44
363.656	90.44
363.882	106.44
364.109	100.44
364.335	113.44
364.562	96.44
364.788	97.44
365.015	110.44
365.241	128.44
365.468	136.44
365.694	141.44
365.92	129.44
366.147	101.44
366.373	94.44
366.599	102.44
366.826	82.44
367.052	83.44
367.278	93.44
367.505	113.44
367.731	112.44
367.957	104.44
368.184	99.44
368.41	122.44
368.636	136.44
368.862	159.44
369.089	144.44
369.315	122.44
369.541	95.44
369.767	92.44
369.993	99.44
370.219	109.44
370.445	98.44
370.672	92.44
370.898	102.44
371.124	99.44
371.35	82.44
371.576	87.44
371.802	95.44
372.028	96.44
372.254	93.44
372.48	98.44
372.706	77.44
372.932	86.44
373.158	96.44
373.384	94.44
373.61	91.44
373.835	100.44
374.061	99.44
374.287	109.44
374.513	97.44
374.739	91.44
374.965	99.44
375.191	88.44
375.416	91.44
375.642	83.44
375.868	89.44
376.094	106.44
376.319	92.44
376.545	98.44
376.771	98.44
376.997	91.44
377.222	92.44
377.448	96.44
377.674	101.44
377.899	87.44
378.125	92.44
378.35	88.44
378.576	93.44
378.802	95.44
379.027	98.44
379.253	88.44
379.478	92.44
379.704	103.44
379.929	90.44
380.155	100.44
380.38	95.44
380.606	102.44
380.831	105.44
381.057	102.44
381.282	109.44
381.507	82.44
381.733	96.44
381.958	105.44
382.184	110.44
382.409	109.44
382.634	105.44
382.86	99.44
383.085	105.44
383.31	100.44
383.535	90.44
383.761	114.44
383.986	105.44
384.211	95.44
384.436	98.44
384.662	101.44
384.887	118.44
385.112	104.44
385.337	110.44
385.562	113.44
385.787	95.44
386.013	132.44
386.238	145.44
386.463	115.44
386.688	107.44
386.913	102.44
387.138	118.44
387.363	98.44
387.588	121.44
387.813	106.44
388.038	99.44
388.263	126.44
388.488	114.44
388.713	93.44
388.938	80.44
389.163	89.44
389.387	95.44
389.612	109.44
389.837	81.44
390.062	95.44
390.287	88.44
390.512	87.44
390.736	98.44
390.961	85.44
391.186	97.44
391.411	99.44
391.636	81.44
391.86	95.44
392.085	87.44
392.31	93.44
392.534	84.44
392.759	91.44
392.984	99.44
393.208	120.44
393.433	138.44
393.658	123.44
393.882	93.44
394.107	86.44
394.331	82.44
394.556	98.44
394.78	100.44
395.005	90.44
395.229	108.44
395.454	102.44
395.678	77.44
395.903	92.44
396.127	96.44
396.352	93.44
396.576	102.44
396.801	102.44
397.025	94.44
397.249	91.44
397.474	100.44
397.698	95.44
397.922	95.44
398.147	92.44
398.371	76.44
398.595	107.44
398.82	93.44
399.044	94.44
399.268	103.44
399.492	105.44
399.717	96.44
399.941	98.44
400.165	110.44
400.389	107.44
400.613	83.44
400.837	74.44
401.062	93.44
401.286	92.44
401.51	117.44
401.734	117.44
401.958	123.44
402.182	178.44
402.406	255.44
402.63	172.44
402.854	128.44
403.078	94.44
403.302	93.44
403.526	95.44
403.75	96.44
403.974	83.44
404.198	94.44
404.422	90.44
404.645	105.44
404.869	107.44
405.093	125.44
405.317	166.44
405.541	158.44
405.765	138.44
405.988	162.44
406.212	285.44
406.436	428.44
406.66	278.44
406.883	160.44
407.107	126.44
407.331	111.44
407.555	133.44
407.778	108.44
408.002	97.44
408.226	104.44
408.449	93.44
408.673	88.44
408.896	96.44
409.12	118.44
409.344	89.44
409.567	101.44
409.791	104.44
410.014	105.44
410.238	98.44
410.461	92.44
410.685	95.44
410.908	106.44
411.132	123.44
411.355	91.44
411.578	92.44
411.802	99.44
412.025	76.44
412.249	116.44
412.472	140.44
412.695	167.44
412.919	128.44
413.142	96.44
413.365	87.44
413.589	112.44
413.812	95.44
414.035	87.44
414.258	96.44
414.482	101.44
414.705	108.44
414.928	93.44
415.151	117.44
415.374	108.44
415.597	106.44
415.821	106.44
416.044	104.44
416.267	102.44
416.49	86.44
416.713	93.44
416.936	96.44
417.159	101.44
417.382	107.44
417.605	118.44
417.828	134.44
418.051	111.44
418.274	107.44
418.497	81.44
418.72	95.44
418.943	79.44
419.166	110.44
419.389	100.44
419.611	95.44
419.834	97.44
420.057	106.44
420.28	99.44
420.503	98.44
420.726	97.44
420.948	101.44
421.171	111.44
421.394	98.44
421.617	81.44
421.839	109.44
422.062	92.44
422.285	105.44
422.507	116.44
422.73	127.44
422.953	115.44
423.175	96.44
423.398	91.44
423.621	90.44
423.843	95.44
424.066	104.44
424.288	90.44
424.511	107.44
424.733	122.44
424.956	144.44
425.178	130.44
425.401	116.44
425.623	102.44
425.846	100.44
426.068	106.44
426.291	109.44
426.513	86.44
426.735	86.44
426.958	100.44
427.18	134.44
427.402	220.44
427.625	357.44
427.847	329.44
428.069	278.44
428.292	160.44
428.514	100.44
428.736	99.44
428.958	84.44
429.181	104.44
429.403	109.44
429.625	83.44
429.847	111.44
430.069	110.44
430.292	102.44
430.514	89.44
430.736	91.44
430.958	99.44
431.18	87.44
431.402	92.44
431.624	81.44
431.846	91.44
432.068	92.44
432.29	82.44
432.512	83.44
432.734	93.44
432.956	115.44
433.178	100.44
433.4	111.44
433.622	116.44
433.844	109.44
434.066	104.44
434.287	96.44
434.509	108.44
434.731	91.44
434.953	97.44
435.175	101.44
435.397	98.44
435.618	89.44
435.84	111.44
436.062	143.44
436.284	139.44
436.505	117.44
436.727	123.44
436.949	99.44
437.17	91.44
437.392	91.44
437.614	111.44
437.835	150.44
438.057	184.44
438.278	153.44
438.5	131.44
438.721	166.44
438.943	122.44
439.165	97.44
439.386	97.44
439.608	99.44
439.829	139.44
440.05	187.44
440.272	240.44
440.493	136.44
440.715	103.44
440.936	82.44
441.158	107.44
441.379	94.44
441.6	94.44
441.822	124.44
442.043	126.44
442.264	131.44
442.486	134.44
442.707	121.44
442.928	143.44
443.149	228.44
443.371	210.44
443.592	150.44
443.813	139.44
444.034	139.44
444.255	91.44
444.476	88.44
444.698	94.44
444.919	98.44
445.14	135.44
445.361	153.44
445.582	164.44
445.803	236.44
446.024	213.44
446.245	174.44
446.466	148.44
446.687	98.44
446.908	99.44
447.129	80.44
447.35	108.44
447.571	110.44
447.792	92.44
448.013	113.44
448.234	150.44
448.455	121.44
448.675	150.44
448.896	154.44
449.117	116.44
449.338	115.44
449.559	174.44
449.779	175.44
450	104.44
450.221	91.44
450.442	97.44
450.662	108.44
450.883	167.44
451.104	159.44
451.324	110.44
451.545	102.44
451.766	97.44
451.986	103.44
452.207	106.44
452.428	94.44
452.648	120.44
452.869	154.44
453.089	171.44
453.31	170.44
453.53	115.44
453.751	107.44
453.971	124.44
454.192	162.44
454.412	109.44
454.633	104.44
454.853	92.44
455.073	110.44
455.294	112.44
455.514	122.44
455.734	114.44
455.955	99.44
456.175	89.44
456.395	84.44
456.616	72.44
456.836	96.44
457.056	85.44
457.276	93.44
457.497	83.44
457.717	85.44
457.937	96.44
458.157	102.44
458.377	106.44
458.598	172.44
458.818	274.44
459.038	310.44
459.258	185.44
459.478	103.44
459.698	97.44
459.918	106.44
460.138	107.44
460.358	86.44
460.578	102.44
460.798	103.44
461.018	100.44
461.238	97.44
461.458	96.44
461.678	100.44
461.898	103.44
462.118	86.44
462.338	86.44
462.558	88.44
462.777	104.44
462.997	109.44
463.217	148.44
463.437	108.44
463.657	101.44
463.876	86.44
464.096	98.44
464.316	99.44
464.536	105.44
464.755	119.44
464.975	145.44
465.195	314.44
465.414	306.44
465.634	145.44
465.854	104.44
466.073	97.44
466.293	107.44
466.512	91.44
466.732	99.44
466.951	121.44
467.171	124.44
467.391	139.44
467.61	196.44
467.829	339.44
468.049	1082.44
468.268	1610.44
468.488	348.44
468.707	129.44
468.927	115.44
469.146	90.44
469.365	115.44
469.585	100.44
469.804	114.44
470.023	120.44
470.243	115.44
470.462	142.44
470.681	179.44
470.901	118.44
471.12	123.44
471.339	132.44
471.558	158.44
471.777	214.44
471.997	499.44
472.216	2086.44
472.435	4878.44
472.654	1020.44
472.873	233.44
473.092	136.44
473.311	94.44
473.53	108.44
473.749	109.44
473.968	107.44
474.187	152.44
474.406	120.44
474.625	92.44
474.844	96.44
475.063	82.44
475.282	84.44
475.501	77.44
475.72	99.44
475.939	106.44
476.158	81.44
476.377	105.44
476.596	100.44
476.814	115.44
477.033	123.44
477.252	111.44
477.471	95.44
477.69	99.44
477.908	108.44
478.127	98.44
478.346	96.44
478.564	110.44
478.783	127.44
479.002	128.44
479.22	125.44
479.439	146.44
479.658	164.44
479.876	170.44
480.095	149.44
480.313	178.44
480.532	248.44
480.751	481.44
480.969	1883.44
481.188	8282.44
481.406	4601.44
481.624	580.44
481.843	178.44
482.061	124.44
482.28	126.44
482.498	113.44
482.717	106.44
482.935	105.44
483.153	90.44
483.372	87.44
483.59	94.44
483.808	98.44
484.027	99.44
484.245	101.44
484.463	104.44
484.681	110.44
484.9	95.44
485.118	100.44
485.336	111.44
485.554	100.44
485.772	105.44
485.99	104.44
486.209	115.44
486.427	106.44
486.645	132.44
486.863	160.44
487.081	114.44
487.299	91.44
487.517	92.44
487.735	90.44
487.953	107.44
488.171	94.44
488.389	104.44
488.607	114.44
488.825	111.44
489.043	98.44
489.261	107.44
489.479	86.44
489.696	91.44
489.914	94.44
490.132	84.44
490.35	101.44
490.568	90.44
490.786	83.44
491.003	87.44
491.221	88.44
491.439	115.44
491.657	105.44
491.874	85.44
492.092	119.44
492.31	100.44
492.527	110.44
492.745	98.44
492.963	100.44
493.18	99.44
493.398	93.44
493.615	115.44
493.833	108.44
494.05	94.44
494.268	104.44
494.485	102.44
494.703	91.44
494.92	106.44
495.138	82.44
495.355	93.44
495.573	99.44
495.79	90.44
496.008	96.44
496.225	97.44
496.442	98.44
496.66	87.44
496.877	93.44
497.094	89.44
497.312	96.44
497.529	94.44
497.746	105.44
497.963	106.44
498.181	107.44
498.398	110.44
498.615	130.44
498.832	130.44
499.049	115.44
499.267	82.44
499.484	92.44
499.701	86.44
499.918	98.44
500.135	89.44
500.352	88.44
500.569	98.44
500.786	98.44
501.003	83.44
501.22	86.44
501.437	102.44
501.654	106.44
501.871	126.44
502.088	99.44
502.305	110.44
502.522	78.44
502.739	81.44
502.956	100.44
503.172	92.44
503.389	113.44
503.606	155.44
503.823	110.44
504.04	98.44
504.256	96.44
504.473	94.44
504.69	96.44
504.907	100.44
505.123	97.44
505.34	104.44
505.557	109.44
505.773	95.44
505.99	93.44
506.207	94.44
506.423	99.44
506.64	84.44
506.856	101.44
507.073	89.44
507.289	104.44
507.506	115.44
507.722	163.44
507.939	174.44
508.155	102.44
508.372	92.44
508.588	112.44
508.805	94.44
509.021	104.44
509.238	118.44
509.454	110.44
509.67	105.44
509.887	124.44
510.103	170.44
