Data from Circ_1998_H10_HRD10591_00034.txt Node
Date: Wed Jan 03 11:26:55 EST 2024
User: Yrep
Spectrometer: HR+D1059
Trigger mode: 1
Integration Time (sec): 1.000000E-1
Scans to average: 1
Electric dark correction enabled: true
Nonlinearity correction enabled: false
Boxcar width: 0
XAxis mode: Wavelengths
Number of Pixels in Spectrum: 2048
>>>>>Begin Spectral Data<<<<<
223.165	5.19
223.4	5.19
223.635	5.19
223.869	-15.81
224.104	-31.81
224.338	-6.81
224.573	-17.81
224.808	-10.81
225.042	-11.81
225.277	-20.81
225.511	-3.81
225.746	-7.81
225.98	8.19
226.215	9.19
226.449	15.19
226.683	17.19
226.918	29.19
227.152	43.19
227.387	39.19
227.621	40.19
227.856	25.19
228.09	48.19
228.324	56.19
228.559	48.19
228.793	69.19
229.027	71.19
229.262	76.19
229.496	71.19
229.73	107.19
229.964	95.19
230.199	75.19
230.433	75.19
230.667	83.19
230.901	84.19
231.136	82.19
231.37	87.19
231.604	82.19
231.838	74.19
232.072	84.19
232.306	73.19
232.541	85.19
232.775	78.19
233.009	71.19
233.243	77.19
233.477	86.19
233.711	95.19
233.945	90.19
234.179	76.19
234.413	77.19
234.647	76.19
234.881	83.19
235.115	76.19
235.349	73.19
235.583	83.19
235.817	78.19
236.051	73.19
236.285	85.19
236.519	88.19
236.753	84.19
236.987	76.19
237.221	88.19
237.455	85.19
237.689	78.19
237.922	83.19
238.156	83.19
238.39	80.19
238.624	71.19
238.858	78.19
239.091	78.19
239.325	65.19
239.559	69.19
239.793	88.19
240.027	79.19
240.26	94.19
240.494	75.19
240.728	83.19
240.961	83.19
241.195	82.19
241.429	79.19
241.662	81.19
241.896	85.19
242.13	85.19
242.363	64.19
242.597	72.19
242.83	79.19
243.064	73.19
243.298	77.19
243.531	76.19
243.765	73.19
243.998	83.19
244.232	83.19
244.465	105.19
244.699	76.19
244.932	86.19
245.166	85.19
245.399	85.19
245.633	75.19
245.866	81.19
246.099	78.19
246.333	86.19
246.566	64.19
246.8	75.19
247.033	83.19
247.266	91.19
247.5	81.19
247.733	81.19
247.966	76.19
248.2	69.19
248.433	83.19
248.666	83.19
248.899	84.19
249.133	97.19
249.366	105.19
249.599	107.19
249.832	103.19
250.066	86.19
250.299	70.19
250.532	94.19
250.765	75.19
250.998	72.19
251.231	79.19
251.465	85.19
251.698	72.19
251.931	93.19
252.164	77.19
252.397	96.19
252.63	92.19
252.863	78.19
253.096	87.19
253.329	98.19
253.562	87.19
253.795	56.19
254.028	83.19
254.261	80.19
254.494	76.19
254.727	83.19
254.96	79.19
255.193	68.19
255.426	75.19
255.659	84.19
255.892	103.19
256.124	99.19
256.357	90.19
256.59	91.19
256.823	72.19
257.056	86.19
257.289	95.19
257.521	90.19
257.754	93.19
257.987	100.19
258.22	81.19
258.452	102.19
258.685	76.19
258.918	92.19
259.151	77.19
259.383	93.19
259.616	70.19
259.849	83.19
260.081	75.19
260.314	83.19
260.547	97.19
260.779	99.19
261.012	118.19
261.244	120.19
261.477	104.19
261.71	115.19
261.942	154.19
262.175	161.19
262.407	93.19
262.64	96.19
262.872	86.19
263.105	91.19
263.337	95.19
263.57	84.19
263.802	80.19
264.035	87.19
264.267	80.19
264.499	77.19
264.732	113.19
264.964	85.19
265.197	87.19
265.429	92.19
265.661	77.19
265.894	92.19
266.126	91.19
266.358	70.19
266.591	83.19
266.823	88.19
267.055	96.19
267.287	81.19
267.52	79.19
267.752	88.19
267.984	84.19
268.216	80.19
268.448	95.19
268.681	91.19
268.913	68.19
269.145	92.19
269.377	87.19
269.609	87.19
269.841	96.19
270.073	78.19
270.306	83.19
270.538	113.19
270.77	90.19
271.002	78.19
271.234	101.19
271.466	97.19
271.698	92.19
271.93	88.19
272.162	75.19
272.394	89.19
272.626	80.19
272.858	93.19
273.09	78.19
273.322	83.19
273.553	81.19
273.785	81.19
274.017	85.19
274.249	83.19
274.481	75.19
274.713	92.19
274.945	80.19
275.176	92.19
275.408	100.19
275.64	113.19
275.872	124.19
276.104	107.19
276.335	114.19
276.567	111.19
276.799	177.19
277.031	208.19
277.262	228.19
277.494	151.19
277.726	103.19
277.957	78.19
278.189	83.19
278.421	91.19
278.652	87.19
278.884	97.19
279.115	92.19
279.347	97.19
279.579	109.19
279.81	145.19
280.042	233.19
280.273	332.19
280.505	212.19
280.736	133.19
280.968	97.19
281.199	91.19
281.431	84.19
281.662	104.19
281.894	92.19
282.125	103.19
282.356	159.19
282.588	183.19
282.819	171.19
283.051	99.19
283.282	82.19
283.513	79.19
283.745	75.19
283.976	90.19
284.207	83.19
284.439	94.19
284.67	85.19
284.901	94.19
285.132	107.19
285.364	94.19
285.595	96.19
285.826	88.19
286.057	100.19
286.288	79.19
286.52	81.19
286.751	94.19
286.982	92.19
287.213	90.19
287.444	83.19
287.675	87.19
287.906	93.19
288.138	88.19
288.369	93.19
288.6	86.19
288.831	86.19
289.062	94.19
289.293	88.19
289.524	92.19
289.755	84.19
289.986	79.19
290.217	84.19
290.448	72.19
290.679	87.19
290.91	86.19
291.141	93.19
291.371	91.19
291.602	79.19
291.833	71.19
292.064	83.19
292.295	94.19
292.526	94.19
292.757	94.19
292.987	98.19
293.218	92.19
293.449	84.19
293.68	91.19
293.91	73.19
294.141	88.19
294.372	90.19
294.603	80.19
294.833	80.19
295.064	99.19
295.295	94.19
295.525	101.19
295.756	120.19
295.987	120.19
296.217	190.19
296.448	149.19
296.679	105.19
296.909	97.19
297.14	90.19
297.37	96.19
297.601	92.19
297.831	88.19
298.062	103.19
298.292	95.19
298.523	93.19
298.753	109.19
298.984	79.19
299.214	83.19
299.445	97.19
299.675	84.19
299.905	110.19
300.136	83.19
300.366	74.19
300.597	85.19
300.827	100.19
301.057	108.19
301.288	109.19
301.518	102.19
301.748	94.19
301.979	119.19
302.209	110.19
302.439	101.19
302.669	103.19
302.9	97.19
303.13	97.19
303.36	117.19
303.59	157.19
303.82	165.19
304.051	119.19
304.281	96.19
304.511	79.19
304.741	83.19
304.971	94.19
305.201	88.19
305.431	80.19
305.661	74.19
305.891	93.19
306.121	115.19
306.352	119.19
306.582	124.19
306.812	116.19
307.042	120.19
307.272	192.19
307.502	200.19
307.731	181.19
307.961	154.19
308.191	93.19
308.421	101.19
308.651	102.19
308.881	96.19
309.111	87.19
309.341	87.19
309.571	112.19
309.8	96.19
310.03	100.19
310.26	107.19
310.49	92.19
310.72	103.19
310.949	131.19
311.179	116.19
311.409	95.19
311.639	91.19
311.868	92.19
312.098	105.19
312.328	102.19
312.557	123.19
312.787	134.19
313.017	117.19
313.246	105.19
313.476	101.19
313.706	94.19
313.935	101.19
314.165	112.19
314.394	111.19
314.624	122.19
314.853	110.19
315.083	97.19
315.312	95.19
315.542	92.19
315.771	111.19
316.001	96.19
316.23	86.19
316.46	93.19
316.689	90.19
316.919	95.19
317.148	92.19
317.377	97.19
317.607	120.19
317.836	95.19
318.065	83.19
318.295	99.19
318.524	98.19
318.753	92.19
318.983	104.19
319.212	111.19
319.441	125.19
319.67	128.19
319.9	107.19
320.129	113.19
320.358	97.19
320.587	88.19
320.816	95.19
321.046	117.19
321.275	107.19
321.504	103.19
321.733	104.19
321.962	100.19
322.191	110.19
322.42	124.19
322.649	131.19
322.878	137.19
323.108	132.19
323.337	150.19
323.566	171.19
323.795	197.19
324.024	298.19
324.253	601.19
324.482	1337.19
324.71	2876.19
324.939	3827.19
325.168	1325.19
325.397	360.19
325.626	193.19
325.855	151.19
326.084	162.19
326.313	177.19
326.542	197.19
326.77	327.19
326.999	677.19
327.228	1461.19
327.457	2715.19
327.686	2189.19
327.914	727.19
328.143	723.19
328.372	923.19
328.6	489.19
328.829	216.19
329.058	223.19
329.287	222.19
329.515	208.19
329.744	303.19
329.972	672.19
330.201	1407.19
330.43	2089.19
330.658	878.19
330.887	359.19
331.115	225.19
331.344	133.19
331.572	118.19
331.801	135.19
332.03	149.19
332.258	116.19
332.486	96.19
332.715	111.19
332.943	117.19
333.172	138.19
333.4	145.19
333.629	198.19
333.857	302.19
334.085	566.19
334.314	1323.19
334.542	2565.19
334.771	2382.19
334.999	588.19
335.227	210.19
335.455	154.19
335.684	108.19
335.912	112.19
336.14	107.19
336.369	111.19
336.597	116.19
336.825	117.19
337.053	117.19
337.281	97.19
337.51	110.19
337.738	85.19
337.966	97.19
338.194	121.19
338.422	110.19
338.65	117.19
338.878	97.19
339.106	101.19
339.334	94.19
339.562	100.19
339.79	110.19
340.018	105.19
340.246	97.19
340.474	106.19
340.702	106.19
340.93	80.19
341.158	96.19
341.386	107.19
341.614	103.19
341.842	103.19
342.07	93.19
342.298	81.19
342.526	104.19
342.754	89.19
342.981	80.19
343.209	89.19
343.437	95.19
343.665	99.19
343.893	77.19
344.12	100.19
344.348	80.19
344.576	83.19
344.804	103.19
345.031	109.19
345.259	113.19
345.487	109.19
345.714	104.19
345.942	91.19
346.17	80.19
346.397	75.19
346.625	105.19
346.853	89.19
347.08	85.19
347.308	97.19
347.535	111.19
347.763	100.19
347.99	103.19
348.218	103.19
348.445	126.19
348.673	115.19
348.9	103.19
349.128	94.19
349.355	83.19
349.583	102.19
349.81	99.19
350.037	104.19
350.265	92.19
350.492	106.19
350.72	93.19
350.947	126.19
351.174	115.19
351.402	121.19
351.629	98.19
351.856	110.19
352.083	116.19
352.311	133.19
352.538	141.19
352.765	142.19
352.992	132.19
353.22	117.19
353.447	108.19
353.674	118.19
353.901	86.19
354.128	94.19
354.355	83.19
354.583	92.19
354.81	101.19
355.037	95.19
355.264	94.19
355.491	88.19
355.718	102.19
355.945	105.19
356.172	94.19
356.399	90.19
356.626	87.19
356.853	88.19
357.08	93.19
357.307	85.19
357.534	89.19
357.761	95.19
357.988	106.19
358.215	92.19
358.441	95.19
358.668	90.19
358.895	96.19
359.122	93.19
359.349	99.19
359.576	96.19
359.802	139.19
360.029	161.19
360.256	132.19
360.483	135.19
360.709	79.19
360.936	95.19
361.163	83.19
361.39	104.19
361.616	101.19
361.843	92.19
362.07	104.19
362.296	119.19
362.523	94.19
362.749	109.19
362.976	96.19
363.203	99.19
363.429	107.19
363.656	101.19
363.882	94.19
364.109	102.19
364.335	94.19
364.562	85.19
364.788	98.19
365.015	127.19
365.241	114.19
365.468	125.19
365.694	115.19
365.92	109.19
366.147	88.19
366.373	101.19
366.599	93.19
366.826	107.19
367.052	83.19
367.278	96.19
367.505	107.19
367.731	100.19
367.957	97.19
368.184	101.19
368.41	106.19
368.636	140.19
368.862	141.19
369.089	141.19
369.315	104.19
369.541	86.19
369.767	97.19
369.993	96.19
370.219	81.19
370.445	83.19
370.672	79.19
370.898	92.19
371.124	89.19
371.35	85.19
371.576	92.19
371.802	85.19
372.028	80.19
372.254	96.19
372.48	88.19
372.706	88.19
372.932	87.19
373.158	88.19
373.384	88.19
373.61	87.19
373.835	95.19
374.061	91.19
374.287	104.19
374.513	94.19
374.739	83.19
374.965	119.19
375.191	80.19
375.416	95.19
375.642	84.19
375.868	80.19
376.094	96.19
376.319	88.19
376.545	76.19
376.771	83.19
376.997	77.19
377.222	87.19
377.448	91.19
377.674	88.19
377.899	85.19
378.125	71.19
378.35	85.19
378.576	93.19
378.802	90.19
379.027	84.19
379.253	96.19
379.478	86.19
379.704	92.19
379.929	91.19
380.155	98.19
380.38	94.19
380.606	81.19
380.831	93.19
381.057	95.19
381.282	99.19
381.507	119.19
381.733	95.19
381.958	99.19
382.184	89.19
382.409	93.19
382.634	99.19
382.86	99.19
383.085	97.19
383.31	106.19
383.535	103.19
383.761	97.19
383.986	92.19
384.211	88.19
384.436	97.19
384.662	100.19
384.887	105.19
385.112	108.19
385.337	110.19
385.562	111.19
385.787	104.19
386.013	127.19
386.238	129.19
386.463	103.19
386.688	116.19
386.913	117.19
387.138	95.19
387.363	101.19
387.588	95.19
387.813	98.19
388.038	110.19
388.263	104.19
388.488	103.19
388.713	108.19
388.938	83.19
389.163	86.19
389.387	108.19
389.612	73.19
389.837	79.19
390.062	80.19
390.287	88.19
390.512	81.19
390.736	101.19
390.961	79.19
391.186	82.19
391.411	93.19
391.636	80.19
391.86	79.19
392.085	83.19
392.31	97.19
392.534	87.19
392.759	84.19
392.984	95.19
393.208	96.19
393.433	107.19
393.658	93.19
393.882	83.19
394.107	96.19
394.331	96.19
394.556	89.19
394.78	90.19
395.005	77.19
395.229	67.19
395.454	78.19
395.678	83.19
395.903	73.19
396.127	77.19
396.352	77.19
396.576	91.19
396.801	92.19
397.025	91.19
397.249	73.19
397.474	79.19
397.698	92.19
397.922	90.19
398.147	93.19
398.371	87.19
398.595	78.19
398.82	94.19
399.044	85.19
399.268	97.19
399.492	83.19
399.717	96.19
399.941	98.19
400.165	94.19
400.389	91.19
400.613	98.19
400.837	88.19
401.062	81.19
401.286	80.19
401.51	90.19
401.734	101.19
401.958	116.19
402.182	160.19
402.406	222.19
402.63	161.19
402.854	105.19
403.078	102.19
403.302	93.19
403.526	84.19
403.75	82.19
403.974	101.19
404.198	81.19
404.422	99.19
404.645	91.19
404.869	100.19
405.093	132.19
405.317	146.19
405.541	154.19
405.765	121.19
405.988	147.19
406.212	252.19
406.436	360.19
406.66	228.19
406.883	124.19
407.107	107.19
407.331	98.19
407.555	118.19
407.778	106.19
408.002	104.19
408.226	85.19
408.449	86.19
408.673	97.19
408.896	97.19
409.12	101.19
409.344	88.19
409.567	103.19
409.791	80.19
410.014	96.19
410.238	101.19
410.461	85.19
410.685	104.19
410.908	89.19
411.132	106.19
411.355	96.19
411.578	84.19
411.802	90.19
412.025	90.19
412.249	105.19
412.472	124.19
412.695	158.19
412.919	119.19
413.142	99.19
413.365	80.19
413.589	100.19
413.812	87.19
414.035	78.19
414.258	92.19
414.482	95.19
414.705	101.19
414.928	110.19
415.151	89.19
415.374	99.19
415.597	100.19
415.821	91.19
416.044	91.19
416.267	91.19
416.49	91.19
416.713	99.19
416.936	86.19
417.159	103.19
417.382	105.19
417.605	111.19
417.828	112.19
418.051	107.19
418.274	100.19
418.497	84.19
418.72	78.19
418.943	83.19
419.166	77.19
419.389	108.19
419.611	101.19
419.834	101.19
420.057	95.19
420.28	95.19
420.503	81.19
420.726	88.19
420.948	101.19
421.171	110.19
421.394	84.19
421.617	81.19
421.839	85.19
422.062	91.19
422.285	91.19
422.507	115.19
422.73	117.19
422.953	96.19
423.175	83.19
423.398	81.19
423.621	87.19
423.843	94.19
424.066	95.19
424.288	91.19
424.511	90.19
424.733	108.19
424.956	135.19
425.178	113.19
425.401	112.19
425.623	109.19
425.846	112.19
426.068	107.19
426.291	97.19
426.513	93.19
426.735	100.19
426.958	108.19
427.18	142.19
427.402	194.19
427.625	296.19
427.847	296.19
428.069	276.19
428.292	152.19
428.514	104.19
428.736	94.19
428.958	99.19
429.181	75.19
429.403	79.19
429.625	98.19
429.847	103.19
430.069	104.19
430.292	102.19
430.514	97.19
430.736	101.19
430.958	80.19
431.18	84.19
431.402	84.19
431.624	96.19
431.846	98.19
432.068	77.19
432.29	84.19
432.512	83.19
432.734	86.19
432.956	91.19
433.178	101.19
433.4	106.19
433.622	95.19
433.844	87.19
434.066	79.19
434.287	96.19
434.509	87.19
434.731	92.19
434.953	83.19
435.175	89.19
435.397	100.19
435.618	99.19
435.84	103.19
436.062	166.19
436.284	153.19
436.505	115.19
436.727	106.19
436.949	106.19
437.17	87.19
437.392	86.19
437.614	112.19
437.835	131.19
438.057	165.19
438.278	137.19
438.5	128.19
438.721	155.19
438.943	111.19
439.165	85.19
439.386	85.19
439.608	104.19
439.829	122.19
440.05	172.19
440.272	203.19
440.493	127.19
440.715	94.19
440.936	85.19
441.158	69.19
441.379	85.19
441.6	114.19
441.822	107.19
442.043	102.19
442.264	117.19
442.486	121.19
442.707	112.19
442.928	124.19
443.149	181.19
443.371	193.19
443.592	161.19
443.813	149.19
444.034	126.19
444.255	94.19
444.476	94.19
444.698	83.19
444.919	86.19
445.14	135.19
445.361	141.19
445.582	164.19
445.803	235.19
446.024	225.19
446.245	199.19
446.466	144.19
446.687	104.19
446.908	82.19
447.129	87.19
447.35	96.19
447.571	90.19
447.792	91.19
448.013	111.19
448.234	122.19
448.455	112.19
448.675	155.19
448.896	147.19
449.117	128.19
449.338	122.19
449.559	159.19
449.779	159.19
450	91.19
450.221	76.19
450.442	95.19
450.662	104.19
450.883	137.19
451.104	141.19
451.324	102.19
451.545	92.19
451.766	84.19
451.986	89.19
452.207	100.19
452.428	90.19
452.648	112.19
452.869	137.19
453.089	151.19
453.31	152.19
453.53	115.19
453.751	102.19
453.971	125.19
454.192	139.19
454.412	115.19
454.633	89.19
454.853	83.19
455.073	96.19
455.294	101.19
455.514	108.19
455.734	97.19
455.955	86.19
456.175	96.19
456.395	82.19
456.616	84.19
456.836	95.19
457.056	74.19
457.276	80.19
457.497	81.19
457.717	92.19
457.937	92.19
458.157	85.19
458.377	98.19
458.598	139.19
458.818	240.19
459.038	284.19
459.258	177.19
459.478	76.19
459.698	83.19
459.918	72.19
460.138	82.19
460.358	85.19
460.578	94.19
460.798	86.19
461.018	80.19
461.238	103.19
461.458	86.19
461.678	92.19
461.898	87.19
462.118	85.19
462.338	88.19
462.558	95.19
462.777	93.19
462.997	96.19
463.217	103.19
463.437	106.19
463.657	77.19
463.876	93.19
464.096	96.19
464.316	104.19
464.536	102.19
464.755	92.19
464.975	133.19
465.195	268.19
465.414	263.19
465.634	109.19
465.854	90.19
466.073	96.19
466.293	87.19
466.512	94.19
466.732	78.19
466.951	102.19
467.171	114.19
467.391	126.19
467.61	158.19
467.829	236.19
468.049	771.19
468.268	1189.19
468.488	293.19
468.707	137.19
468.927	99.19
469.146	87.19
469.365	112.19
469.585	107.19
469.804	117.19
470.023	110.19
470.243	112.19
470.462	133.19
470.681	166.19
470.901	122.19
471.12	123.19
471.339	122.19
471.558	126.19
471.777	196.19
471.997	410.19
472.216	1605.19
472.435	3653.19
472.654	807.19
472.873	183.19
473.092	116.19
473.311	110.19
473.53	100.19
473.749	101.19
473.968	116.19
474.187	155.19
474.406	115.19
474.625	98.19
474.844	105.19
475.063	84.19
475.282	98.19
475.501	87.19
475.72	101.19
475.939	86.19
476.158	83.19
476.377	84.19
476.596	89.19
476.814	100.19
477.033	104.19
477.252	103.19
477.471	113.19
477.69	106.19
477.908	83.19
478.127	101.19
478.346	100.19
478.564	103.19
478.783	111.19
479.002	116.19
479.22	121.19
479.439	139.19
479.658	155.19
479.876	144.19
480.095	149.19
480.313	171.19
480.532	199.19
480.751	357.19
480.969	1440.19
481.188	6341.19
481.406	3511.19
481.624	477.19
481.843	176.19
482.061	125.19
482.28	103.19
482.498	97.19
482.717	90.19
482.935	103.19
483.153	79.19
483.372	83.19
483.59	86.19
483.808	92.19
484.027	90.19
484.245	94.19
484.463	87.19
484.681	97.19
484.9	96.19
485.118	101.19
485.336	87.19
485.554	103.19
485.772	95.19
485.99	113.19
486.209	106.19
486.427	106.19
486.645	125.19
486.863	143.19
487.081	120.19
487.299	103.19
487.517	92.19
487.735	88.19
487.953	92.19
488.171	87.19
488.389	100.19
488.607	98.19
488.825	81.19
489.043	85.19
489.261	102.19
489.479	92.19
489.696	88.19
489.914	86.19
490.132	92.19
490.35	74.19
490.568	87.19
490.786	92.19
491.003	97.19
491.221	92.19
491.439	96.19
491.657	101.19
491.874	87.19
492.092	88.19
492.31	91.19
492.527	91.19
492.745	92.19
492.963	99.19
493.18	95.19
493.398	94.19
493.615	93.19
493.833	103.19
494.05	90.19
494.268	95.19
494.485	90.19
494.703	84.19
494.92	79.19
495.138	83.19
495.355	80.19
495.573	96.19
495.79	80.19
496.008	87.19
496.225	102.19
496.442	95.19
496.66	87.19
496.877	86.19
497.094	89.19
497.312	96.19
497.529	95.19
497.746	79.19
497.963	88.19
498.181	94.19
498.398	103.19
498.615	133.19
498.832	117.19
499.049	91.19
499.267	92.19
499.484	89.19
499.701	91.19
499.918	88.19
500.135	96.19
500.352	89.19
500.569	90.19
500.786	103.19
501.003	91.19
501.22	87.19
501.437	91.19
501.654	97.19
501.871	137.19
502.088	105.19
502.305	97.19
502.522	83.19
502.739	100.19
502.956	77.19
503.172	97.19
503.389	97.19
503.606	135.19
503.823	109.19
504.04	82.19
504.256	96.19
504.473	82.19
504.69	96.19
504.907	89.19
505.123	100.19
505.34	87.19
505.557	80.19
505.773	97.19
505.99	105.19
506.207	73.19
506.423	89.19
506.64	103.19
506.856	77.19
507.073	83.19
507.289	105.19
507.506	101.19
507.722	164.19
507.939	145.19
508.155	99.19
508.372	92.19
508.588	81.19
508.805	102.19
509.021	112.19
509.238	101.19
509.454	111.19
509.67	110.19
509.887	109.19
510.103	151.19
510.319	270.19
510.536	1085.19
510.752	4019.19
510.968	1063.19
511.184	215.19
511.401	124.19
511.617	126.19
511.833	116.19
512.049	102.19
512.265	106.19
512.481	86.19
