Data from Circ_1998_H10_HRD10591_00050.txt Node
Date: Wed Jan 03 11:26:58 EST 2024
User: Yrep
Spectrometer: HR+D1059
Trigger mode: 1
Integration Time (sec): 1.000000E-1
Scans to average: 1
Electric dark correction enabled: true
Nonlinearity correction enabled: false
Boxcar width: 0
XAxis mode: Wavelengths
Number of Pixels in Spectrum: 2048
>>>>>Begin Spectral Data<<<<<
223.165	-22.38
223.4	-22.38
223.635	-22.38
223.869	-31.38
224.104	-22.38
224.338	-6.38
224.573	-21.38
224.808	-6.38
225.042	-10.38
225.277	-2.38
225.511	-3.38
225.746	-4.38
225.98	10.62
226.215	29.62
226.449	14.62
226.683	10.62
226.918	39.62
227.152	25.62
227.387	30.62
227.621	29.62
227.856	47.62
228.09	39.62
228.324	53.62
228.559	48.62
228.793	48.62
229.027	66.62
229.262	65.62
229.496	82.62
229.73	120.62
229.964	88.62
230.199	80.62
230.433	65.62
230.667	64.62
230.901	75.62
231.136	77.62
231.37	74.62
231.604	54.62
231.838	89.62
232.072	68.62
232.306	64.62
232.541	76.62
232.775	88.62
233.009	72.62
233.243	82.62
233.477	70.62
233.711	92.62
233.945	78.62
234.179	76.62
234.413	96.62
234.647	70.62
234.881	86.62
235.115	82.62
235.349	73.62
235.583	84.62
235.817	78.62
236.051	86.62
236.285	78.62
236.519	91.62
236.753	81.62
236.987	68.62
237.221	106.62
237.455	98.62
237.689	86.62
237.922	65.62
238.156	68.62
238.39	66.62
238.624	86.62
238.858	83.62
239.091	74.62
239.325	90.62
239.559	72.62
239.793	75.62
240.027	59.62
240.26	82.62
240.494	77.62
240.728	61.62
240.961	76.62
241.195	72.62
241.429	69.62
241.662	76.62
241.896	73.62
242.13	65.62
242.363	77.62
242.597	78.62
242.83	56.62
243.064	75.62
243.298	73.62
243.531	70.62
243.765	77.62
243.998	85.62
244.232	82.62
244.465	69.62
244.699	76.62
244.932	72.62
245.166	71.62
245.399	58.62
245.633	76.62
245.866	81.62
246.099	76.62
246.333	84.62
246.566	77.62
246.8	69.62
247.033	71.62
247.266	86.62
247.5	73.62
247.733	69.62
247.966	77.62
248.2	67.62
248.433	66.62
248.666	81.62
248.899	82.62
249.133	92.62
249.366	122.62
249.599	121.62
249.832	81.62
250.066	81.62
250.299	85.62
250.532	98.62
250.765	88.62
250.998	64.62
251.231	83.62
251.465	90.62
251.698	98.62
251.931	86.62
252.164	79.62
252.397	96.62
252.63	78.62
252.863	90.62
253.096	80.62
253.329	82.62
253.562	83.62
253.795	83.62
254.028	77.62
254.261	71.62
254.494	71.62
254.727	75.62
254.96	86.62
255.193	68.62
255.426	79.62
255.659	90.62
255.892	98.62
256.124	106.62
256.357	77.62
256.59	80.62
256.823	95.62
257.056	103.62
257.289	97.62
257.521	94.62
257.754	95.62
257.987	78.62
258.22	104.62
258.452	113.62
258.685	99.62
258.918	95.62
259.151	81.62
259.383	87.62
259.616	91.62
259.849	81.62
260.081	106.62
260.314	91.62
260.547	94.62
260.779	108.62
261.012	121.62
261.244	136.62
261.477	111.62
261.71	100.62
261.942	164.62
262.175	165.62
262.407	88.62
262.64	83.62
262.872	82.62
263.105	84.62
263.337	81.62
263.57	84.62
263.802	99.62
264.035	86.62
264.267	76.62
264.499	89.62
264.732	83.62
264.964	71.62
265.197	86.62
265.429	83.62
265.661	81.62
265.894	83.62
266.126	92.62
266.358	87.62
266.591	85.62
266.823	71.62
267.055	80.62
267.287	80.62
267.52	77.62
267.752	73.62
267.984	78.62
268.216	81.62
268.448	85.62
268.681	88.62
268.913	95.62
269.145	84.62
269.377	84.62
269.609	85.62
269.841	80.62
270.073	76.62
270.306	70.62
270.538	84.62
270.77	82.62
271.002	79.62
271.234	89.62
271.466	98.62
271.698	96.62
271.93	92.62
272.162	86.62
272.394	98.62
272.626	91.62
272.858	93.62
273.09	75.62
273.322	92.62
273.553	88.62
273.785	70.62
274.017	89.62
274.249	65.62
274.481	88.62
274.713	109.62
274.945	100.62
275.176	98.62
275.408	123.62
275.64	133.62
275.872	155.62
276.104	119.62
276.335	104.62
276.567	142.62
276.799	199.62
277.031	262.62
277.262	332.62
277.494	211.62
277.726	137.62
277.957	104.62
278.189	90.62
278.421	88.62
278.652	89.62
278.884	89.62
279.115	103.62
279.347	101.62
279.579	114.62
279.81	164.62
280.042	302.62
280.273	442.62
280.505	268.62
280.736	134.62
280.968	107.62
281.199	98.62
281.431	92.62
281.662	104.62
281.894	108.62
282.125	107.62
282.356	157.62
282.588	192.62
282.819	145.62
283.051	97.62
283.282	86.62
283.513	96.62
283.745	89.62
283.976	80.62
284.207	85.62
284.439	101.62
284.67	79.62
284.901	88.62
285.132	97.62
285.364	75.62
285.595	82.62
285.826	86.62
286.057	79.62
286.288	87.62
286.52	82.62
286.751	90.62
286.982	89.62
287.213	81.62
287.444	98.62
287.675	89.62
287.906	86.62
288.138	90.62
288.369	94.62
288.6	89.62
288.831	84.62
289.062	77.62
289.293	97.62
289.524	77.62
289.755	79.62
289.986	82.62
290.217	90.62
290.448	75.62
290.679	83.62
290.91	96.62
291.141	94.62
291.371	106.62
291.602	90.62
291.833	93.62
292.064	82.62
292.295	94.62
292.526	102.62
292.757	93.62
292.987	97.62
293.218	89.62
293.449	88.62
293.68	91.62
293.91	85.62
294.141	94.62
294.372	95.62
294.603	84.62
294.833	88.62
295.064	98.62
295.295	86.62
295.525	95.62
295.756	116.62
295.987	138.62
296.217	197.62
296.448	183.62
296.679	112.62
296.909	88.62
297.14	93.62
297.37	83.62
297.601	84.62
297.831	85.62
298.062	90.62
298.292	92.62
298.523	92.62
298.753	81.62
298.984	80.62
299.214	96.62
299.445	91.62
299.675	101.62
299.905	107.62
300.136	101.62
300.366	88.62
300.597	90.62
300.827	99.62
301.057	112.62
301.288	121.62
301.518	108.62
301.748	104.62
301.979	130.62
302.209	124.62
302.439	88.62
302.669	88.62
302.9	91.62
303.13	101.62
303.36	148.62
303.59	166.62
303.82	192.62
304.051	142.62
304.281	101.62
304.511	90.62
304.741	88.62
304.971	94.62
305.201	91.62
305.431	89.62
305.661	84.62
305.891	91.62
306.121	86.62
306.352	113.62
306.582	136.62
306.812	128.62
307.042	146.62
307.272	222.62
307.502	258.62
307.731	226.62
307.961	158.62
308.191	100.62
308.421	100.62
308.651	84.62
308.881	103.62
309.111	96.62
309.341	88.62
309.571	100.62
309.8	110.62
310.03	119.62
310.26	115.62
310.49	108.62
310.72	111.62
310.949	138.62
311.179	112.62
311.409	109.62
311.639	108.62
311.868	112.62
312.098	87.62
312.328	107.62
312.557	123.62
312.787	143.62
313.017	144.62
313.246	100.62
313.476	99.62
313.706	94.62
313.935	101.62
314.165	105.62
314.394	136.62
314.624	111.62
314.853	114.62
315.083	95.62
315.312	108.62
315.542	89.62
315.771	84.62
316.001	102.62
316.23	88.62
316.46	90.62
316.689	90.62
316.919	92.62
317.148	112.62
317.377	101.62
317.607	103.62
317.836	102.62
318.065	90.62
318.295	90.62
318.524	99.62
318.753	94.62
318.983	92.62
319.212	118.62
319.441	129.62
319.67	128.62
319.9	94.62
320.129	90.62
320.358	104.62
320.587	99.62
320.816	126.62
321.046	110.62
321.275	100.62
321.504	103.62
321.733	104.62
321.962	109.62
322.191	109.62
322.42	128.62
322.649	123.62
322.878	134.62
323.108	137.62
323.337	163.62
323.566	187.62
323.795	242.62
324.024	298.62
324.253	658.62
324.482	1474.62
324.71	3113.62
324.939	4048.62
325.168	1430.62
325.397	378.62
325.626	191.62
325.855	172.62
326.084	174.62
326.313	183.62
326.542	208.62
326.77	341.62
326.999	730.62
327.228	1493.62
327.457	2806.62
327.686	2226.62
327.914	829.62
328.143	904.62
328.372	1214.62
328.6	620.62
328.829	256.62
329.058	269.62
329.287	280.62
329.515	250.62
329.744	400.62
329.972	867.62
330.201	1918.62
330.43	2782.62
330.658	1152.62
330.887	452.62
331.115	272.62
331.344	167.62
331.572	159.62
331.801	147.62
332.03	146.62
332.258	124.62
332.486	120.62
332.715	114.62
332.943	142.62
333.172	150.62
333.4	169.62
333.629	221.62
333.857	348.62
334.085	770.62
334.314	1760.62
334.542	3568.62
334.771	3179.62
334.999	751.62
335.227	249.62
335.455	164.62
335.684	134.62
335.912	123.62
336.14	117.62
336.369	112.62
336.597	113.62
336.825	115.62
337.053	91.62
337.281	89.62
337.51	100.62
337.738	99.62
337.966	110.62
338.194	116.62
338.422	100.62
338.65	98.62
338.878	93.62
339.106	93.62
339.334	83.62
339.562	91.62
339.79	112.62
340.018	100.62
340.246	100.62
340.474	105.62
340.702	107.62
340.93	90.62
341.158	89.62
341.386	97.62
341.614	117.62
341.842	108.62
342.07	91.62
342.298	95.62
342.526	104.62
342.754	83.62
342.981	85.62
343.209	78.62
343.437	81.62
343.665	83.62
343.893	81.62
344.12	86.62
344.348	86.62
344.576	89.62
344.804	115.62
345.031	126.62
345.259	120.62
345.487	105.62
345.714	97.62
345.942	94.62
346.17	90.62
346.397	96.62
346.625	80.62
346.853	102.62
347.08	107.62
347.308	104.62
347.535	110.62
347.763	129.62
347.99	110.62
348.218	114.62
348.445	144.62
348.673	114.62
348.9	93.62
349.128	88.62
349.355	105.62
349.583	94.62
349.81	86.62
350.037	85.62
350.265	100.62
350.492	87.62
350.72	89.62
350.947	113.62
351.174	114.62
351.402	121.62
351.629	124.62
351.856	110.62
352.083	113.62
352.311	133.62
352.538	133.62
352.765	123.62
352.992	148.62
353.22	114.62
353.447	132.62
353.674	110.62
353.901	82.62
354.128	101.62
354.355	86.62
354.583	104.62
354.81	96.62
355.037	96.62
355.264	80.62
355.491	91.62
355.718	107.62
355.945	84.62
356.172	87.62
356.399	96.62
356.626	84.62
356.853	88.62
357.08	94.62
357.307	93.62
357.534	72.62
357.761	91.62
357.988	92.62
358.215	92.62
358.441	87.62
358.668	91.62
358.895	78.62
359.122	80.62
359.349	103.62
359.576	108.62
359.802	136.62
360.029	164.62
360.256	171.62
360.483	139.62
360.709	93.62
360.936	93.62
361.163	122.62
361.39	119.62
361.616	108.62
361.843	108.62
362.07	103.62
362.296	119.62
362.523	113.62
362.749	105.62
362.976	94.62
363.203	113.62
363.429	93.62
363.656	89.62
363.882	92.62
364.109	94.62
364.335	107.62
364.562	91.62
364.788	96.62
365.015	102.62
365.241	112.62
365.468	128.62
365.694	133.62
365.92	109.62
366.147	105.62
366.373	105.62
366.599	88.62
366.826	90.62
367.052	82.62
367.278	84.62
367.505	108.62
367.731	101.62
367.957	109.62
368.184	116.62
368.41	106.62
368.636	131.62
368.862	168.62
369.089	145.62
369.315	106.62
369.541	101.62
369.767	94.62
369.993	92.62
370.219	100.62
370.445	96.62
370.672	83.62
370.898	90.62
371.124	85.62
371.35	83.62
371.576	87.62
371.802	86.62
372.028	100.62
372.254	84.62
372.48	80.62
372.706	88.62
372.932	84.62
373.158	92.62
373.384	89.62
373.61	92.62
373.835	92.62
374.061	96.62
374.287	94.62
374.513	97.62
374.739	85.62
374.965	92.62
375.191	102.62
375.416	90.62
375.642	82.62
375.868	83.62
376.094	89.62
376.319	84.62
376.545	87.62
376.771	82.62
376.997	92.62
377.222	103.62
377.448	81.62
377.674	76.62
377.899	70.62
378.125	83.62
378.35	95.62
378.576	81.62
378.802	76.62
379.027	78.62
379.253	78.62
379.478	86.62
379.704	105.62
379.929	75.62
380.155	85.62
380.38	89.62
380.606	107.62
380.831	81.62
381.057	80.62
381.282	89.62
381.507	91.62
381.733	97.62
381.958	84.62
382.184	83.62
382.409	88.62
382.634	107.62
382.86	122.62
383.085	97.62
383.31	97.62
383.535	92.62
383.761	96.62
383.986	99.62
384.211	97.62
384.436	98.62
384.662	95.62
384.887	100.62
385.112	96.62
385.337	94.62
385.562	97.62
385.787	82.62
386.013	112.62
386.238	134.62
386.463	98.62
386.688	111.62
386.913	105.62
387.138	115.62
387.363	96.62
387.588	94.62
387.813	95.62
388.038	91.62
388.263	114.62
388.488	117.62
388.713	95.62
388.938	82.62
389.163	77.62
389.387	85.62
389.612	89.62
389.837	80.62
390.062	90.62
390.287	79.62
390.512	88.62
390.736	84.62
390.961	76.62
391.186	88.62
391.411	86.62
391.636	86.62
391.86	89.62
392.085	81.62
392.31	88.62
392.534	81.62
392.759	81.62
392.984	80.62
393.208	86.62
393.433	89.62
393.658	86.62
393.882	91.62
394.107	72.62
394.331	92.62
394.556	83.62
394.78	83.62
395.005	87.62
395.229	82.62
395.454	84.62
395.678	77.62
395.903	62.62
396.127	83.62
396.352	79.62
396.576	84.62
396.801	78.62
397.025	83.62
397.249	94.62
397.474	84.62
397.698	81.62
397.922	82.62
398.147	76.62
398.371	77.62
398.595	82.62
398.82	80.62
399.044	75.62
399.268	94.62
399.492	85.62
399.717	81.62
399.941	102.62
400.165	102.62
400.389	109.62
400.613	99.62
400.837	94.62
401.062	88.62
401.286	107.62
401.51	109.62
401.734	96.62
401.958	98.62
402.182	176.62
402.406	249.62
402.63	182.62
402.854	111.62
403.078	99.62
403.302	75.62
403.526	89.62
403.75	77.62
403.974	84.62
404.198	100.62
404.422	89.62
404.645	98.62
404.869	112.62
405.093	139.62
405.317	158.62
405.541	157.62
405.765	134.62
405.988	139.62
406.212	269.62
406.436	429.62
406.66	268.62
406.883	148.62
407.107	126.62
407.331	106.62
407.555	124.62
407.778	120.62
408.002	109.62
408.226	98.62
408.449	94.62
408.673	94.62
408.896	101.62
409.12	102.62
409.344	92.62
409.567	90.62
409.791	79.62
410.014	97.62
410.238	98.62
410.461	98.62
410.685	107.62
410.908	102.62
411.132	105.62
411.355	109.62
411.578	90.62
411.802	94.62
412.025	84.62
412.249	107.62
412.472	130.62
412.695	176.62
412.919	116.62
413.142	103.62
413.365	95.62
413.589	77.62
413.812	91.62
414.035	93.62
414.258	82.62
414.482	92.62
414.705	99.62
414.928	86.62
415.151	87.62
415.374	96.62
415.597	98.62
415.821	109.62
416.044	92.62
416.267	90.62
416.49	81.62
416.713	101.62
416.936	89.62
417.159	83.62
417.382	110.62
417.605	114.62
417.828	119.62
418.051	100.62
418.274	93.62
418.497	86.62
418.72	82.62
418.943	80.62
419.166	82.62
419.389	82.62
419.611	101.62
419.834	99.62
420.057	78.62
420.28	100.62
420.503	100.62
420.726	80.62
420.948	89.62
421.171	101.62
421.394	114.62
421.617	87.62
421.839	91.62
422.062	107.62
422.285	96.62
422.507	108.62
422.73	99.62
422.953	76.62
423.175	73.62
423.398	85.62
423.621	103.62
423.843	86.62
424.066	96.62
424.288	94.62
424.511	92.62
424.733	107.62
424.956	130.62
425.178	115.62
425.401	117.62
425.623	130.62
425.846	89.62
426.068	114.62
426.291	100.62
426.513	99.62
426.735	101.62
426.958	107.62
427.18	125.62
427.402	221.62
427.625	357.62
427.847	343.62
428.069	324.62
428.292	164.62
428.514	111.62
428.736	95.62
428.958	86.62
429.181	88.62
429.403	97.62
429.625	94.62
429.847	102.62
430.069	118.62
430.292	105.62
430.514	82.62
430.736	97.62
430.958	93.62
431.18	82.62
431.402	87.62
431.624	77.62
431.846	83.62
432.068	80.62
432.29	90.62
432.512	82.62
432.734	73.62
432.956	98.62
433.178	102.62
433.4	100.62
433.622	89.62
433.844	80.62
434.066	87.62
434.287	92.62
434.509	85.62
434.731	77.62
434.953	88.62
435.175	84.62
435.397	89.62
435.618	97.62
435.84	122.62
436.062	159.62
436.284	147.62
436.505	108.62
436.727	119.62
436.949	85.62
437.17	106.62
437.392	92.62
437.614	102.62
437.835	145.62
438.057	181.62
438.278	147.62
438.5	118.62
438.721	155.62
438.943	109.62
439.165	90.62
439.386	97.62
439.608	90.62
439.829	126.62
440.05	184.62
440.272	243.62
440.493	145.62
440.715	93.62
440.936	85.62
441.158	83.62
441.379	102.62
441.6	113.62
441.822	119.62
442.043	108.62
442.264	133.62
442.486	109.62
442.707	90.62
442.928	142.62
443.149	218.62
443.371	202.62
443.592	149.62
443.813	148.62
444.034	131.62
444.255	92.62
444.476	94.62
444.698	86.62
444.919	89.62
445.14	116.62
445.361	147.62
445.582	169.62
445.803	241.62
446.024	226.62
446.245	212.62
446.466	136.62
446.687	87.62
446.908	104.62
447.129	87.62
447.35	104.62
447.571	92.62
447.792	97.62
448.013	105.62
448.234	120.62
448.455	115.62
448.675	131.62
448.896	144.62
449.117	109.62
449.338	126.62
449.559	181.62
449.779	164.62
450	111.62
450.221	88.62
450.442	94.62
450.662	109.62
450.883	142.62
451.104	179.62
451.324	117.62
451.545	86.62
451.766	100.62
451.986	77.62
452.207	97.62
452.428	107.62
452.648	102.62
452.869	154.62
453.089	153.62
453.31	173.62
453.53	112.62
453.751	102.62
453.971	142.62
454.192	155.62
454.412	109.62
454.633	100.62
454.853	90.62
455.073	92.62
455.294	97.62
455.514	124.62
455.734	94.62
455.955	81.62
456.175	94.62
456.395	84.62
456.616	79.62
456.836	87.62
457.056	83.62
457.276	91.62
457.497	80.62
457.717	102.62
457.937	92.62
458.157	92.62
458.377	93.62
458.598	149.62
458.818	285.62
459.038	308.62
459.258	186.62
459.478	102.62
459.698	98.62
459.918	74.62
460.138	86.62
460.358	74.62
460.578	93.62
460.798	100.62
461.018	96.62
461.238	85.62
461.458	86.62
461.678	85.62
461.898	83.62
462.118	80.62
462.338	77.62
462.558	88.62
462.777	69.62
462.997	118.62
463.217	120.62
463.437	109.62
463.657	80.62
463.876	79.62
464.096	87.62
464.316	113.62
464.536	114.62
464.755	99.62
464.975	155.62
465.195	333.62
465.414	327.62
465.634	128.62
465.854	91.62
466.073	84.62
466.293	96.62
466.512	92.62
466.732	88.62
466.951	105.62
467.171	124.62
467.391	131.62
467.61	198.62
467.829	334.62
468.049	1025.62
468.268	1596.62
468.488	349.62
468.707	121.62
468.927	115.62
469.146	108.62
469.365	108.62
469.585	100.62
469.804	121.62
470.023	146.62
470.243	122.62
470.462	129.62
470.681	179.62
470.901	121.62
471.12	118.62
471.339	127.62
471.558	129.62
471.777	214.62
471.997	514.62
472.216	2132.62
472.435	4879.62
472.654	1034.62
472.873	216.62
473.092	113.62
473.311	97.62
473.53	111.62
473.749	103.62
473.968	101.62
474.187	140.62
474.406	117.62
474.625	97.62
474.844	105.62
475.063	90.62
475.282	85.62
475.501	92.62
475.72	93.62
475.939	80.62
476.158	88.62
476.377	103.62
476.596	87.62
476.814	94.62
477.033	111.62
477.252	99.62
477.471	94.62
477.69	105.62
477.908	89.62
478.127	90.62
478.346	86.62
478.564	106.62
478.783	124.62
479.002	122.62
479.22	127.62
479.439	167.62
479.658	161.62
479.876	151.62
480.095	164.62
480.313	172.62
480.532	248.62
480.751	456.62
480.969	1880.62
481.188	8302.62
481.406	4612.62
481.624	592.62
481.843	172.62
482.061	132.62
482.28	107.62
482.498	107.62
482.717	100.62
482.935	102.62
483.153	91.62
483.372	101.62
483.59	105.62
483.808	82.62
484.027	97.62
484.245	102.62
484.463	94.62
484.681	104.62
484.9	69.62
485.118	103.62
485.336	100.62
485.554	98.62
485.772	114.62
485.99	114.62
486.209	115.62
486.427	116.62
486.645	142.62
486.863	160.62
487.081	118.62
487.299	100.62
487.517	91.62
487.735	89.62
487.953	107.62
488.171	93.62
488.389	102.62
488.607	108.62
488.825	101.62
489.043	82.62
489.261	79.62
489.479	80.62
489.696	100.62
489.914	100.62
490.132	74.62
490.35	80.62
490.568	84.62
490.786	94.62
491.003	87.62
491.221	87.62
491.439	104.62
491.657	99.62
491.874	81.62
492.092	91.62
492.31	100.62
492.527	105.62
492.745	114.62
492.963	97.62
493.18	91.62
493.398	96.62
493.615	90.62
493.833	104.62
494.05	88.62
494.268	82.62
494.485	84.62
494.703	85.62
494.92	92.62
495.138	85.62
495.355	84.62
495.573	104.62
495.79	84.62
496.008	90.62
496.225	96.62
496.442	72.62
496.66	104.62
496.877	97.62
497.094	90.62
497.312	92.62
497.529	97.62
497.746	87.62
497.963	81.62
498.181	90.62
498.398	103.62
498.615	122.62
498.832	113.62
499.049	97.62
499.267	89.62
499.484	81.62
499.701	95.62
499.918	86.62
500.135	88.62
500.352	97.62
500.569	106.62
500.786	108.62
501.003	93.62
501.22	86.62
501.437	97.62
501.654	107.62
501.871	148.62
502.088	100.62
502.305	88.62
502.522	85.62
502.739	90.62
502.956	83.62
503.172	107.62
503.389	122.62
503.606	148.62
503.823	113.62
504.04	91.62
504.256	97.62
504.473	90.62
504.69	87.62
504.907	96.62
505.123	92.62
505.34	89.62
505.557	97.62
505.773	88.62
505.99	88.62
506.207	97.62
506.423	89.62
506.64	99.62
506.856	88.62
507.073	91.62
507.289	104.62
507.506	114.62
507.722	171.62
507.939	160.62
508.155	105.62
508.372	100.62
508.588	104.62
508.805	108.62
509.021	104.62
509.238	107.62
509.454	107.62
509.67	112.62
509.887	120.62
510.103	155.62
510.319	315.62
510.536	1281.62
510.752	4793.62
510.968	1200.62
511.184	226.62
511.401	140.62
511.617	108.62
511.833	122.62
