Data from Circ_1998_H10_HRD10591_00081.txt Node
Date: Wed Jan 03 11:27:05 EST 2024
User: Yrep
Spectrometer: HR+D1059
Trigger mode: 1
Integration Time (sec): 1.000000E-1
Scans to average: 1
Electric dark correction enabled: true
Nonlinearity correction enabled: false
Boxcar width: 0
XAxis mode: Wavelengths
Number of Pixels in Spectrum: 2048
>>>>>Begin Spectral Data<<<<<
223.165	-27.75
223.4	-27.75
223.635	-27.75
223.869	-28.75
224.104	-23.75
224.338	-3.75
224.573	-19.75
224.808	-10.75
225.042	-5.75
225.277	-1.75
225.511	2.25
225.746	1.25
225.98	11.25
226.215	22.25
226.449	13.25
226.683	27.25
226.918	16.25
227.152	28.25
227.387	48.25
227.621	27.25
227.856	47.25
228.09	39.25
228.324	64.25
228.559	59.25
228.793	53.25
229.027	64.25
229.262	67.25
229.496	83.25
229.73	106.25
229.964	87.25
230.199	80.25
230.433	81.25
230.667	97.25
230.901	76.25
231.136	80.25
231.37	85.25
231.604	88.25
231.838	85.25
232.072	77.25
232.306	72.25
232.541	75.25
232.775	86.25
233.009	75.25
233.243	77.25
233.477	88.25
233.711	81.25
233.945	68.25
234.179	75.25
234.413	93.25
234.647	89.25
234.881	91.25
235.115	61.25
235.349	76.25
235.583	71.25
235.817	80.25
236.051	89.25
236.285	77.25
236.519	78.25
236.753	77.25
236.987	74.25
237.221	105.25
237.455	99.25
237.689	79.25
237.922	68.25
238.156	82.25
238.39	78.25
238.624	75.25
238.858	74.25
239.091	79.25
239.325	86.25
239.559	84.25
239.793	77.25
240.027	62.25
240.26	80.25
240.494	70.25
240.728	79.25
240.961	91.25
241.195	84.25
241.429	72.25
241.662	84.25
241.896	74.25
242.13	78.25
242.363	80.25
242.597	77.25
242.83	95.25
243.064	80.25
243.298	86.25
243.531	68.25
243.765	76.25
243.998	92.25
244.232	70.25
244.465	108.25
244.699	81.25
244.932	91.25
245.166	73.25
245.399	88.25
245.633	91.25
245.866	80.25
246.099	66.25
246.333	83.25
246.566	81.25
246.8	88.25
247.033	80.25
247.266	86.25
247.5	76.25
247.733	78.25
247.966	78.25
248.2	83.25
248.433	87.25
248.666	82.25
248.899	100.25
249.133	100.25
249.366	117.25
249.599	98.25
249.832	97.25
250.066	103.25
250.299	76.25
250.532	82.25
250.765	85.25
250.998	79.25
251.231	77.25
251.465	75.25
251.698	94.25
251.931	97.25
252.164	80.25
252.397	93.25
252.63	80.25
252.863	91.25
253.096	79.25
253.329	82.25
253.562	88.25
253.795	86.25
254.028	91.25
254.261	80.25
254.494	98.25
254.727	75.25
254.96	89.25
255.193	88.25
255.426	77.25
255.659	84.25
255.892	98.25
256.124	96.25
256.357	82.25
256.59	82.25
256.823	79.25
257.056	88.25
257.289	86.25
257.521	95.25
257.754	87.25
257.987	106.25
258.22	101.25
258.452	89.25
258.685	114.25
258.918	81.25
259.151	87.25
259.383	93.25
259.616	94.25
259.849	92.25
260.081	87.25
260.314	99.25
260.547	91.25
260.779	95.25
261.012	114.25
261.244	119.25
261.477	95.25
261.71	102.25
261.942	121.25
262.175	145.25
262.407	98.25
262.64	96.25
262.872	80.25
263.105	82.25
263.337	98.25
263.57	82.25
263.802	75.25
264.035	88.25
264.267	106.25
264.499	84.25
264.732	85.25
264.964	66.25
265.197	83.25
265.429	86.25
265.661	102.25
265.894	96.25
266.126	80.25
266.358	82.25
266.591	82.25
266.823	83.25
267.055	86.25
267.287	81.25
267.52	82.25
267.752	83.25
267.984	83.25
268.216	86.25
268.448	100.25
268.681	98.25
268.913	99.25
269.145	81.25
269.377	93.25
269.609	86.25
269.841	91.25
270.073	106.25
270.306	90.25
270.538	104.25
270.77	78.25
271.002	79.25
271.234	92.25
271.466	105.25
271.698	103.25
271.93	95.25
272.162	88.25
272.394	98.25
272.626	66.25
272.858	92.25
273.09	78.25
273.322	81.25
273.553	94.25
273.785	96.25
274.017	95.25
274.249	88.25
274.481	85.25
274.713	93.25
274.945	101.25
275.176	103.25
275.408	111.25
275.64	123.25
275.872	149.25
276.104	98.25
276.335	102.25
276.567	124.25
276.799	156.25
277.031	208.25
277.262	226.25
277.494	153.25
277.726	105.25
277.957	96.25
278.189	90.25
278.421	100.25
278.652	95.25
278.884	71.25
279.115	102.25
279.347	93.25
279.579	114.25
279.81	156.25
280.042	259.25
280.273	319.25
280.505	220.25
280.736	122.25
280.968	98.25
281.199	83.25
281.431	86.25
281.662	88.25
281.894	88.25
282.125	107.25
282.356	139.25
282.588	194.25
282.819	138.25
283.051	88.25
283.282	95.25
283.513	93.25
283.745	94.25
283.976	88.25
284.207	89.25
284.439	83.25
284.67	86.25
284.901	90.25
285.132	78.25
285.364	86.25
285.595	97.25
285.826	94.25
286.057	85.25
286.288	103.25
286.52	105.25
286.751	81.25
286.982	83.25
287.213	90.25
287.444	100.25
287.675	92.25
287.906	85.25
288.138	100.25
288.369	107.25
288.6	102.25
288.831	94.25
289.062	97.25
289.293	103.25
289.524	98.25
289.755	95.25
289.986	88.25
290.217	83.25
290.448	80.25
290.679	98.25
290.91	90.25
291.141	83.25
291.371	95.25
291.602	74.25
291.833	91.25
292.064	101.25
292.295	100.25
292.526	97.25
292.757	87.25
292.987	78.25
293.218	92.25
293.449	89.25
293.68	100.25
293.91	100.25
294.141	88.25
294.372	77.25
294.603	86.25
294.833	98.25
295.064	100.25
295.295	83.25
295.525	97.25
295.756	110.25
295.987	127.25
296.217	185.25
296.448	138.25
296.679	105.25
296.909	91.25
297.14	87.25
297.37	92.25
297.601	95.25
297.831	107.25
298.062	100.25
298.292	103.25
298.523	98.25
298.753	99.25
298.984	83.25
299.214	103.25
299.445	100.25
299.675	98.25
299.905	94.25
300.136	98.25
300.366	80.25
300.597	91.25
300.827	89.25
301.057	125.25
301.288	129.25
301.518	96.25
301.748	91.25
301.979	127.25
302.209	100.25
302.439	88.25
302.669	96.25
302.9	99.25
303.13	95.25
303.36	106.25
303.59	159.25
303.82	179.25
304.051	111.25
304.281	107.25
304.511	93.25
304.741	93.25
304.971	84.25
305.201	99.25
305.431	94.25
305.661	82.25
305.891	99.25
306.121	113.25
306.352	121.25
306.582	129.25
306.812	109.25
307.042	154.25
307.272	198.25
307.502	227.25
307.731	211.25
307.961	153.25
308.191	103.25
308.421	104.25
308.651	92.25
308.881	96.25
309.111	92.25
309.341	109.25
309.571	114.25
309.8	103.25
310.03	113.25
310.26	119.25
310.49	99.25
310.72	103.25
310.949	129.25
311.179	110.25
311.409	88.25
311.639	100.25
311.868	103.25
312.098	100.25
312.328	111.25
312.557	99.25
312.787	112.25
313.017	110.25
313.246	97.25
313.476	101.25
313.706	92.25
313.935	106.25
314.165	107.25
314.394	125.25
314.624	100.25
314.853	123.25
315.083	103.25
315.312	96.25
315.542	103.25
315.771	89.25
316.001	91.25
316.23	103.25
316.46	98.25
316.689	117.25
316.919	88.25
317.148	101.25
317.377	92.25
317.607	108.25
317.836	98.25
318.065	93.25
318.295	84.25
318.524	80.25
318.753	108.25
318.983	102.25
319.212	112.25
319.441	126.25
319.67	109.25
319.9	104.25
320.129	95.25
320.358	105.25
320.587	98.25
320.816	103.25
321.046	122.25
321.275	102.25
321.504	99.25
321.733	97.25
321.962	99.25
322.191	93.25
322.42	121.25
322.649	119.25
322.878	137.25
323.108	142.25
323.337	157.25
323.566	151.25
323.795	213.25
324.024	273.25
324.253	571.25
324.482	1243.25
324.71	2678.25
324.939	3530.25
325.168	1260.25
325.397	344.25
325.626	205.25
325.855	159.25
326.084	148.25
326.313	162.25
326.542	188.25
326.77	289.25
326.999	637.25
327.228	1357.25
327.457	2551.25
327.686	2051.25
327.914	664.25
328.143	704.25
328.372	887.25
328.6	489.25
328.829	232.25
329.058	219.25
329.287	218.25
329.515	217.25
329.744	326.25
329.972	674.25
330.201	1405.25
330.43	2033.25
330.658	891.25
330.887	336.25
331.115	210.25
331.344	143.25
331.572	121.25
331.801	142.25
332.03	127.25
332.258	125.25
332.486	117.25
332.715	125.25
332.943	128.25
333.172	154.25
333.4	152.25
333.629	192.25
333.857	302.25
334.085	582.25
334.314	1298.25
334.542	2597.25
334.771	2410.25
334.999	576.25
335.227	200.25
335.455	154.25
335.684	117.25
335.912	112.25
336.14	127.25
336.369	125.25
336.597	112.25
336.825	120.25
337.053	111.25
337.281	111.25
337.51	102.25
337.738	94.25
337.966	123.25
338.194	120.25
338.422	97.25
338.65	96.25
338.878	95.25
339.106	98.25
339.334	109.25
339.562	95.25
339.79	97.25
340.018	89.25
340.246	106.25
340.474	108.25
340.702	96.25
340.93	101.25
341.158	101.25
341.386	94.25
341.614	106.25
341.842	101.25
342.07	109.25
342.298	96.25
342.526	90.25
342.754	78.25
342.981	87.25
343.209	71.25
343.437	108.25
343.665	96.25
343.893	95.25
344.12	94.25
344.348	104.25
344.576	78.25
344.804	99.25
345.031	103.25
345.259	106.25
345.487	93.25
345.714	104.25
345.942	106.25
346.17	100.25
346.397	107.25
346.625	95.25
346.853	98.25
347.08	82.25
347.308	105.25
347.535	106.25
347.763	121.25
347.99	97.25
348.218	103.25
348.445	125.25
348.673	106.25
348.9	105.25
349.128	107.25
349.355	79.25
349.583	102.25
349.81	86.25
350.037	99.25
350.265	90.25
350.492	98.25
350.72	93.25
350.947	97.25
351.174	118.25
351.402	127.25
351.629	115.25
351.856	116.25
352.083	99.25
352.311	123.25
352.538	120.25
352.765	121.25
352.992	118.25
353.22	114.25
353.447	112.25
353.674	98.25
353.901	100.25
354.128	103.25
354.355	82.25
354.583	89.25
354.81	97.25
355.037	87.25
355.264	104.25
355.491	92.25
355.718	87.25
355.945	96.25
356.172	91.25
356.399	82.25
356.626	93.25
356.853	91.25
357.08	85.25
357.307	82.25
357.534	99.25
357.761	96.25
357.988	90.25
358.215	85.25
358.441	77.25
358.668	103.25
358.895	91.25
359.122	99.25
359.349	96.25
359.576	90.25
359.802	115.25
360.029	148.25
360.256	141.25
360.483	126.25
360.709	108.25
360.936	96.25
361.163	91.25
361.39	110.25
361.616	112.25
361.843	96.25
362.07	107.25
362.296	110.25
362.523	108.25
362.749	97.25
362.976	105.25
363.203	100.25
363.429	104.25
363.656	103.25
363.882	102.25
364.109	88.25
364.335	95.25
364.562	102.25
364.788	102.25
365.015	111.25
365.241	118.25
365.468	124.25
365.694	117.25
365.92	103.25
366.147	100.25
366.373	100.25
366.599	97.25
366.826	90.25
367.052	100.25
367.278	84.25
367.505	93.25
367.731	104.25
367.957	92.25
368.184	112.25
368.41	121.25
368.636	114.25
368.862	124.25
369.089	122.25
369.315	98.25
369.541	90.25
369.767	103.25
369.993	104.25
370.219	101.25
370.445	99.25
370.672	91.25
370.898	82.25
371.124	89.25
371.35	89.25
371.576	98.25
371.802	91.25
372.028	97.25
372.254	77.25
372.48	86.25
372.706	87.25
372.932	95.25
373.158	90.25
373.384	93.25
373.61	95.25
373.835	92.25
374.061	90.25
374.287	100.25
374.513	92.25
374.739	89.25
374.965	89.25
375.191	91.25
375.416	89.25
375.642	96.25
375.868	83.25
376.094	90.25
376.319	85.25
376.545	96.25
376.771	100.25
376.997	103.25
377.222	91.25
377.448	91.25
377.674	89.25
377.899	91.25
378.125	90.25
378.35	99.25
378.576	80.25
378.802	107.25
379.027	86.25
379.253	100.25
379.478	88.25
379.704	119.25
379.929	97.25
380.155	94.25
380.38	104.25
380.606	84.25
380.831	104.25
381.057	95.25
381.282	96.25
381.507	103.25
381.733	87.25
381.958	93.25
382.184	101.25
382.409	107.25
382.634	102.25
382.86	98.25
383.085	96.25
383.31	88.25
383.535	96.25
383.761	95.25
383.986	102.25
384.211	107.25
384.436	95.25
384.662	111.25
384.887	99.25
385.112	92.25
385.337	96.25
385.562	97.25
385.787	94.25
386.013	102.25
386.238	111.25
386.463	107.25
386.688	100.25
386.913	95.25
387.138	100.25
387.363	106.25
387.588	104.25
387.813	105.25
388.038	110.25
388.263	96.25
388.488	109.25
388.713	94.25
388.938	89.25
389.163	90.25
389.387	97.25
389.612	92.25
389.837	97.25
390.062	98.25
390.287	99.25
390.512	83.25
390.736	95.25
390.961	86.25
391.186	88.25
391.411	92.25
391.636	93.25
391.86	88.25
392.085	93.25
392.31	98.25
392.534	90.25
392.759	75.25
392.984	95.25
393.208	89.25
393.433	107.25
393.658	90.25
393.882	90.25
394.107	100.25
394.331	104.25
394.556	81.25
394.78	89.25
395.005	86.25
395.229	90.25
395.454	89.25
395.678	79.25
395.903	88.25
396.127	91.25
396.352	93.25
396.576	94.25
396.801	92.25
397.025	96.25
397.249	96.25
397.474	97.25
397.698	109.25
397.922	82.25
398.147	103.25
398.371	90.25
398.595	84.25
398.82	84.25
399.044	90.25
399.268	90.25
399.492	94.25
399.717	88.25
399.941	94.25
400.165	99.25
400.389	104.25
400.613	94.25
400.837	96.25
401.062	90.25
401.286	95.25
401.51	90.25
401.734	87.25
401.958	118.25
402.182	150.25
402.406	212.25
402.63	162.25
402.854	108.25
403.078	84.25
403.302	100.25
403.526	86.25
403.75	112.25
403.974	78.25
404.198	95.25
404.422	86.25
404.645	87.25
404.869	111.25
405.093	126.25
405.317	158.25
405.541	167.25
405.765	137.25
405.988	140.25
406.212	238.25
406.436	326.25
406.66	201.25
406.883	122.25
407.107	121.25
407.331	114.25
407.555	139.25
407.778	120.25
408.002	98.25
408.226	101.25
408.449	88.25
408.673	103.25
408.896	92.25
409.12	109.25
409.344	92.25
409.567	94.25
409.791	109.25
410.014	116.25
410.238	101.25
410.461	90.25
410.685	104.25
410.908	100.25
411.132	100.25
411.355	107.25
411.578	98.25
411.802	110.25
412.025	110.25
412.249	100.25
412.472	135.25
412.695	174.25
412.919	134.25
413.142	99.25
413.365	96.25
413.589	106.25
413.812	98.25
414.035	93.25
414.258	92.25
414.482	110.25
414.705	85.25
414.928	85.25
415.151	83.25
415.374	100.25
415.597	95.25
415.821	90.25
416.044	87.25
416.267	99.25
416.49	96.25
416.713	90.25
416.936	80.25
417.159	92.25
417.382	96.25
417.605	109.25
417.828	112.25
418.051	104.25
418.274	95.25
418.497	93.25
418.72	80.25
418.943	87.25
419.166	87.25
419.389	95.25
419.611	97.25
419.834	94.25
420.057	93.25
420.28	110.25
420.503	87.25
420.726	103.25
420.948	100.25
421.171	108.25
421.394	106.25
421.617	87.25
421.839	93.25
422.062	79.25
422.285	94.25
422.507	110.25
422.73	103.25
422.953	112.25
423.175	100.25
423.398	92.25
423.621	97.25
423.843	96.25
424.066	93.25
424.288	88.25
424.511	91.25
424.733	115.25
424.956	106.25
425.178	108.25
425.401	100.25
425.623	123.25
425.846	100.25
426.068	118.25
426.291	94.25
426.513	98.25
426.735	98.25
426.958	103.25
427.18	138.25
427.402	193.25
427.625	289.25
427.847	297.25
428.069	292.25
428.292	166.25
428.514	114.25
428.736	96.25
428.958	94.25
429.181	100.25
429.403	88.25
429.625	95.25
429.847	103.25
430.069	109.25
430.292	90.25
430.514	90.25
430.736	86.25
430.958	85.25
431.18	99.25
431.402	81.25
431.624	84.25
431.846	94.25
432.068	80.25
432.29	94.25
432.512	104.25
432.734	66.25
432.956	84.25
433.178	107.25
433.4	119.25
433.622	93.25
433.844	83.25
434.066	92.25
434.287	90.25
434.509	94.25
434.731	99.25
434.953	93.25
435.175	93.25
435.397	103.25
435.618	104.25
435.84	113.25
436.062	157.25
436.284	163.25
436.505	110.25
436.727	123.25
436.949	101.25
437.17	103.25
437.392	100.25
437.614	103.25
437.835	125.25
438.057	168.25
438.278	146.25
438.5	138.25
438.721	154.25
438.943	119.25
439.165	97.25
439.386	95.25
439.608	91.25
439.829	123.25
440.05	176.25
440.272	217.25
440.493	119.25
440.715	87.25
440.936	87.25
441.158	90.25
441.379	86.25
441.6	104.25
441.822	95.25
442.043	119.25
442.264	140.25
442.486	129.25
442.707	100.25
442.928	126.25
443.149	172.25
443.371	193.25
443.592	137.25
443.813	145.25
444.034	124.25
444.255	92.25
444.476	89.25
444.698	92.25
444.919	100.25
445.14	129.25
445.361	159.25
445.582	140.25
445.803	209.25
446.024	188.25
446.245	180.25
446.466	132.25
446.687	94.25
446.908	85.25
447.129	91.25
447.35	95.25
447.571	108.25
447.792	97.25
448.013	119.25
448.234	119.25
448.455	97.25
448.675	154.25
448.896	147.25
449.117	113.25
449.338	119.25
449.559	172.25
449.779	174.25
450	98.25
450.221	83.25
450.442	90.25
450.662	102.25
450.883	143.25
451.104	143.25
451.324	110.25
451.545	96.25
451.766	96.25
451.986	101.25
452.207	91.25
452.428	95.25
452.648	115.25
452.869	126.25
453.089	138.25
453.31	140.25
453.53	103.25
453.751	113.25
453.971	119.25
454.192	144.25
454.412	98.25
454.633	92.25
454.853	90.25
455.073	87.25
455.294	92.25
455.514	118.25
455.734	100.25
455.955	82.25
456.175	88.25
456.395	80.25
456.616	79.25
456.836	81.25
457.056	76.25
457.276	97.25
457.497	85.25
457.717	84.25
457.937	75.25
458.157	97.25
458.377	98.25
458.598	136.25
458.818	230.25
459.038	242.25
459.258	161.25
459.478	114.25
459.698	96.25
459.918	106.25
460.138	105.25
460.358	83.25
460.578	72.25
460.798	89.25
461.018	97.25
461.238	89.25
461.458	82.25
461.678	94.25
461.898	90.25
462.118	99.25
462.338	86.25
462.558	88.25
462.777	89.25
462.997	118.25
463.217	125.25
463.437	94.25
463.657	90.25
463.876	83.25
464.096	86.25
464.316	98.25
464.536	101.25
464.755	102.25
464.975	142.25
465.195	261.25
465.414	242.25
465.634	103.25
465.854	86.25
466.073	86.25
466.293	93.25
466.512	95.25
466.732	95.25
466.951	103.25
467.171	106.25
467.391	130.25
467.61	167.25
467.829	270.25
468.049	803.25
468.268	1191.25
468.488	286.25
468.707	128.25
468.927	90.25
469.146	100.25
469.365	112.25
469.585	95.25
469.804	124.25
470.023	139.25
470.243	116.25
470.462	121.25
470.681	150.25
470.901	97.25
471.12	116.25
471.339	122.25
471.558	126.25
471.777	180.25
471.997	415.25
472.216	1654.25
472.435	3766.25
472.654	806.25
472.873	210.25
473.092	116.25
473.311	120.25
473.53	100.25
473.749	96.25
473.968	100.25
474.187	138.25
474.406	108.25
474.625	102.25
474.844	96.25
475.063	96.25
475.282	90.25
475.501	83.25
475.72	91.25
475.939	90.25
476.158	87.25
476.377	95.25
476.596	93.25
476.814	108.25
477.033	115.25
477.252	105.25
477.471	102.25
477.69	97.25
477.908	99.25
478.127	107.25
478.346	81.25
478.564	108.25
478.783	109.25
479.002	116.25
479.22	117.25
479.439	133.25
479.658	130.25
479.876	134.25
480.095	130.25
480.313	160.25
480.532	211.25
480.751	400.25
480.969	1468.25
481.188	6450.25
481.406	3530.25
481.624	471.25
481.843	168.25
482.061	116.25
482.28	111.25
482.498	98.25
482.717	109.25
482.935	98.25
483.153	98.25
483.372	99.25
483.59	94.25
483.808	95.25
484.027	110.25
484.245	91.25
484.463	99.25
484.681	91.25
484.9	100.25
485.118	104.25
485.336	106.25
485.554	105.25
485.772	119.25
485.99	120.25
486.209	127.25
486.427	130.25
486.645	140.25
486.863	143.25
487.081	109.25
487.299	109.25
487.517	103.25
487.735	92.25
487.953	95.25
488.171	106.25
488.389	96.25
488.607	101.25
488.825	89.25
489.043	94.25
489.261	80.25
489.479	74.25
489.696	95.25
489.914	92.25
490.132	88.25
490.35	106.25
490.568	100.25
490.786	87.25
491.003	98.25
491.221	97.25
491.439	103.25
491.657	104.25
491.874	95.25
492.092	97.25
492.31	98.25
492.527	109.25
492.745	96.25
492.963	108.25
493.18	97.25
493.398	95.25
493.615	96.25
493.833	100.25
494.05	83.25
494.268	94.25
494.485	94.25
494.703	80.25
494.92	106.25
495.138	91.25
495.355	101.25
495.573	90.25
495.79	99.25
496.008	97.25
496.225	94.25
496.442	96.25
496.66	89.25
496.877	83.25
497.094	96.25
497.312	85.25
497.529	96.25
497.746	91.25
497.963	72.25
498.181	77.25
498.398	90.25
498.615	111.25
498.832	110.25
499.049	104.25
499.267	95.25
499.484	86.25
499.701	87.25
499.918	89.25
500.135	92.25
500.352	98.25
500.569	88.25
500.786	100.25
501.003	88.25
501.22	89.25
501.437	92.25
501.654	104.25
501.871	135.25
502.088	100.25
502.305	86.25
502.522	87.25
502.739	83.25
502.956	100.25
503.172	86.25
503.389	115.25
503.606	139.25
503.823	111.25
504.04	91.25
504.256	101.25
504.473	88.25
504.69	93.25
504.907	83.25
505.123	88.25
505.34	86.25
505.557	98.25
505.773	89.25
505.99	90.25
506.207	91.25
506.423	83.25
506.64	99.25
506.856	89.25
507.073	96.25
507.289	92.25
507.506	106.25
507.722	120.25
507.939	121.25
508.155	104.25
508.372	89.25
508.588	100.25
508.805	106.25
509.021	99.25
509.238	99.25
509.454	110.25
509.67	94.25
509.887	118.25
510.103	156.25
510.319	263.25
510.536	1030.25
510.752	3673.25
510.968	957.25
511.184	194.25
511.401	139.25
511.617	99.25
511.833	127.25
