Data from Circ_1998_H10_HRD10591_00082.txt Node
Date: Wed Jan 03 11:27:05 EST 2024
User: Yrep
Spectrometer: HR+D1059
Trigger mode: 1
Integration Time (sec): 1.000000E-1
Scans to average: 1
Electric dark correction enabled: true
Nonlinearity correction enabled: false
Boxcar width: 0
XAxis mode: Wavelengths
Number of Pixels in Spectrum: 2048
>>>>>Begin Spectral Data<<<<<
223.165	-19.06
223.4	-19.06
223.635	-19.06
223.869	-12.06
224.104	-26.06
224.338	-13.06
224.573	-10.06
224.808	-12.06
225.042	-6.06
225.277	1.94
225.511	-5.06
225.746	-4.06
225.98	20.94
226.215	5.94
226.449	11.94
226.683	16.94
226.918	22.94
227.152	26.94
227.387	28.94
227.621	54.94
227.856	48.94
228.09	43.94
228.324	48.94
228.559	53.94
228.793	75.94
229.027	60.94
229.262	79.94
229.496	85.94
229.73	124.94
229.964	111.94
230.199	73.94
230.433	89.94
230.667	95.94
230.901	81.94
231.136	80.94
231.37	77.94
231.604	69.94
231.838	85.94
232.072	88.94
232.306	84.94
232.541	80.94
232.775	82.94
233.009	79.94
233.243	86.94
233.477	80.94
233.711	84.94
233.945	82.94
234.179	99.94
234.413	87.94
234.647	97.94
234.881	87.94
235.115	77.94
235.349	76.94
235.583	81.94
235.817	90.94
236.051	63.94
236.285	83.94
236.519	93.94
236.753	78.94
236.987	76.94
237.221	89.94
237.455	89.94
237.689	102.94
237.922	86.94
238.156	87.94
238.39	85.94
238.624	84.94
238.858	86.94
239.091	80.94
239.325	86.94
239.559	95.94
239.793	96.94
240.027	80.94
240.26	66.94
240.494	80.94
240.728	89.94
240.961	69.94
241.195	81.94
241.429	85.94
241.662	73.94
241.896	83.94
242.13	79.94
242.363	86.94
242.597	84.94
242.83	80.94
243.064	85.94
243.298	93.94
243.531	95.94
243.765	79.94
243.998	76.94
244.232	89.94
244.465	86.94
244.699	92.94
244.932	80.94
245.166	64.94
245.399	90.94
245.633	84.94
245.866	78.94
246.099	83.94
246.333	73.94
246.566	81.94
246.8	81.94
247.033	92.94
247.266	93.94
247.5	76.94
247.733	81.94
247.966	92.94
248.2	88.94
248.433	81.94
248.666	83.94
248.899	104.94
249.133	79.94
249.366	100.94
249.599	105.94
249.832	90.94
250.066	83.94
250.299	79.94
250.532	97.94
250.765	104.94
250.998	81.94
251.231	66.94
251.465	97.94
251.698	89.94
251.931	83.94
252.164	80.94
252.397	81.94
252.63	78.94
252.863	92.94
253.096	91.94
253.329	89.94
253.562	86.94
253.795	77.94
254.028	86.94
254.261	68.94
254.494	100.94
254.727	80.94
254.96	85.94
255.193	78.94
255.426	91.94
255.659	93.94
255.892	88.94
256.124	104.94
256.357	91.94
256.59	111.94
256.823	101.94
257.056	88.94
257.289	113.94
257.521	107.94
257.754	100.94
257.987	96.94
258.22	108.94
258.452	110.94
258.685	115.94
258.918	93.94
259.151	96.94
259.383	104.94
259.616	83.94
259.849	90.94
260.081	102.94
260.314	116.94
260.547	107.94
260.779	99.94
261.012	127.94
261.244	131.94
261.477	114.94
261.71	132.94
261.942	155.94
262.175	156.94
262.407	121.94
262.64	98.94
262.872	93.94
263.105	94.94
263.337	98.94
263.57	86.94
263.802	72.94
264.035	74.94
264.267	80.94
264.499	86.94
264.732	92.94
264.964	88.94
265.197	89.94
265.429	89.94
265.661	85.94
265.894	86.94
266.126	99.94
266.358	100.94
266.591	77.94
266.823	88.94
267.055	92.94
267.287	93.94
267.52	94.94
267.752	90.94
267.984	93.94
268.216	91.94
268.448	99.94
268.681	95.94
268.913	89.94
269.145	92.94
269.377	89.94
269.609	82.94
269.841	96.94
270.073	89.94
270.306	99.94
270.538	102.94
270.77	100.94
271.002	96.94
271.234	98.94
271.466	106.94
271.698	95.94
271.93	94.94
272.162	93.94
272.394	90.94
272.626	99.94
272.858	82.94
273.09	96.94
273.322	96.94
273.553	83.94
273.785	94.94
274.017	99.94
274.249	100.94
274.481	89.94
274.713	91.94
274.945	109.94
275.176	113.94
275.408	121.94
275.64	142.94
275.872	156.94
276.104	130.94
276.335	117.94
276.567	136.94
276.799	197.94
277.031	245.94
277.262	283.94
277.494	227.94
277.726	113.94
277.957	95.94
278.189	114.94
278.421	86.94
278.652	101.94
278.884	101.94
279.115	98.94
279.347	111.94
279.579	130.94
279.81	173.94
280.042	310.94
280.273	454.94
280.505	290.94
280.736	128.94
280.968	88.94
281.199	100.94
281.431	97.94
281.662	115.94
281.894	100.94
282.125	114.94
282.356	163.94
282.588	213.94
282.819	159.94
283.051	116.94
283.282	81.94
283.513	93.94
283.745	95.94
283.976	95.94
284.207	95.94
284.439	83.94
284.67	101.94
284.901	98.94
285.132	90.94
285.364	99.94
285.595	98.94
285.826	100.94
286.057	94.94
286.288	85.94
286.52	103.94
286.751	91.94
286.982	98.94
287.213	88.94
287.444	107.94
287.675	105.94
287.906	93.94
288.138	114.94
288.369	102.94
288.6	113.94
288.831	97.94
289.062	91.94
289.293	83.94
289.524	101.94
289.755	84.94
289.986	94.94
290.217	96.94
290.448	101.94
290.679	99.94
290.91	106.94
291.141	85.94
291.371	96.94
291.602	84.94
291.833	93.94
292.064	92.94
292.295	97.94
292.526	88.94
292.757	102.94
292.987	100.94
293.218	81.94
293.449	97.94
293.68	86.94
293.91	97.94
294.141	93.94
294.372	101.94
294.603	91.94
294.833	102.94
295.064	102.94
295.295	104.94
295.525	107.94
295.756	116.94
295.987	154.94
296.217	208.94
296.448	181.94
296.679	114.94
296.909	104.94
297.14	92.94
297.37	105.94
297.601	87.94
297.831	98.94
298.062	99.94
298.292	93.94
298.523	107.94
298.753	108.94
298.984	99.94
299.214	88.94
299.445	111.94
299.675	98.94
299.905	98.94
300.136	107.94
300.366	90.94
300.597	99.94
300.827	112.94
301.057	112.94
301.288	137.94
301.518	129.94
301.748	100.94
301.979	138.94
302.209	123.94
302.439	97.94
302.669	105.94
302.9	112.94
303.13	107.94
303.36	118.94
303.59	183.94
303.82	200.94
304.051	122.94
304.281	105.94
304.511	97.94
304.741	97.94
304.971	95.94
305.201	91.94
305.431	101.94
305.661	99.94
305.891	113.94
306.121	90.94
306.352	133.94
306.582	137.94
306.812	125.94
307.042	149.94
307.272	209.94
307.502	257.94
307.731	256.94
307.961	165.94
308.191	103.94
308.421	104.94
308.651	106.94
308.881	102.94
309.111	100.94
309.341	112.94
309.571	122.94
309.8	113.94
310.03	110.94
310.26	121.94
310.49	109.94
310.72	118.94
310.949	133.94
311.179	125.94
311.409	116.94
311.639	114.94
311.868	117.94
312.098	97.94
312.328	108.94
312.557	131.94
312.787	155.94
313.017	120.94
313.246	104.94
313.476	98.94
313.706	102.94
313.935	120.94
314.165	117.94
314.394	120.94
314.624	124.94
314.853	107.94
315.083	107.94
315.312	99.94
315.542	113.94
315.771	94.94
316.001	101.94
316.23	89.94
316.46	97.94
316.689	99.94
316.919	103.94
317.148	114.94
317.377	106.94
317.607	114.94
317.836	107.94
318.065	85.94
318.295	106.94
318.524	105.94
318.753	112.94
318.983	117.94
319.212	121.94
319.441	147.94
319.67	126.94
319.9	109.94
320.129	101.94
320.358	105.94
320.587	122.94
320.816	129.94
321.046	114.94
321.275	107.94
321.504	106.94
321.733	116.94
321.962	110.94
322.191	123.94
322.42	136.94
322.649	137.94
322.878	146.94
323.108	163.94
323.337	181.94
323.566	175.94
323.795	216.94
324.024	309.94
324.253	594.94
324.482	1320.94
324.71	2717.94
324.939	3583.94
325.168	1301.94
325.397	366.94
325.626	197.94
325.855	163.94
326.084	161.94
326.313	174.94
326.542	214.94
326.77	309.94
326.999	641.94
327.228	1357.94
327.457	2563.94
327.686	2020.94
327.914	752.94
328.143	886.94
328.372	1153.94
328.6	612.94
328.829	265.94
329.058	240.94
329.287	265.94
329.515	247.94
329.744	402.94
329.972	836.94
330.201	1795.94
330.43	2663.94
330.658	1068.94
330.887	424.94
331.115	230.94
331.344	167.94
331.572	137.94
331.801	146.94
332.03	166.94
332.258	152.94
332.486	116.94
332.715	118.94
332.943	127.94
333.172	157.94
333.4	166.94
333.629	224.94
333.857	347.94
334.085	708.94
334.314	1624.94
334.542	3303.94
334.771	3013.94
334.999	722.94
335.227	260.94
335.455	160.94
335.684	144.94
335.912	119.94
336.14	115.94
336.369	116.94
336.597	128.94
336.825	107.94
337.053	83.94
337.281	93.94
337.51	109.94
337.738	111.94
337.966	99.94
338.194	123.94
338.422	114.94
338.65	114.94
338.878	118.94
339.106	100.94
339.334	93.94
339.562	99.94
339.79	105.94
340.018	88.94
340.246	109.94
340.474	121.94
340.702	102.94
340.93	108.94
341.158	101.94
341.386	110.94
341.614	124.94
341.842	108.94
342.07	108.94
342.298	98.94
342.526	94.94
342.754	98.94
342.981	92.94
343.209	92.94
343.437	111.94
343.665	96.94
343.893	102.94
344.12	109.94
344.348	91.94
344.576	101.94
344.804	120.94
345.031	129.94
345.259	122.94
345.487	102.94
345.714	110.94
345.942	91.94
346.17	115.94
346.397	92.94
346.625	115.94
346.853	105.94
347.08	111.94
347.308	106.94
347.535	118.94
347.763	112.94
347.99	109.94
348.218	130.94
348.445	127.94
348.673	130.94
348.9	114.94
349.128	110.94
349.355	96.94
349.583	90.94
349.81	91.94
350.037	112.94
350.265	102.94
350.492	100.94
350.72	110.94
350.947	122.94
351.174	136.94
351.402	144.94
351.629	131.94
351.856	120.94
352.083	112.94
352.311	116.94
352.538	148.94
352.765	127.94
352.992	140.94
353.22	125.94
353.447	117.94
353.674	109.94
353.901	113.94
354.128	106.94
354.355	101.94
354.583	102.94
354.81	108.94
355.037	94.94
355.264	103.94
355.491	100.94
355.718	96.94
355.945	87.94
356.172	89.94
356.399	91.94
356.626	88.94
356.853	91.94
357.08	105.94
357.307	96.94
357.534	82.94
357.761	92.94
357.988	93.94
358.215	100.94
358.441	97.94
358.668	102.94
358.895	95.94
359.122	96.94
359.349	87.94
359.576	106.94
359.802	147.94
360.029	156.94
360.256	161.94
360.483	130.94
360.709	99.94
360.936	106.94
361.163	106.94
361.39	123.94
361.616	98.94
361.843	97.94
362.07	112.94
362.296	136.94
362.523	106.94
362.749	104.94
362.976	110.94
363.203	99.94
363.429	98.94
363.656	107.94
363.882	101.94
364.109	98.94
364.335	108.94
364.562	96.94
364.788	105.94
365.015	106.94
365.241	116.94
365.468	156.94
365.694	137.94
365.92	121.94
366.147	114.94
366.373	114.94
366.599	95.94
366.826	91.94
367.052	101.94
367.278	108.94
367.505	101.94
367.731	98.94
367.957	104.94
368.184	103.94
368.41	110.94
368.636	124.94
368.862	150.94
369.089	139.94
369.315	117.94
369.541	97.94
369.767	102.94
369.993	96.94
370.219	112.94
370.445	102.94
370.672	102.94
370.898	99.94
371.124	100.94
371.35	96.94
371.576	105.94
371.802	86.94
372.028	89.94
372.254	85.94
372.48	96.94
372.706	85.94
372.932	91.94
373.158	80.94
373.384	89.94
373.61	93.94
373.835	103.94
374.061	93.94
374.287	98.94
374.513	109.94
374.739	100.94
374.965	95.94
375.191	108.94
375.416	85.94
375.642	86.94
375.868	95.94
376.094	89.94
376.319	99.94
376.545	96.94
376.771	93.94
376.997	87.94
377.222	92.94
377.448	90.94
377.674	93.94
377.899	92.94
378.125	90.94
378.35	89.94
378.576	103.94
378.802	88.94
379.027	94.94
379.253	95.94
379.478	93.94
379.704	88.94
379.929	91.94
380.155	109.94
380.38	91.94
380.606	108.94
380.831	94.94
381.057	110.94
381.282	89.94
381.507	94.94
381.733	99.94
381.958	106.94
382.184	108.94
382.409	92.94
382.634	124.94
382.86	104.94
383.085	106.94
383.31	93.94
383.535	108.94
383.761	96.94
383.986	94.94
384.211	104.94
384.436	109.94
384.662	91.94
384.887	91.94
385.112	102.94
385.337	101.94
385.562	100.94
385.787	113.94
386.013	118.94
386.238	134.94
386.463	112.94
386.688	105.94
386.913	113.94
387.138	91.94
387.363	100.94
387.588	101.94
387.813	88.94
388.038	93.94
388.263	102.94
388.488	102.94
388.713	96.94
388.938	102.94
389.163	100.94
389.387	109.94
389.612	96.94
389.837	102.94
390.062	91.94
390.287	110.94
390.512	100.94
390.736	85.94
390.961	77.94
391.186	93.94
391.411	86.94
391.636	98.94
391.86	96.94
392.085	90.94
392.31	103.94
392.534	107.94
392.759	91.94
392.984	84.94
393.208	83.94
393.433	88.94
393.658	98.94
393.882	91.94
394.107	94.94
394.331	97.94
394.556	74.94
394.78	88.94
395.005	80.94
395.229	89.94
395.454	90.94
395.678	81.94
395.903	86.94
396.127	102.94
396.352	114.94
396.576	97.94
396.801	84.94
397.025	85.94
397.249	91.94
397.474	99.94
397.698	101.94
397.922	91.94
398.147	100.94
398.371	94.94
398.595	98.94
398.82	89.94
399.044	94.94
399.268	114.94
399.492	93.94
399.717	93.94
399.941	96.94
400.165	93.94
400.389	103.94
400.613	86.94
400.837	92.94
401.062	85.94
401.286	115.94
401.51	111.94
401.734	110.94
401.958	121.94
402.182	174.94
402.406	260.94
402.63	174.94
402.854	109.94
403.078	105.94
403.302	106.94
403.526	99.94
403.75	105.94
403.974	101.94
404.198	98.94
404.422	96.94
404.645	96.94
404.869	100.94
405.093	130.94
405.317	159.94
405.541	167.94
405.765	125.94
405.988	146.94
406.212	256.94
406.436	405.94
406.66	241.94
406.883	146.94
407.107	120.94
407.331	124.94
407.555	122.94
407.778	121.94
408.002	101.94
408.226	108.94
408.449	99.94
408.673	90.94
408.896	90.94
409.12	106.94
409.344	93.94
409.567	90.94
409.791	85.94
410.014	93.94
410.238	94.94
410.461	99.94
410.685	96.94
410.908	95.94
411.132	104.94
411.355	109.94
411.578	97.94
411.802	108.94
412.025	107.94
412.249	120.94
412.472	117.94
412.695	155.94
412.919	126.94
413.142	112.94
413.365	107.94
413.589	100.94
413.812	90.94
414.035	89.94
414.258	115.94
414.482	101.94
414.705	104.94
414.928	91.94
415.151	75.94
415.374	97.94
415.597	100.94
415.821	100.94
416.044	108.94
416.267	106.94
416.49	96.94
416.713	87.94
416.936	100.94
417.159	95.94
417.382	108.94
417.605	131.94
417.828	119.94
418.051	110.94
418.274	106.94
418.497	91.94
418.72	96.94
418.943	95.94
419.166	100.94
419.389	91.94
419.611	96.94
419.834	100.94
420.057	104.94
420.28	98.94
420.503	98.94
420.726	85.94
420.948	114.94
421.171	128.94
421.394	111.94
421.617	91.94
421.839	85.94
422.062	96.94
422.285	106.94
422.507	90.94
422.73	119.94
422.953	90.94
423.175	93.94
423.398	87.94
423.621	91.94
423.843	93.94
424.066	100.94
424.288	92.94
424.511	102.94
424.733	112.94
424.956	129.94
425.178	119.94
425.401	102.94
425.623	105.94
425.846	98.94
426.068	122.94
426.291	88.94
426.513	111.94
426.735	111.94
426.958	102.94
427.18	141.94
427.402	216.94
427.625	320.94
427.847	324.94
428.069	295.94
428.292	160.94
428.514	117.94
428.736	90.94
428.958	104.94
429.181	99.94
429.403	86.94
429.625	83.94
429.847	120.94
430.069	130.94
430.292	111.94
430.514	93.94
430.736	90.94
430.958	91.94
431.18	93.94
431.402	94.94
431.624	76.94
431.846	98.94
432.068	86.94
432.29	85.94
432.512	91.94
432.734	94.94
432.956	93.94
433.178	110.94
433.4	121.94
433.622	101.94
433.844	115.94
434.066	104.94
434.287	104.94
434.509	97.94
434.731	109.94
434.953	98.94
435.175	98.94
435.397	89.94
435.618	106.94
435.84	128.94
436.062	163.94
436.284	136.94
436.505	104.94
436.727	107.94
436.949	110.94
437.17	94.94
437.392	112.94
437.614	106.94
437.835	124.94
438.057	175.94
438.278	129.94
438.5	113.94
438.721	149.94
438.943	123.94
439.165	97.94
439.386	109.94
439.608	112.94
439.829	119.94
440.05	171.94
440.272	231.94
440.493	117.94
440.715	94.94
440.936	85.94
441.158	96.94
441.379	105.94
441.6	116.94
441.822	123.94
442.043	115.94
442.264	127.94
442.486	118.94
442.707	97.94
442.928	161.94
443.149	212.94
443.371	208.94
443.592	155.94
443.813	146.94
444.034	117.94
444.255	102.94
444.476	97.94
444.698	84.94
444.919	108.94
445.14	154.94
445.361	155.94
445.582	161.94
445.803	235.94
446.024	194.94
446.245	192.94
446.466	128.94
446.687	105.94
446.908	91.94
447.129	93.94
447.35	90.94
447.571	106.94
447.792	102.94
448.013	109.94
448.234	129.94
448.455	127.94
448.675	141.94
448.896	156.94
449.117	117.94
449.338	117.94
449.559	154.94
449.779	171.94
450	116.94
450.221	107.94
450.442	109.94
450.662	122.94
450.883	142.94
451.104	162.94
451.324	110.94
451.545	98.94
451.766	90.94
451.986	99.94
452.207	89.94
452.428	114.94
452.648	117.94
452.869	148.94
453.089	154.94
453.31	175.94
453.53	110.94
453.751	105.94
453.971	136.94
454.192	170.94
454.412	112.94
454.633	98.94
454.853	86.94
455.073	93.94
455.294	106.94
455.514	124.94
455.734	84.94
455.955	79.94
456.175	98.94
456.395	103.94
456.616	95.94
456.836	93.94
457.056	87.94
457.276	101.94
457.497	96.94
457.717	106.94
457.937	113.94
458.157	87.94
458.377	120.94
458.598	140.94
458.818	257.94
459.038	292.94
459.258	176.94
459.478	120.94
459.698	80.94
459.918	89.94
460.138	100.94
460.358	82.94
460.578	97.94
460.798	94.94
461.018	96.94
461.238	82.94
461.458	99.94
461.678	93.94
461.898	94.94
462.118	85.94
462.338	100.94
462.558	97.94
462.777	106.94
462.997	108.94
463.217	137.94
463.437	120.94
463.657	100.94
463.876	88.94
464.096	110.94
464.316	116.94
464.536	106.94
464.755	106.94
464.975	160.94
465.195	303.94
465.414	307.94
465.634	132.94
465.854	92.94
466.073	99.94
466.293	106.94
466.512	108.94
466.732	114.94
466.951	105.94
467.171	111.94
467.391	138.94
467.61	202.94
467.829	324.94
468.049	1068.94
468.268	1624.94
468.488	357.94
468.707	152.94
468.927	108.94
469.146	84.94
469.365	114.94
469.585	109.94
469.804	130.94
470.023	133.94
470.243	133.94
470.462	145.94
470.681	165.94
470.901	138.94
471.12	117.94
471.339	120.94
471.558	137.94
471.777	206.94
471.997	479.94
472.216	2019.94
472.435	4799.94
472.654	1017.94
472.873	231.94
473.092	125.94
473.311	116.94
473.53	108.94
473.749	123.94
473.968	120.94
474.187	129.94
474.406	129.94
474.625	104.94
474.844	92.94
475.063	95.94
475.282	94.94
475.501	87.94
475.72	98.94
475.939	97.94
476.158	102.94
476.377	94.94
476.596	95.94
476.814	101.94
477.033	103.94
477.252	114.94
477.471	90.94
477.69	112.94
477.908	127.94
478.127	109.94
478.346	100.94
478.564	109.94
478.783	123.94
479.002	119.94
479.22	121.94
479.439	152.94
479.658	179.94
479.876	153.94
480.095	136.94
480.313	177.94
480.532	227.94
480.751	464.94
480.969	1784.94
481.188	7983.94
481.406	4482.94
481.624	585.94
481.843	187.94
482.061	120.94
482.28	115.94
482.498	104.94
482.717	106.94
482.935	93.94
483.153	125.94
483.372	115.94
483.59	103.94
483.808	97.94
484.027	106.94
484.245	89.94
484.463	108.94
484.681	110.94
484.9	88.94
485.118	97.94
485.336	110.94
485.554	110.94
485.772	101.94
485.99	120.94
486.209	108.94
486.427	117.94
486.645	125.94
486.863	162.94
487.081	122.94
487.299	112.94
487.517	115.94
487.735	98.94
487.953	109.94
488.171	106.94
488.389	102.94
488.607	118.94
488.825	117.94
489.043	92.94
489.261	93.94
489.479	103.94
489.696	101.94
489.914	80.94
490.132	101.94
490.35	101.94
490.568	92.94
490.786	96.94
491.003	86.94
491.221	120.94
491.439	105.94
491.657	107.94
491.874	98.94
492.092	104.94
492.31	118.94
492.527	95.94
492.745	117.94
492.963	95.94
493.18	92.94
493.398	108.94
493.615	107.94
493.833	96.94
494.05	102.94
494.268	101.94
494.485	96.94
494.703	101.94
494.92	106.94
495.138	96.94
495.355	86.94
495.573	95.94
495.79	94.94
496.008	102.94
496.225	97.94
496.442	99.94
496.66	97.94
496.877	96.94
497.094	102.94
497.312	98.94
497.529	85.94
497.746	77.94
497.963	101.94
498.181	99.94
498.398	96.94
498.615	118.94
498.832	124.94
499.049	78.94
499.267	101.94
499.484	95.94
499.701	84.94
499.918	102.94
500.135	101.94
500.352	91.94
500.569	107.94
500.786	117.94
501.003	91.94
501.22	95.94
501.437	104.94
501.654	113.94
501.871	139.94
502.088	114.94
502.305	91.94
502.522	98.94
502.739	104.94
502.956	95.94
503.172	92.94
503.389	117.94
503.606	136.94
503.823	124.94
504.04	95.94
504.256	110.94
504.473	93.94
504.69	104.94
504.907	113.94
505.123	104.94
505.34	95.94
505.557	91.94
505.773	99.94
505.99	92.94
506.207	98.94
506.423	102.94
506.64	106.94
506.856	99.94
507.073	98.94
507.289	112.94
507.506	103.94
507.722	153.94
507.939	155.94
508.155	120.94
508.372	109.94
508.588	97.94
508.805	101.94
509.021	101.94
509.238	118.94
509.454	101.94
509.67	115.94
