Data from Circ_1998_H10_HRD10591_00064.txt Node
Date: Wed Jan 03 11:27:01 EST 2024
User: Yrep
Spectrometer: HR+D1059
Trigger mode: 1
Integration Time (sec): 1.000000E-1
Scans to average: 1
Electric dark correction enabled: true
Nonlinearity correction enabled: false
Boxcar width: 0
XAxis mode: Wavelengths
Number of Pixels in Spectrum: 2048
>>>>>Begin Spectral Data<<<<<
223.165	-27.88
223.4	-27.88
223.635	-27.88
223.869	-19.88
224.104	-18.88
224.338	-22.88
224.573	-9.88
224.808	1.12
225.042	-9.88
225.277	-19.88
225.511	-0.88
225.746	17.12
225.98	3.12
226.215	13.12
226.449	12.12
226.683	13.12
226.918	39.12
227.152	31.12
227.387	27.12
227.621	48.12
227.856	41.12
228.09	39.12
228.324	60.12
228.559	49.12
228.793	57.12
229.027	63.12
229.262	45.12
229.496	79.12
229.73	110.12
229.964	103.12
230.199	72.12
230.433	68.12
230.667	72.12
230.901	98.12
231.136	78.12
231.37	80.12
231.604	89.12
231.838	73.12
232.072	84.12
232.306	86.12
232.541	88.12
232.775	81.12
233.009	90.12
233.243	86.12
233.477	82.12
233.711	65.12
233.945	74.12
234.179	88.12
234.413	78.12
234.647	65.12
234.881	85.12
235.115	94.12
235.349	71.12
235.583	88.12
235.817	85.12
236.051	75.12
236.285	81.12
236.519	81.12
236.753	78.12
236.987	80.12
237.221	96.12
237.455	95.12
237.689	61.12
237.922	74.12
238.156	84.12
238.39	93.12
238.624	77.12
238.858	68.12
239.091	88.12
239.325	84.12
239.559	86.12
239.793	84.12
240.027	89.12
240.26	72.12
240.494	87.12
240.728	86.12
240.961	91.12
241.195	69.12
241.429	88.12
241.662	72.12
241.896	73.12
242.13	77.12
242.363	77.12
242.597	85.12
242.83	68.12
243.064	73.12
243.298	96.12
243.531	69.12
243.765	67.12
243.998	71.12
244.232	90.12
244.465	106.12
244.699	74.12
244.932	74.12
245.166	79.12
245.399	77.12
245.633	77.12
245.866	75.12
246.099	68.12
246.333	82.12
246.566	84.12
246.8	94.12
247.033	84.12
247.266	74.12
247.5	77.12
247.733	84.12
247.966	82.12
248.2	91.12
248.433	84.12
248.666	101.12
248.899	87.12
249.133	93.12
249.366	101.12
249.599	118.12
249.832	76.12
250.066	88.12
250.299	68.12
250.532	94.12
250.765	86.12
250.998	78.12
251.231	80.12
251.465	80.12
251.698	75.12
251.931	85.12
252.164	97.12
252.397	90.12
252.63	71.12
252.863	89.12
253.096	86.12
253.329	104.12
253.562	62.12
253.795	73.12
254.028	92.12
254.261	84.12
254.494	79.12
254.727	82.12
254.96	75.12
255.193	92.12
255.426	85.12
255.659	85.12
255.892	94.12
256.124	102.12
256.357	95.12
256.59	92.12
256.823	90.12
257.056	86.12
257.289	92.12
257.521	104.12
257.754	85.12
257.987	77.12
258.22	93.12
258.452	91.12
258.685	108.12
258.918	89.12
259.151	103.12
259.383	83.12
259.616	81.12
259.849	87.12
260.081	89.12
260.314	86.12
260.547	89.12
260.779	100.12
261.012	115.12
261.244	118.12
261.477	109.12
261.71	119.12
261.942	160.12
262.175	162.12
262.407	93.12
262.64	82.12
262.872	91.12
263.105	88.12
263.337	94.12
263.57	86.12
263.802	85.12
264.035	87.12
264.267	87.12
264.499	92.12
264.732	75.12
264.964	86.12
265.197	78.12
265.429	83.12
265.661	76.12
265.894	88.12
266.126	73.12
266.358	87.12
266.591	91.12
266.823	71.12
267.055	83.12
267.287	89.12
267.52	93.12
267.752	81.12
267.984	87.12
268.216	85.12
268.448	90.12
268.681	78.12
268.913	95.12
269.145	84.12
269.377	91.12
269.609	77.12
269.841	84.12
270.073	79.12
270.306	85.12
270.538	88.12
270.77	92.12
271.002	97.12
271.234	100.12
271.466	104.12
271.698	83.12
271.93	82.12
272.162	90.12
272.394	92.12
272.626	96.12
272.858	94.12
273.09	80.12
273.322	77.12
273.553	80.12
273.785	94.12
274.017	91.12
274.249	76.12
274.481	88.12
274.713	94.12
274.945	99.12
275.176	92.12
275.408	102.12
275.64	138.12
275.872	137.12
276.104	118.12
276.335	105.12
276.567	132.12
276.799	171.12
277.031	206.12
277.262	267.12
277.494	193.12
277.726	92.12
277.957	105.12
278.189	76.12
278.421	104.12
278.652	76.12
278.884	90.12
279.115	96.12
279.347	88.12
279.579	119.12
279.81	156.12
280.042	253.12
280.273	362.12
280.505	244.12
280.736	123.12
280.968	104.12
281.199	94.12
281.431	93.12
281.662	90.12
281.894	88.12
282.125	101.12
282.356	136.12
282.588	201.12
282.819	125.12
283.051	112.12
283.282	90.12
283.513	104.12
283.745	99.12
283.976	75.12
284.207	78.12
284.439	96.12
284.67	88.12
284.901	91.12
285.132	100.12
285.364	79.12
285.595	81.12
285.826	88.12
286.057	91.12
286.288	76.12
286.52	106.12
286.751	89.12
286.982	92.12
287.213	88.12
287.444	83.12
287.675	92.12
287.906	84.12
288.138	88.12
288.369	80.12
288.6	107.12
288.831	90.12
289.062	100.12
289.293	100.12
289.524	96.12
289.755	96.12
289.986	83.12
290.217	90.12
290.448	85.12
290.679	84.12
290.91	89.12
291.141	75.12
291.371	90.12
291.602	85.12
291.833	93.12
292.064	89.12
292.295	97.12
292.526	79.12
292.757	85.12
292.987	68.12
293.218	80.12
293.449	72.12
293.68	100.12
293.91	93.12
294.141	93.12
294.372	104.12
294.603	97.12
294.833	101.12
295.064	96.12
295.295	88.12
295.525	86.12
295.756	90.12
295.987	132.12
296.217	181.12
296.448	136.12
296.679	95.12
296.909	87.12
297.14	105.12
297.37	75.12
297.601	88.12
297.831	105.12
298.062	94.12
298.292	95.12
298.523	96.12
298.753	84.12
298.984	83.12
299.214	94.12
299.445	80.12
299.675	99.12
299.905	116.12
300.136	95.12
300.366	86.12
300.597	88.12
300.827	104.12
301.057	104.12
301.288	128.12
301.518	116.12
301.748	93.12
301.979	123.12
302.209	96.12
302.439	84.12
302.669	102.12
302.9	85.12
303.13	107.12
303.36	117.12
303.59	146.12
303.82	170.12
304.051	99.12
304.281	83.12
304.511	83.12
304.741	86.12
304.971	83.12
305.201	93.12
305.431	90.12
305.661	98.12
305.891	101.12
306.121	101.12
306.352	111.12
306.582	118.12
306.812	116.12
307.042	148.12
307.272	202.12
307.502	239.12
307.731	239.12
307.961	148.12
308.191	100.12
308.421	87.12
308.651	100.12
308.881	94.12
309.111	101.12
309.341	98.12
309.571	103.12
309.8	100.12
310.03	108.12
310.26	108.12
310.49	104.12
310.72	118.12
310.949	128.12
311.179	111.12
311.409	109.12
311.639	112.12
311.868	118.12
312.098	99.12
312.328	84.12
312.557	107.12
312.787	107.12
313.017	121.12
313.246	105.12
313.476	109.12
313.706	94.12
313.935	100.12
314.165	124.12
314.394	115.12
314.624	115.12
314.853	103.12
315.083	89.12
315.312	97.12
315.542	83.12
315.771	90.12
316.001	104.12
316.23	90.12
316.46	90.12
316.689	103.12
316.919	87.12
317.148	108.12
317.377	107.12
317.607	108.12
317.836	88.12
318.065	110.12
318.295	96.12
318.524	89.12
318.753	90.12
318.983	93.12
319.212	94.12
319.441	125.12
319.67	140.12
319.9	92.12
320.129	100.12
320.358	93.12
320.587	91.12
320.816	106.12
321.046	98.12
321.275	120.12
321.504	97.12
321.733	106.12
321.962	115.12
322.191	118.12
322.42	103.12
322.649	109.12
322.878	125.12
323.108	145.12
323.337	151.12
323.566	163.12
323.795	216.12
324.024	287.12
324.253	579.12
324.482	1327.12
324.71	2801.12
324.939	3709.12
325.168	1295.12
325.397	337.12
325.626	189.12
325.855	152.12
326.084	156.12
326.313	160.12
326.542	192.12
326.77	321.12
326.999	626.12
327.228	1359.12
327.457	2634.12
327.686	2120.12
327.914	731.12
328.143	752.12
328.372	983.12
328.6	517.12
328.829	237.12
329.058	223.12
329.287	229.12
329.515	215.12
329.744	345.12
329.972	702.12
330.201	1526.12
330.43	2243.12
330.658	926.12
330.887	351.12
331.115	219.12
331.344	133.12
331.572	125.12
331.801	145.12
332.03	142.12
332.258	124.12
332.486	125.12
332.715	116.12
332.943	125.12
333.172	145.12
333.4	167.12
333.629	192.12
333.857	299.12
334.085	607.12
334.314	1349.12
334.542	2785.12
334.771	2609.12
334.999	605.12
335.227	221.12
335.455	150.12
335.684	141.12
335.912	114.12
336.14	118.12
336.369	117.12
336.597	120.12
336.825	110.12
337.053	103.12
337.281	98.12
337.51	90.12
337.738	94.12
337.966	91.12
338.194	118.12
338.422	102.12
338.65	98.12
338.878	84.12
339.106	103.12
339.334	104.12
339.562	112.12
339.79	88.12
340.018	110.12
340.246	110.12
340.474	112.12
340.702	100.12
340.93	87.12
341.158	102.12
341.386	104.12
341.614	111.12
341.842	108.12
342.07	92.12
342.298	102.12
342.526	90.12
342.754	91.12
342.981	83.12
343.209	102.12
343.437	105.12
343.665	89.12
343.893	85.12
344.12	98.12
344.348	89.12
344.576	84.12
344.804	88.12
345.031	103.12
345.259	100.12
345.487	94.12
345.714	100.12
345.942	98.12
346.17	94.12
346.397	94.12
346.625	107.12
346.853	93.12
347.08	88.12
347.308	109.12
347.535	104.12
347.763	114.12
347.99	102.12
348.218	101.12
348.445	100.12
348.673	110.12
348.9	107.12
349.128	97.12
349.355	99.12
349.583	83.12
349.81	90.12
350.037	107.12
350.265	96.12
350.492	95.12
350.72	96.12
350.947	111.12
351.174	121.12
351.402	108.12
351.629	102.12
351.856	92.12
352.083	108.12
352.311	128.12
352.538	136.12
352.765	120.12
352.992	128.12
353.22	112.12
353.447	104.12
353.674	100.12
353.901	94.12
354.128	99.12
354.355	96.12
354.583	95.12
354.81	95.12
355.037	92.12
355.264	83.12
355.491	85.12
355.718	101.12
355.945	95.12
356.172	106.12
356.399	102.12
356.626	95.12
356.853	93.12
357.08	77.12
357.307	94.12
357.534	93.12
357.761	102.12
357.988	93.12
358.215	84.12
358.441	91.12
358.668	85.12
358.895	96.12
359.122	98.12
359.349	101.12
359.576	103.12
359.802	115.12
360.029	144.12
360.256	147.12
360.483	113.12
360.709	72.12
360.936	100.12
361.163	100.12
361.39	108.12
361.616	117.12
361.843	93.12
362.07	85.12
362.296	93.12
362.523	107.12
362.749	96.12
362.976	97.12
363.203	91.12
363.429	86.12
363.656	94.12
363.882	92.12
364.109	103.12
364.335	87.12
364.562	97.12
364.788	96.12
365.015	96.12
365.241	105.12
365.468	118.12
365.694	125.12
365.92	116.12
366.147	103.12
366.373	87.12
366.599	95.12
366.826	94.12
367.052	100.12
367.278	102.12
367.505	94.12
367.731	102.12
367.957	103.12
368.184	93.12
368.41	125.12
368.636	125.12
368.862	137.12
369.089	124.12
369.315	102.12
369.541	89.12
369.767	97.12
369.993	103.12
370.219	94.12
370.445	96.12
370.672	76.12
370.898	96.12
371.124	90.12
371.35	91.12
371.576	84.12
371.802	85.12
372.028	96.12
372.254	89.12
372.48	79.12
372.706	94.12
372.932	87.12
373.158	86.12
373.384	78.12
373.61	83.12
373.835	80.12
374.061	105.12
374.287	83.12
374.513	89.12
374.739	86.12
374.965	85.12
375.191	92.12
375.416	91.12
375.642	95.12
375.868	86.12
376.094	91.12
376.319	79.12
376.545	93.12
376.771	96.12
376.997	81.12
377.222	87.12
377.448	88.12
377.674	81.12
377.899	85.12
378.125	90.12
378.35	94.12
378.576	92.12
378.802	89.12
379.027	85.12
379.253	93.12
379.478	89.12
379.704	84.12
379.929	92.12
380.155	101.12
380.38	100.12
380.606	109.12
380.831	96.12
381.057	91.12
381.282	91.12
381.507	75.12
381.733	109.12
381.958	87.12
382.184	101.12
382.409	90.12
382.634	117.12
382.86	89.12
383.085	86.12
383.31	95.12
383.535	114.12
383.761	92.12
383.986	109.12
384.211	94.12
384.436	89.12
384.662	96.12
384.887	109.12
385.112	101.12
385.337	102.12
385.562	97.12
385.787	88.12
386.013	102.12
386.238	115.12
386.463	105.12
386.688	116.12
386.913	104.12
387.138	112.12
387.363	102.12
387.588	92.12
387.813	95.12
388.038	98.12
388.263	116.12
388.488	93.12
388.713	83.12
388.938	91.12
389.163	89.12
389.387	90.12
389.612	89.12
389.837	103.12
390.062	82.12
390.287	83.12
390.512	83.12
390.736	73.12
390.961	97.12
391.186	79.12
391.411	96.12
391.636	87.12
391.86	72.12
392.085	87.12
392.31	85.12
392.534	97.12
392.759	90.12
392.984	87.12
393.208	91.12
393.433	88.12
393.658	102.12
393.882	71.12
394.107	87.12
394.331	85.12
394.556	85.12
394.78	83.12
395.005	80.12
395.229	79.12
395.454	75.12
395.678	90.12
395.903	77.12
396.127	101.12
396.352	90.12
396.576	71.12
396.801	82.12
397.025	93.12
397.249	94.12
397.474	97.12
397.698	90.12
397.922	90.12
398.147	81.12
398.371	79.12
398.595	91.12
398.82	91.12
399.044	91.12
399.268	101.12
399.492	83.12
399.717	85.12
399.941	92.12
400.165	104.12
400.389	80.12
400.613	87.12
400.837	89.12
401.062	83.12
401.286	80.12
401.51	88.12
401.734	108.12
401.958	108.12
402.182	170.12
402.406	223.12
402.63	151.12
402.854	114.12
403.078	93.12
403.302	91.12
403.526	88.12
403.75	76.12
403.974	77.12
404.198	90.12
404.422	99.12
404.645	84.12
404.869	93.12
405.093	123.12
405.317	142.12
405.541	149.12
405.765	128.12
405.988	151.12
406.212	216.12
406.436	341.12
406.66	221.12
406.883	122.12
407.107	112.12
407.331	123.12
407.555	119.12
407.778	127.12
408.002	92.12
408.226	93.12
408.449	88.12
408.673	103.12
408.896	92.12
409.12	112.12
409.344	96.12
409.567	94.12
409.791	75.12
410.014	92.12
410.238	94.12
410.461	79.12
410.685	101.12
410.908	94.12
411.132	103.12
411.355	108.12
411.578	102.12
411.802	93.12
412.025	104.12
412.249	93.12
412.472	128.12
412.695	148.12
412.919	118.12
413.142	103.12
413.365	83.12
413.589	90.12
413.812	83.12
414.035	80.12
414.258	95.12
414.482	101.12
414.705	91.12
414.928	80.12
415.151	90.12
415.374	94.12
415.597	86.12
415.821	84.12
416.044	95.12
416.267	84.12
416.49	88.12
416.713	97.12
416.936	97.12
417.159	91.12
417.382	105.12
417.605	106.12
417.828	115.12
418.051	101.12
418.274	101.12
418.497	83.12
418.72	84.12
418.943	92.12
419.166	79.12
419.389	80.12
419.611	94.12
419.834	97.12
420.057	95.12
420.28	107.12
420.503	95.12
420.726	109.12
420.948	86.12
421.171	104.12
421.394	89.12
421.617	101.12
421.839	88.12
422.062	100.12
422.285	97.12
422.507	100.12
422.73	109.12
422.953	101.12
423.175	95.12
423.398	85.12
423.621	87.12
423.843	90.12
424.066	73.12
424.288	101.12
424.511	108.12
424.733	102.12
424.956	124.12
425.178	115.12
425.401	105.12
425.623	117.12
425.846	103.12
426.068	104.12
426.291	103.12
426.513	87.12
426.735	100.12
426.958	113.12
427.18	118.12
427.402	202.12
427.625	303.12
427.847	309.12
428.069	276.12
428.292	135.12
428.514	113.12
428.736	88.12
428.958	91.12
429.181	80.12
429.403	79.12
429.625	96.12
429.847	109.12
430.069	109.12
430.292	112.12
430.514	79.12
430.736	95.12
430.958	92.12
431.18	69.12
431.402	91.12
431.624	89.12
431.846	87.12
432.068	94.12
432.29	96.12
432.512	83.12
432.734	95.12
432.956	109.12
433.178	102.12
433.4	113.12
433.622	90.12
433.844	99.12
434.066	89.12
434.287	93.12
434.509	89.12
434.731	88.12
434.953	92.12
435.175	83.12
435.397	85.12
435.618	102.12
435.84	126.12
436.062	151.12
436.284	143.12
436.505	115.12
436.727	108.12
436.949	94.12
437.17	100.12
437.392	90.12
437.614	107.12
437.835	138.12
438.057	174.12
438.278	139.12
438.5	122.12
438.721	149.12
438.943	107.12
439.165	86.12
439.386	83.12
439.608	116.12
439.829	113.12
440.05	164.12
440.272	200.12
440.493	113.12
440.715	90.12
440.936	88.12
441.158	96.12
441.379	93.12
441.6	107.12
441.822	89.12
442.043	113.12
442.264	137.12
442.486	116.12
442.707	109.12
442.928	134.12
443.149	194.12
443.371	206.12
443.592	147.12
443.813	152.12
444.034	125.12
444.255	92.12
444.476	92.12
444.698	83.12
444.919	84.12
445.14	147.12
445.361	149.12
445.582	156.12
445.803	215.12
446.024	211.12
446.245	198.12
446.466	143.12
446.687	100.12
446.908	88.12
447.129	99.12
447.35	92.12
447.571	96.12
447.792	97.12
448.013	122.12
448.234	126.12
448.455	112.12
448.675	128.12
448.896	151.12
449.117	123.12
449.338	117.12
449.559	157.12
449.779	157.12
450	111.12
450.221	94.12
450.442	97.12
450.662	106.12
450.883	118.12
451.104	142.12
451.324	112.12
451.545	107.12
451.766	78.12
451.986	93.12
452.207	85.12
452.428	106.12
452.648	93.12
452.869	128.12
453.089	141.12
453.31	156.12
453.53	100.12
453.751	106.12
453.971	119.12
454.192	155.12
454.412	102.12
454.633	100.12
454.853	90.12
455.073	96.12
455.294	102.12
455.514	114.12
455.734	100.12
455.955	96.12
456.175	85.12
456.395	79.12
456.616	96.12
456.836	81.12
457.056	85.12
457.276	80.12
457.497	104.12
457.717	79.12
457.937	87.12
458.157	78.12
458.377	95.12
458.598	134.12
458.818	219.12
459.038	263.12
459.258	153.12
459.478	104.12
459.698	84.12
459.918	83.12
460.138	94.12
460.358	96.12
460.578	98.12
460.798	94.12
461.018	97.12
461.238	94.12
461.458	80.12
461.678	89.12
461.898	89.12
462.118	100.12
462.338	81.12
462.558	92.12
462.777	83.12
462.997	111.12
463.217	115.12
463.437	114.12
463.657	80.12
463.876	81.12
464.096	94.12
464.316	99.12
464.536	93.12
464.755	109.12
464.975	128.12
465.195	259.12
465.414	272.12
465.634	108.12
465.854	91.12
466.073	84.12
466.293	77.12
466.512	100.12
466.732	88.12
466.951	94.12
467.171	95.12
467.391	128.12
467.61	177.12
467.829	299.12
468.049	879.12
468.268	1316.12
468.488	301.12
468.707	131.12
468.927	99.12
469.146	87.12
469.365	104.12
469.585	101.12
469.804	123.12
470.023	127.12
470.243	97.12
470.462	114.12
470.681	153.12
470.901	107.12
471.12	109.12
471.339	119.12
471.558	153.12
471.777	201.12
471.997	411.12
472.216	1734.12
472.435	4053.12
472.654	903.12
472.873	199.12
473.092	112.12
473.311	95.12
473.53	111.12
473.749	104.12
473.968	122.12
474.187	138.12
474.406	112.12
474.625	101.12
474.844	96.12
475.063	94.12
475.282	77.12
475.501	91.12
475.72	90.12
475.939	99.12
476.158	102.12
476.377	92.12
476.596	88.12
476.814	94.12
477.033	109.12
477.252	100.12
477.471	88.12
477.69	90.12
477.908	97.12
478.127	95.12
478.346	96.12
478.564	117.12
478.783	124.12
479.002	104.12
479.22	114.12
479.439	141.12
479.658	153.12
479.876	146.12
480.095	141.12
480.313	156.12
480.532	200.12
480.751	402.12
480.969	1532.12
481.188	6968.12
481.406	3874.12
481.624	520.12
481.843	165.12
482.061	109.12
482.28	108.12
482.498	96.12
482.717	91.12
482.935	90.12
483.153	99.12
483.372	96.12
483.59	104.12
483.808	92.12
484.027	84.12
484.245	89.12
484.463	88.12
484.681	99.12
484.9	83.12
485.118	101.12
485.336	97.12
485.554	95.12
485.772	93.12
485.99	105.12
486.209	108.12
486.427	111.12
486.645	127.12
486.863	134.12
487.081	123.12
487.299	101.12
487.517	102.12
487.735	100.12
487.953	93.12
488.171	91.12
488.389	100.12
488.607	105.12
488.825	90.12
489.043	94.12
489.261	87.12
489.479	103.12
489.696	98.12
489.914	90.12
490.132	80.12
490.35	94.12
490.568	91.12
490.786	86.12
491.003	84.12
491.221	110.12
491.439	107.12
491.657	92.12
491.874	102.12
492.092	100.12
492.31	88.12
492.527	89.12
492.745	91.12
492.963	85.12
493.18	96.12
493.398	98.12
493.615	112.12
493.833	101.12
494.05	83.12
494.268	85.12
494.485	87.12
494.703	88.12
494.92	84.12
495.138	99.12
495.355	100.12
495.573	108.12
495.79	100.12
496.008	92.12
496.225	96.12
496.442	79.12
496.66	81.12
496.877	78.12
497.094	100.12
497.312	73.12
497.529	99.12
497.746	73.12
497.963	80.12
498.181	90.12
498.398	104.12
498.615	132.12
498.832	128.12
499.049	97.12
499.267	91.12
499.484	85.12
499.701	92.12
499.918	80.12
500.135	82.12
500.352	87.12
500.569	96.12
500.786	111.12
501.003	80.12
501.22	81.12
501.437	97.12
501.654	108.12
501.871	124.12
502.088	104.12
502.305	101.12
502.522	79.12
502.739	92.12
502.956	78.12
503.172	106.12
503.389	98.12
503.606	127.12
503.823	115.12
504.04	93.12
504.256	104.12
504.473	95.12
504.69	85.12
504.907	88.12
505.123	82.12
505.34	110.12
505.557	79.12
505.773	98.12
505.99	85.12
506.207	84.12
506.423	94.12
506.64	86.12
506.856	87.12
507.073	91.12
507.289	111.12
507.506	112.12
507.722	125.12
507.939	140.12
508.155	108.12
508.372	94.12
508.588	97.12
508.805	109.12
509.021	87.12
509.238	94.12
509.454	104.12
509.67	106.12
509.887	124.12
510.103	154.12
510.319	278.12
510.536	1077.12
510.752	3859.12
510.968	993.12
511.184	197.12
511.401	141.12
511.617	103.12
511.833	114.12
512.049	123.12
