Data from Circ_1998_H10_HRD10591_00080.txt Node
Date: Wed Jan 03 11:27:04 EST 2024
User: Yrep
Spectrometer: HR+D1059
Trigger mode: 1
Integration Time (sec): 1.000000E-1
Scans to average: 1
Electric dark correction enabled: true
Nonlinearity correction enabled: false
Boxcar width: 0
XAxis mode: Wavelengths
Number of Pixels in Spectrum: 2048
>>>>>Begin Spectral Data<<<<<
223.165	-17
223.4	-17
223.635	-17
223.869	-24
224.104	-34
224.338	-9
224.573	-9
224.808	-12
225.042	-5
225.277	-3
225.511	-2
225.746	0
225.98	1
226.215	25
226.449	9
226.683	6
226.918	34
227.152	40
227.387	39
227.621	43
227.856	46
228.09	41
228.324	55
228.559	54
228.793	69
229.027	57
229.262	77
229.496	91
229.73	102
229.964	93
230.199	66
230.433	75
230.667	74
230.901	78
231.136	76
231.37	75
231.604	95
231.838	84
232.072	81
232.306	84
232.541	69
232.775	107
233.009	82
233.243	89
233.477	91
233.711	72
233.945	79
234.179	85
234.413	76
234.647	87
234.881	71
235.115	83
235.349	88
235.583	79
235.817	80
236.051	82
236.285	77
236.519	81
236.753	67
236.987	92
237.221	101
237.455	97
237.689	77
237.922	71
238.156	89
238.39	78
238.624	76
238.858	76
239.091	74
239.325	74
239.559	78
239.793	88
240.027	74
240.26	74
240.494	86
240.728	84
240.961	80
241.195	79
241.429	70
241.662	80
241.896	68
242.13	71
242.363	75
242.597	69
242.83	73
243.064	72
243.298	80
243.531	87
243.765	73
243.998	86
244.232	86
244.465	96
244.699	76
244.932	74
245.166	83
245.399	75
245.633	85
245.866	70
246.099	80
246.333	89
246.566	86
246.8	93
247.033	79
247.266	76
247.5	78
247.733	85
247.966	75
248.2	86
248.433	79
248.666	62
248.899	76
249.133	106
249.366	106
249.599	100
249.832	86
250.066	85
250.299	81
250.532	97
250.765	82
250.998	81
251.231	81
251.465	89
251.698	96
251.931	97
252.164	87
252.397	77
252.63	80
252.863	81
253.096	87
253.329	82
253.562	86
253.795	70
254.028	80
254.261	96
254.494	94
254.727	84
254.96	84
255.193	85
255.426	87
255.659	88
255.892	99
256.124	104
256.357	89
256.59	95
256.823	81
257.056	95
257.289	90
257.521	87
257.754	87
257.987	79
258.22	95
258.452	105
258.685	108
258.918	87
259.151	92
259.383	85
259.616	74
259.849	90
260.081	77
260.314	87
260.547	87
260.779	91
261.012	114
261.244	128
261.477	107
261.71	106
261.942	143
262.175	148
262.407	98
262.64	101
262.872	87
263.105	88
263.337	89
263.57	75
263.802	73
264.035	88
264.267	90
264.499	79
264.732	72
264.964	88
265.197	92
265.429	88
265.661	88
265.894	88
266.126	87
266.358	85
266.591	89
266.823	71
267.055	84
267.287	80
267.52	82
267.752	87
267.984	85
268.216	101
268.448	95
268.681	100
268.913	71
269.145	92
269.377	101
269.609	84
269.841	104
270.073	81
270.306	88
270.538	79
270.77	94
271.002	73
271.234	90
271.466	90
271.698	104
271.93	83
272.162	99
272.394	88
272.626	80
272.858	86
273.09	100
273.322	80
273.553	85
273.785	80
274.017	80
274.249	78
274.481	85
274.713	96
274.945	96
275.176	94
275.408	113
275.64	117
275.872	136
276.104	111
276.335	106
276.567	129
276.799	159
277.031	192
277.262	246
277.494	170
277.726	108
277.957	89
278.189	92
278.421	97
278.652	90
278.884	92
279.115	103
279.347	95
279.579	124
279.81	153
280.042	247
280.273	342
280.505	232
280.736	124
280.968	94
281.199	91
281.431	85
281.662	87
281.894	103
282.125	99
282.356	145
282.588	176
282.819	134
283.051	101
283.282	87
283.513	80
283.745	88
283.976	79
284.207	79
284.439	80
284.67	91
284.901	84
285.132	92
285.364	92
285.595	93
285.826	81
286.057	85
286.288	90
286.52	71
286.751	78
286.982	79
287.213	85
287.444	91
287.675	73
287.906	92
288.138	84
288.369	98
288.6	97
288.831	94
289.062	91
289.293	102
289.524	94
289.755	94
289.986	91
290.217	92
290.448	87
290.679	84
290.91	96
291.141	85
291.371	107
291.602	86
291.833	80
292.064	86
292.295	100
292.526	107
292.757	92
292.987	72
293.218	86
293.449	89
293.68	82
293.91	85
294.141	97
294.372	89
294.603	92
294.833	80
295.064	92
295.295	105
295.525	103
295.756	105
295.987	122
296.217	161
296.448	150
296.679	103
296.909	89
297.14	72
297.37	79
297.601	94
297.831	103
298.062	89
298.292	88
298.523	77
298.753	90
298.984	82
299.214	84
299.445	104
299.675	93
299.905	112
300.136	104
300.366	104
300.597	80
300.827	89
301.057	107
301.288	129
301.518	112
301.748	93
301.979	123
302.209	106
302.439	94
302.669	96
302.9	93
303.13	98
303.36	106
303.59	151
303.82	174
304.051	122
304.281	102
304.511	88
304.741	94
304.971	92
305.201	89
305.431	82
305.661	88
305.891	98
306.121	101
306.352	121
306.582	124
306.812	115
307.042	136
307.272	204
307.502	201
307.731	217
307.961	165
308.191	94
308.421	98
308.651	94
308.881	89
309.111	101
309.341	108
309.571	113
309.8	104
310.03	100
310.26	97
310.49	97
310.72	110
310.949	115
311.179	97
311.409	87
311.639	112
311.868	106
312.098	87
312.328	108
312.557	115
312.787	120
313.017	113
313.246	91
313.476	89
313.706	94
313.935	93
314.165	97
314.394	97
314.624	100
314.853	99
315.083	94
315.312	106
315.542	90
315.771	101
316.001	90
316.23	76
316.46	90
316.689	104
316.919	103
317.148	120
317.377	109
317.607	112
317.836	109
318.065	97
318.295	95
318.524	87
318.753	97
318.983	97
319.212	100
319.441	129
319.67	116
319.9	92
320.129	93
320.358	94
320.587	105
320.816	102
321.046	104
321.275	110
321.504	86
321.733	103
321.962	105
322.191	106
322.42	134
322.649	131
322.878	138
323.108	137
323.337	159
323.566	153
323.795	177
324.024	239
324.253	495
324.482	1104
324.71	2233
324.939	2934
325.168	1048
325.397	309
325.626	185
325.855	160
326.084	138
326.313	161
326.542	193
326.77	269
326.999	554
327.228	1148
327.457	2061
327.686	1688
327.914	635
328.143	711
328.372	924
328.6	494
328.829	216
329.058	216
329.287	231
329.515	222
329.744	342
329.972	684
330.201	1462
330.43	2099
330.658	897
330.887	343
331.115	208
331.344	138
331.572	131
331.801	140
332.03	136
332.258	126
332.486	119
332.715	129
332.943	128
333.172	129
333.4	146
333.629	190
333.857	287
334.085	615
334.314	1374
334.542	2720
334.771	2472
334.999	592
335.227	219
335.455	133
335.684	120
335.912	113
336.14	112
336.369	102
336.597	119
336.825	115
337.053	115
337.281	96
337.51	110
337.738	108
337.966	92
338.194	105
338.422	100
338.65	97
338.878	83
339.106	83
339.334	87
339.562	90
339.79	94
340.018	83
340.246	91
340.474	108
340.702	104
340.93	82
341.158	98
341.386	102
341.614	99
341.842	87
342.07	90
342.298	98
342.526	78
342.754	81
342.981	93
343.209	99
343.437	113
343.665	98
343.893	95
344.12	96
344.348	86
344.576	95
344.804	100
345.031	89
345.259	97
345.487	103
345.714	93
345.942	90
346.17	97
346.397	85
346.625	100
346.853	98
347.08	93
347.308	102
347.535	109
347.763	107
347.99	100
348.218	123
348.445	114
348.673	104
348.9	115
349.128	100
349.355	92
349.583	96
349.81	87
350.037	101
350.265	83
350.492	89
350.72	95
350.947	107
351.174	124
351.402	127
351.629	95
351.856	106
352.083	111
352.311	110
352.538	104
352.765	112
352.992	136
353.22	129
353.447	106
353.674	94
353.901	82
354.128	101
354.355	98
354.583	111
354.81	94
355.037	90
355.264	96
355.491	93
355.718	98
355.945	82
356.172	78
356.399	99
356.626	89
356.853	76
357.08	93
357.307	96
357.534	95
357.761	95
357.988	89
358.215	90
358.441	80
358.668	104
358.895	92
359.122	93
359.349	96
359.576	92
359.802	113
360.029	140
360.256	141
360.483	109
360.709	95
360.936	102
361.163	91
361.39	97
361.616	101
361.843	85
362.07	100
362.296	101
362.523	115
362.749	93
362.976	97
363.203	91
363.429	95
363.656	89
363.882	101
364.109	105
364.335	85
364.562	97
364.788	97
365.015	111
365.241	116
365.468	119
365.694	113
365.92	110
366.147	100
366.373	86
366.599	95
366.826	83
367.052	90
367.278	104
367.505	111
367.731	104
367.957	102
368.184	106
368.41	113
368.636	135
368.862	142
369.089	120
369.315	106
369.541	102
369.767	88
369.993	90
370.219	96
370.445	82
370.672	85
370.898	92
371.124	92
371.35	89
371.576	78
371.802	88
372.028	90
372.254	79
372.48	103
372.706	70
372.932	91
373.158	82
373.384	90
373.61	91
373.835	84
374.061	80
374.287	101
374.513	88
374.739	90
374.965	71
375.191	78
375.416	76
375.642	81
375.868	97
376.094	89
376.319	71
376.545	85
376.771	85
376.997	107
377.222	92
377.448	85
377.674	87
377.899	87
378.125	93
378.35	92
378.576	84
378.802	93
379.027	83
379.253	87
379.478	68
379.704	85
379.929	93
380.155	95
380.38	88
380.606	97
380.831	81
381.057	95
381.282	96
381.507	93
381.733	80
381.958	100
382.184	89
382.409	117
382.634	94
382.86	94
383.085	94
383.31	124
383.535	85
383.761	100
383.986	93
384.211	96
384.436	108
384.662	89
384.887	97
385.112	95
385.337	102
385.562	98
385.787	110
386.013	106
386.238	119
386.463	96
386.688	109
386.913	99
387.138	101
387.363	102
387.588	94
387.813	73
388.038	113
388.263	105
388.488	107
388.713	85
388.938	90
389.163	97
389.387	92
389.612	89
389.837	86
390.062	82
390.287	95
390.512	91
390.736	101
390.961	88
391.186	92
391.411	92
391.636	72
391.86	81
392.085	85
392.31	99
392.534	80
392.759	93
392.984	94
393.208	89
393.433	95
393.658	90
393.882	85
394.107	79
394.331	85
394.556	81
394.78	85
395.005	87
395.229	101
395.454	84
395.678	101
395.903	95
396.127	79
396.352	82
396.576	89
396.801	89
397.025	74
397.249	99
397.474	90
397.698	83
397.922	94
398.147	105
398.371	87
398.595	95
398.82	82
399.044	89
399.268	76
399.492	94
399.717	83
399.941	95
400.165	90
400.389	98
400.613	85
400.837	90
401.062	90
401.286	92
401.51	78
401.734	85
401.958	107
402.182	157
402.406	221
402.63	157
402.854	112
403.078	104
403.302	95
403.526	95
403.75	83
403.974	78
404.198	80
404.422	96
404.645	90
404.869	102
405.093	121
405.317	156
405.541	148
405.765	132
405.988	142
406.212	226
406.436	336
406.66	206
406.883	137
407.107	103
407.331	107
407.555	116
407.778	103
408.002	76
408.226	81
408.449	98
408.673	87
408.896	90
409.12	107
409.344	85
409.567	89
409.791	102
410.014	94
410.238	79
410.461	91
410.685	108
410.908	97
411.132	103
411.355	94
411.578	102
411.802	80
412.025	90
412.249	103
412.472	104
412.695	143
412.919	102
413.142	105
413.365	92
413.589	87
413.812	94
414.035	94
414.258	102
414.482	96
414.705	101
414.928	74
415.151	91
415.374	92
415.597	87
415.821	92
416.044	92
416.267	100
416.49	86
416.713	87
416.936	95
417.159	94
417.382	103
417.605	101
417.828	107
418.051	94
418.274	103
418.497	87
418.72	92
418.943	102
419.166	70
419.389	101
419.611	96
419.834	90
420.057	93
420.28	90
420.503	84
420.726	79
420.948	96
421.171	102
421.394	101
421.617	78
421.839	98
422.062	87
422.285	96
422.507	106
422.73	117
422.953	104
423.175	79
423.398	106
423.621	77
423.843	95
424.066	86
424.288	84
424.511	98
424.733	104
424.956	123
425.178	112
425.401	101
425.623	98
425.846	106
426.068	98
426.291	95
426.513	98
426.735	95
426.958	100
427.18	122
427.402	175
427.625	300
427.847	288
428.069	261
428.292	142
428.514	98
428.736	86
428.958	93
429.181	81
429.403	98
429.625	100
429.847	97
430.069	115
430.292	115
430.514	101
430.736	87
430.958	102
431.18	98
431.402	92
431.624	92
431.846	92
432.068	101
432.29	85
432.512	88
432.734	78
432.956	95
433.178	105
433.4	92
433.622	95
433.844	103
434.066	98
434.287	89
434.509	93
434.731	99
434.953	93
435.175	100
435.397	94
435.618	105
435.84	101
436.062	122
436.284	127
436.505	117
436.727	104
436.949	96
437.17	84
437.392	78
437.614	108
437.835	137
438.057	163
438.278	133
438.5	113
438.721	154
438.943	115
439.165	90
439.386	80
439.608	89
439.829	118
440.05	152
440.272	185
440.493	108
440.715	90
440.936	84
441.158	86
441.379	100
441.6	88
441.822	98
442.043	94
442.264	123
442.486	119
442.707	106
442.928	138
443.149	192
443.371	169
443.592	127
443.813	137
444.034	124
444.255	92
444.476	103
444.698	99
444.919	103
445.14	131
445.361	134
445.582	129
445.803	187
446.024	185
446.245	162
446.466	145
446.687	85
446.908	91
447.129	98
447.35	103
447.571	91
447.792	94
448.013	112
448.234	128
448.455	117
448.675	136
448.896	137
449.117	110
449.338	114
449.559	144
449.779	157
450	100
450.221	88
450.442	110
450.662	107
450.883	124
451.104	140
451.324	105
451.545	92
451.766	80
451.986	97
452.207	88
452.428	106
452.648	110
452.869	118
453.089	140
453.31	167
453.53	107
453.751	104
453.971	118
454.192	141
454.412	93
454.633	93
454.853	82
455.073	103
455.294	99
455.514	108
455.734	94
455.955	84
456.175	86
456.395	72
456.616	84
456.836	86
457.056	93
457.276	88
457.497	90
457.717	108
457.937	97
458.157	97
458.377	84
458.598	128
458.818	213
459.038	249
459.258	152
459.478	97
459.698	80
459.918	77
460.138	95
460.358	98
460.578	93
460.798	96
461.018	91
461.238	95
461.458	83
461.678	88
461.898	81
462.118	88
462.338	93
462.558	98
462.777	84
462.997	105
463.217	116
463.437	103
463.657	105
463.876	92
464.096	92
464.316	105
464.536	115
464.755	108
464.975	132
465.195	256
465.414	257
465.634	105
465.854	101
466.073	94
466.293	88
466.512	96
466.732	97
466.951	102
467.171	100
467.391	122
467.61	166
467.829	287
468.049	873
468.268	1305
468.488	296
468.707	134
468.927	103
469.146	91
469.365	94
469.585	94
469.804	105
470.023	101
470.243	108
470.462	129
470.681	156
470.901	121
471.12	107
471.339	113
471.558	134
471.777	192
471.997	426
472.216	1792
472.435	3976
472.654	857
472.873	212
473.092	120
473.311	96
473.53	92
473.749	96
473.968	106
474.187	132
474.406	115
474.625	89
474.844	100
475.063	81
475.282	89
475.501	91
475.72	94
475.939	82
476.158	81
476.377	96
476.596	81
476.814	121
477.033	113
477.252	120
477.471	105
477.69	91
477.908	104
478.127	97
478.346	85
478.564	103
478.783	120
479.002	118
479.22	117
479.439	123
479.658	149
479.876	135
480.095	143
480.313	151
480.532	208
480.751	396
480.969	1576
481.188	6834
481.406	3747
481.624	488
481.843	166
482.061	131
482.28	110
482.498	101
482.717	96
482.935	99
483.153	80
483.372	83
483.59	91
483.808	94
484.027	111
484.245	113
484.463	101
484.681	105
484.9	105
485.118	113
485.336	101
485.554	106
485.772	89
485.99	112
486.209	100
486.427	101
486.645	125
486.863	140
487.081	113
487.299	125
487.517	114
487.735	98
487.953	105
488.171	93
488.389	93
488.607	123
488.825	100
489.043	87
489.261	95
489.479	99
489.696	79
489.914	86
490.132	99
490.35	89
490.568	84
490.786	89
491.003	89
491.221	105
491.439	101
491.657	102
491.874	109
492.092	93
492.31	95
492.527	87
492.745	101
492.963	98
493.18	83
493.398	98
493.615	90
493.833	97
494.05	99
494.268	102
494.485	93
494.703	85
494.92	86
495.138	88
495.355	92
495.573	100
495.79	87
496.008	98
496.225	87
496.442	88
496.66	104
496.877	86
497.094	91
497.312	92
497.529	97
497.746	95
497.963	91
498.181	94
498.398	115
498.615	118
498.832	127
499.049	95
499.267	98
499.484	92
499.701	94
499.918	80
500.135	96
500.352	105
500.569	98
500.786	102
501.003	92
501.22	106
501.437	89
501.654	106
501.871	123
502.088	95
502.305	91
502.522	94
502.739	85
502.956	95
503.172	95
503.389	109
503.606	111
503.823	103
504.04	84
504.256	107
504.473	96
504.69	79
504.907	93
505.123	93
505.34	86
505.557	87
505.773	86
505.99	80
506.207	90
506.423	81
506.64	78
506.856	108
507.073	102
507.289	97
507.506	97
507.722	137
507.939	140
508.155	92
508.372	92
508.588	104
508.805	102
509.021	103
509.238	115
509.454	115
509.67	103
509.887	135
510.103	160
510.319	263
510.536	1096
510.752	3953
510.968	1025
511.184	205
511.401	122
511.617	126
511.833	121
512.049	105
512.265	101
512.481	107
512.698	105
512.914	97
513.13	108
513.346	100
513.562	108
513.778	118
513.994	107
514.21	122
514.426	143
514.642	182
514.858	154
515.074	257
515.29	821
515.506	3012
515.721	1062
515.937	229
516.153	148
516.369	124
516.585	116
516.801	105
517.016	100
517.232	97
517.448	103
517.664	96
517.879	118
518.095	90
518.311	112
518.527	114
518.742	101
518.958	88
519.173	91
519.389	94
519.605	101
519.82	104
520.036	137
520.251	155
520.467	142
520.682	126
520.898	129
521.113	150
521.329	184
521.544	365
521.76	1115
521.975	5016
522.19	2928
522.406	558
522.621	181
522.836	124
523.052	113
523.267	98
523.482	107
523.698	122
523.913	137
524.128	127
524.343	94
524.559	94
524.774	115
524.989	117
525.204	138
525.419	125
525.634	110
525.849	105
526.064	97
526.28	90
526.495	94
526.71	87
526.925	103
527.14	96
527.355	93
527.57	95
527.785	85
527.999	92
528.214	92
528.429	97
528.644	89
528.859	83
529.074	109
529.289	158
529.503	296
529.718	124
529.933	104
530.148	94
530.363	93
530.577	90
530.792	85
531.007	98
531.221	105
531.436	90
531.651	91
531.865	89
532.08	90
532.295	82
532.509	103
532.724	86
532.938	98
533.153	95
533.367	92
533.582	101
533.796	97
534.011	94
534.225	108
534.44	93
534.654	100
534.868	83
535.083	103
535.297	102
535.511	127
535.726	106
535.94	103
536.154	106
536.369	85
536.583	91
536.797	101
537.011	89
537.225	106
537.44	106
537.654	89
537.868	108
538.082	100
538.296	100
538.51	86
538.724	79
538.938	87
539.153	106
539.367	134
539.581	94
539.795	100
540.009	82
540.222	82
540.436	88
540.65	103
540.864	93
541.078	97
541.292	94
541.506	102
541.72	68
541.934	89
542.147	91
542.361	84
542.575	97
542.789	88
543.002	92
543.216	97
543.43	112
543.644	98
543.857	105
544.071	77
544.285	79
544.498	77
544.712	95
544.925	80
545.139	89
545.352	105
545.566	90
545.779	84
545.993	99
546.206	84
546.42	94
546.633	92
546.847	88
547.06	79
547.274	77
547.487	94
547.7	89
547.914	83
548.127	98
548.34	86
548.554	76
548.767	95
548.98	93
549.193	101
549.407	91
549.62	85
549.833	75
550.046	92
550.259	80
550.473	87
550.686	96
550.899	94
551.112	90
551.325	100
551.538	104
551.751	93
551.964	91
552.177	88
552.39	86
552.603	72
552.816	98
553.029	108
553.242	82
553.455	110
553.667	144
553.88	121
554.093	92
554.306	136
554.519	134
554.732	101
554.944	103
555.157	90
555.37	94
555.583	83
555.795	116
556.008	92
556.221	81
556.433	96
556.646	93
556.859	75
557.071	100
557.284	80
557.496	85
557.709	80
557.921	88
558.134	90
558.346	90
558.559	81
558.771	88
558.984	98
559.196	97
559.409	107
559.621	98
559.833	92
560.046	91
560.258	125
560.47	153
560.683	98
560.895	101
561.107	89
561.32	91
561.532	95
561.744	89
561.956	89
562.168	97
562.381	97
562.593	94
562.805	95
563.017	96
563.229	87
563.441	95
563.653	90
563.865	96
564.077	91
564.289	96
564.501	89
564.713	87
564.925	92
565.137	119
565.349	100
565.561	88
565.773	93
565.985	80
566.197	72
566.408	92
566.62	87
566.832	80
567.044	71
567.255	77
567.467	81
567.679	93
567.891	102
568.102	74
568.314	75
568.526	100
568.737	87
568.949	88
569.161	89
569.372	97
569.584	101
569.795	100
570.007	135
570.218	338
570.43	163
570.641	103
570.853	93
571.064	95
571.276	82
571.487	80
571.698	81
571.91	89
572.121	94
572.333	79
572.544	88
572.755	77
572.966	89
573.178	81
573.389	89
573.6	91
573.811	80
574.023	88
574.234	86
574.445	89
574.656	72
574.867	91
575.078	94
575.289	86
575.501	100
575.712	82
575.923	96
576.134	98
576.345	101
576.556	91
576.767	90
576.978	88
577.188	111
577.399	90
577.61	107
577.821	98
578.032	127
578.243	376
578.454	1163
578.665	301
578.875	122
579.086	110
579.297	78
