Data from Circ_1998_H10_HRD10591_00074.txt Node
Date: Wed Jan 03 11:27:03 EST 2024
User: Yrep
Spectrometer: HR+D1059
Trigger mode: 1
Integration Time (sec): 1.000000E-1
Scans to average: 1
Electric dark correction enabled: true
Nonlinearity correction enabled: false
Boxcar width: 0
XAxis mode: Wavelengths
Number of Pixels in Spectrum: 2048
>>>>>Begin Spectral Data<<<<<
223.165	-3.44
223.4	-3.44
223.635	-3.44
223.869	-24.44
224.104	-26.44
224.338	-15.44
224.573	-4.44
224.808	-7.44
225.042	-5.44
225.277	-10.44
225.511	-8.44
225.746	-1.44
225.98	24.56
226.215	16.56
226.449	5.56
226.683	11.56
226.918	13.56
227.152	35.56
227.387	41.56
227.621	33.56
227.856	43.56
228.09	32.56
228.324	48.56
228.559	53.56
228.793	69.56
229.027	49.56
229.262	65.56
229.496	66.56
229.73	113.56
229.964	102.56
230.199	74.56
230.433	78.56
230.667	72.56
230.901	80.56
231.136	78.56
231.37	70.56
231.604	84.56
231.838	81.56
232.072	79.56
232.306	81.56
232.541	71.56
232.775	84.56
233.009	78.56
233.243	82.56
233.477	83.56
233.711	84.56
233.945	74.56
234.179	83.56
234.413	89.56
234.647	86.56
234.881	83.56
235.115	86.56
235.349	88.56
235.583	84.56
235.817	77.56
236.051	87.56
236.285	67.56
236.519	79.56
236.753	76.56
236.987	77.56
237.221	89.56
237.455	118.56
237.689	84.56
237.922	71.56
238.156	76.56
238.39	75.56
238.624	88.56
238.858	87.56
239.091	81.56
239.325	73.56
239.559	80.56
239.793	77.56
240.027	86.56
240.26	77.56
240.494	78.56
240.728	94.56
240.961	82.56
241.195	70.56
241.429	64.56
241.662	81.56
241.896	75.56
242.13	75.56
242.363	80.56
242.597	83.56
242.83	88.56
243.064	80.56
243.298	66.56
243.531	76.56
243.765	75.56
243.998	77.56
244.232	87.56
244.465	91.56
244.699	85.56
244.932	68.56
245.166	69.56
245.399	68.56
245.633	78.56
245.866	84.56
246.099	72.56
246.333	81.56
246.566	81.56
246.8	71.56
247.033	83.56
247.266	70.56
247.5	79.56
247.733	71.56
247.966	91.56
248.2	85.56
248.433	83.56
248.666	85.56
248.899	95.56
249.133	83.56
249.366	106.56
249.599	127.56
249.832	89.56
250.066	84.56
250.299	83.56
250.532	95.56
250.765	74.56
250.998	67.56
251.231	73.56
251.465	89.56
251.698	79.56
251.931	75.56
252.164	78.56
252.397	62.56
252.63	65.56
252.863	86.56
253.096	75.56
253.329	79.56
253.562	83.56
253.795	76.56
254.028	76.56
254.261	74.56
254.494	83.56
254.727	84.56
254.96	77.56
255.193	72.56
255.426	82.56
255.659	83.56
255.892	88.56
256.124	112.56
256.357	92.56
256.59	96.56
256.823	83.56
257.056	86.56
257.289	97.56
257.521	95.56
257.754	78.56
257.987	88.56
258.22	93.56
258.452	89.56
258.685	97.56
258.918	89.56
259.151	81.56
259.383	93.56
259.616	86.56
259.849	86.56
260.081	80.56
260.314	89.56
260.547	63.56
260.779	88.56
261.012	109.56
261.244	112.56
261.477	100.56
261.71	106.56
261.942	137.56
262.175	149.56
262.407	91.56
262.64	77.56
262.872	89.56
263.105	91.56
263.337	79.56
263.57	83.56
263.802	89.56
264.035	83.56
264.267	81.56
264.499	87.56
264.732	87.56
264.964	81.56
265.197	83.56
265.429	88.56
265.661	83.56
265.894	88.56
266.126	88.56
266.358	79.56
266.591	91.56
266.823	88.56
267.055	79.56
267.287	80.56
267.52	71.56
267.752	83.56
267.984	86.56
268.216	68.56
268.448	89.56
268.681	71.56
268.913	87.56
269.145	93.56
269.377	77.56
269.609	83.56
269.841	72.56
270.073	89.56
270.306	87.56
270.538	78.56
270.77	79.56
271.002	88.56
271.234	99.56
271.466	92.56
271.698	85.56
271.93	89.56
272.162	86.56
272.394	91.56
272.626	86.56
272.858	65.56
273.09	77.56
273.322	99.56
273.553	84.56
273.785	81.56
274.017	87.56
274.249	87.56
274.481	99.56
274.713	94.56
274.945	96.56
275.176	93.56
275.408	103.56
275.64	126.56
275.872	121.56
276.104	109.56
276.335	110.56
276.567	127.56
276.799	160.56
277.031	225.56
277.262	242.56
277.494	175.56
277.726	106.56
277.957	98.56
278.189	102.56
278.421	100.56
278.652	88.56
278.884	87.56
279.115	98.56
279.347	97.56
279.579	106.56
279.81	147.56
280.042	244.56
280.273	365.56
280.505	239.56
280.736	121.56
280.968	100.56
281.199	101.56
281.431	92.56
281.662	89.56
281.894	90.56
282.125	112.56
282.356	150.56
282.588	183.56
282.819	143.56
283.051	103.56
283.282	91.56
283.513	78.56
283.745	96.56
283.976	81.56
284.207	94.56
284.439	89.56
284.67	90.56
284.901	99.56
285.132	90.56
285.364	91.56
285.595	91.56
285.826	86.56
286.057	91.56
286.288	85.56
286.52	72.56
286.751	96.56
286.982	78.56
287.213	81.56
287.444	92.56
287.675	87.56
287.906	76.56
288.138	90.56
288.369	91.56
288.6	95.56
288.831	81.56
289.062	86.56
289.293	89.56
289.524	79.56
289.755	71.56
289.986	83.56
290.217	93.56
290.448	90.56
290.679	87.56
290.91	100.56
291.141	91.56
291.371	86.56
291.602	102.56
291.833	93.56
292.064	76.56
292.295	86.56
292.526	95.56
292.757	79.56
292.987	82.56
293.218	80.56
293.449	91.56
293.68	85.56
293.91	97.56
294.141	84.56
294.372	98.56
294.603	84.56
294.833	98.56
295.064	99.56
295.295	83.56
295.525	93.56
295.756	111.56
295.987	144.56
296.217	168.56
296.448	143.56
296.679	99.56
296.909	83.56
297.14	93.56
297.37	88.56
297.601	84.56
297.831	104.56
298.062	107.56
298.292	87.56
298.523	90.56
298.753	84.56
298.984	86.56
299.214	92.56
299.445	90.56
299.675	102.56
299.905	103.56
300.136	103.56
300.366	109.56
300.597	94.56
300.827	91.56
301.057	108.56
301.288	120.56
301.518	94.56
301.748	95.56
301.979	118.56
302.209	108.56
302.439	83.56
302.669	103.56
302.9	104.56
303.13	109.56
303.36	115.56
303.59	143.56
303.82	165.56
304.051	109.56
304.281	91.56
304.511	80.56
304.741	81.56
304.971	81.56
305.201	91.56
305.431	97.56
305.661	91.56
305.891	92.56
306.121	108.56
306.352	119.56
306.582	113.56
306.812	113.56
307.042	146.56
307.272	197.56
307.502	245.56
307.731	198.56
307.961	157.56
308.191	108.56
308.421	95.56
308.651	90.56
308.881	101.56
309.111	97.56
309.341	104.56
309.571	113.56
309.8	104.56
310.03	106.56
310.26	113.56
310.49	97.56
310.72	119.56
310.949	125.56
311.179	113.56
311.409	98.56
311.639	94.56
311.868	99.56
312.098	94.56
312.328	105.56
312.557	112.56
312.787	123.56
313.017	111.56
313.246	115.56
313.476	88.56
313.706	96.56
313.935	103.56
314.165	107.56
314.394	115.56
314.624	117.56
314.853	113.56
315.083	110.56
315.312	84.56
315.542	89.56
315.771	105.56
316.001	93.56
316.23	91.56
316.46	91.56
316.689	103.56
316.919	90.56
317.148	105.56
317.377	94.56
317.607	105.56
317.836	100.56
318.065	87.56
318.295	76.56
318.524	87.56
318.753	84.56
318.983	97.56
319.212	103.56
319.441	128.56
319.67	121.56
319.9	113.56
320.129	106.56
320.358	95.56
320.587	102.56
320.816	111.56
321.046	111.56
321.275	116.56
321.504	105.56
321.733	103.56
321.962	93.56
322.191	118.56
322.42	117.56
322.649	134.56
322.878	134.56
323.108	140.56
323.337	154.56
323.566	157.56
323.795	202.56
324.024	262.56
324.253	533.56
324.482	1156.56
324.71	2462.56
324.939	3171.56
325.168	1156.56
325.397	325.56
325.626	175.56
325.855	144.56
326.084	137.56
326.313	151.56
326.542	187.56
326.77	299.56
326.999	593.56
327.228	1204.56
327.457	2231.56
327.686	1871.56
327.914	712.56
328.143	715.56
328.372	997.56
328.6	518.56
328.829	215.56
329.058	231.56
329.287	247.56
329.515	217.56
329.744	355.56
329.972	727.56
330.201	1546.56
330.43	2257.56
330.658	927.56
330.887	357.56
331.115	224.56
331.344	147.56
331.572	143.56
331.801	135.56
332.03	156.56
332.258	120.56
332.486	121.56
332.715	101.56
332.943	118.56
333.172	140.56
333.4	138.56
333.629	191.56
333.857	292.56
334.085	619.56
334.314	1428.56
334.542	2857.56
334.771	2597.56
334.999	622.56
335.227	223.56
335.455	136.56
335.684	117.56
335.912	126.56
336.14	117.56
336.369	113.56
336.597	123.56
336.825	96.56
337.053	98.56
337.281	89.56
337.51	99.56
337.738	105.56
337.966	103.56
338.194	101.56
338.422	103.56
338.65	101.56
338.878	91.56
339.106	92.56
339.334	104.56
339.562	86.56
339.79	99.56
340.018	96.56
340.246	100.56
340.474	92.56
340.702	105.56
340.93	119.56
341.158	99.56
341.386	110.56
341.614	92.56
341.842	105.56
342.07	102.56
342.298	91.56
342.526	87.56
342.754	85.56
342.981	87.56
343.209	91.56
343.437	99.56
343.665	98.56
343.893	80.56
344.12	83.56
344.348	96.56
344.576	100.56
344.804	91.56
345.031	110.56
345.259	117.56
345.487	105.56
345.714	111.56
345.942	100.56
346.17	78.56
346.397	99.56
346.625	102.56
346.853	92.56
347.08	101.56
347.308	101.56
347.535	110.56
347.763	119.56
347.99	108.56
348.218	115.56
348.445	126.56
348.673	102.56
348.9	95.56
349.128	107.56
349.355	90.56
349.583	89.56
349.81	95.56
350.037	89.56
350.265	100.56
350.492	87.56
350.72	86.56
350.947	123.56
351.174	118.56
351.402	134.56
351.629	119.56
351.856	110.56
352.083	116.56
352.311	114.56
352.538	127.56
352.765	120.56
352.992	133.56
353.22	118.56
353.447	113.56
353.674	107.56
353.901	91.56
354.128	72.56
354.355	91.56
354.583	102.56
354.81	99.56
355.037	95.56
355.264	93.56
355.491	88.56
355.718	92.56
355.945	89.56
356.172	101.56
356.399	96.56
356.626	102.56
356.853	92.56
357.08	106.56
357.307	90.56
357.534	103.56
357.761	103.56
357.988	100.56
358.215	84.56
358.441	86.56
358.668	89.56
358.895	85.56
359.122	79.56
359.349	89.56
359.576	109.56
359.802	119.56
360.029	157.56
360.256	141.56
360.483	116.56
360.709	93.56
360.936	85.56
361.163	96.56
361.39	109.56
361.616	97.56
361.843	89.56
362.07	104.56
362.296	120.56
362.523	108.56
362.749	96.56
362.976	94.56
363.203	97.56
363.429	97.56
363.656	87.56
363.882	91.56
364.109	96.56
364.335	99.56
364.562	86.56
364.788	96.56
365.015	102.56
365.241	114.56
365.468	121.56
365.694	136.56
365.92	103.56
366.147	101.56
366.373	102.56
366.599	87.56
366.826	97.56
367.052	94.56
367.278	91.56
367.505	99.56
367.731	99.56
367.957	102.56
368.184	107.56
368.41	115.56
368.636	112.56
368.862	135.56
369.089	119.56
369.315	93.56
369.541	91.56
369.767	95.56
369.993	93.56
370.219	91.56
370.445	97.56
370.672	78.56
370.898	73.56
371.124	91.56
371.35	96.56
371.576	85.56
371.802	83.56
372.028	103.56
372.254	79.56
372.48	88.56
372.706	90.56
372.932	86.56
373.158	100.56
373.384	87.56
373.61	101.56
373.835	101.56
374.061	91.56
374.287	75.56
374.513	93.56
374.739	83.56
374.965	86.56
375.191	86.56
375.416	88.56
375.642	90.56
375.868	90.56
376.094	97.56
376.319	90.56
376.545	84.56
376.771	93.56
376.997	85.56
377.222	96.56
377.448	91.56
377.674	84.56
377.899	95.56
378.125	88.56
378.35	87.56
378.576	91.56
378.802	94.56
379.027	81.56
379.253	77.56
379.478	98.56
379.704	93.56
379.929	78.56
380.155	103.56
380.38	89.56
380.606	86.56
380.831	98.56
381.057	88.56
381.282	86.56
381.507	107.56
381.733	94.56
381.958	92.56
382.184	108.56
382.409	107.56
382.634	99.56
382.86	94.56
383.085	101.56
383.31	93.56
383.535	90.56
383.761	97.56
383.986	96.56
384.211	96.56
384.436	97.56
384.662	100.56
384.887	100.56
385.112	99.56
385.337	115.56
385.562	110.56
385.787	108.56
386.013	114.56
386.238	120.56
386.463	88.56
386.688	109.56
386.913	97.56
387.138	97.56
387.363	81.56
387.588	94.56
387.813	83.56
388.038	98.56
388.263	95.56
388.488	97.56
388.713	91.56
388.938	86.56
389.163	102.56
389.387	86.56
389.612	88.56
389.837	95.56
390.062	100.56
390.287	88.56
390.512	101.56
390.736	90.56
390.961	93.56
391.186	91.56
391.411	78.56
391.636	82.56
391.86	86.56
392.085	64.56
392.31	84.56
392.534	83.56
392.759	76.56
392.984	92.56
393.208	94.56
393.433	95.56
393.658	89.56
393.882	79.56
394.107	93.56
394.331	84.56
394.556	86.56
394.78	90.56
395.005	79.56
395.229	82.56
395.454	83.56
395.678	84.56
395.903	95.56
396.127	87.56
396.352	83.56
396.576	91.56
396.801	80.56
397.025	80.56
397.249	91.56
397.474	85.56
397.698	74.56
397.922	87.56
398.147	74.56
398.371	83.56
398.595	87.56
398.82	87.56
399.044	95.56
399.268	99.56
399.492	79.56
399.717	68.56
399.941	76.56
400.165	83.56
400.389	83.56
400.613	92.56
400.837	94.56
401.062	93.56
401.286	100.56
401.51	91.56
401.734	87.56
401.958	115.56
402.182	134.56
402.406	216.56
402.63	161.56
402.854	107.56
403.078	89.56
403.302	93.56
403.526	89.56
403.75	92.56
403.974	95.56
404.198	103.56
404.422	84.56
404.645	115.56
404.869	110.56
405.093	127.56
405.317	159.56
405.541	155.56
405.765	134.56
405.988	135.56
406.212	239.56
406.436	344.56
406.66	230.56
406.883	115.56
407.107	96.56
407.331	88.56
407.555	113.56
407.778	107.56
408.002	96.56
408.226	105.56
408.449	85.56
408.673	96.56
408.896	96.56
409.12	108.56
409.344	81.56
409.567	85.56
409.791	75.56
410.014	95.56
410.238	85.56
410.461	87.56
410.685	92.56
410.908	97.56
411.132	99.56
411.355	119.56
411.578	97.56
411.802	94.56
412.025	96.56
412.249	118.56
412.472	128.56
412.695	132.56
412.919	106.56
413.142	88.56
413.365	99.56
413.589	96.56
413.812	101.56
414.035	81.56
414.258	91.56
414.482	94.56
414.705	96.56
414.928	87.56
415.151	91.56
415.374	86.56
415.597	84.56
415.821	92.56
416.044	88.56
416.267	107.56
416.49	83.56
416.713	95.56
416.936	87.56
417.159	73.56
417.382	103.56
417.605	109.56
417.828	123.56
418.051	102.56
418.274	93.56
418.497	97.56
418.72	94.56
418.943	84.56
419.166	92.56
419.389	81.56
419.611	91.56
419.834	87.56
420.057	106.56
420.28	103.56
420.503	89.56
420.726	88.56
420.948	90.56
421.171	105.56
421.394	91.56
421.617	89.56
421.839	86.56
422.062	92.56
422.285	101.56
422.507	104.56
422.73	105.56
422.953	104.56
423.175	98.56
423.398	89.56
423.621	97.56
423.843	77.56
424.066	76.56
424.288	92.56
424.511	95.56
424.733	107.56
424.956	112.56
425.178	119.56
425.401	117.56
425.623	124.56
425.846	99.56
426.068	95.56
426.291	110.56
426.513	101.56
426.735	88.56
426.958	90.56
427.18	117.56
427.402	201.56
427.625	308.56
427.847	283.56
428.069	271.56
428.292	159.56
428.514	116.56
428.736	85.56
428.958	80.56
429.181	74.56
429.403	72.56
429.625	81.56
429.847	103.56
430.069	122.56
430.292	96.56
430.514	83.56
430.736	95.56
430.958	78.56
431.18	92.56
431.402	82.56
431.624	77.56
431.846	97.56
432.068	85.56
432.29	86.56
432.512	101.56
432.734	83.56
432.956	95.56
433.178	108.56
433.4	95.56
433.622	92.56
433.844	99.56
434.066	87.56
434.287	95.56
434.509	87.56
434.731	90.56
434.953	89.56
435.175	93.56
435.397	93.56
435.618	111.56
435.84	110.56
436.062	146.56
436.284	128.56
436.505	119.56
436.727	110.56
436.949	79.56
437.17	87.56
437.392	84.56
437.614	106.56
437.835	135.56
438.057	162.56
438.278	154.56
438.5	126.56
438.721	143.56
438.943	121.56
439.165	96.56
439.386	85.56
439.608	108.56
439.829	111.56
440.05	165.56
440.272	206.56
440.493	119.56
440.715	96.56
440.936	99.56
441.158	98.56
441.379	82.56
441.6	113.56
441.822	105.56
442.043	110.56
442.264	122.56
442.486	124.56
442.707	107.56
442.928	138.56
443.149	212.56
443.371	193.56
443.592	134.56
443.813	136.56
444.034	117.56
444.255	89.56
444.476	91.56
444.698	83.56
444.919	93.56
445.14	135.56
445.361	141.56
445.582	144.56
445.803	203.56
446.024	199.56
446.245	183.56
446.466	126.56
446.687	102.56
446.908	104.56
447.129	100.56
447.35	97.56
447.571	113.56
447.792	97.56
448.013	104.56
448.234	128.56
448.455	130.56
448.675	143.56
448.896	147.56
449.117	132.56
449.338	113.56
449.559	149.56
449.779	175.56
450	101.56
450.221	90.56
450.442	68.56
450.662	101.56
450.883	139.56
451.104	145.56
451.324	109.56
451.545	95.56
451.766	85.56
451.986	87.56
452.207	97.56
452.428	92.56
452.648	116.56
452.869	159.56
453.089	150.56
453.31	141.56
453.53	105.56
453.751	103.56
453.971	135.56
454.192	149.56
454.412	102.56
454.633	110.56
454.853	86.56
455.073	88.56
455.294	92.56
455.514	124.56
455.734	91.56
455.955	97.56
456.175	88.56
456.395	83.56
456.616	86.56
456.836	85.56
457.056	81.56
457.276	91.56
457.497	97.56
457.717	76.56
457.937	91.56
458.157	84.56
458.377	109.56
458.598	120.56
458.818	231.56
459.038	271.56
459.258	178.56
459.478	100.56
459.698	87.56
459.918	88.56
460.138	84.56
460.358	84.56
460.578	93.56
460.798	104.56
461.018	91.56
461.238	87.56
461.458	75.56
461.678	83.56
461.898	82.56
462.118	90.56
462.338	94.56
462.558	85.56
462.777	97.56
462.997	94.56
463.217	109.56
463.437	118.56
463.657	103.56
463.876	93.56
464.096	96.56
464.316	86.56
464.536	93.56
464.755	103.56
464.975	134.56
465.195	279.56
465.414	280.56
465.634	113.56
465.854	97.56
466.073	89.56
466.293	96.56
466.512	94.56
466.732	100.56
466.951	93.56
467.171	110.56
467.391	133.56
467.61	170.56
467.829	289.56
468.049	880.56
468.268	1301.56
468.488	318.56
468.707	139.56
468.927	103.56
469.146	90.56
469.365	79.56
469.585	94.56
469.804	98.56
470.023	117.56
470.243	106.56
470.462	139.56
470.681	154.56
470.901	117.56
471.12	108.56
471.339	105.56
471.558	128.56
471.777	199.56
471.997	427.56
472.216	1763.56
472.435	4121.56
472.654	881.56
472.873	196.56
473.092	125.56
473.311	104.56
473.53	91.56
473.749	89.56
473.968	107.56
474.187	134.56
474.406	102.56
474.625	103.56
474.844	95.56
475.063	89.56
475.282	89.56
475.501	106.56
475.72	95.56
475.939	82.56
476.158	102.56
476.377	95.56
476.596	104.56
476.814	103.56
477.033	112.56
477.252	82.56
477.471	100.56
477.69	83.56
477.908	96.56
478.127	100.56
478.346	94.56
478.564	99.56
478.783	107.56
479.002	115.56
479.22	106.56
479.439	145.56
479.658	158.56
479.876	128.56
480.095	138.56
480.313	159.56
480.532	203.56
480.751	387.56
480.969	1576.56
481.188	6977.56
481.406	3852.56
481.624	512.56
481.843	181.56
482.061	120.56
482.28	101.56
482.498	107.56
482.717	97.56
482.935	87.56
483.153	83.56
483.372	105.56
483.59	87.56
483.808	101.56
484.027	98.56
484.245	92.56
484.463	100.56
484.681	102.56
484.9	90.56
485.118	108.56
485.336	100.56
485.554	80.56
485.772	110.56
485.99	109.56
486.209	106.56
486.427	108.56
486.645	123.56
486.863	134.56
487.081	105.56
487.299	95.56
487.517	99.56
487.735	88.56
487.953	87.56
488.171	97.56
488.389	104.56
488.607	86.56
488.825	100.56
489.043	94.56
489.261	93.56
489.479	92.56
489.696	92.56
489.914	96.56
490.132	87.56
490.35	92.56
490.568	80.56
490.786	100.56
491.003	90.56
491.221	95.56
491.439	93.56
491.657	94.56
491.874	78.56
492.092	83.56
492.31	111.56
492.527	118.56
492.745	115.56
492.963	91.56
493.18	91.56
493.398	99.56
493.615	103.56
493.833	87.56
494.05	91.56
494.268	82.56
494.485	76.56
494.703	87.56
494.92	71.56
495.138	84.56
495.355	92.56
495.573	107.56
495.79	102.56
496.008	101.56
496.225	99.56
496.442	76.56
496.66	87.56
496.877	100.56
497.094	95.56
497.312	86.56
497.529	86.56
497.746	86.56
497.963	88.56
498.181	95.56
498.398	107.56
498.615	115.56
498.832	106.56
499.049	104.56
499.267	101.56
499.484	91.56
499.701	92.56
499.918	75.56
500.135	92.56
500.352	79.56
500.569	112.56
500.786	102.56
501.003	93.56
501.22	88.56
501.437	103.56
501.654	101.56
501.871	124.56
502.088	89.56
502.305	78.56
502.522	94.56
502.739	96.56
502.956	111.56
503.172	118.56
503.389	110.56
503.606	132.56
503.823	101.56
504.04	96.56
504.256	82.56
504.473	94.56
504.69	101.56
504.907	95.56
505.123	97.56
505.34	104.56
505.557	93.56
505.773	101.56
505.99	89.56
506.207	97.56
506.423	103.56
506.64	97.56
506.856	91.56
507.073	91.56
507.289	109.56
507.506	96.56
507.722	124.56
507.939	134.56
508.155	87.56
508.372	92.56
508.588	85.56
508.805	91.56
509.021	101.56
509.238	102.56
509.454	106.56
509.67	113.56
509.887	113.56
510.103	152.56
510.319	266.56
510.536	1043.56
510.752	3790.56
510.968	985.56
511.184	200.56
511.401	124.56
511.617	119.56
511.833	119.56
512.049	111.56
512.265	100.56
512.481	107.56
