Data from Circ_1998_H10_HRD10591_00085.txt Node
Date: Wed Jan 03 11:27:05 EST 2024
User: Yrep
Spectrometer: HR+D1059
Trigger mode: 1
Integration Time (sec): 1.000000E-1
Scans to average: 1
Electric dark correction enabled: true
Nonlinearity correction enabled: false
Boxcar width: 0
XAxis mode: Wavelengths
Number of Pixels in Spectrum: 2048
>>>>>Begin Spectral Data<<<<<
223.165	-21
223.4	-21
223.635	-21
223.869	-27
224.104	-10
224.338	-18
224.573	-1
224.808	-13
225.042	-3
225.277	1
225.511	-19
225.746	10
225.98	3
226.215	17
226.449	19
226.683	14
226.918	27
227.152	21
227.387	47
227.621	51
227.856	35
228.09	22
228.324	38
228.559	52
228.793	59
229.027	65
229.262	75
229.496	80
229.73	97
229.964	92
230.199	89
230.433	80
230.667	88
230.901	79
231.136	77
231.37	83
231.604	102
231.838	78
232.072	86
232.306	85
232.541	90
232.775	83
233.009	72
233.243	92
233.477	91
233.711	82
233.945	71
234.179	87
234.413	81
234.647	87
234.881	83
235.115	71
235.349	62
235.583	74
235.817	91
236.051	97
236.285	79
236.519	74
236.753	87
236.987	86
237.221	89
237.455	97
237.689	74
237.922	78
238.156	80
238.39	84
238.624	89
238.858	77
239.091	63
239.325	73
239.559	94
239.793	79
240.027	92
240.26	96
240.494	87
240.728	86
240.961	73
241.195	84
241.429	83
241.662	72
241.896	73
242.13	77
242.363	80
242.597	96
242.83	78
243.064	76
243.298	71
243.531	76
243.765	65
243.998	85
244.232	89
244.465	85
244.699	72
244.932	78
245.166	81
245.399	76
245.633	89
245.866	91
246.099	69
246.333	63
246.566	85
246.8	71
247.033	79
247.266	84
247.5	81
247.733	71
247.966	81
248.2	76
248.433	80
248.666	88
248.899	88
249.133	78
249.366	122
249.599	109
249.832	81
250.066	76
250.299	95
250.532	87
250.765	87
250.998	93
251.231	88
251.465	77
251.698	97
251.931	89
252.164	87
252.397	85
252.63	79
252.863	83
253.096	92
253.329	69
253.562	75
253.795	88
254.028	88
254.261	86
254.494	81
254.727	90
254.96	79
255.193	85
255.426	85
255.659	96
255.892	89
256.124	104
256.357	90
256.59	90
256.823	74
257.056	91
257.289	103
257.521	85
257.754	83
257.987	90
258.22	94
258.452	106
258.685	105
258.918	101
259.151	80
259.383	84
259.616	76
259.849	76
260.081	79
260.314	103
260.547	100
260.779	105
261.012	136
261.244	150
261.477	115
261.71	110
261.942	136
262.175	157
262.407	99
262.64	74
262.872	85
263.105	102
263.337	92
263.57	80
263.802	84
264.035	80
264.267	85
264.499	76
264.732	89
264.964	87
265.197	92
265.429	83
265.661	86
265.894	79
266.126	95
266.358	78
266.591	76
266.823	78
267.055	95
267.287	85
267.52	89
267.752	99
267.984	80
268.216	79
268.448	86
268.681	89
268.913	94
269.145	83
269.377	85
269.609	89
269.841	78
270.073	87
270.306	77
270.538	95
270.77	81
271.002	78
271.234	94
271.466	110
271.698	93
271.93	88
272.162	87
272.394	80
272.626	85
272.858	86
273.09	81
273.322	85
273.553	87
273.785	84
274.017	86
274.249	86
274.481	91
274.713	88
274.945	96
275.176	100
275.408	101
275.64	137
275.872	148
276.104	104
276.335	105
276.567	127
276.799	195
277.031	247
277.262	282
277.494	219
277.726	126
277.957	120
278.189	95
278.421	76
278.652	99
278.884	85
279.115	97
279.347	104
279.579	104
279.81	169
280.042	276
280.273	399
280.505	269
280.736	114
280.968	104
281.199	92
281.431	87
281.662	94
281.894	105
282.125	110
282.356	147
282.588	203
282.819	136
283.051	106
283.282	89
283.513	98
283.745	91
283.976	90
284.207	82
284.439	99
284.67	95
284.901	71
285.132	88
285.364	99
285.595	85
285.826	84
286.057	95
286.288	76
286.52	83
286.751	95
286.982	92
287.213	94
287.444	102
287.675	101
287.906	93
288.138	85
288.369	85
288.6	85
288.831	92
289.062	82
289.293	94
289.524	95
289.755	86
289.986	82
290.217	77
290.448	83
290.679	75
290.91	101
291.141	93
291.371	103
291.602	92
291.833	94
292.064	88
292.295	89
292.526	76
292.757	83
292.987	88
293.218	90
293.449	92
293.68	83
293.91	85
294.141	87
294.372	80
294.603	79
294.833	95
295.064	96
295.295	89
295.525	105
295.756	107
295.987	158
296.217	201
296.448	169
296.679	110
296.909	89
297.14	96
297.37	86
297.601	101
297.831	88
298.062	93
298.292	89
298.523	100
298.753	89
298.984	95
299.214	94
299.445	107
299.675	97
299.905	103
300.136	99
300.366	96
300.597	109
300.827	112
301.057	113
301.288	113
301.518	105
301.748	84
301.979	103
302.209	109
302.439	102
302.669	92
302.9	91
303.13	114
303.36	112
303.59	169
303.82	197
304.051	116
304.281	103
304.511	95
304.741	86
304.971	93
305.201	95
305.431	91
305.661	86
305.891	94
306.121	100
306.352	111
306.582	126
306.812	123
307.042	152
307.272	225
307.502	245
307.731	241
307.961	168
308.191	108
308.421	89
308.651	89
308.881	92
309.111	102
309.341	98
309.571	103
309.8	112
310.03	117
310.26	105
310.49	121
310.72	119
310.949	140
311.179	109
311.409	107
311.639	105
311.868	107
312.098	108
312.328	100
312.557	129
312.787	134
313.017	132
313.246	111
313.476	94
313.706	105
313.935	106
314.165	119
314.394	126
314.624	114
314.853	109
315.083	94
315.312	98
315.542	103
315.771	100
316.001	88
316.23	98
316.46	91
316.689	93
316.919	107
317.148	109
317.377	89
317.607	103
317.836	107
318.065	85
318.295	97
318.524	90
318.753	91
318.983	90
319.212	110
319.441	133
319.67	117
319.9	97
320.129	103
320.358	105
320.587	105
320.816	126
321.046	116
321.275	103
321.504	103
321.733	112
321.962	98
322.191	114
322.42	105
322.649	127
322.878	128
323.108	138
323.337	158
323.566	165
323.795	195
324.024	262
324.253	531
324.482	1204
324.71	2431
324.939	3207
325.168	1199
325.397	339
325.626	188
325.855	165
326.084	156
326.313	173
326.542	182
326.77	287
326.999	553
327.228	1212
327.457	2217
327.686	1805
327.914	720
328.143	822
328.372	1117
328.6	579
328.829	246
329.058	247
329.287	241
329.515	231
329.744	369
329.972	797
330.201	1768
330.43	2563
330.658	1097
330.887	403
331.115	251
331.344	157
331.572	134
331.801	160
332.03	143
332.258	117
332.486	126
332.715	124
332.943	120
333.172	153
333.4	147
333.629	198
333.857	320
334.085	737
334.314	1585
334.542	3292
334.771	2981
334.999	730
335.227	246
335.455	174
335.684	133
335.912	117
336.14	131
336.369	107
336.597	134
336.825	109
337.053	105
337.281	109
337.51	105
337.738	91
337.966	115
338.194	118
338.422	101
338.65	98
338.878	97
339.106	103
339.334	107
339.562	97
339.79	107
340.018	93
340.246	111
340.474	99
340.702	110
340.93	89
341.158	83
341.386	104
341.614	106
341.842	99
342.07	98
342.298	102
342.526	91
342.754	89
342.981	102
343.209	101
343.437	116
343.665	100
343.893	88
344.12	93
344.348	83
344.576	98
344.804	86
345.031	103
345.259	104
345.487	98
345.714	103
345.942	97
346.17	96
346.397	98
346.625	87
346.853	103
347.08	107
347.308	101
347.535	107
347.763	120
347.99	109
348.218	106
348.445	126
348.673	118
348.9	100
349.128	104
349.355	98
349.583	106
349.81	103
350.037	97
350.265	101
350.492	101
350.72	109
350.947	111
351.174	123
351.402	118
351.629	111
351.856	104
352.083	113
352.311	130
352.538	137
352.765	131
352.992	118
353.22	112
353.447	118
353.674	112
353.901	113
354.128	97
354.355	93
354.583	103
354.81	108
355.037	90
355.264	101
355.491	100
355.718	93
355.945	90
356.172	78
356.399	87
356.626	92
356.853	92
357.08	108
357.307	95
357.534	93
357.761	78
357.988	71
358.215	88
358.441	85
358.668	87
358.895	106
359.122	96
359.349	77
359.576	98
359.802	128
360.029	165
360.256	137
360.483	127
360.709	96
360.936	112
361.163	121
361.39	93
361.616	110
361.843	109
362.07	111
362.296	121
362.523	103
362.749	100
362.976	102
363.203	96
363.429	103
363.656	100
363.882	98
364.109	94
364.335	99
364.562	104
364.788	110
365.015	120
365.241	117
365.468	125
365.694	118
365.92	109
366.147	100
366.373	103
366.599	98
366.826	87
367.052	96
367.278	83
367.505	95
367.731	109
367.957	89
368.184	81
368.41	112
368.636	129
368.862	126
369.089	135
369.315	108
369.541	72
369.767	95
369.993	111
370.219	87
370.445	84
370.672	79
370.898	88
371.124	92
371.35	83
371.576	94
371.802	91
372.028	80
372.254	96
372.48	89
372.706	77
372.932	86
373.158	93
373.384	85
373.61	78
373.835	103
374.061	92
374.287	111
374.513	86
374.739	77
374.965	84
375.191	94
375.416	65
375.642	100
375.868	93
376.094	104
376.319	85
376.545	96
376.771	88
376.997	92
377.222	96
377.448	95
377.674	74
377.899	89
378.125	88
378.35	85
378.576	86
378.802	89
379.027	92
379.253	93
379.478	90
379.704	95
379.929	99
380.155	93
380.38	92
380.606	88
380.831	80
381.057	99
381.282	87
381.507	96
381.733	100
381.958	81
382.184	84
382.409	105
382.634	119
382.86	103
383.085	100
383.31	85
383.535	101
383.761	97
383.986	88
384.211	102
384.436	97
384.662	94
384.887	102
385.112	101
385.337	97
385.562	107
385.787	91
386.013	102
386.238	109
386.463	131
386.688	107
386.913	99
387.138	113
387.363	97
387.588	96
387.813	94
388.038	122
388.263	105
388.488	109
388.713	97
388.938	91
389.163	94
389.387	98
389.612	87
389.837	97
390.062	88
390.287	93
390.512	81
390.736	84
390.961	93
391.186	94
391.411	91
391.636	86
391.86	73
392.085	95
392.31	88
392.534	99
392.759	95
392.984	101
393.208	88
393.433	92
393.658	93
393.882	91
394.107	94
394.331	83
394.556	86
394.78	79
395.005	90
395.229	81
395.454	88
395.678	69
395.903	76
396.127	84
396.352	89
396.576	97
396.801	92
397.025	88
397.249	91
397.474	85
397.698	97
397.922	87
398.147	102
398.371	83
398.595	93
398.82	91
399.044	81
399.268	81
399.492	86
399.717	91
399.941	75
400.165	79
400.389	83
400.613	80
400.837	87
401.062	90
401.286	83
401.51	88
401.734	101
401.958	107
402.182	173
402.406	238
402.63	166
402.854	115
403.078	102
403.302	85
403.526	102
403.75	85
403.974	94
404.198	84
404.422	88
404.645	89
404.869	103
405.093	136
405.317	143
405.541	154
405.765	122
405.988	154
406.212	249
406.436	381
406.66	245
406.883	151
407.107	98
407.331	111
407.555	110
407.778	103
408.002	79
408.226	95
408.449	100
408.673	101
408.896	106
409.12	103
409.344	83
409.567	86
409.791	95
410.014	93
410.238	108
410.461	87
410.685	94
410.908	94
411.132	92
411.355	98
411.578	93
411.802	93
412.025	85
412.249	104
412.472	120
412.695	156
412.919	113
413.142	91
413.365	86
413.589	90
413.812	96
414.035	97
414.258	90
414.482	104
414.705	91
414.928	88
415.151	79
415.374	87
415.597	92
415.821	85
416.044	85
416.267	88
416.49	98
416.713	90
416.936	97
417.159	102
417.382	110
417.605	110
417.828	107
418.051	94
418.274	97
418.497	79
418.72	80
418.943	92
419.166	88
419.389	97
419.611	86
419.834	86
420.057	98
420.28	95
420.503	103
420.726	93
420.948	101
421.171	116
421.394	115
421.617	87
421.839	75
422.062	95
422.285	83
422.507	87
422.73	116
422.953	89
423.175	99
423.398	85
423.621	82
423.843	98
424.066	83
424.288	90
424.511	87
424.733	117
424.956	127
425.178	125
425.401	112
425.623	119
425.846	88
426.068	108
426.291	94
426.513	97
426.735	89
426.958	99
427.18	139
427.402	214
427.625	302
427.847	309
428.069	276
428.292	156
428.514	99
428.736	96
428.958	92
429.181	80
429.403	79
429.625	79
429.847	92
430.069	111
430.292	105
430.514	94
430.736	85
430.958	96
431.18	79
431.402	90
431.624	73
431.846	72
432.068	104
432.29	91
432.512	108
432.734	79
432.956	88
433.178	95
433.4	104
433.622	77
433.844	93
434.066	95
434.287	91
434.509	97
434.731	82
434.953	97
435.175	91
435.397	96
435.618	100
435.84	91
436.062	152
436.284	135
436.505	104
436.727	93
436.949	96
437.17	86
437.392	93
437.614	84
437.835	134
438.057	168
438.278	153
438.5	119
438.721	135
438.943	120
439.165	96
439.386	102
439.608	113
439.829	128
440.05	178
440.272	187
440.493	118
440.715	80
440.936	84
441.158	92
441.379	117
441.6	104
441.822	111
442.043	107
442.264	123
442.486	124
442.707	107
442.928	135
443.149	209
443.371	203
443.592	147
443.813	127
444.034	126
444.255	96
444.476	94
444.698	90
444.919	94
445.14	133
445.361	144
445.582	154
445.803	204
446.024	187
446.245	161
446.466	133
446.687	91
446.908	110
447.129	99
447.35	104
447.571	96
447.792	102
448.013	103
448.234	135
448.455	111
448.675	135
448.896	146
449.117	113
449.338	125
449.559	154
449.779	138
450	104
450.221	85
450.442	96
450.662	100
450.883	131
451.104	167
451.324	123
451.545	96
451.766	85
451.986	101
452.207	90
452.428	101
452.648	107
452.869	144
453.089	142
453.31	160
453.53	116
453.751	105
453.971	126
454.192	143
454.412	117
454.633	104
454.853	96
455.073	97
455.294	94
455.514	102
455.734	104
455.955	92
456.175	77
456.395	70
456.616	75
456.836	75
457.056	92
457.276	97
457.497	102
457.717	83
457.937	91
458.157	85
458.377	90
458.598	132
458.818	240
459.038	277
459.258	173
459.478	117
459.698	104
459.918	89
460.138	79
460.358	97
460.578	93
460.798	99
461.018	100
461.238	85
461.458	97
461.678	89
461.898	80
462.118	94
462.338	79
462.558	85
462.777	92
462.997	111
463.217	125
463.437	107
463.657	104
463.876	96
464.096	105
464.316	107
464.536	111
464.755	113
464.975	148
465.195	289
465.414	295
465.634	114
465.854	96
466.073	89
466.293	111
466.512	96
466.732	106
466.951	117
467.171	126
467.391	117
467.61	192
467.829	324
468.049	1014
468.268	1563
468.488	345
468.707	131
468.927	106
469.146	102
469.365	95
469.585	94
469.804	124
470.023	108
470.243	113
470.462	143
470.681	163
470.901	113
471.12	119
471.339	114
471.558	144
471.777	217
471.997	504
472.216	2017
472.435	4750
472.654	982
472.873	230
473.092	121
473.311	111
473.53	102
473.749	102
473.968	118
474.187	139
474.406	118
474.625	104
474.844	80
475.063	91
475.282	101
475.501	99
475.72	92
475.939	104
476.158	103
476.377	93
476.596	113
476.814	108
477.033	112
477.252	112
477.471	94
477.69	105
477.908	101
478.127	94
478.346	104
478.564	101
478.783	118
479.002	110
479.22	129
479.439	131
479.658	150
479.876	146
480.095	147
480.313	175
480.532	218
480.751	438
480.969	1732
481.188	7908
481.406	4443
481.624	577
481.843	178
482.061	131
482.28	117
482.498	102
482.717	111
482.935	108
483.153	95
483.372	91
483.59	96
483.808	98
484.027	102
484.245	90
484.463	107
484.681	93
484.9	92
485.118	111
485.336	121
485.554	105
485.772	100
485.99	112
486.209	101
486.427	111
486.645	136
486.863	131
487.081	119
487.299	118
487.517	102
487.735	96
487.953	106
488.171	109
488.389	98
488.607	106
488.825	94
489.043	95
489.261	91
489.479	100
489.696	88
489.914	98
490.132	107
490.35	99
490.568	87
490.786	104
491.003	87
491.221	101
491.439	104
491.657	104
491.874	97
492.092	104
492.31	107
492.527	112
492.745	110
492.963	98
493.18	83
493.398	93
493.615	93
493.833	93
494.05	90
494.268	93
494.485	83
494.703	92
494.92	90
495.138	99
495.355	100
495.573	94
495.79	98
496.008	89
496.225	93
496.442	90
496.66	103
496.877	101
497.094	78
497.312	89
497.529	96
497.746	83
497.963	87
498.181	107
498.398	100
498.615	137
498.832	125
499.049	97
499.267	90
499.484	101
499.701	93
499.918	91
500.135	104
500.352	95
500.569	83
500.786	109
501.003	82
501.22	100
501.437	96
501.654	105
501.871	133
502.088	103
502.305	95
502.522	97
502.739	106
502.956	105
503.172	97
503.389	116
503.606	136
503.823	99
504.04	99
504.256	83
504.473	100
504.69	85
504.907	106
505.123	97
505.34	84
505.557	98
505.773	101
505.99	85
506.207	90
506.423	91
506.64	105
506.856	94
507.073	85
507.289	91
507.506	119
507.722	154
507.939	140
508.155	103
508.372	104
508.588	90
508.805	93
509.021	99
509.238	94
509.454	99
509.67	109
509.887	111
510.103	169
510.319	287
510.536	1203
510.752	4366
510.968	1119
511.184	204
511.401	144
511.617	121
511.833	106
512.049	107
512.265	106
512.481	94
512.698	94
512.914	92
513.13	95
513.346	100
513.562	105
513.778	98
513.994	115
514.21	137
514.426	186
514.642	206
514.858	181
515.074	288
515.29	965
515.506	3550
515.721	1164
515.937	262
516.153	149
516.369	124
516.585	114
516.801	111
517.016	111
517.232	105
517.448	112
517.664	101
517.879	85
518.095	102
518.311	133
518.527	141
518.742	108
518.958	107
519.173	117
519.389	99
519.605	113
519.82	115
520.036	127
520.251	167
520.467	140
520.682	139
520.898	153
521.113	160
521.329	218
521.544	386
521.76	1254
521.975	5857
522.19	3418
522.406	651
522.621	183
522.836	125
523.052	122
523.267	107
523.482	122
523.698	123
523.913	160
524.128	122
524.343	107
524.559	113
524.774	89
524.989	116
525.204	145
525.419	118
525.634	91
525.849	75
526.064	94
526.28	89
526.495	73
526.71	93
526.925	77
527.14	101
527.355	99
527.57	104
527.785	96
527.999	90
528.214	76
528.429	90
528.644	92
528.859	118
529.074	112
529.289	188
529.503	343
529.718	127
529.933	107
530.148	98
530.363	104
530.577	93
530.792	95
531.007	88
531.221	99
531.436	99
531.651	96
531.865	99
532.08	95
532.295	99
532.509	97
532.724	104
532.938	91
533.153	106
533.367	93
533.582	101
533.796	105
534.011	89
534.225	84
534.44	95
534.654	88
534.868	91
535.083	102
535.297	103
535.511	114
535.726	118
535.94	108
536.154	105
536.369	107
536.583	86
536.797	92
537.011	102
537.225	94
537.44	107
537.654	96
537.868	87
538.082	93
538.296	86
538.51	88
538.724	93
538.938	105
539.153	109
539.367	140
539.581	109
539.795	91
540.009	92
540.222	105
540.436	89
540.65	95
540.864	95
541.078	93
541.292	87
541.506	93
541.72	75
541.934	96
542.147	95
542.361	80
542.575	81
542.789	105
543.002	76
543.216	95
543.43	106
543.644	100
543.857	75
544.071	84
544.285	96
544.498	103
544.712	108
544.925	99
545.139	104
545.352	90
545.566	83
545.779	95
545.993	92
546.206	93
546.42	83
546.633	84
546.847	100
547.06	88
547.274	98
547.487	89
547.7	84
547.914	89
548.127	90
548.34	79
548.554	85
548.767	85
548.98	86
549.193	91
549.407	91
549.62	90
549.833	77
550.046	78
550.259	84
550.473	92
550.686	95
550.899	89
551.112	98
551.325	98
551.538	110
551.751	99
551.964	101
552.177	86
552.39	88
552.603	93
552.816	97
553.029	92
553.242	118
553.455	119
553.667	116
553.88	116
554.093	108
554.306	142
554.519	152
554.732	106
554.944	91
555.157	88
555.37	96
555.583	92
555.795	108
556.008	93
556.221	94
556.433	98
556.646	94
556.859	93
557.071	80
557.284	100
557.496	107
557.709	98
557.921	79
558.134	79
558.346	87
558.559	84
558.771	85
558.984	101
559.196	94
559.409	79
559.621	88
559.833	98
560.046	99
560.258	129
560.47	179
560.683	117
560.895	89
561.107	96
561.32	99
561.532	88
561.744	87
561.956	94
562.168	81
562.381	87
562.593	114
562.805	107
563.017	91
563.229	90
563.441	82
563.653	108
563.865	80
564.077	97
564.289	88
564.501	96
564.713	87
564.925	99
565.137	111
565.349	109
565.561	79
565.773	79
565.985	94
566.197	91
566.408	74
566.62	96
566.832	92
567.044	93
567.255	86
567.467	88
567.679	102
567.891	83
568.102	82
568.314	92
568.526	78
568.737	98
568.949	86
569.161	77
569.372	94
569.584	100
569.795	97
570.007	133
570.218	370
570.43	166
570.641	110
570.853	75
571.064	81
571.276	92
571.487	88
571.698	92
571.91	79
572.121	95
572.333	78
572.544	87
572.755	87
572.966	99
573.178	76
573.389	94
573.6	95
573.811	81
574.023	73
574.234	81
574.445	86
574.656	73
574.867	90
575.078	83
575.289	94
575.501	94
575.712	79
575.923	110
576.134	89
576.345	71
576.556	94
576.767	85
576.978	89
577.188	96
577.399	81
577.61	95
577.821	111
578.032	129
