Data from Circ_1998_H10_HRD10591_00083.txt Node
Date: Wed Jan 03 11:27:05 EST 2024
User: Yrep
Spectrometer: HR+D1059
Trigger mode: 1
Integration Time (sec): 1.000000E-1
Scans to average: 1
Electric dark correction enabled: true
Nonlinearity correction enabled: false
Boxcar width: 0
XAxis mode: Wavelengths
Number of Pixels in Spectrum: 2048
>>>>>Begin Spectral Data<<<<<
223.165	-9.62
223.4	-9.62
223.635	-9.62
223.869	-25.62
224.104	-9.62
224.338	-14.62
224.573	-22.62
224.808	-16.62
225.042	-12.62
225.277	-2.62
225.511	-2.62
225.746	16.38
225.98	13.38
226.215	5.38
226.449	14.38
226.683	19.38
226.918	14.38
227.152	33.38
227.387	35.38
227.621	38.38
227.856	50.38
228.09	50.38
228.324	48.38
228.559	60.38
228.793	70.38
229.027	59.38
229.262	55.38
229.496	68.38
229.73	105.38
229.964	89.38
230.199	77.38
230.433	61.38
230.667	93.38
230.901	69.38
231.136	86.38
231.37	81.38
231.604	85.38
231.838	91.38
232.072	95.38
232.306	88.38
232.541	74.38
232.775	82.38
233.009	67.38
233.243	73.38
233.477	85.38
233.711	88.38
233.945	80.38
234.179	77.38
234.413	77.38
234.647	90.38
234.881	90.38
235.115	76.38
235.349	77.38
235.583	84.38
235.817	78.38
236.051	83.38
236.285	75.38
236.519	88.38
236.753	75.38
236.987	77.38
237.221	92.38
237.455	100.38
237.689	93.38
237.922	68.38
238.156	78.38
238.39	72.38
238.624	81.38
238.858	74.38
239.091	76.38
239.325	77.38
239.559	77.38
239.793	78.38
240.027	77.38
240.26	76.38
240.494	88.38
240.728	85.38
240.961	90.38
241.195	80.38
241.429	83.38
241.662	77.38
241.896	79.38
242.13	82.38
242.363	77.38
242.597	75.38
242.83	93.38
243.064	69.38
243.298	90.38
243.531	67.38
243.765	83.38
243.998	90.38
244.232	85.38
244.465	88.38
244.699	74.38
244.932	83.38
245.166	84.38
245.399	79.38
245.633	63.38
245.866	80.38
246.099	85.38
246.333	78.38
246.566	78.38
246.8	74.38
247.033	85.38
247.266	71.38
247.5	74.38
247.733	88.38
247.966	86.38
248.2	107.38
248.433	100.38
248.666	81.38
248.899	81.38
249.133	94.38
249.366	102.38
249.599	106.38
249.832	93.38
250.066	91.38
250.299	97.38
250.532	79.38
250.765	76.38
250.998	82.38
251.231	82.38
251.465	86.38
251.698	82.38
251.931	79.38
252.164	63.38
252.397	86.38
252.63	89.38
252.863	88.38
253.096	73.38
253.329	87.38
253.562	101.38
253.795	93.38
254.028	86.38
254.261	80.38
254.494	94.38
254.727	90.38
254.96	74.38
255.193	85.38
255.426	78.38
255.659	87.38
255.892	101.38
256.124	102.38
256.357	94.38
256.59	93.38
256.823	93.38
257.056	79.38
257.289	94.38
257.521	94.38
257.754	83.38
257.987	75.38
258.22	90.38
258.452	99.38
258.685	112.38
258.918	96.38
259.151	89.38
259.383	88.38
259.616	78.38
259.849	84.38
260.081	86.38
260.314	98.38
260.547	88.38
260.779	93.38
261.012	107.38
261.244	112.38
261.477	99.38
261.71	97.38
261.942	136.38
262.175	156.38
262.407	102.38
262.64	78.38
262.872	86.38
263.105	91.38
263.337	87.38
263.57	82.38
263.802	85.38
264.035	73.38
264.267	81.38
264.499	83.38
264.732	89.38
264.964	86.38
265.197	81.38
265.429	90.38
265.661	87.38
265.894	83.38
266.126	95.38
266.358	93.38
266.591	85.38
266.823	92.38
267.055	91.38
267.287	94.38
267.52	89.38
267.752	85.38
267.984	80.38
268.216	105.38
268.448	88.38
268.681	92.38
268.913	73.38
269.145	83.38
269.377	85.38
269.609	85.38
269.841	95.38
270.073	88.38
270.306	80.38
270.538	83.38
270.77	93.38
271.002	80.38
271.234	79.38
271.466	86.38
271.698	82.38
271.93	85.38
272.162	76.38
272.394	86.38
272.626	88.38
272.858	87.38
273.09	107.38
273.322	91.38
273.553	91.38
273.785	98.38
274.017	83.38
274.249	94.38
274.481	83.38
274.713	102.38
274.945	96.38
275.176	106.38
275.408	107.38
275.64	125.38
275.872	128.38
276.104	108.38
276.335	113.38
276.567	115.38
276.799	151.38
277.031	206.38
277.262	246.38
277.494	177.38
277.726	111.38
277.957	110.38
278.189	80.38
278.421	89.38
278.652	97.38
278.884	78.38
279.115	99.38
279.347	90.38
279.579	111.38
279.81	149.38
280.042	256.38
280.273	337.38
280.505	236.38
280.736	111.38
280.968	100.38
281.199	101.38
281.431	85.38
281.662	96.38
281.894	103.38
282.125	109.38
282.356	137.38
282.588	177.38
282.819	122.38
283.051	105.38
283.282	94.38
283.513	103.38
283.745	86.38
283.976	96.38
284.207	96.38
284.439	92.38
284.67	80.38
284.901	100.38
285.132	88.38
285.364	89.38
285.595	94.38
285.826	83.38
286.057	76.38
286.288	91.38
286.52	90.38
286.751	88.38
286.982	93.38
287.213	109.38
287.444	89.38
287.675	93.38
287.906	110.38
288.138	92.38
288.369	98.38
288.6	98.38
288.831	88.38
289.062	99.38
289.293	83.38
289.524	89.38
289.755	98.38
289.986	101.38
290.217	82.38
290.448	102.38
290.679	96.38
290.91	85.38
291.141	86.38
291.371	88.38
291.602	92.38
291.833	86.38
292.064	80.38
292.295	78.38
292.526	84.38
292.757	78.38
292.987	92.38
293.218	85.38
293.449	102.38
293.68	83.38
293.91	97.38
294.141	88.38
294.372	91.38
294.603	99.38
294.833	96.38
295.064	99.38
295.295	87.38
295.525	93.38
295.756	115.38
295.987	133.38
296.217	170.38
296.448	154.38
296.679	103.38
296.909	80.38
297.14	97.38
297.37	91.38
297.601	92.38
297.831	90.38
298.062	103.38
298.292	104.38
298.523	106.38
298.753	88.38
298.984	86.38
299.214	100.38
299.445	107.38
299.675	99.38
299.905	111.38
300.136	86.38
300.366	106.38
300.597	88.38
300.827	99.38
301.057	110.38
301.288	111.38
301.518	107.38
301.748	106.38
301.979	108.38
302.209	89.38
302.439	100.38
302.669	83.38
302.9	110.38
303.13	85.38
303.36	119.38
303.59	143.38
303.82	164.38
304.051	105.38
304.281	99.38
304.511	86.38
304.741	94.38
304.971	92.38
305.201	92.38
305.431	91.38
305.661	94.38
305.891	85.38
306.121	87.38
306.352	113.38
306.582	140.38
306.812	118.38
307.042	155.38
307.272	188.38
307.502	220.38
307.731	216.38
307.961	153.38
308.191	98.38
308.421	102.38
308.651	108.38
308.881	94.38
309.111	94.38
309.341	105.38
309.571	116.38
309.8	99.38
310.03	88.38
310.26	107.38
310.49	105.38
310.72	107.38
310.949	121.38
311.179	121.38
311.409	90.38
311.639	101.38
311.868	99.38
312.098	109.38
312.328	101.38
312.557	122.38
312.787	124.38
313.017	120.38
313.246	94.38
313.476	100.38
313.706	105.38
313.935	97.38
314.165	118.38
314.394	106.38
314.624	115.38
314.853	119.38
315.083	97.38
315.312	103.38
315.542	96.38
315.771	103.38
316.001	101.38
316.23	89.38
316.46	95.38
316.689	103.38
316.919	88.38
317.148	106.38
317.377	111.38
317.607	102.38
317.836	112.38
318.065	90.38
318.295	96.38
318.524	87.38
318.753	96.38
318.983	117.38
319.212	124.38
319.441	124.38
319.67	132.38
319.9	95.38
320.129	89.38
320.358	96.38
320.587	97.38
320.816	105.38
321.046	115.38
321.275	112.38
321.504	109.38
321.733	113.38
321.962	108.38
322.191	134.38
322.42	124.38
322.649	120.38
322.878	136.38
323.108	142.38
323.337	155.38
323.566	150.38
323.795	186.38
324.024	262.38
324.253	538.38
324.482	1144.38
324.71	2387.38
324.939	3159.38
325.168	1125.38
325.397	325.38
325.626	174.38
325.855	165.38
326.084	160.38
326.313	162.38
326.542	185.38
326.77	292.38
326.999	587.38
327.228	1314.38
327.457	2352.38
327.686	1885.38
327.914	675.38
328.143	713.38
328.372	945.38
328.6	513.38
328.829	228.38
329.058	200.38
329.287	237.38
329.515	225.38
329.744	348.38
329.972	716.38
330.201	1496.38
330.43	2155.38
330.658	865.38
330.887	336.38
331.115	205.38
331.344	140.38
331.572	132.38
331.801	129.38
332.03	141.38
332.258	133.38
332.486	131.38
332.715	125.38
332.943	123.38
333.172	138.38
333.4	149.38
333.629	183.38
333.857	296.38
334.085	619.38
334.314	1358.38
334.542	2710.38
334.771	2433.38
334.999	586.38
335.227	216.38
335.455	154.38
335.684	123.38
335.912	108.38
336.14	112.38
336.369	110.38
336.597	114.38
336.825	109.38
337.053	88.38
337.281	91.38
337.51	97.38
337.738	120.38
337.966	105.38
338.194	112.38
338.422	108.38
338.65	104.38
338.878	96.38
339.106	109.38
339.334	97.38
339.562	99.38
339.79	93.38
340.018	120.38
340.246	105.38
340.474	90.38
340.702	97.38
340.93	93.38
341.158	95.38
341.386	106.38
341.614	104.38
341.842	99.38
342.07	96.38
342.298	114.38
342.526	93.38
342.754	92.38
342.981	90.38
343.209	80.38
343.437	106.38
343.665	99.38
343.893	94.38
344.12	94.38
344.348	92.38
344.576	100.38
344.804	98.38
345.031	113.38
345.259	129.38
345.487	91.38
345.714	77.38
345.942	99.38
346.17	103.38
346.397	91.38
346.625	98.38
346.853	95.38
347.08	102.38
347.308	106.38
347.535	111.38
347.763	104.38
347.99	97.38
348.218	103.38
348.445	123.38
348.673	112.38
348.9	101.38
349.128	91.38
349.355	107.38
349.583	99.38
349.81	99.38
350.037	95.38
350.265	100.38
350.492	106.38
350.72	98.38
350.947	114.38
351.174	129.38
351.402	130.38
351.629	98.38
351.856	103.38
352.083	115.38
352.311	105.38
352.538	119.38
352.765	118.38
352.992	118.38
353.22	117.38
353.447	112.38
353.674	116.38
353.901	103.38
354.128	99.38
354.355	88.38
354.583	92.38
354.81	105.38
355.037	93.38
355.264	98.38
355.491	83.38
355.718	89.38
355.945	84.38
356.172	85.38
356.399	88.38
356.626	95.38
356.853	83.38
357.08	81.38
357.307	93.38
357.534	93.38
357.761	92.38
357.988	91.38
358.215	99.38
358.441	94.38
358.668	97.38
358.895	99.38
359.122	89.38
359.349	86.38
359.576	89.38
359.802	107.38
360.029	142.38
360.256	143.38
360.483	111.38
360.709	93.38
360.936	84.38
361.163	119.38
361.39	109.38
361.616	109.38
361.843	91.38
362.07	106.38
362.296	113.38
362.523	107.38
362.749	105.38
362.976	100.38
363.203	86.38
363.429	98.38
363.656	107.38
363.882	93.38
364.109	105.38
364.335	97.38
364.562	95.38
364.788	105.38
365.015	113.38
365.241	100.38
365.468	126.38
365.694	121.38
365.92	95.38
366.147	93.38
366.373	87.38
366.599	91.38
366.826	98.38
367.052	100.38
367.278	107.38
367.505	94.38
367.731	103.38
367.957	109.38
368.184	98.38
368.41	94.38
368.636	137.38
368.862	127.38
369.089	127.38
369.315	106.38
369.541	85.38
369.767	97.38
369.993	99.38
370.219	89.38
370.445	93.38
370.672	99.38
370.898	97.38
371.124	104.38
371.35	100.38
371.576	84.38
371.802	86.38
372.028	79.38
372.254	95.38
372.48	101.38
372.706	79.38
372.932	77.38
373.158	83.38
373.384	89.38
373.61	75.38
373.835	79.38
374.061	95.38
374.287	88.38
374.513	97.38
374.739	98.38
374.965	102.38
375.191	89.38
375.416	104.38
375.642	91.38
375.868	91.38
376.094	101.38
376.319	95.38
376.545	99.38
376.771	73.38
376.997	112.38
377.222	88.38
377.448	103.38
377.674	75.38
377.899	98.38
378.125	87.38
378.35	89.38
378.576	87.38
378.802	96.38
379.027	78.38
379.253	95.38
379.478	97.38
379.704	77.38
379.929	106.38
380.155	104.38
380.38	96.38
380.606	94.38
380.831	90.38
381.057	93.38
381.282	98.38
381.507	105.38
381.733	94.38
381.958	106.38
382.184	90.38
382.409	99.38
382.634	87.38
382.86	79.38
383.085	94.38
383.31	92.38
383.535	90.38
383.761	110.38
383.986	105.38
384.211	89.38
384.436	93.38
384.662	90.38
384.887	105.38
385.112	93.38
385.337	96.38
385.562	88.38
385.787	96.38
386.013	114.38
386.238	112.38
386.463	103.38
386.688	103.38
386.913	92.38
387.138	99.38
387.363	99.38
387.588	98.38
387.813	93.38
388.038	105.38
388.263	107.38
388.488	88.38
388.713	87.38
388.938	97.38
389.163	93.38
389.387	81.38
389.612	91.38
389.837	79.38
390.062	101.38
390.287	91.38
390.512	94.38
390.736	82.38
390.961	71.38
391.186	103.38
391.411	86.38
391.636	87.38
391.86	95.38
392.085	69.38
392.31	80.38
392.534	89.38
392.759	80.38
392.984	86.38
393.208	82.38
393.433	113.38
393.658	80.38
393.882	91.38
394.107	86.38
394.331	94.38
394.556	86.38
394.78	86.38
395.005	82.38
395.229	91.38
395.454	91.38
395.678	73.38
395.903	94.38
396.127	85.38
396.352	93.38
396.576	85.38
396.801	72.38
397.025	88.38
397.249	94.38
397.474	107.38
397.698	82.38
397.922	85.38
398.147	94.38
398.371	81.38
398.595	94.38
398.82	91.38
399.044	94.38
399.268	102.38
399.492	90.38
399.717	85.38
399.941	97.38
400.165	86.38
400.389	93.38
400.613	75.38
400.837	82.38
401.062	90.38
401.286	93.38
401.51	93.38
401.734	82.38
401.958	111.38
402.182	146.38
402.406	221.38
402.63	138.38
402.854	103.38
403.078	89.38
403.302	74.38
403.526	95.38
403.75	83.38
403.974	95.38
404.198	82.38
404.422	102.38
404.645	89.38
404.869	110.38
405.093	121.38
405.317	171.38
405.541	140.38
405.765	126.38
405.988	133.38
406.212	223.38
406.436	361.38
406.66	211.38
406.883	131.38
407.107	98.38
407.331	99.38
407.555	111.38
407.778	105.38
408.002	97.38
408.226	102.38
408.449	82.38
408.673	83.38
408.896	98.38
409.12	94.38
409.344	87.38
409.567	98.38
409.791	91.38
410.014	88.38
410.238	83.38
410.461	100.38
410.685	90.38
410.908	103.38
411.132	103.38
411.355	90.38
411.578	95.38
411.802	81.38
412.025	102.38
412.249	105.38
412.472	120.38
412.695	158.38
412.919	99.38
413.142	101.38
413.365	94.38
413.589	86.38
413.812	94.38
414.035	93.38
414.258	93.38
414.482	105.38
414.705	97.38
414.928	76.38
415.151	90.38
415.374	76.38
415.597	81.38
415.821	88.38
416.044	93.38
416.267	89.38
416.49	85.38
416.713	83.38
416.936	103.38
417.159	96.38
417.382	98.38
417.605	117.38
417.828	114.38
418.051	109.38
418.274	92.38
418.497	77.38
418.72	72.38
418.943	93.38
419.166	94.38
419.389	96.38
419.611	86.38
419.834	98.38
420.057	102.38
420.28	94.38
420.503	93.38
420.726	101.38
420.948	89.38
421.171	93.38
421.394	91.38
421.617	102.38
421.839	88.38
422.062	90.38
422.285	97.38
422.507	105.38
422.73	112.38
422.953	89.38
423.175	91.38
423.398	93.38
423.621	78.38
423.843	80.38
424.066	91.38
424.288	94.38
424.511	103.38
424.733	101.38
424.956	107.38
425.178	105.38
425.401	107.38
425.623	118.38
425.846	97.38
426.068	116.38
426.291	101.38
426.513	94.38
426.735	112.38
426.958	105.38
427.18	126.38
427.402	191.38
427.625	286.38
427.847	280.38
428.069	281.38
428.292	144.38
428.514	101.38
428.736	100.38
428.958	92.38
429.181	89.38
429.403	80.38
429.625	106.38
429.847	97.38
430.069	119.38
430.292	98.38
430.514	89.38
430.736	80.38
430.958	78.38
431.18	81.38
431.402	77.38
431.624	85.38
431.846	91.38
432.068	95.38
432.29	88.38
432.512	87.38
432.734	88.38
432.956	87.38
433.178	87.38
433.4	100.38
433.622	99.38
433.844	82.38
434.066	86.38
434.287	100.38
434.509	92.38
434.731	93.38
434.953	83.38
435.175	78.38
435.397	89.38
435.618	97.38
435.84	97.38
436.062	151.38
436.284	130.38
436.505	112.38
436.727	108.38
436.949	96.38
437.17	96.38
437.392	85.38
437.614	105.38
437.835	132.38
438.057	155.38
438.278	125.38
438.5	118.38
438.721	138.38
438.943	109.38
439.165	98.38
439.386	107.38
439.608	86.38
439.829	115.38
440.05	157.38
440.272	203.38
440.493	114.38
440.715	85.38
440.936	76.38
441.158	89.38
441.379	85.38
441.6	97.38
441.822	89.38
442.043	89.38
442.264	130.38
442.486	121.38
442.707	106.38
442.928	120.38
443.149	169.38
443.371	178.38
443.592	147.38
443.813	143.38
444.034	118.38
444.255	110.38
444.476	78.38
444.698	87.38
444.919	81.38
445.14	143.38
445.361	141.38
445.582	149.38
445.803	194.38
446.024	180.38
446.245	177.38
446.466	127.38
446.687	95.38
446.908	103.38
447.129	81.38
447.35	98.38
447.571	103.38
447.792	113.38
448.013	104.38
448.234	133.38
448.455	122.38
448.675	141.38
448.896	143.38
449.117	114.38
449.338	106.38
449.559	146.38
449.779	155.38
450	111.38
450.221	94.38
450.442	99.38
450.662	97.38
450.883	135.38
451.104	134.38
451.324	102.38
451.545	93.38
451.766	85.38
451.986	71.38
452.207	94.38
452.428	96.38
452.648	94.38
452.869	118.38
453.089	147.38
453.31	135.38
453.53	108.38
453.751	107.38
453.971	98.38
454.192	123.38
454.412	106.38
454.633	94.38
454.853	80.38
455.073	87.38
455.294	95.38
455.514	93.38
455.734	103.38
455.955	82.38
456.175	87.38
456.395	90.38
456.616	80.38
456.836	95.38
457.056	91.38
457.276	82.38
457.497	101.38
457.717	86.38
457.937	93.38
458.157	83.38
458.377	107.38
458.598	120.38
458.818	236.38
459.038	256.38
459.258	167.38
459.478	103.38
459.698	84.38
459.918	85.38
460.138	82.38
460.358	92.38
460.578	85.38
460.798	95.38
461.018	93.38
461.238	91.38
461.458	90.38
461.678	91.38
461.898	79.38
462.118	85.38
462.338	84.38
462.558	90.38
462.777	87.38
462.997	107.38
463.217	126.38
463.437	113.38
463.657	97.38
463.876	102.38
464.096	94.38
464.316	106.38
464.536	111.38
464.755	111.38
464.975	130.38
465.195	216.38
465.414	249.38
465.634	103.38
465.854	90.38
466.073	96.38
466.293	90.38
466.512	105.38
466.732	95.38
466.951	93.38
467.171	108.38
467.391	111.38
467.61	162.38
467.829	256.38
468.049	881.38
468.268	1297.38
468.488	284.38
468.707	118.38
468.927	96.38
469.146	97.38
469.365	82.38
469.585	90.38
469.804	113.38
470.023	112.38
470.243	115.38
470.462	139.38
470.681	139.38
470.901	111.38
471.12	109.38
471.339	115.38
471.558	126.38
471.777	182.38
471.997	430.38
472.216	1682.38
472.435	3982.38
472.654	850.38
472.873	200.38
473.092	111.38
473.311	95.38
473.53	106.38
473.749	103.38
473.968	108.38
474.187	113.38
474.406	99.38
474.625	87.38
474.844	85.38
475.063	110.38
475.282	89.38
475.501	87.38
475.72	98.38
475.939	94.38
476.158	88.38
476.377	83.38
476.596	91.38
476.814	114.38
477.033	95.38
477.252	96.38
477.471	79.38
477.69	86.38
477.908	97.38
478.127	94.38
478.346	96.38
478.564	94.38
478.783	116.38
479.002	105.38
479.22	101.38
479.439	134.38
479.658	154.38
479.876	138.38
480.095	148.38
480.313	163.38
480.532	205.38
480.751	385.38
480.969	1554.38
481.188	6798.38
481.406	3701.38
481.624	503.38
481.843	158.38
482.061	124.38
482.28	109.38
482.498	117.38
482.717	85.38
482.935	101.38
483.153	96.38
483.372	96.38
483.59	95.38
483.808	98.38
484.027	93.38
484.245	93.38
484.463	105.38
484.681	113.38
484.9	93.38
485.118	98.38
485.336	88.38
485.554	104.38
485.772	97.38
485.99	104.38
486.209	97.38
486.427	120.38
486.645	115.38
486.863	133.38
487.081	110.38
487.299	98.38
487.517	91.38
487.735	110.38
487.953	102.38
488.171	96.38
488.389	94.38
488.607	99.38
488.825	87.38
489.043	89.38
489.261	81.38
489.479	86.38
489.696	95.38
489.914	81.38
490.132	89.38
490.35	87.38
490.568	96.38
490.786	91.38
491.003	90.38
491.221	100.38
491.439	108.38
491.657	106.38
491.874	95.38
492.092	82.38
492.31	104.38
492.527	117.38
492.745	103.38
492.963	94.38
493.18	102.38
493.398	87.38
493.615	90.38
493.833	104.38
494.05	107.38
494.268	91.38
494.485	85.38
494.703	90.38
494.92	101.38
495.138	103.38
495.355	86.38
495.573	89.38
495.79	99.38
496.008	86.38
496.225	89.38
496.442	97.38
496.66	98.38
496.877	80.38
497.094	81.38
497.312	85.38
497.529	101.38
497.746	97.38
497.963	96.38
498.181	83.38
498.398	105.38
498.615	110.38
498.832	128.38
499.049	83.38
499.267	98.38
499.484	80.38
499.701	88.38
499.918	84.38
500.135	94.38
500.352	103.38
500.569	100.38
500.786	95.38
501.003	110.38
501.22	82.38
501.437	80.38
501.654	90.38
501.871	129.38
502.088	97.38
502.305	92.38
502.522	88.38
502.739	87.38
502.956	92.38
503.172	98.38
503.389	101.38
503.606	133.38
503.823	110.38
504.04	89.38
504.256	82.38
504.473	81.38
504.69	82.38
504.907	99.38
505.123	86.38
505.34	85.38
505.557	88.38
505.773	87.38
505.99	84.38
506.207	93.38
506.423	88.38
506.64	86.38
506.856	103.38
507.073	101.38
507.289	86.38
507.506	102.38
507.722	136.38
507.939	137.38
508.155	111.38
508.372	92.38
508.588	100.38
508.805	110.38
509.021	91.38
509.238	95.38
509.454	107.38
509.67	106.38
509.887	126.38
510.103	151.38
510.319	261.38
510.536	1027.38
510.752	3603.38
510.968	931.38
511.184	194.38
511.401	133.38
511.617	134.38
511.833	123.38
512.049	109.38
512.265	103.38
512.481	102.38
