Data from Circ_1998_H10_HRD10591_00070.txt Node
Date: Wed Jan 03 11:27:02 EST 2024
User: Yrep
Spectrometer: HR+D1059
Trigger mode: 1
Integration Time (sec): 1.000000E-1
Scans to average: 1
Electric dark correction enabled: true
Nonlinearity correction enabled: false
Boxcar width: 0
XAxis mode: Wavelengths
Number of Pixels in Spectrum: 2048
>>>>>Begin Spectral Data<<<<<
223.165	-16.44
223.4	-16.44
223.635	-16.44
223.869	-15.44
224.104	-18.44
224.338	-23.44
224.573	-18.44
224.808	-10.44
225.042	-20.44
225.277	-3.44
225.511	-8.44
225.746	8.56
225.98	13.56
226.215	-0.44
226.449	12.56
226.683	23.56
226.918	31.56
227.152	45.56
227.387	33.56
227.621	32.56
227.856	48.56
228.09	37.56
228.324	46.56
228.559	66.56
228.793	50.56
229.027	52.56
229.262	76.56
229.496	77.56
229.73	98.56
229.964	97.56
230.199	82.56
230.433	86.56
230.667	77.56
230.901	91.56
231.136	78.56
231.37	78.56
231.604	86.56
231.838	85.56
232.072	64.56
232.306	73.56
232.541	75.56
232.775	81.56
233.009	74.56
233.243	67.56
233.477	85.56
233.711	81.56
233.945	70.56
234.179	77.56
234.413	72.56
234.647	92.56
234.881	73.56
235.115	89.56
235.349	102.56
235.583	78.56
235.817	86.56
236.051	83.56
236.285	87.56
236.519	83.56
236.753	90.56
236.987	96.56
237.221	82.56
237.455	85.56
237.689	69.56
237.922	76.56
238.156	87.56
238.39	81.56
238.624	84.56
238.858	79.56
239.091	81.56
239.325	77.56
239.559	89.56
239.793	88.56
240.027	86.56
240.26	82.56
240.494	89.56
240.728	74.56
240.961	71.56
241.195	77.56
241.429	88.56
241.662	87.56
241.896	83.56
242.13	81.56
242.363	86.56
242.597	72.56
242.83	91.56
243.064	79.56
243.298	93.56
243.531	54.56
243.765	86.56
243.998	83.56
244.232	81.56
244.465	75.56
244.699	91.56
244.932	86.56
245.166	84.56
245.399	97.56
245.633	72.56
245.866	94.56
246.099	83.56
246.333	84.56
246.566	91.56
246.8	79.56
247.033	91.56
247.266	79.56
247.5	81.56
247.733	91.56
247.966	76.56
248.2	74.56
248.433	66.56
248.666	87.56
248.899	93.56
249.133	89.56
249.366	108.56
249.599	114.56
249.832	77.56
250.066	82.56
250.299	90.56
250.532	89.56
250.765	76.56
250.998	81.56
251.231	89.56
251.465	87.56
251.698	76.56
251.931	93.56
252.164	82.56
252.397	85.56
252.63	64.56
252.863	81.56
253.096	89.56
253.329	79.56
253.562	72.56
253.795	69.56
254.028	72.56
254.261	84.56
254.494	91.56
254.727	83.56
254.96	82.56
255.193	80.56
255.426	82.56
255.659	88.56
255.892	97.56
256.124	105.56
256.357	64.56
256.59	80.56
256.823	85.56
257.056	91.56
257.289	91.56
257.521	75.56
257.754	74.56
257.987	104.56
258.22	85.56
258.452	105.56
258.685	98.56
258.918	89.56
259.151	88.56
259.383	75.56
259.616	95.56
259.849	93.56
260.081	87.56
260.314	102.56
260.547	94.56
260.779	107.56
261.012	126.56
261.244	113.56
261.477	104.56
261.71	104.56
261.942	151.56
262.175	162.56
262.407	93.56
262.64	87.56
262.872	85.56
263.105	83.56
263.337	103.56
263.57	89.56
263.802	90.56
264.035	87.56
264.267	83.56
264.499	78.56
264.732	71.56
264.964	88.56
265.197	82.56
265.429	77.56
265.661	88.56
265.894	85.56
266.126	76.56
266.358	87.56
266.591	86.56
266.823	92.56
267.055	88.56
267.287	88.56
267.52	70.56
267.752	77.56
267.984	97.56
268.216	90.56
268.448	91.56
268.681	93.56
268.913	75.56
269.145	89.56
269.377	94.56
269.609	85.56
269.841	81.56
270.073	82.56
270.306	79.56
270.538	81.56
270.77	91.56
271.002	88.56
271.234	104.56
271.466	105.56
271.698	92.56
271.93	83.56
272.162	81.56
272.394	96.56
272.626	94.56
272.858	103.56
273.09	89.56
273.322	90.56
273.553	84.56
273.785	85.56
274.017	88.56
274.249	86.56
274.481	79.56
274.713	88.56
274.945	85.56
275.176	79.56
275.408	107.56
275.64	130.56
275.872	151.56
276.104	121.56
276.335	113.56
276.567	130.56
276.799	161.56
277.031	220.56
277.262	257.56
277.494	185.56
277.726	103.56
277.957	97.56
278.189	85.56
278.421	88.56
278.652	69.56
278.884	74.56
279.115	99.56
279.347	116.56
279.579	107.56
279.81	151.56
280.042	261.56
280.273	351.56
280.505	243.56
280.736	136.56
280.968	104.56
281.199	97.56
281.431	97.56
281.662	92.56
281.894	94.56
282.125	122.56
282.356	146.56
282.588	201.56
282.819	149.56
283.051	93.56
283.282	81.56
283.513	97.56
283.745	86.56
283.976	81.56
284.207	96.56
284.439	83.56
284.67	79.56
284.901	87.56
285.132	87.56
285.364	98.56
285.595	84.56
285.826	95.56
286.057	96.56
286.288	91.56
286.52	93.56
286.751	91.56
286.982	93.56
287.213	85.56
287.444	93.56
287.675	79.56
287.906	85.56
288.138	90.56
288.369	105.56
288.6	96.56
288.831	62.56
289.062	93.56
289.293	88.56
289.524	90.56
289.755	83.56
289.986	82.56
290.217	78.56
290.448	81.56
290.679	82.56
290.91	92.56
291.141	80.56
291.371	84.56
291.602	91.56
291.833	83.56
292.064	91.56
292.295	86.56
292.526	85.56
292.757	100.56
292.987	89.56
293.218	98.56
293.449	74.56
293.68	94.56
293.91	94.56
294.141	98.56
294.372	103.56
294.603	70.56
294.833	97.56
295.064	85.56
295.295	95.56
295.525	87.56
295.756	94.56
295.987	150.56
296.217	193.56
296.448	149.56
296.679	107.56
296.909	97.56
297.14	84.56
297.37	96.56
297.601	106.56
297.831	87.56
298.062	99.56
298.292	99.56
298.523	104.56
298.753	89.56
298.984	97.56
299.214	81.56
299.445	97.56
299.675	98.56
299.905	90.56
300.136	97.56
300.366	83.56
300.597	90.56
300.827	101.56
301.057	111.56
301.288	123.56
301.518	108.56
301.748	103.56
301.979	112.56
302.209	106.56
302.439	105.56
302.669	90.56
302.9	77.56
303.13	94.56
303.36	94.56
303.59	152.56
303.82	157.56
304.051	122.56
304.281	111.56
304.511	99.56
304.741	91.56
304.971	74.56
305.201	79.56
305.431	80.56
305.661	91.56
305.891	104.56
306.121	99.56
306.352	106.56
306.582	120.56
306.812	109.56
307.042	129.56
307.272	187.56
307.502	209.56
307.731	215.56
307.961	150.56
308.191	110.56
308.421	98.56
308.651	98.56
308.881	109.56
309.111	95.56
309.341	105.56
309.571	104.56
309.8	91.56
310.03	108.56
310.26	109.56
310.49	113.56
310.72	99.56
310.949	125.56
311.179	109.56
311.409	99.56
311.639	92.56
311.868	94.56
312.098	92.56
312.328	105.56
312.557	119.56
312.787	142.56
313.017	114.56
313.246	88.56
313.476	93.56
313.706	97.56
313.935	93.56
314.165	106.56
314.394	109.56
314.624	107.56
314.853	95.56
315.083	89.56
315.312	90.56
315.542	95.56
315.771	94.56
316.001	92.56
316.23	87.56
316.46	111.56
316.689	85.56
316.919	94.56
317.148	104.56
317.377	97.56
317.607	93.56
317.836	94.56
318.065	102.56
318.295	89.56
318.524	94.56
318.753	94.56
318.983	96.56
319.212	110.56
319.441	138.56
319.67	118.56
319.9	103.56
320.129	93.56
320.358	105.56
320.587	106.56
320.816	109.56
321.046	111.56
321.275	100.56
321.504	97.56
321.733	98.56
321.962	106.56
322.191	93.56
322.42	103.56
322.649	129.56
322.878	120.56
323.108	131.56
323.337	138.56
323.566	163.56
323.795	170.56
324.024	243.56
324.253	490.56
324.482	1045.56
324.71	2121.56
324.939	2839.56
325.168	1087.56
325.397	324.56
325.626	190.56
325.855	145.56
326.084	122.56
326.313	162.56
326.542	175.56
326.77	265.56
326.999	503.56
327.228	1046.56
327.457	1963.56
327.686	1669.56
327.914	645.56
328.143	704.56
328.372	945.56
328.6	502.56
328.829	233.56
329.058	224.56
329.287	224.56
329.515	223.56
329.744	307.56
329.972	647.56
330.201	1401.56
330.43	2034.56
330.658	890.56
330.887	361.56
331.115	224.56
331.344	141.56
331.572	139.56
331.801	136.56
332.03	146.56
332.258	117.56
332.486	118.56
332.715	121.56
332.943	112.56
333.172	134.56
333.4	140.56
333.629	184.56
333.857	285.56
334.085	570.56
334.314	1181.56
334.542	2488.56
334.771	2380.56
334.999	575.56
335.227	201.56
335.455	135.56
335.684	116.56
335.912	121.56
336.14	118.56
336.369	105.56
336.597	121.56
336.825	96.56
337.053	96.56
337.281	95.56
337.51	98.56
337.738	96.56
337.966	92.56
338.194	118.56
338.422	109.56
338.65	102.56
338.878	96.56
339.106	91.56
339.334	105.56
339.562	96.56
339.79	98.56
340.018	96.56
340.246	95.56
340.474	98.56
340.702	104.56
340.93	96.56
341.158	97.56
341.386	113.56
341.614	113.56
341.842	110.56
342.07	106.56
342.298	102.56
342.526	88.56
342.754	79.56
342.981	89.56
343.209	91.56
343.437	102.56
343.665	84.56
343.893	94.56
344.12	96.56
344.348	103.56
344.576	92.56
344.804	108.56
345.031	116.56
345.259	111.56
345.487	99.56
345.714	91.56
345.942	92.56
346.17	103.56
346.397	81.56
346.625	91.56
346.853	106.56
347.08	92.56
347.308	103.56
347.535	93.56
347.763	105.56
347.99	105.56
348.218	115.56
348.445	110.56
348.673	126.56
348.9	95.56
349.128	105.56
349.355	89.56
349.583	89.56
349.81	107.56
350.037	90.56
350.265	98.56
350.492	94.56
350.72	98.56
350.947	125.56
351.174	115.56
351.402	129.56
351.629	109.56
351.856	115.56
352.083	111.56
352.311	115.56
352.538	129.56
352.765	122.56
352.992	101.56
353.22	120.56
353.447	105.56
353.674	94.56
353.901	90.56
354.128	93.56
354.355	102.56
354.583	86.56
354.81	91.56
355.037	90.56
355.264	88.56
355.491	105.56
355.718	89.56
355.945	103.56
356.172	91.56
356.399	96.56
356.626	83.56
356.853	81.56
357.08	79.56
357.307	95.56
357.534	77.56
357.761	86.56
357.988	78.56
358.215	73.56
358.441	93.56
358.668	93.56
358.895	97.56
359.122	90.56
359.349	80.56
359.576	99.56
359.802	121.56
360.029	149.56
360.256	167.56
360.483	126.56
360.709	96.56
360.936	89.56
361.163	91.56
361.39	115.56
361.616	88.56
361.843	94.56
362.07	105.56
362.296	119.56
362.523	84.56
362.749	96.56
362.976	89.56
363.203	89.56
363.429	79.56
363.656	108.56
363.882	98.56
364.109	99.56
364.335	100.56
364.562	88.56
364.788	105.56
365.015	98.56
365.241	109.56
365.468	120.56
365.694	135.56
365.92	115.56
366.147	95.56
366.373	86.56
366.599	84.56
366.826	83.56
367.052	95.56
367.278	85.56
367.505	102.56
367.731	111.56
367.957	94.56
368.184	86.56
368.41	103.56
368.636	129.56
368.862	140.56
369.089	127.56
369.315	96.56
369.541	87.56
369.767	92.56
369.993	93.56
370.219	104.56
370.445	77.56
370.672	94.56
370.898	81.56
371.124	89.56
371.35	91.56
371.576	91.56
371.802	73.56
372.028	66.56
372.254	81.56
372.48	89.56
372.706	104.56
372.932	85.56
373.158	97.56
373.384	89.56
373.61	77.56
373.835	88.56
374.061	97.56
374.287	86.56
374.513	96.56
374.739	84.56
374.965	76.56
375.191	90.56
375.416	84.56
375.642	92.56
375.868	72.56
376.094	85.56
376.319	72.56
376.545	89.56
376.771	90.56
376.997	82.56
377.222	78.56
377.448	83.56
377.674	81.56
377.899	82.56
378.125	89.56
378.35	90.56
378.576	84.56
378.802	87.56
379.027	105.56
379.253	92.56
379.478	81.56
379.704	97.56
379.929	89.56
380.155	89.56
380.38	88.56
380.606	86.56
380.831	102.56
381.057	78.56
381.282	83.56
381.507	79.56
381.733	92.56
381.958	90.56
382.184	77.56
382.409	97.56
382.634	87.56
382.86	79.56
383.085	107.56
383.31	81.56
383.535	83.56
383.761	90.56
383.986	88.56
384.211	77.56
384.436	93.56
384.662	95.56
384.887	98.56
385.112	87.56
385.337	93.56
385.562	97.56
385.787	105.56
386.013	111.56
386.238	99.56
386.463	96.56
386.688	101.56
386.913	75.56
387.138	89.56
387.363	111.56
387.588	81.56
387.813	86.56
388.038	86.56
388.263	84.56
388.488	98.56
388.713	89.56
388.938	83.56
389.163	85.56
389.387	93.56
389.612	90.56
389.837	67.56
390.062	79.56
390.287	96.56
390.512	90.56
390.736	98.56
390.961	92.56
391.186	88.56
391.411	93.56
391.636	70.56
391.86	84.56
392.085	81.56
392.31	90.56
392.534	86.56
392.759	93.56
392.984	86.56
393.208	85.56
393.433	82.56
393.658	88.56
393.882	91.56
394.107	76.56
394.331	76.56
394.556	77.56
394.78	85.56
395.005	85.56
395.229	98.56
395.454	81.56
395.678	81.56
395.903	71.56
396.127	105.56
396.352	85.56
396.576	89.56
396.801	85.56
397.025	98.56
397.249	95.56
397.474	88.56
397.698	77.56
397.922	91.56
398.147	89.56
398.371	73.56
398.595	85.56
398.82	75.56
399.044	101.56
399.268	100.56
399.492	84.56
399.717	76.56
399.941	91.56
400.165	85.56
400.389	76.56
400.613	87.56
400.837	95.56
401.062	94.56
401.286	89.56
401.51	88.56
401.734	99.56
401.958	100.56
402.182	145.56
402.406	213.56
402.63	170.56
402.854	87.56
403.078	101.56
403.302	91.56
403.526	81.56
403.75	97.56
403.974	89.56
404.198	88.56
404.422	89.56
404.645	99.56
404.869	93.56
405.093	119.56
405.317	128.56
405.541	128.56
405.765	120.56
405.988	151.56
406.212	229.56
406.436	350.56
406.66	237.56
406.883	141.56
407.107	104.56
407.331	100.56
407.555	89.56
407.778	101.56
408.002	93.56
408.226	90.56
408.449	84.56
408.673	88.56
408.896	97.56
409.12	89.56
409.344	90.56
409.567	87.56
409.791	96.56
410.014	93.56
410.238	95.56
410.461	93.56
410.685	99.56
410.908	103.56
411.132	88.56
411.355	95.56
411.578	90.56
411.802	95.56
412.025	80.56
412.249	101.56
412.472	108.56
412.695	113.56
412.919	96.56
413.142	90.56
413.365	93.56
413.589	81.56
413.812	85.56
414.035	91.56
414.258	95.56
414.482	96.56
414.705	86.56
414.928	89.56
415.151	99.56
415.374	86.56
415.597	80.56
415.821	98.56
416.044	78.56
416.267	78.56
416.49	97.56
416.713	89.56
416.936	93.56
417.159	99.56
417.382	105.56
417.605	139.56
417.828	113.56
418.051	109.56
418.274	103.56
418.497	94.56
418.72	94.56
418.943	89.56
419.166	98.56
419.389	81.56
419.611	95.56
419.834	77.56
420.057	87.56
420.28	70.56
420.503	83.56
420.726	93.56
420.948	91.56
421.171	102.56
421.394	103.56
421.617	93.56
421.839	82.56
422.062	83.56
422.285	74.56
422.507	73.56
422.73	92.56
422.953	96.56
423.175	96.56
423.398	84.56
423.621	90.56
423.843	67.56
424.066	80.56
424.288	94.56
424.511	104.56
424.733	108.56
424.956	114.56
425.178	107.56
425.401	109.56
425.623	99.56
425.846	105.56
426.068	99.56
426.291	98.56
426.513	107.56
426.735	89.56
426.958	104.56
427.18	125.56
427.402	177.56
427.625	273.56
427.847	261.56
428.069	253.56
428.292	142.56
428.514	104.56
428.736	93.56
428.958	95.56
429.181	98.56
429.403	88.56
429.625	65.56
429.847	87.56
430.069	103.56
430.292	99.56
430.514	78.56
430.736	80.56
430.958	81.56
431.18	90.56
431.402	84.56
431.624	78.56
431.846	78.56
432.068	76.56
432.29	93.56
432.512	93.56
432.734	80.56
432.956	93.56
433.178	97.56
433.4	106.56
433.622	105.56
433.844	87.56
434.066	87.56
434.287	93.56
434.509	90.56
434.731	96.56
434.953	103.56
435.175	83.56
435.397	104.56
435.618	106.56
435.84	102.56
436.062	113.56
436.284	120.56
436.505	109.56
436.727	90.56
436.949	93.56
437.17	81.56
437.392	104.56
437.614	95.56
437.835	117.56
438.057	156.56
438.278	125.56
438.5	108.56
438.721	128.56
438.943	109.56
439.165	100.56
439.386	98.56
439.608	90.56
439.829	106.56
440.05	153.56
440.272	185.56
440.493	116.56
440.715	92.56
440.936	88.56
441.158	80.56
441.379	87.56
441.6	104.56
441.822	93.56
442.043	110.56
442.264	120.56
442.486	118.56
442.707	98.56
442.928	130.56
443.149	162.56
443.371	181.56
443.592	139.56
443.813	135.56
444.034	116.56
444.255	94.56
444.476	80.56
444.698	95.56
444.919	86.56
445.14	132.56
445.361	146.56
445.582	149.56
445.803	186.56
446.024	173.56
446.245	157.56
446.466	130.56
446.687	92.56
446.908	92.56
447.129	85.56
447.35	92.56
447.571	97.56
447.792	85.56
448.013	97.56
448.234	135.56
448.455	109.56
448.675	117.56
448.896	127.56
449.117	109.56
449.338	97.56
449.559	126.56
449.779	118.56
450	104.56
450.221	100.56
450.442	103.56
450.662	106.56
450.883	129.56
451.104	147.56
451.324	109.56
451.545	90.56
451.766	91.56
451.986	96.56
452.207	99.56
452.428	88.56
452.648	101.56
452.869	141.56
453.089	139.56
453.31	149.56
453.53	110.56
453.751	98.56
453.971	142.56
454.192	137.56
454.412	107.56
454.633	75.56
454.853	78.56
455.073	88.56
455.294	101.56
455.514	118.56
455.734	105.56
455.955	100.56
456.175	99.56
456.395	79.56
456.616	74.56
456.836	89.56
457.056	90.56
457.276	93.56
457.497	91.56
457.717	79.56
457.937	88.56
458.157	92.56
458.377	104.56
458.598	127.56
458.818	231.56
459.038	254.56
459.258	160.56
459.478	98.56
459.698	106.56
459.918	85.56
460.138	87.56
460.358	98.56
460.578	80.56
460.798	100.56
461.018	86.56
461.238	90.56
461.458	84.56
461.678	91.56
461.898	85.56
462.118	99.56
462.338	89.56
462.558	92.56
462.777	85.56
462.997	120.56
463.217	120.56
463.437	97.56
463.657	87.56
463.876	81.56
464.096	92.56
464.316	96.56
464.536	109.56
464.755	90.56
464.975	141.56
465.195	285.56
465.414	283.56
465.634	109.56
465.854	93.56
466.073	96.56
466.293	90.56
466.512	88.56
466.732	103.56
466.951	85.56
467.171	101.56
467.391	94.56
467.61	168.56
467.829	277.56
468.049	827.56
468.268	1289.56
468.488	311.56
468.707	121.56
468.927	117.56
469.146	87.56
469.365	91.56
469.585	99.56
469.804	116.56
470.023	126.56
470.243	110.56
470.462	114.56
470.681	150.56
470.901	115.56
471.12	109.56
471.339	122.56
471.558	137.56
471.777	194.56
471.997	371.56
472.216	1531.56
472.435	3725.56
472.654	818.56
472.873	212.56
473.092	117.56
473.311	97.56
473.53	79.56
473.749	90.56
473.968	96.56
474.187	109.56
474.406	111.56
474.625	98.56
474.844	91.56
475.063	98.56
475.282	99.56
475.501	87.56
475.72	90.56
475.939	101.56
476.158	96.56
476.377	103.56
476.596	81.56
476.814	87.56
477.033	106.56
477.252	96.56
477.471	99.56
477.69	106.56
477.908	99.56
478.127	98.56
478.346	100.56
478.564	97.56
478.783	121.56
479.002	106.56
479.22	111.56
479.439	135.56
479.658	156.56
479.876	133.56
480.095	114.56
480.313	145.56
480.532	205.56
480.751	358.56
480.969	1359.56
481.188	5968.56
481.406	3461.56
481.624	470.56
481.843	162.56
482.061	118.56
482.28	114.56
482.498	98.56
482.717	101.56
482.935	94.56
483.153	90.56
483.372	88.56
483.59	91.56
483.808	93.56
484.027	87.56
484.245	93.56
484.463	105.56
484.681	93.56
484.9	103.56
485.118	83.56
485.336	86.56
485.554	82.56
485.772	87.56
485.99	107.56
486.209	101.56
486.427	96.56
486.645	111.56
486.863	124.56
487.081	103.56
487.299	88.56
487.517	100.56
487.735	86.56
487.953	91.56
488.171	99.56
488.389	108.56
488.607	103.56
488.825	97.56
489.043	100.56
489.261	86.56
489.479	91.56
489.696	93.56
489.914	104.56
490.132	83.56
490.35	93.56
490.568	89.56
490.786	82.56
491.003	94.56
491.221	83.56
491.439	94.56
491.657	96.56
491.874	93.56
492.092	87.56
492.31	104.56
492.527	117.56
492.745	96.56
492.963	95.56
493.18	87.56
493.398	88.56
493.615	87.56
493.833	89.56
494.05	87.56
494.268	88.56
494.485	97.56
494.703	92.56
494.92	93.56
495.138	93.56
495.355	83.56
495.573	82.56
495.79	79.56
496.008	96.56
496.225	97.56
496.442	75.56
496.66	87.56
496.877	79.56
497.094	96.56
497.312	81.56
497.529	99.56
497.746	85.56
497.963	82.56
498.181	95.56
498.398	87.56
498.615	120.56
498.832	123.56
499.049	97.56
499.267	89.56
499.484	92.56
499.701	108.56
499.918	94.56
500.135	90.56
500.352	90.56
500.569	98.56
500.786	90.56
501.003	98.56
501.22	85.56
501.437	90.56
501.654	96.56
501.871	141.56
502.088	89.56
502.305	99.56
502.522	93.56
502.739	105.56
502.956	98.56
503.172	94.56
503.389	110.56
503.606	146.56
503.823	113.56
504.04	91.56
504.256	96.56
504.473	73.56
504.69	95.56
504.907	92.56
505.123	78.56
505.34	92.56
505.557	86.56
505.773	87.56
505.99	92.56
506.207	88.56
506.423	85.56
506.64	81.56
506.856	79.56
507.073	99.56
507.289	95.56
507.506	99.56
507.722	134.56
507.939	150.56
508.155	106.56
508.372	98.56
508.588	98.56
508.805	92.56
509.021	101.56
509.238	89.56
509.454	93.56
509.67	109.56
509.887	114.56
510.103	155.56
510.319	269.56
510.536	1019.56
510.752	3826.56
510.968	1047.56
511.184	217.56
511.401	130.56
511.617	116.56
511.833	119.56
512.049	106.56
512.265	99.56
512.481	93.56
512.698	97.56
512.914	93.56
513.13	102.56
513.346	94.56
