Data from Circ_1998_H10_HRD10591_00035.txt Node
Date: Wed Jan 03 11:26:55 EST 2024
User: Yrep
Spectrometer: HR+D1059
Trigger mode: 1
Integration Time (sec): 1.000000E-1
Scans to average: 1
Electric dark correction enabled: true
Nonlinearity correction enabled: false
Boxcar width: 0
XAxis mode: Wavelengths
Number of Pixels in Spectrum: 2048
>>>>>Begin Spectral Data<<<<<
223.165	-14.94
223.4	-14.94
223.635	-14.94
223.869	-18.94
224.104	-1.94
224.338	-17.94
224.573	-9.94
224.808	-25.94
225.042	-15.94
225.277	8.06
225.511	-7.94
225.746	4.06
225.98	13.06
226.215	3.06
226.449	6.06
226.683	22.06
226.918	28.06
227.152	29.06
227.387	31.06
227.621	40.06
227.856	40.06
228.09	39.06
228.324	39.06
228.559	54.06
228.793	60.06
229.027	69.06
229.262	58.06
229.496	75.06
229.73	88.06
229.964	92.06
230.199	89.06
230.433	74.06
230.667	86.06
230.901	85.06
231.136	82.06
231.37	84.06
231.604	82.06
231.838	90.06
232.072	73.06
232.306	82.06
232.541	83.06
232.775	90.06
233.009	63.06
233.243	84.06
233.477	73.06
233.711	82.06
233.945	74.06
234.179	76.06
234.413	69.06
234.647	76.06
234.881	69.06
235.115	84.06
235.349	76.06
235.583	88.06
235.817	76.06
236.051	100.06
236.285	66.06
236.519	76.06
236.753	77.06
236.987	81.06
237.221	79.06
237.455	89.06
237.689	70.06
237.922	81.06
238.156	83.06
238.39	66.06
238.624	79.06
238.858	75.06
239.091	68.06
239.325	78.06
239.559	92.06
239.793	93.06
240.027	84.06
240.26	80.06
240.494	89.06
240.728	79.06
240.961	74.06
241.195	86.06
241.429	77.06
241.662	79.06
241.896	85.06
242.13	68.06
242.363	79.06
242.597	70.06
242.83	78.06
243.064	80.06
243.298	86.06
243.531	90.06
243.765	79.06
243.998	78.06
244.232	98.06
244.465	92.06
244.699	87.06
244.932	83.06
245.166	85.06
245.399	71.06
245.633	80.06
245.866	86.06
246.099	80.06
246.333	78.06
246.566	65.06
246.8	86.06
247.033	95.06
247.266	87.06
247.5	75.06
247.733	74.06
247.966	80.06
248.2	69.06
248.433	85.06
248.666	90.06
248.899	88.06
249.133	95.06
249.366	99.06
249.599	99.06
249.832	100.06
250.066	92.06
250.299	87.06
250.532	95.06
250.765	81.06
250.998	76.06
251.231	72.06
251.465	91.06
251.698	83.06
251.931	102.06
252.164	99.06
252.397	90.06
252.63	82.06
252.863	74.06
253.096	83.06
253.329	80.06
253.562	80.06
253.795	61.06
254.028	80.06
254.261	84.06
254.494	77.06
254.727	80.06
254.96	90.06
255.193	83.06
255.426	89.06
255.659	83.06
255.892	98.06
256.124	89.06
256.357	89.06
256.59	97.06
256.823	66.06
257.056	85.06
257.289	102.06
257.521	93.06
257.754	96.06
257.987	79.06
258.22	95.06
258.452	105.06
258.685	91.06
258.918	79.06
259.151	83.06
259.383	88.06
259.616	79.06
259.849	79.06
260.081	88.06
260.314	83.06
260.547	86.06
260.779	84.06
261.012	106.06
261.244	110.06
261.477	101.06
261.71	100.06
261.942	134.06
262.175	136.06
262.407	97.06
262.64	85.06
262.872	99.06
263.105	80.06
263.337	94.06
263.57	79.06
263.802	92.06
264.035	87.06
264.267	82.06
264.499	83.06
264.732	93.06
264.964	81.06
265.197	80.06
265.429	75.06
265.661	81.06
265.894	86.06
266.126	92.06
266.358	89.06
266.591	87.06
266.823	75.06
267.055	91.06
267.287	90.06
267.52	83.06
267.752	82.06
267.984	95.06
268.216	95.06
268.448	90.06
268.681	108.06
268.913	93.06
269.145	96.06
269.377	81.06
269.609	74.06
269.841	79.06
270.073	91.06
270.306	88.06
270.538	96.06
270.77	82.06
271.002	97.06
271.234	89.06
271.466	111.06
271.698	94.06
271.93	85.06
272.162	90.06
272.394	86.06
272.626	99.06
272.858	78.06
273.09	95.06
273.322	82.06
273.553	78.06
273.785	75.06
274.017	88.06
274.249	91.06
274.481	97.06
274.713	88.06
274.945	91.06
275.176	87.06
275.408	96.06
275.64	120.06
275.872	128.06
276.104	103.06
276.335	93.06
276.567	118.06
276.799	162.06
277.031	163.06
277.262	199.06
277.494	150.06
277.726	111.06
277.957	86.06
278.189	84.06
278.421	91.06
278.652	103.06
278.884	74.06
279.115	83.06
279.347	96.06
279.579	102.06
279.81	133.06
280.042	188.06
280.273	276.06
280.505	174.06
280.736	108.06
280.968	83.06
281.199	93.06
281.431	96.06
281.662	100.06
281.894	90.06
282.125	112.06
282.356	133.06
282.588	177.06
282.819	134.06
283.051	93.06
283.282	101.06
283.513	98.06
283.745	98.06
283.976	93.06
284.207	83.06
284.439	94.06
284.67	89.06
284.901	88.06
285.132	88.06
285.364	92.06
285.595	90.06
285.826	87.06
286.057	86.06
286.288	90.06
286.52	100.06
286.751	103.06
286.982	81.06
287.213	85.06
287.444	93.06
287.675	100.06
287.906	91.06
288.138	80.06
288.369	85.06
288.6	98.06
288.831	82.06
289.062	92.06
289.293	87.06
289.524	87.06
289.755	87.06
289.986	100.06
290.217	99.06
290.448	95.06
290.679	99.06
290.91	100.06
291.141	90.06
291.371	96.06
291.602	83.06
291.833	78.06
292.064	91.06
292.295	94.06
292.526	87.06
292.757	104.06
292.987	86.06
293.218	88.06
293.449	85.06
293.68	88.06
293.91	86.06
294.141	73.06
294.372	95.06
294.603	99.06
294.833	93.06
295.064	71.06
295.295	94.06
295.525	106.06
295.756	106.06
295.987	112.06
296.217	175.06
296.448	136.06
296.679	96.06
296.909	91.06
297.14	94.06
297.37	91.06
297.601	84.06
297.831	87.06
298.062	106.06
298.292	93.06
298.523	82.06
298.753	98.06
298.984	93.06
299.214	79.06
299.445	91.06
299.675	94.06
299.905	114.06
300.136	99.06
300.366	103.06
300.597	94.06
300.827	85.06
301.057	110.06
301.288	116.06
301.518	101.06
301.748	108.06
301.979	101.06
302.209	105.06
302.439	95.06
302.669	99.06
302.9	94.06
303.13	96.06
303.36	108.06
303.59	127.06
303.82	166.06
304.051	106.06
304.281	96.06
304.511	94.06
304.741	82.06
304.971	101.06
305.201	105.06
305.431	91.06
305.661	100.06
305.891	111.06
306.121	106.06
306.352	108.06
306.582	121.06
306.812	110.06
307.042	120.06
307.272	155.06
307.502	186.06
307.731	171.06
307.961	138.06
308.191	100.06
308.421	98.06
308.651	88.06
308.881	87.06
309.111	98.06
309.341	104.06
309.571	104.06
309.8	114.06
310.03	108.06
310.26	120.06
310.49	94.06
310.72	100.06
310.949	124.06
311.179	107.06
311.409	103.06
311.639	84.06
311.868	99.06
312.098	99.06
312.328	96.06
312.557	115.06
312.787	130.06
313.017	108.06
313.246	103.06
313.476	89.06
313.706	89.06
313.935	89.06
314.165	115.06
314.394	106.06
314.624	101.06
314.853	105.06
315.083	84.06
315.312	87.06
315.542	88.06
315.771	102.06
316.001	96.06
316.23	105.06
316.46	102.06
316.689	98.06
316.919	103.06
317.148	108.06
317.377	104.06
317.607	111.06
317.836	97.06
318.065	106.06
318.295	86.06
318.524	91.06
318.753	94.06
318.983	91.06
319.212	97.06
319.441	113.06
319.67	123.06
319.9	88.06
320.129	88.06
320.358	94.06
320.587	121.06
320.816	113.06
321.046	104.06
321.275	113.06
321.504	90.06
321.733	98.06
321.962	110.06
322.191	111.06
322.42	131.06
322.649	127.06
322.878	130.06
323.108	121.06
323.337	151.06
323.566	164.06
323.795	175.06
324.024	235.06
324.253	499.06
324.482	1046.06
324.71	2230.06
324.939	2904.06
325.168	1074.06
325.397	304.06
325.626	174.06
325.855	143.06
326.084	140.06
326.313	154.06
326.542	184.06
326.77	277.06
326.999	532.06
327.228	1106.06
327.457	2102.06
327.686	1708.06
327.914	571.06
328.143	559.06
328.372	716.06
328.6	400.06
328.829	212.06
329.058	185.06
329.287	209.06
329.515	176.06
329.744	275.06
329.972	509.06
330.201	1083.06
330.43	1601.06
330.658	726.06
330.887	319.06
331.115	211.06
331.344	137.06
331.572	121.06
331.801	110.06
332.03	114.06
332.258	112.06
332.486	113.06
332.715	108.06
332.943	120.06
333.172	117.06
333.4	140.06
333.629	166.06
333.857	246.06
334.085	459.06
334.314	981.06
334.542	1954.06
334.771	1818.06
334.999	466.06
335.227	195.06
335.455	124.06
335.684	122.06
335.912	110.06
336.14	117.06
336.369	121.06
336.597	109.06
336.825	107.06
337.053	99.06
337.281	95.06
337.51	105.06
337.738	83.06
337.966	100.06
338.194	117.06
338.422	108.06
338.65	97.06
338.878	106.06
339.106	88.06
339.334	115.06
339.562	93.06
339.79	99.06
340.018	91.06
340.246	108.06
340.474	102.06
340.702	98.06
340.93	103.06
341.158	92.06
341.386	91.06
341.614	98.06
341.842	100.06
342.07	81.06
342.298	97.06
342.526	99.06
342.754	101.06
342.981	100.06
343.209	80.06
343.437	92.06
343.665	91.06
343.893	106.06
344.12	83.06
344.348	97.06
344.576	116.06
344.804	114.06
345.031	113.06
345.259	112.06
345.487	92.06
345.714	99.06
345.942	93.06
346.17	99.06
346.397	89.06
346.625	88.06
346.853	84.06
347.08	91.06
347.308	99.06
347.535	112.06
347.763	116.06
347.99	110.06
348.218	104.06
348.445	125.06
348.673	103.06
348.9	112.06
349.128	96.06
349.355	102.06
349.583	91.06
349.81	87.06
350.037	90.06
350.265	89.06
350.492	106.06
350.72	102.06
350.947	106.06
351.174	133.06
351.402	110.06
351.629	114.06
351.856	109.06
352.083	106.06
352.311	116.06
352.538	134.06
352.765	125.06
352.992	120.06
353.22	138.06
353.447	105.06
353.674	106.06
353.901	106.06
354.128	91.06
354.355	84.06
354.583	101.06
354.81	96.06
355.037	87.06
355.264	91.06
355.491	96.06
355.718	83.06
355.945	91.06
356.172	82.06
356.399	82.06
356.626	104.06
356.853	108.06
357.08	110.06
357.307	96.06
357.534	83.06
357.761	114.06
357.988	108.06
358.215	88.06
358.441	95.06
358.668	91.06
358.895	89.06
359.122	93.06
359.349	91.06
359.576	104.06
359.802	108.06
360.029	150.06
360.256	130.06
360.483	95.06
360.709	96.06
360.936	94.06
361.163	101.06
361.39	91.06
361.616	99.06
361.843	96.06
362.07	96.06
362.296	123.06
362.523	108.06
362.749	102.06
362.976	87.06
363.203	83.06
363.429	100.06
363.656	93.06
363.882	90.06
364.109	99.06
364.335	120.06
364.562	100.06
364.788	94.06
365.015	88.06
365.241	115.06
365.468	122.06
365.694	120.06
365.92	111.06
366.147	98.06
366.373	90.06
366.599	95.06
366.826	90.06
367.052	102.06
367.278	79.06
367.505	88.06
367.731	98.06
367.957	100.06
368.184	105.06
368.41	117.06
368.636	144.06
368.862	135.06
369.089	111.06
369.315	105.06
369.541	95.06
369.767	86.06
369.993	88.06
370.219	92.06
370.445	109.06
370.672	86.06
370.898	80.06
371.124	80.06
371.35	87.06
371.576	81.06
371.802	100.06
372.028	88.06
372.254	77.06
372.48	81.06
372.706	92.06
372.932	99.06
373.158	92.06
373.384	88.06
373.61	89.06
373.835	92.06
374.061	79.06
374.287	102.06
374.513	96.06
374.739	99.06
374.965	89.06
375.191	79.06
375.416	95.06
375.642	86.06
375.868	85.06
376.094	92.06
376.319	80.06
376.545	84.06
376.771	96.06
376.997	102.06
377.222	90.06
377.448	89.06
377.674	91.06
377.899	91.06
378.125	89.06
378.35	96.06
378.576	99.06
378.802	106.06
379.027	98.06
379.253	101.06
379.478	106.06
379.704	101.06
379.929	103.06
380.155	98.06
380.38	84.06
380.606	95.06
380.831	105.06
381.057	92.06
381.282	100.06
381.507	86.06
381.733	95.06
381.958	105.06
382.184	96.06
382.409	88.06
382.634	106.06
382.86	98.06
383.085	109.06
383.31	99.06
383.535	111.06
383.761	96.06
383.986	89.06
384.211	99.06
384.436	96.06
384.662	99.06
384.887	108.06
385.112	91.06
385.337	102.06
385.562	94.06
385.787	106.06
386.013	120.06
386.238	113.06
386.463	99.06
386.688	111.06
386.913	94.06
387.138	100.06
387.363	100.06
387.588	104.06
387.813	102.06
388.038	99.06
388.263	116.06
388.488	113.06
388.713	80.06
388.938	95.06
389.163	90.06
389.387	78.06
389.612	95.06
389.837	104.06
390.062	97.06
390.287	95.06
390.512	78.06
390.736	87.06
390.961	90.06
391.186	82.06
391.411	101.06
391.636	93.06
391.86	85.06
392.085	77.06
392.31	91.06
392.534	88.06
392.759	96.06
392.984	99.06
393.208	99.06
393.433	96.06
393.658	106.06
393.882	87.06
394.107	93.06
394.331	88.06
394.556	91.06
394.78	95.06
395.005	80.06
395.229	87.06
395.454	78.06
395.678	95.06
395.903	84.06
396.127	87.06
396.352	98.06
396.576	85.06
396.801	94.06
397.025	95.06
397.249	82.06
397.474	94.06
397.698	86.06
397.922	97.06
398.147	96.06
398.371	95.06
398.595	90.06
398.82	83.06
399.044	94.06
399.268	88.06
399.492	85.06
399.717	97.06
399.941	87.06
400.165	95.06
400.389	99.06
400.613	100.06
400.837	86.06
401.062	84.06
401.286	91.06
401.51	88.06
401.734	84.06
401.958	104.06
402.182	147.06
402.406	189.06
402.63	146.06
402.854	119.06
403.078	86.06
403.302	101.06
403.526	81.06
403.75	71.06
403.974	100.06
404.198	94.06
404.422	96.06
404.645	94.06
404.869	105.06
405.093	109.06
405.317	141.06
405.541	133.06
405.765	126.06
405.988	141.06
406.212	216.06
406.436	318.06
406.66	204.06
406.883	124.06
407.107	115.06
407.331	100.06
407.555	100.06
407.778	103.06
408.002	104.06
408.226	104.06
408.449	85.06
408.673	89.06
408.896	87.06
409.12	114.06
409.344	79.06
409.567	85.06
409.791	78.06
410.014	70.06
410.238	77.06
410.461	82.06
410.685	89.06
410.908	100.06
411.132	102.06
411.355	118.06
411.578	108.06
411.802	92.06
412.025	89.06
412.249	93.06
412.472	95.06
412.695	135.06
412.919	111.06
413.142	96.06
413.365	98.06
413.589	100.06
413.812	89.06
414.035	80.06
414.258	99.06
414.482	88.06
414.705	86.06
414.928	92.06
415.151	91.06
415.374	80.06
415.597	97.06
415.821	96.06
416.044	78.06
416.267	96.06
416.49	96.06
416.713	86.06
416.936	83.06
417.159	92.06
417.382	106.06
417.605	105.06
417.828	102.06
418.051	110.06
418.274	106.06
418.497	93.06
418.72	87.06
418.943	99.06
419.166	77.06
419.389	81.06
419.611	93.06
419.834	110.06
420.057	111.06
420.28	96.06
420.503	88.06
420.726	100.06
420.948	87.06
421.171	111.06
421.394	96.06
421.617	97.06
421.839	85.06
422.062	92.06
422.285	95.06
422.507	89.06
422.73	109.06
422.953	98.06
423.175	92.06
423.398	103.06
423.621	90.06
423.843	97.06
424.066	79.06
424.288	94.06
424.511	87.06
424.733	111.06
424.956	154.06
425.178	110.06
425.401	110.06
425.623	111.06
425.846	99.06
426.068	88.06
426.291	86.06
426.513	95.06
426.735	88.06
426.958	99.06
427.18	111.06
427.402	190.06
427.625	264.06
427.847	255.06
428.069	233.06
428.292	128.06
428.514	106.06
428.736	92.06
428.958	91.06
429.181	90.06
429.403	82.06
429.625	87.06
429.847	105.06
430.069	118.06
430.292	91.06
430.514	82.06
430.736	74.06
430.958	91.06
431.18	76.06
431.402	91.06
431.624	78.06
431.846	85.06
432.068	82.06
432.29	91.06
432.512	89.06
432.734	87.06
432.956	116.06
433.178	101.06
433.4	80.06
433.622	90.06
433.844	91.06
434.066	76.06
434.287	95.06
434.509	91.06
434.731	92.06
434.953	104.06
435.175	103.06
435.397	80.06
435.618	94.06
435.84	112.06
436.062	136.06
436.284	130.06
436.505	119.06
436.727	114.06
436.949	88.06
437.17	95.06
437.392	83.06
437.614	81.06
437.835	118.06
438.057	162.06
438.278	121.06
438.5	123.06
438.721	153.06
438.943	94.06
439.165	89.06
439.386	82.06
439.608	95.06
439.829	126.06
440.05	156.06
440.272	203.06
440.493	102.06
440.715	107.06
440.936	102.06
441.158	94.06
441.379	90.06
441.6	87.06
441.822	111.06
442.043	103.06
442.264	105.06
442.486	115.06
442.707	105.06
442.928	133.06
443.149	185.06
443.371	172.06
443.592	123.06
443.813	120.06
444.034	115.06
444.255	90.06
444.476	93.06
444.698	100.06
444.919	90.06
445.14	137.06
445.361	135.06
445.582	132.06
445.803	182.06
446.024	167.06
446.245	161.06
446.466	131.06
446.687	95.06
446.908	105.06
447.129	93.06
447.35	92.06
447.571	95.06
447.792	95.06
448.013	120.06
448.234	111.06
448.455	111.06
448.675	111.06
448.896	134.06
449.117	100.06
449.338	106.06
449.559	165.06
449.779	153.06
450	104.06
450.221	103.06
450.442	70.06
450.662	103.06
450.883	121.06
451.104	128.06
451.324	123.06
451.545	88.06
451.766	97.06
451.986	92.06
452.207	104.06
452.428	96.06
452.648	105.06
452.869	124.06
453.089	136.06
453.31	152.06
453.53	104.06
453.751	91.06
453.971	113.06
454.192	129.06
454.412	103.06
454.633	99.06
454.853	100.06
455.073	82.06
455.294	92.06
455.514	106.06
455.734	100.06
455.955	86.06
456.175	83.06
456.395	100.06
456.616	76.06
456.836	91.06
457.056	80.06
457.276	78.06
457.497	90.06
457.717	92.06
457.937	102.06
458.157	86.06
458.377	99.06
458.598	126.06
458.818	214.06
459.038	237.06
459.258	149.06
459.478	108.06
459.698	83.06
459.918	98.06
460.138	89.06
460.358	87.06
460.578	94.06
460.798	90.06
461.018	88.06
461.238	99.06
461.458	96.06
461.678	87.06
461.898	88.06
462.118	90.06
462.338	90.06
462.558	93.06
462.777	95.06
462.997	95.06
463.217	106.06
463.437	106.06
463.657	92.06
463.876	91.06
464.096	99.06
464.316	99.06
464.536	94.06
464.755	97.06
464.975	106.06
465.195	227.06
465.414	236.06
465.634	108.06
465.854	108.06
466.073	86.06
466.293	81.06
466.512	82.06
466.732	94.06
466.951	82.06
467.171	98.06
467.391	117.06
467.61	178.06
467.829	214.06
468.049	653.06
468.268	988.06
468.488	236.06
468.707	122.06
468.927	102.06
469.146	104.06
469.365	99.06
469.585	107.06
469.804	91.06
470.023	103.06
470.243	105.06
470.462	112.06
470.681	136.06
470.901	116.06
471.12	96.06
471.339	104.06
471.558	123.06
471.777	164.06
471.997	327.06
472.216	1256.06
472.435	2939.06
472.654	647.06
472.873	179.06
473.092	107.06
473.311	92.06
473.53	91.06
473.749	113.06
473.968	107.06
474.187	130.06
474.406	118.06
474.625	80.06
474.844	87.06
475.063	81.06
475.282	90.06
475.501	86.06
475.72	89.06
475.939	90.06
476.158	87.06
476.377	85.06
476.596	99.06
476.814	107.06
477.033	103.06
477.252	102.06
477.471	87.06
477.69	102.06
477.908	99.06
478.127	98.06
478.346	90.06
478.564	91.06
478.783	119.06
479.002	104.06
479.22	99.06
479.439	121.06
479.658	125.06
479.876	124.06
480.095	115.06
480.313	130.06
480.532	171.06
480.751	305.06
480.969	1118.06
481.188	4978.06
481.406	2807.06
481.624	409.06
481.843	152.06
482.061	115.06
482.28	107.06
482.498	104.06
482.717	99.06
482.935	94.06
483.153	112.06
483.372	96.06
483.59	99.06
483.808	80.06
484.027	102.06
484.245	97.06
484.463	105.06
484.681	96.06
484.9	83.06
485.118	104.06
485.336	99.06
485.554	99.06
485.772	108.06
485.99	98.06
486.209	107.06
486.427	106.06
486.645	131.06
486.863	140.06
487.081	124.06
487.299	118.06
487.517	88.06
487.735	96.06
487.953	98.06
488.171	95.06
488.389	110.06
488.607	114.06
488.825	104.06
489.043	86.06
489.261	88.06
489.479	86.06
489.696	88.06
489.914	81.06
490.132	81.06
490.35	106.06
490.568	93.06
490.786	104.06
491.003	93.06
491.221	99.06
491.439	94.06
491.657	91.06
491.874	96.06
492.092	94.06
492.31	99.06
492.527	91.06
492.745	103.06
492.963	95.06
493.18	91.06
493.398	99.06
493.615	106.06
493.833	91.06
494.05	104.06
494.268	99.06
494.485	97.06
494.703	86.06
494.92	85.06
495.138	88.06
495.355	98.06
495.573	89.06
495.79	91.06
496.008	102.06
496.225	77.06
496.442	96.06
496.66	96.06
496.877	95.06
497.094	81.06
497.312	102.06
497.529	92.06
497.746	94.06
497.963	104.06
498.181	90.06
498.398	98.06
498.615	120.06
498.832	117.06
499.049	98.06
499.267	92.06
499.484	94.06
499.701	91.06
499.918	97.06
500.135	95.06
500.352	87.06
500.569	89.06
500.786	91.06
501.003	94.06
501.22	86.06
501.437	80.06
501.654	88.06
501.871	120.06
502.088	102.06
502.305	98.06
502.522	95.06
502.739	96.06
502.956	86.06
503.172	107.06
503.389	120.06
503.606	131.06
503.823	105.06
504.04	94.06
504.256	99.06
504.473	81.06
504.69	88.06
504.907	83.06
505.123	98.06
505.34	82.06
505.557	94.06
505.773	84.06
505.99	99.06
506.207	99.06
506.423	98.06
506.64	99.06
506.856	88.06
507.073	88.06
507.289	105.06
507.506	106.06
507.722	134.06
507.939	140.06
508.155	106.06
508.372	115.06
508.588	91.06
508.805	99.06
509.021	107.06
509.238	90.06
509.454	97.06
509.67	105.06
509.887	118.06
510.103	150.06
510.319	243.06
510.536	960.06
510.752	3446.06
510.968	944.06
511.184	190.06
511.401	143.06
511.617	135.06
511.833	113.06
512.049	103.06
512.265	99.06
512.481	99.06
512.698	87.06
