Data from Circ_1998_H10_HRD10591_00033.txt Node
Date: Wed Jan 03 11:26:55 EST 2024
User: Yrep
Spectrometer: HR+D1059
Trigger mode: 1
Integration Time (sec): 1.000000E-1
Scans to average: 1
Electric dark correction enabled: true
Nonlinearity correction enabled: false
Boxcar width: 0
XAxis mode: Wavelengths
Number of Pixels in Spectrum: 2048
>>>>>Begin Spectral Data<<<<<
223.165	-6
223.4	-6
223.635	-6
223.869	-17
224.104	-17
224.338	-12
224.573	-21
224.808	-13
225.042	-4
225.277	-5
225.511	9
225.746	4
225.98	9
226.215	5
226.449	3
226.683	21
226.918	18
227.152	26
227.387	31
227.621	52
227.856	42
228.09	40
228.324	49
228.559	42
228.793	61
229.027	62
229.262	74
229.496	80
229.73	109
229.964	84
230.199	77
230.433	77
230.667	78
230.901	73
231.136	70
231.37	66
231.604	82
231.838	73
232.072	82
232.306	82
232.541	75
232.775	84
233.009	73
233.243	92
233.477	70
233.711	81
233.945	68
234.179	79
234.413	70
234.647	82
234.881	80
235.115	79
235.349	78
235.583	77
235.817	86
236.051	87
236.285	86
236.519	83
236.753	86
236.987	84
237.221	99
237.455	90
237.689	79
237.922	88
238.156	82
238.39	88
238.624	79
238.858	75
239.091	96
239.325	93
239.559	91
239.793	81
240.027	78
240.26	87
240.494	75
240.728	88
240.961	79
241.195	88
241.429	74
241.662	82
241.896	90
242.13	79
242.363	83
242.597	86
242.83	80
243.064	84
243.298	90
243.531	73
243.765	73
243.998	87
244.232	87
244.465	92
244.699	96
244.932	90
245.166	77
245.399	80
245.633	62
245.866	81
246.099	89
246.333	76
246.566	83
246.8	95
247.033	83
247.266	90
247.5	84
247.733	85
247.966	90
248.2	86
248.433	98
248.666	81
248.899	86
249.133	88
249.366	110
249.599	102
249.832	83
250.066	80
250.299	88
250.532	108
250.765	80
250.998	83
251.231	80
251.465	81
251.698	94
251.931	86
252.164	76
252.397	88
252.63	81
252.863	79
253.096	71
253.329	72
253.562	64
253.795	81
254.028	80
254.261	82
254.494	95
254.727	85
254.96	97
255.193	87
255.426	80
255.659	73
255.892	108
256.124	106
256.357	95
256.59	104
256.823	72
257.056	96
257.289	96
257.521	89
257.754	73
257.987	80
258.22	91
258.452	97
258.685	96
258.918	90
259.151	88
259.383	87
259.616	66
259.849	74
260.081	104
260.314	92
260.547	97
260.779	111
261.012	134
261.244	112
261.477	102
261.71	93
261.942	137
262.175	162
262.407	104
262.64	83
262.872	85
263.105	99
263.337	92
263.57	91
263.802	84
264.035	83
264.267	80
264.499	73
264.732	76
264.964	74
265.197	81
265.429	82
265.661	97
265.894	96
266.126	81
266.358	95
266.591	76
266.823	80
267.055	94
267.287	95
267.52	70
267.752	93
267.984	87
268.216	89
268.448	88
268.681	84
268.913	97
269.145	86
269.377	101
269.609	90
269.841	84
270.073	79
270.306	83
270.538	94
270.77	93
271.002	81
271.234	90
271.466	106
271.698	86
271.93	91
272.162	86
272.394	79
272.626	74
272.858	92
273.09	92
273.322	85
273.553	98
273.785	91
274.017	80
274.249	93
274.481	99
274.713	74
274.945	88
275.176	90
275.408	84
275.64	122
275.872	138
276.104	108
276.335	125
276.567	140
276.799	166
277.031	203
277.262	226
277.494	157
277.726	119
277.957	96
278.189	80
278.421	83
278.652	91
278.884	97
279.115	100
279.347	99
279.579	95
279.81	147
280.042	226
280.273	314
280.505	200
280.736	110
280.968	101
281.199	102
281.431	100
281.662	83
281.894	96
282.125	111
282.356	162
282.588	186
282.819	140
283.051	98
283.282	83
283.513	106
283.745	82
283.976	86
284.207	90
284.439	88
284.67	96
284.901	81
285.132	84
285.364	87
285.595	83
285.826	98
286.057	97
286.288	97
286.52	105
286.751	74
286.982	94
287.213	108
287.444	103
287.675	100
287.906	86
288.138	89
288.369	92
288.6	90
288.831	99
289.062	105
289.293	93
289.524	86
289.755	79
289.986	86
290.217	70
290.448	83
290.679	99
290.91	83
291.141	80
291.371	82
291.602	93
291.833	95
292.064	95
292.295	88
292.526	97
292.757	92
292.987	95
293.218	84
293.449	101
293.68	104
293.91	105
294.141	105
294.372	86
294.603	88
294.833	105
295.064	77
295.295	98
295.525	111
295.756	114
295.987	129
296.217	182
296.448	160
296.679	95
296.909	89
297.14	95
297.37	100
297.601	99
297.831	80
298.062	98
298.292	92
298.523	95
298.753	92
298.984	96
299.214	95
299.445	82
299.675	102
299.905	97
300.136	83
300.366	92
300.597	97
300.827	90
301.057	112
301.288	128
301.518	101
301.748	98
301.979	111
302.209	106
302.439	100
302.669	111
302.9	94
303.13	107
303.36	107
303.59	148
303.82	158
304.051	114
304.281	99
304.511	94
304.741	94
304.971	84
305.201	94
305.431	88
305.661	87
305.891	99
306.121	96
306.352	111
306.582	136
306.812	112
307.042	132
307.272	198
307.502	215
307.731	207
307.961	150
308.191	94
308.421	107
308.651	90
308.881	88
309.111	94
309.341	88
309.571	105
309.8	100
310.03	102
310.26	106
310.49	99
310.72	111
310.949	126
311.179	127
311.409	113
311.639	96
311.868	103
312.098	111
312.328	98
312.557	104
312.787	124
313.017	123
313.246	91
313.476	86
313.706	99
313.935	113
314.165	120
314.394	114
314.624	104
314.853	100
315.083	107
315.312	100
315.542	95
315.771	101
316.001	95
316.23	88
316.46	87
316.689	85
316.919	109
317.148	119
317.377	107
317.607	109
317.836	94
318.065	112
318.295	94
318.524	87
318.753	98
318.983	100
319.212	124
319.441	135
319.67	122
319.9	108
320.129	91
320.358	86
320.587	86
320.816	104
321.046	121
321.275	102
321.504	113
321.733	103
321.962	103
322.191	109
322.42	121
322.649	124
322.878	125
323.108	141
323.337	160
323.566	171
323.795	194
324.024	268
324.253	544
324.482	1196
324.71	2529
324.939	3360
325.168	1211
325.397	321
325.626	191
325.855	152
326.084	156
326.313	155
326.542	202
326.77	290
326.999	610
327.228	1307
327.457	2374
327.686	1915
327.914	680
328.143	669
328.372	850
328.6	468
328.829	215
329.058	220
329.287	212
329.515	210
329.744	318
329.972	643
330.201	1302
330.43	1910
330.658	814
330.887	341
331.115	213
331.344	120
331.572	118
331.801	138
332.03	131
332.258	118
332.486	114
332.715	117
332.943	116
333.172	134
333.4	139
333.629	194
333.857	273
334.085	546
334.314	1216
334.542	2328
334.771	2198
334.999	560
335.227	220
335.455	143
335.684	120
335.912	113
336.14	112
336.369	113
336.597	118
336.825	108
337.053	113
337.281	113
337.51	96
337.738	104
337.966	101
338.194	127
338.422	113
338.65	103
338.878	83
339.106	97
339.334	107
339.562	92
339.79	102
340.018	84
340.246	108
340.474	106
340.702	109
340.93	105
341.158	92
341.386	99
341.614	112
341.842	81
342.07	103
342.298	108
342.526	102
342.754	98
342.981	96
343.209	96
343.437	103
343.665	96
343.893	102
344.12	76
344.348	97
344.576	91
344.804	106
345.031	118
345.259	117
345.487	102
345.714	94
345.942	100
346.17	96
346.397	90
346.625	88
346.853	83
347.08	108
347.308	100
347.535	123
347.763	111
347.99	121
348.218	113
348.445	124
348.673	118
348.9	105
349.128	101
349.355	87
349.583	99
349.81	103
350.037	96
350.265	93
350.492	89
350.72	102
350.947	106
351.174	118
351.402	115
351.629	114
351.856	109
352.083	120
352.311	122
352.538	127
352.765	128
352.992	132
353.22	131
353.447	122
353.674	102
353.901	108
354.128	109
354.355	101
354.583	92
354.81	94
355.037	93
355.264	94
355.491	95
355.718	91
355.945	104
356.172	97
356.399	94
356.626	90
356.853	94
357.08	87
357.307	95
357.534	97
357.761	87
357.988	80
358.215	100
358.441	100
358.668	106
358.895	97
359.122	91
359.349	99
359.576	115
359.802	123
360.029	161
360.256	138
360.483	123
360.709	107
360.936	92
361.163	92
361.39	100
361.616	122
361.843	94
362.07	104
362.296	113
362.523	103
362.749	97
362.976	99
363.203	99
363.429	104
363.656	98
363.882	84
364.109	99
364.335	98
364.562	86
364.788	98
365.015	114
365.241	115
365.468	111
365.694	136
365.92	116
366.147	83
366.373	104
366.599	100
366.826	99
367.052	87
367.278	92
367.505	88
367.731	79
367.957	87
368.184	96
368.41	111
368.636	129
368.862	147
369.089	131
369.315	123
369.541	97
369.767	91
369.993	98
370.219	105
370.445	96
370.672	102
370.898	100
371.124	88
371.35	74
371.576	94
371.802	88
372.028	94
372.254	96
372.48	87
372.706	83
372.932	108
373.158	87
373.384	106
373.61	102
373.835	97
374.061	95
374.287	92
374.513	98
374.739	87
374.965	89
375.191	97
375.416	92
375.642	86
375.868	101
376.094	115
376.319	87
376.545	83
376.771	98
376.997	94
377.222	100
377.448	92
377.674	95
377.899	89
378.125	105
378.35	98
378.576	96
378.802	86
379.027	85
379.253	100
379.478	92
379.704	82
379.929	93
380.155	93
380.38	97
380.606	109
380.831	97
381.057	104
381.282	90
381.507	99
381.733	100
381.958	107
382.184	99
382.409	119
382.634	97
382.86	106
383.085	111
383.31	100
383.535	98
383.761	91
383.986	96
384.211	103
384.436	94
384.662	100
384.887	118
385.112	115
385.337	105
385.562	100
385.787	120
386.013	127
386.238	119
386.463	121
386.688	114
386.913	108
387.138	127
387.363	111
387.588	99
387.813	82
388.038	114
388.263	124
388.488	107
388.713	98
388.938	87
389.163	108
389.387	96
389.612	88
389.837	103
390.062	94
390.287	89
390.512	85
390.736	97
390.961	84
391.186	79
391.411	99
391.636	86
391.86	86
392.085	74
392.31	86
392.534	90
392.759	98
392.984	88
393.208	96
393.433	99
393.658	97
393.882	95
394.107	100
394.331	90
394.556	80
394.78	85
395.005	90
395.229	99
395.454	99
395.678	85
395.903	87
396.127	96
396.352	97
396.576	93
396.801	86
397.025	115
397.249	101
397.474	98
397.698	65
397.922	86
398.147	84
398.371	93
398.595	99
398.82	104
399.044	88
399.268	103
399.492	91
399.717	104
399.941	107
400.165	111
400.389	101
400.613	83
400.837	91
401.062	88
401.286	96
401.51	102
401.734	92
401.958	106
402.182	157
402.406	222
402.63	164
402.854	118
403.078	96
403.302	99
403.526	100
403.75	95
403.974	80
404.198	100
404.422	98
404.645	93
404.869	104
405.093	112
405.317	159
405.541	146
405.765	124
405.988	139
406.212	252
406.436	355
406.66	232
406.883	123
407.107	108
407.331	98
407.555	113
407.778	111
408.002	100
408.226	105
408.449	83
408.673	99
408.896	100
409.12	112
409.344	82
409.567	98
409.791	91
410.014	98
410.238	98
410.461	110
410.685	84
410.908	103
411.132	102
411.355	100
411.578	100
411.802	100
412.025	86
412.249	104
412.472	117
412.695	143
412.919	119
413.142	106
413.365	90
413.589	97
413.812	97
414.035	92
414.258	90
414.482	96
414.705	100
414.928	103
415.151	97
415.374	86
415.597	87
415.821	86
416.044	79
416.267	80
416.49	96
416.713	83
416.936	94
417.159	108
417.382	98
417.605	116
417.828	118
418.051	102
418.274	95
418.497	88
418.72	96
418.943	102
419.166	94
419.389	87
419.611	95
419.834	112
420.057	103
420.28	93
420.503	89
420.726	97
420.948	102
421.171	116
421.394	106
421.617	99
421.839	80
422.062	97
422.285	76
422.507	106
422.73	112
422.953	91
423.175	87
423.398	87
423.621	80
423.843	85
424.066	94
424.288	87
424.511	94
424.733	125
424.956	115
425.178	113
425.401	108
425.623	121
425.846	114
426.068	97
426.291	93
426.513	103
426.735	90
426.958	113
427.18	136
427.402	200
427.625	307
427.847	266
428.069	257
428.292	150
428.514	105
428.736	103
428.958	88
429.181	98
429.403	97
429.625	96
429.847	106
430.069	116
430.292	111
430.514	93
430.736	92
430.958	88
431.18	77
431.402	94
431.624	82
431.846	76
432.068	87
432.29	83
432.512	96
432.734	81
432.956	85
433.178	107
433.4	101
433.622	98
433.844	91
434.066	99
434.287	91
434.509	98
434.731	96
434.953	97
435.175	88
435.397	98
435.618	91
435.84	118
436.062	132
436.284	127
436.505	100
436.727	115
436.949	83
437.17	77
437.392	90
437.614	104
437.835	138
438.057	164
438.278	129
438.5	123
438.721	142
438.943	126
439.165	90
439.386	86
439.608	110
439.829	114
440.05	159
440.272	198
440.493	111
440.715	95
440.936	97
441.158	95
441.379	86
441.6	104
441.822	108
442.043	101
442.264	132
442.486	104
442.707	102
442.928	137
443.149	217
443.371	178
443.592	135
443.813	127
444.034	120
444.255	102
444.476	105
444.698	88
444.919	92
445.14	136
445.361	132
445.582	158
445.803	188
446.024	181
446.245	170
446.466	136
446.687	88
446.908	86
447.129	95
447.35	96
447.571	92
447.792	97
448.013	95
448.234	133
448.455	113
448.675	142
448.896	125
449.117	121
449.338	120
449.559	157
449.779	156
450	116
450.221	83
450.442	75
450.662	116
450.883	140
451.104	141
451.324	106
451.545	94
451.766	76
451.986	95
452.207	79
452.428	92
452.648	122
452.869	131
453.089	136
453.31	146
453.53	113
453.751	100
453.971	120
454.192	148
454.412	97
454.633	102
454.853	94
455.073	97
455.294	100
455.514	111
455.734	105
455.955	97
456.175	92
456.395	82
456.616	93
456.836	82
457.056	95
457.276	83
457.497	82
457.717	92
457.937	92
458.157	83
458.377	106
458.598	150
458.818	228
459.038	261
459.258	183
459.478	99
459.698	106
459.918	94
460.138	78
460.358	91
460.578	100
460.798	87
461.018	91
461.238	80
461.458	68
461.678	92
461.898	89
462.118	102
462.338	82
462.558	92
462.777	92
462.997	109
463.217	125
463.437	107
463.657	94
463.876	98
464.096	96
464.316	98
464.536	120
464.755	102
464.975	141
465.195	264
465.414	255
465.634	121
465.854	81
466.073	93
466.293	110
466.512	105
466.732	90
466.951	99
467.171	103
467.391	124
467.61	162
467.829	266
468.049	766
468.268	1160
468.488	268
468.707	136
468.927	105
469.146	88
469.365	92
469.585	92
469.804	115
470.023	107
470.243	120
470.462	134
470.681	148
470.901	99
471.12	122
471.339	91
471.558	134
471.777	176
471.997	391
472.216	1501
472.435	3497
472.654	753
472.873	194
473.092	132
473.311	96
473.53	106
473.749	98
473.968	109
474.187	128
474.406	112
474.625	76
474.844	93
475.063	100
475.282	95
475.501	83
475.72	88
475.939	98
476.158	96
476.377	92
476.596	111
476.814	102
477.033	106
477.252	94
477.471	101
477.69	98
477.908	90
478.127	98
478.346	93
478.564	113
478.783	113
479.002	115
479.22	113
479.439	141
479.658	162
479.876	140
480.095	138
480.313	163
480.532	186
480.751	376
480.969	1355
481.188	5926
481.406	3315
481.624	459
481.843	161
482.061	116
482.28	118
482.498	113
482.717	109
482.935	105
483.153	86
483.372	101
483.59	104
483.808	96
484.027	107
484.245	94
484.463	94
484.681	102
484.9	95
485.118	107
485.336	96
485.554	99
485.772	105
485.99	116
486.209	126
486.427	95
486.645	121
486.863	144
487.081	120
487.299	111
487.517	110
487.735	104
487.953	95
488.171	88
488.389	98
488.607	111
488.825	102
489.043	93
489.261	107
489.479	93
489.696	88
489.914	99
490.132	91
490.35	93
490.568	78
490.786	87
491.003	96
491.221	103
491.439	119
491.657	105
491.874	94
492.092	82
492.31	93
492.527	103
492.745	97
492.963	103
493.18	98
493.398	95
493.615	106
493.833	94
494.05	84
494.268	90
494.485	93
494.703	96
494.92	101
495.138	96
495.355	106
495.573	103
495.79	95
496.008	96
496.225	96
496.442	106
496.66	112
496.877	100
497.094	107
497.312	97
497.529	106
497.746	103
497.963	92
498.181	99
498.398	119
498.615	130
498.832	109
499.049	100
499.267	104
499.484	106
499.701	89
499.918	108
500.135	93
500.352	93
500.569	76
500.786	100
501.003	92
501.22	104
501.437	100
501.654	96
501.871	130
502.088	103
502.305	98
502.522	91
502.739	86
502.956	94
503.172	111
503.389	120
503.606	155
503.823	99
504.04	100
504.256	94
504.473	92
504.69	100
504.907	82
505.123	96
505.34	92
505.557	99
505.773	107
505.99	90
506.207	92
506.423	107
506.64	99
506.856	99
507.073	106
507.289	108
507.506	109
507.722	152
507.939	127
508.155	118
508.372	110
508.588	109
508.805	100
509.021	104
509.238	95
509.454	103
509.67	121
509.887	115
510.103	136
510.319	273
510.536	1071
510.752	3904
510.968	1009
511.184	192
511.401	140
511.617	123
511.833	127
512.049	106
512.265	98
512.481	110
512.698	111
512.914	93
513.13	84
513.346	95
513.562	94
513.778	94
513.994	110
514.21	144
514.426	164
514.642	183
514.858	182
515.074	234
515.29	842
515.506	3064
515.721	1071
515.937	227
516.153	127
516.369	114
516.585	105
516.801	107
517.016	99
517.232	97
517.448	109
517.664	104
517.879	111
518.095	92
518.311	97
518.527	108
518.742	105
518.958	99
519.173	96
519.389	112
519.605	83
519.82	116
520.036	130
520.251	159
520.467	133
520.682	131
520.898	132
521.113	148
521.329	202
521.544	334
521.76	1076
521.975	5140
522.19	2997
522.406	565
522.621	173
522.836	119
523.052	101
523.267	104
523.482	94
523.698	124
523.913	169
524.128	138
524.343	111
524.559	91
524.774	74
524.989	102
525.204	114
525.419	113
525.634	100
525.849	93
526.064	100
526.28	92
526.495	103
526.71	90
526.925	94
527.14	104
527.355	103
527.57	91
527.785	104
527.999	93
528.214	93
528.429	92
528.644	104
528.859	94
529.074	107
529.289	162
529.503	316
529.718	130
529.933	87
530.148	82
530.363	106
530.577	71
530.792	104
531.007	100
531.221	93
531.436	95
531.651	92
531.865	85
532.08	94
532.295	105
532.509	96
532.724	94
532.938	92
533.153	102
533.367	102
533.582	88
533.796	86
534.011	93
534.225	101
534.44	90
534.654	83
534.868	95
535.083	103
535.297	96
535.511	116
535.726	113
535.94	104
536.154	102
536.369	91
536.583	86
536.797	92
537.011	95
537.225	86
537.44	83
537.654	92
537.868	97
538.082	111
538.296	104
538.51	99
538.724	87
538.938	94
539.153	100
539.367	132
539.581	95
539.795	101
540.009	92
540.222	104
540.436	97
540.65	85
540.864	100
541.078	96
541.292	81
541.506	95
541.72	86
541.934	87
542.147	102
542.361	74
542.575	91
542.789	97
543.002	98
543.216	103
543.43	107
543.644	107
543.857	99
544.071	95
544.285	103
544.498	83
544.712	96
544.925	102
545.139	96
545.352	94
545.566	93
545.779	92
545.993	89
546.206	95
546.42	88
546.633	97
546.847	109
547.06	98
547.274	99
547.487	75
547.7	93
547.914	88
548.127	94
548.34	75
548.554	84
548.767	87
548.98	74
549.193	88
549.407	95
549.62	83
549.833	94
550.046	87
550.259	97
550.473	87
550.686	92
550.899	103
551.112	83
551.325	112
551.538	102
551.751	104
551.964	90
552.177	96
552.39	88
552.603	81
552.816	94
553.029	90
553.242	89
553.455	107
553.667	123
553.88	119
554.093	119
554.306	114
554.519	136
554.732	111
554.944	99
555.157	88
555.37	93
555.583	92
555.795	100
556.008	116
556.221	86
556.433	90
556.646	88
556.859	91
557.071	92
557.284	95
557.496	102
557.709	102
557.921	97
558.134	87
558.346	91
558.559	86
558.771	93
558.984	70
559.196	89
559.409	92
559.621	78
559.833	91
560.046	98
560.258	122
560.47	152
560.683	102
560.895	90
561.107	103
561.32	96
561.532	99
561.744	94
561.956	93
562.168	82
562.381	99
562.593	92
562.805	88
563.017	92
563.229	99
563.441	84
563.653	106
563.865	84
564.077	97
564.289	94
564.501	92
564.713	89
564.925	94
565.137	127
565.349	98
565.561	107
565.773	92
565.985	93
566.197	78
566.408	84
566.62	90
566.832	97
567.044	98
567.255	79
567.467	96
567.679	95
567.891	85
568.102	107
568.314	82
568.526	88
568.737	79
568.949	78
569.161	78
569.372	96
569.584	94
569.795	82
570.007	136
570.218	344
570.43	176
570.641	95
570.853	84
571.064	83
571.276	85
571.487	84
571.698	90
571.91	104
572.121	95
572.333	88
572.544	82
572.755	102
572.966	84
573.178	99
573.389	98
573.6	94
573.811	82
574.023	96
574.234	87
574.445	86
574.656	95
574.867	97
575.078	90
575.289	91
575.501	91
575.712	79
575.923	88
576.134	75
576.345	72
576.556	95
576.767	99
576.978	76
577.188	96
577.399	95
577.61	108
577.821	108
578.032	135
578.243	368
