Data from Circ_1998_H10_HRD10591_00025.txt Node
Date: Wed Jan 03 11:26:53 EST 2024
User: Yrep
Spectrometer: HR+D1059
Trigger mode: 1
Integration Time (sec): 1.000000E-1
Scans to average: 1
Electric dark correction enabled: true
Nonlinearity correction enabled: false
Boxcar width: 0
XAxis mode: Wavelengths
Number of Pixels in Spectrum: 2048
>>>>>Begin Spectral Data<<<<<
223.165	-7.19
223.4	-7.19
223.635	-7.19
223.869	-13.19
224.104	-16.19
224.338	-11.19
224.573	-11.19
224.808	-14.19
225.042	-3.19
225.277	1.81
225.511	-2.19
225.746	-10.19
225.98	6.81
226.215	16.81
226.449	-1.19
226.683	13.81
226.918	19.81
227.152	30.81
227.387	31.81
227.621	35.81
227.856	55.81
228.09	44.81
228.324	47.81
228.559	55.81
228.793	62.81
229.027	48.81
229.262	84.81
229.496	75.81
229.73	107.81
229.964	85.81
230.199	74.81
230.433	72.81
230.667	78.81
230.901	71.81
231.136	73.81
231.37	87.81
231.604	76.81
231.838	79.81
232.072	69.81
232.306	87.81
232.541	85.81
232.775	86.81
233.009	82.81
233.243	65.81
233.477	79.81
233.711	64.81
233.945	93.81
234.179	88.81
234.413	86.81
234.647	101.81
234.881	77.81
235.115	89.81
235.349	69.81
235.583	79.81
235.817	84.81
236.051	63.81
236.285	87.81
236.519	78.81
236.753	68.81
236.987	65.81
237.221	83.81
237.455	91.81
237.689	87.81
237.922	72.81
238.156	71.81
238.39	83.81
238.624	72.81
238.858	70.81
239.091	77.81
239.325	81.81
239.559	61.81
239.793	83.81
240.027	83.81
240.26	61.81
240.494	84.81
240.728	87.81
240.961	69.81
241.195	69.81
241.429	74.81
241.662	71.81
241.896	71.81
242.13	77.81
242.363	77.81
242.597	69.81
242.83	78.81
243.064	87.81
243.298	69.81
243.531	67.81
243.765	84.81
243.998	91.81
244.232	88.81
244.465	99.81
244.699	95.81
244.932	75.81
245.166	75.81
245.399	75.81
245.633	79.81
245.866	84.81
246.099	74.81
246.333	74.81
246.566	84.81
246.8	78.81
247.033	64.81
247.266	81.81
247.5	78.81
247.733	73.81
247.966	88.81
248.2	79.81
248.433	91.81
248.666	86.81
248.899	77.81
249.133	95.81
249.366	121.81
249.599	96.81
249.832	74.81
250.066	89.81
250.299	93.81
250.532	87.81
250.765	79.81
250.998	82.81
251.231	75.81
251.465	86.81
251.698	79.81
251.931	88.81
252.164	75.81
252.397	85.81
252.63	93.81
252.863	84.81
253.096	88.81
253.329	77.81
253.562	82.81
253.795	84.81
254.028	85.81
254.261	71.81
254.494	93.81
254.727	82.81
254.96	77.81
255.193	74.81
255.426	82.81
255.659	85.81
255.892	90.81
256.124	96.81
256.357	79.81
256.59	86.81
256.823	64.81
257.056	87.81
257.289	77.81
257.521	73.81
257.754	88.81
257.987	98.81
258.22	94.81
258.452	96.81
258.685	88.81
258.918	100.81
259.151	91.81
259.383	77.81
259.616	86.81
259.849	87.81
260.081	74.81
260.314	78.81
260.547	101.81
260.779	85.81
261.012	88.81
261.244	99.81
261.477	99.81
261.71	81.81
261.942	118.81
262.175	137.81
262.407	87.81
262.64	94.81
262.872	101.81
263.105	89.81
263.337	84.81
263.57	81.81
263.802	77.81
264.035	88.81
264.267	92.81
264.499	72.81
264.732	82.81
264.964	79.81
265.197	86.81
265.429	67.81
265.661	77.81
265.894	73.81
266.126	77.81
266.358	83.81
266.591	91.81
266.823	75.81
267.055	86.81
267.287	75.81
267.52	73.81
267.752	93.81
267.984	85.81
268.216	87.81
268.448	80.81
268.681	77.81
268.913	93.81
269.145	83.81
269.377	91.81
269.609	83.81
269.841	84.81
270.073	84.81
270.306	77.81
270.538	78.81
270.77	102.81
271.002	76.81
271.234	88.81
271.466	89.81
271.698	95.81
271.93	97.81
272.162	100.81
272.394	91.81
272.626	92.81
272.858	78.81
273.09	90.81
273.322	83.81
273.553	86.81
273.785	89.81
274.017	73.81
274.249	77.81
274.481	88.81
274.713	91.81
274.945	82.81
275.176	105.81
275.408	88.81
275.64	110.81
275.872	125.81
276.104	111.81
276.335	104.81
276.567	119.81
276.799	143.81
277.031	156.81
277.262	205.81
277.494	135.81
277.726	87.81
277.957	82.81
278.189	81.81
278.421	82.81
278.652	90.81
278.884	79.81
279.115	96.81
279.347	96.81
279.579	93.81
279.81	130.81
280.042	192.81
280.273	240.81
280.505	173.81
280.736	108.81
280.968	95.81
281.199	93.81
281.431	90.81
281.662	87.81
281.894	76.81
282.125	108.81
282.356	123.81
282.588	160.81
282.819	131.81
283.051	102.81
283.282	94.81
283.513	97.81
283.745	97.81
283.976	79.81
284.207	89.81
284.439	89.81
284.67	85.81
284.901	93.81
285.132	80.81
285.364	89.81
285.595	78.81
285.826	85.81
286.057	83.81
286.288	86.81
286.52	93.81
286.751	81.81
286.982	80.81
287.213	91.81
287.444	90.81
287.675	99.81
287.906	75.81
288.138	83.81
288.369	95.81
288.6	87.81
288.831	83.81
289.062	87.81
289.293	91.81
289.524	96.81
289.755	83.81
289.986	92.81
290.217	87.81
290.448	82.81
290.679	88.81
290.91	88.81
291.141	76.81
291.371	73.81
291.602	84.81
291.833	86.81
292.064	86.81
292.295	88.81
292.526	92.81
292.757	88.81
292.987	84.81
293.218	87.81
293.449	93.81
293.68	85.81
293.91	102.81
294.141	94.81
294.372	85.81
294.603	80.81
294.833	88.81
295.064	86.81
295.295	88.81
295.525	83.81
295.756	103.81
295.987	131.81
296.217	176.81
296.448	131.81
296.679	97.81
296.909	96.81
297.14	75.81
297.37	92.81
297.601	82.81
297.831	85.81
298.062	104.81
298.292	80.81
298.523	78.81
298.753	96.81
298.984	90.81
299.214	99.81
299.445	85.81
299.675	94.81
299.905	102.81
300.136	95.81
300.366	79.81
300.597	87.81
300.827	86.81
301.057	108.81
301.288	109.81
301.518	97.81
301.748	96.81
301.979	116.81
302.209	105.81
302.439	96.81
302.669	93.81
302.9	81.81
303.13	101.81
303.36	97.81
303.59	135.81
303.82	139.81
304.051	91.81
304.281	85.81
304.511	107.81
304.741	85.81
304.971	73.81
305.201	100.81
305.431	95.81
305.661	110.81
305.891	92.81
306.121	96.81
306.352	102.81
306.582	118.81
306.812	107.81
307.042	114.81
307.272	151.81
307.502	182.81
307.731	169.81
307.961	115.81
308.191	98.81
308.421	77.81
308.651	97.81
308.881	106.81
309.111	93.81
309.341	95.81
309.571	104.81
309.8	104.81
310.03	103.81
310.26	95.81
310.49	108.81
310.72	92.81
310.949	117.81
311.179	111.81
311.409	92.81
311.639	92.81
311.868	106.81
312.098	98.81
312.328	109.81
312.557	103.81
312.787	131.81
313.017	111.81
313.246	92.81
313.476	94.81
313.706	90.81
313.935	110.81
314.165	94.81
314.394	124.81
314.624	99.81
314.853	86.81
315.083	92.81
315.312	96.81
315.542	97.81
315.771	84.81
316.001	91.81
316.23	93.81
316.46	102.81
316.689	91.81
316.919	77.81
317.148	101.81
317.377	90.81
317.607	104.81
317.836	101.81
318.065	101.81
318.295	92.81
318.524	97.81
318.753	93.81
318.983	95.81
319.212	103.81
319.441	115.81
319.67	121.81
319.9	97.81
320.129	103.81
320.358	94.81
320.587	88.81
320.816	108.81
321.046	104.81
321.275	109.81
321.504	90.81
321.733	103.81
321.962	96.81
322.191	101.81
322.42	104.81
322.649	137.81
322.878	110.81
323.108	133.81
323.337	173.81
323.566	165.81
323.795	187.81
324.024	257.81
324.253	562.81
324.482	1296.81
324.71	2705.81
324.939	3629.81
325.168	1269.81
325.397	349.81
325.626	184.81
325.855	151.81
326.084	154.81
326.313	161.81
326.542	201.81
326.77	305.81
326.999	659.81
327.228	1459.81
327.457	2729.81
327.686	2186.81
327.914	659.81
328.143	561.81
328.372	674.81
328.6	365.81
328.829	195.81
329.058	192.81
329.287	195.81
329.515	174.81
329.744	272.81
329.972	535.81
330.201	1079.81
330.43	1524.81
330.658	655.81
330.887	285.81
331.115	196.81
331.344	126.81
331.572	121.81
331.801	125.81
332.03	129.81
332.258	119.81
332.486	121.81
332.715	117.81
332.943	110.81
333.172	126.81
333.4	130.81
333.629	159.81
333.857	250.81
334.085	464.81
334.314	986.81
334.542	1973.81
334.771	1797.81
334.999	430.81
335.227	169.81
335.455	117.81
335.684	116.81
335.912	117.81
336.14	105.81
336.369	101.81
336.597	103.81
336.825	99.81
337.053	95.81
337.281	105.81
337.51	82.81
337.738	103.81
337.966	87.81
338.194	87.81
338.422	97.81
338.65	96.81
338.878	94.81
339.106	96.81
339.334	103.81
339.562	101.81
339.79	92.81
340.018	92.81
340.246	98.81
340.474	95.81
340.702	96.81
340.93	96.81
341.158	88.81
341.386	97.81
341.614	101.81
341.842	100.81
342.07	95.81
342.298	92.81
342.526	99.81
342.754	87.81
342.981	72.81
343.209	89.81
343.437	91.81
343.665	86.81
343.893	79.81
344.12	88.81
344.348	81.81
344.576	82.81
344.804	94.81
345.031	106.81
345.259	94.81
345.487	114.81
345.714	103.81
345.942	80.81
346.17	100.81
346.397	99.81
346.625	81.81
346.853	96.81
347.08	103.81
347.308	101.81
347.535	106.81
347.763	103.81
347.99	93.81
348.218	113.81
348.445	112.81
348.673	87.81
348.9	105.81
349.128	91.81
349.355	88.81
349.583	101.81
349.81	87.81
350.037	94.81
350.265	93.81
350.492	87.81
350.72	90.81
350.947	98.81
351.174	128.81
351.402	119.81
351.629	107.81
351.856	105.81
352.083	99.81
352.311	124.81
352.538	126.81
352.765	104.81
352.992	122.81
353.22	119.81
353.447	103.81
353.674	105.81
353.901	93.81
354.128	94.81
354.355	96.81
354.583	99.81
354.81	101.81
355.037	95.81
355.264	94.81
355.491	84.81
355.718	86.81
355.945	95.81
356.172	89.81
356.399	95.81
356.626	94.81
356.853	101.81
357.08	105.81
357.307	97.81
357.534	97.81
357.761	98.81
357.988	91.81
358.215	90.81
358.441	96.81
358.668	96.81
358.895	90.81
359.122	96.81
359.349	80.81
359.576	92.81
359.802	101.81
360.029	122.81
360.256	131.81
360.483	109.81
360.709	95.81
360.936	100.81
361.163	83.81
361.39	117.81
361.616	95.81
361.843	89.81
362.07	95.81
362.296	103.81
362.523	94.81
362.749	82.81
362.976	98.81
363.203	88.81
363.429	86.81
363.656	88.81
363.882	95.81
364.109	93.81
364.335	95.81
364.562	115.81
364.788	106.81
365.015	98.81
365.241	103.81
365.468	120.81
365.694	103.81
365.92	105.81
366.147	100.81
366.373	90.81
366.599	98.81
366.826	86.81
367.052	83.81
367.278	98.81
367.505	80.81
367.731	109.81
367.957	89.81
368.184	94.81
368.41	106.81
368.636	116.81
368.862	122.81
369.089	116.81
369.315	92.81
369.541	85.81
369.767	93.81
369.993	94.81
370.219	86.81
370.445	78.81
370.672	79.81
370.898	81.81
371.124	93.81
371.35	95.81
371.576	67.81
371.802	84.81
372.028	80.81
372.254	81.81
372.48	94.81
372.706	86.81
372.932	89.81
373.158	106.81
373.384	91.81
373.61	93.81
373.835	97.81
374.061	88.81
374.287	86.81
374.513	111.81
374.739	94.81
374.965	77.81
375.191	91.81
375.416	85.81
375.642	86.81
375.868	95.81
376.094	97.81
376.319	83.81
376.545	97.81
376.771	90.81
376.997	98.81
377.222	87.81
377.448	102.81
377.674	85.81
377.899	99.81
378.125	89.81
378.35	84.81
378.576	83.81
378.802	88.81
379.027	101.81
379.253	105.81
379.478	100.81
379.704	109.81
379.929	92.81
380.155	98.81
380.38	83.81
380.606	109.81
380.831	108.81
381.057	104.81
381.282	90.81
381.507	110.81
381.733	98.81
381.958	94.81
382.184	102.81
382.409	111.81
382.634	103.81
382.86	103.81
383.085	102.81
383.31	91.81
383.535	103.81
383.761	99.81
383.986	91.81
384.211	99.81
384.436	92.81
384.662	114.81
384.887	99.81
385.112	111.81
385.337	120.81
385.562	103.81
385.787	114.81
386.013	107.81
386.238	116.81
386.463	105.81
386.688	115.81
386.913	112.81
387.138	117.81
387.363	102.81
387.588	100.81
387.813	99.81
388.038	115.81
388.263	121.81
388.488	119.81
388.713	83.81
388.938	91.81
389.163	81.81
389.387	72.81
389.612	88.81
389.837	93.81
390.062	91.81
390.287	83.81
390.512	88.81
390.736	83.81
390.961	97.81
391.186	92.81
391.411	94.81
391.636	91.81
391.86	78.81
392.085	83.81
392.31	85.81
392.534	93.81
392.759	85.81
392.984	75.81
393.208	87.81
393.433	101.81
393.658	91.81
393.882	79.81
394.107	77.81
394.331	98.81
394.556	86.81
394.78	102.81
395.005	92.81
395.229	90.81
395.454	86.81
395.678	85.81
395.903	86.81
396.127	102.81
396.352	87.81
396.576	84.81
396.801	89.81
397.025	91.81
397.249	79.81
397.474	86.81
397.698	83.81
397.922	88.81
398.147	79.81
398.371	88.81
398.595	98.81
398.82	72.81
399.044	94.81
399.268	89.81
399.492	83.81
399.717	81.81
399.941	81.81
400.165	102.81
400.389	91.81
400.613	85.81
400.837	83.81
401.062	77.81
401.286	88.81
401.51	80.81
401.734	98.81
401.958	105.81
402.182	128.81
402.406	193.81
402.63	143.81
402.854	103.81
403.078	75.81
403.302	80.81
403.526	94.81
403.75	99.81
403.974	85.81
404.198	91.81
404.422	89.81
404.645	94.81
404.869	90.81
405.093	106.81
405.317	159.81
405.541	126.81
405.765	115.81
405.988	140.81
406.212	213.81
406.436	272.81
406.66	176.81
406.883	128.81
407.107	110.81
407.331	106.81
407.555	112.81
407.778	106.81
408.002	97.81
408.226	80.81
408.449	80.81
408.673	78.81
408.896	100.81
409.12	95.81
409.344	83.81
409.567	89.81
409.791	93.81
410.014	87.81
410.238	103.81
410.461	91.81
410.685	86.81
410.908	102.81
411.132	104.81
411.355	105.81
411.578	95.81
411.802	79.81
412.025	82.81
412.249	96.81
412.472	117.81
412.695	141.81
412.919	115.81
413.142	95.81
413.365	100.81
413.589	87.81
413.812	81.81
414.035	97.81
414.258	91.81
414.482	95.81
414.705	89.81
414.928	97.81
415.151	102.81
415.374	91.81
415.597	96.81
415.821	110.81
416.044	82.81
416.267	88.81
416.49	83.81
416.713	86.81
416.936	87.81
417.159	94.81
417.382	100.81
417.605	104.81
417.828	101.81
418.051	95.81
418.274	93.81
418.497	86.81
418.72	82.81
418.943	81.81
419.166	81.81
419.389	90.81
419.611	92.81
419.834	72.81
420.057	93.81
420.28	97.81
420.503	93.81
420.726	75.81
420.948	87.81
421.171	99.81
421.394	99.81
421.617	87.81
421.839	87.81
422.062	94.81
422.285	102.81
422.507	113.81
422.73	122.81
422.953	112.81
423.175	89.81
423.398	94.81
423.621	85.81
423.843	84.81
424.066	89.81
424.288	104.81
424.511	103.81
424.733	93.81
424.956	104.81
425.178	101.81
425.401	95.81
425.623	101.81
425.846	111.81
426.068	99.81
426.291	109.81
426.513	91.81
426.735	89.81
426.958	95.81
427.18	126.81
427.402	168.81
427.625	267.81
427.847	267.81
428.069	265.81
428.292	132.81
428.514	92.81
428.736	99.81
428.958	77.81
429.181	93.81
429.403	88.81
429.625	102.81
429.847	91.81
430.069	98.81
430.292	89.81
430.514	94.81
430.736	77.81
430.958	87.81
431.18	91.81
431.402	88.81
431.624	93.81
431.846	80.81
432.068	83.81
432.29	78.81
432.512	87.81
432.734	91.81
432.956	95.81
433.178	105.81
433.4	118.81
433.622	88.81
433.844	93.81
434.066	97.81
434.287	92.81
434.509	88.81
434.731	81.81
434.953	94.81
435.175	81.81
435.397	94.81
435.618	102.81
435.84	110.81
436.062	155.81
436.284	134.81
436.505	120.81
436.727	103.81
436.949	99.81
437.17	91.81
437.392	100.81
437.614	107.81
437.835	125.81
438.057	125.81
438.278	134.81
438.5	107.81
438.721	138.81
438.943	115.81
439.165	82.81
439.386	73.81
439.608	91.81
439.829	108.81
440.05	156.81
440.272	199.81
440.493	105.81
440.715	101.81
440.936	102.81
441.158	94.81
441.379	93.81
441.6	91.81
441.822	108.81
442.043	109.81
442.264	124.81
442.486	116.81
442.707	104.81
442.928	117.81
443.149	183.81
443.371	178.81
443.592	127.81
443.813	135.81
444.034	115.81
444.255	88.81
444.476	82.81
444.698	92.81
444.919	101.81
445.14	129.81
445.361	151.81
445.582	151.81
445.803	182.81
446.024	180.81
446.245	174.81
446.466	137.81
446.687	110.81
446.908	95.81
447.129	96.81
447.35	108.81
447.571	84.81
447.792	100.81
448.013	103.81
448.234	111.81
448.455	109.81
448.675	140.81
448.896	151.81
449.117	110.81
449.338	123.81
449.559	175.81
449.779	165.81
450	102.81
450.221	83.81
450.442	92.81
450.662	94.81
450.883	124.81
451.104	133.81
451.324	109.81
451.545	92.81
451.766	92.81
451.986	100.81
452.207	83.81
452.428	87.81
452.648	107.81
452.869	129.81
453.089	125.81
453.31	142.81
453.53	96.81
453.751	94.81
453.971	120.81
454.192	127.81
454.412	91.81
454.633	92.81
454.853	100.81
455.073	96.81
455.294	95.81
455.514	123.81
455.734	100.81
455.955	87.81
456.175	71.81
456.395	85.81
456.616	87.81
456.836	83.81
457.056	76.81
457.276	79.81
457.497	84.81
457.717	101.81
457.937	101.81
458.157	86.81
458.377	79.81
458.598	117.81
458.818	199.81
459.038	216.81
459.258	153.81
459.478	103.81
459.698	103.81
459.918	97.81
460.138	87.81
460.358	94.81
460.578	78.81
460.798	98.81
461.018	95.81
461.238	96.81
461.458	85.81
461.678	93.81
461.898	83.81
462.118	95.81
462.338	84.81
462.558	80.81
462.777	93.81
462.997	91.81
463.217	90.81
463.437	94.81
463.657	75.81
463.876	79.81
464.096	88.81
464.316	101.81
464.536	94.81
464.755	99.81
464.975	124.81
465.195	216.81
465.414	224.81
465.634	92.81
465.854	80.81
466.073	80.81
466.293	92.81
466.512	88.81
466.732	101.81
466.951	82.81
467.171	100.81
467.391	112.81
467.61	149.81
467.829	224.81
468.049	603.81
468.268	884.81
468.488	206.81
468.707	96.81
468.927	89.81
469.146	96.81
469.365	87.81
469.585	92.81
469.804	98.81
470.023	110.81
470.243	97.81
470.462	121.81
470.681	151.81
470.901	116.81
471.12	101.81
471.339	112.81
471.558	125.81
471.777	160.81
471.997	314.81
472.216	1205.81
472.435	2687.81
472.654	628.81
472.873	167.81
473.092	109.81
473.311	97.81
473.53	93.81
473.749	85.81
473.968	103.81
474.187	134.81
474.406	114.81
474.625	93.81
474.844	80.81
475.063	68.81
475.282	85.81
475.501	73.81
475.72	94.81
475.939	78.81
476.158	87.81
476.377	82.81
476.596	84.81
476.814	90.81
477.033	90.81
477.252	90.81
477.471	105.81
477.69	93.81
477.908	105.81
478.127	87.81
478.346	80.81
478.564	94.81
478.783	103.81
479.002	104.81
479.22	113.81
479.439	120.81
479.658	131.81
479.876	117.81
480.095	111.81
480.313	133.81
480.532	163.81
480.751	296.81
480.969	1114.81
481.188	4854.81
481.406	2615.81
481.624	381.81
481.843	151.81
482.061	98.81
482.28	105.81
482.498	89.81
482.717	90.81
482.935	78.81
483.153	86.81
483.372	96.81
483.59	97.81
483.808	82.81
484.027	79.81
484.245	96.81
484.463	92.81
484.681	89.81
484.9	98.81
485.118	102.81
485.336	94.81
485.554	109.81
485.772	122.81
485.99	105.81
486.209	95.81
486.427	101.81
486.645	124.81
486.863	119.81
487.081	107.81
487.299	94.81
487.517	100.81
487.735	76.81
487.953	89.81
488.171	84.81
488.389	82.81
488.607	102.81
488.825	91.81
489.043	95.81
489.261	83.81
489.479	91.81
489.696	99.81
489.914	75.81
490.132	83.81
490.35	89.81
490.568	84.81
490.786	99.81
491.003	91.81
491.221	95.81
491.439	107.81
491.657	93.81
491.874	89.81
492.092	95.81
492.31	84.81
492.527	99.81
492.745	98.81
492.963	116.81
493.18	81.81
493.398	87.81
493.615	104.81
493.833	99.81
494.05	96.81
494.268	97.81
494.485	95.81
494.703	84.81
494.92	88.81
495.138	90.81
495.355	82.81
495.573	84.81
495.79	88.81
496.008	85.81
496.225	82.81
496.442	94.81
496.66	104.81
496.877	91.81
497.094	95.81
497.312	102.81
497.529	91.81
497.746	86.81
497.963	81.81
498.181	103.81
498.398	90.81
498.615	94.81
498.832	117.81
499.049	101.81
499.267	91.81
499.484	85.81
499.701	85.81
499.918	88.81
500.135	93.81
500.352	97.81
500.569	83.81
500.786	106.81
501.003	90.81
501.22	85.81
501.437	84.81
501.654	94.81
501.871	129.81
502.088	96.81
502.305	88.81
502.522	104.81
502.739	87.81
502.956	89.81
503.172	97.81
503.389	99.81
503.606	127.81
503.823	89.81
504.04	104.81
504.256	86.81
504.473	86.81
504.69	93.81
504.907	83.81
505.123	91.81
505.34	101.81
505.557	102.81
505.773	92.81
505.99	90.81
506.207	78.81
506.423	86.81
506.64	98.81
506.856	80.81
507.073	89.81
507.289	109.81
507.506	118.81
507.722	115.81
507.939	125.81
508.155	106.81
508.372	76.81
508.588	88.81
508.805	96.81
509.021	93.81
509.238	98.81
509.454	103.81
509.67	99.81
509.887	118.81
510.103	154.81
510.319	221.81
510.536	906.81
510.752	3177.81
510.968	829.81
511.184	177.81
511.401	111.81
511.617	97.81
511.833	109.81
512.049	107.81
512.265	105.81
512.481	92.81
512.698	81.81
512.914	104.81
513.13	92.81
513.346	86.81
513.562	100.81
