Data from Circ_1998_H10_HRD10591_00028.txt Node
Date: Wed Jan 03 11:26:54 EST 2024
User: Yrep
Spectrometer: HR+D1059
Trigger mode: 1
Integration Time (sec): 1.000000E-1
Scans to average: 1
Electric dark correction enabled: true
Nonlinearity correction enabled: false
Boxcar width: 0
XAxis mode: Wavelengths
Number of Pixels in Spectrum: 2048
>>>>>Begin Spectral Data<<<<<
223.165	-16.62
223.4	-16.62
223.635	-16.62
223.869	-19.62
224.104	-10.62
224.338	-7.62
224.573	-14.62
224.808	-23.62
225.042	-19.62
225.277	2.38
225.511	-7.62
225.746	6.38
225.98	-3.62
226.215	25.38
226.449	10.38
226.683	18.38
226.918	26.38
227.152	34.38
227.387	48.38
227.621	48.38
227.856	48.38
228.09	59.38
228.324	39.38
228.559	63.38
228.793	59.38
229.027	56.38
229.262	65.38
229.496	69.38
229.73	104.38
229.964	88.38
230.199	82.38
230.433	81.38
230.667	68.38
230.901	83.38
231.136	79.38
231.37	66.38
231.604	67.38
231.838	74.38
232.072	82.38
232.306	88.38
232.541	85.38
232.775	84.38
233.009	80.38
233.243	89.38
233.477	97.38
233.711	81.38
233.945	86.38
234.179	73.38
234.413	89.38
234.647	99.38
234.881	103.38
235.115	83.38
235.349	82.38
235.583	68.38
235.817	78.38
236.051	79.38
236.285	77.38
236.519	72.38
236.753	72.38
236.987	82.38
237.221	86.38
237.455	100.38
237.689	75.38
237.922	79.38
238.156	74.38
238.39	77.38
238.624	70.38
238.858	72.38
239.091	82.38
239.325	82.38
239.559	76.38
239.793	78.38
240.027	92.38
240.26	81.38
240.494	101.38
240.728	80.38
240.961	79.38
241.195	99.38
241.429	84.38
241.662	76.38
241.896	79.38
242.13	73.38
242.363	75.38
242.597	77.38
242.83	94.38
243.064	75.38
243.298	95.38
243.531	74.38
243.765	83.38
243.998	74.38
244.232	90.38
244.465	104.38
244.699	81.38
244.932	70.38
245.166	75.38
245.399	88.38
245.633	90.38
245.866	88.38
246.099	88.38
246.333	79.38
246.566	85.38
246.8	92.38
247.033	83.38
247.266	71.38
247.5	88.38
247.733	65.38
247.966	65.38
248.2	88.38
248.433	86.38
248.666	78.38
248.899	92.38
249.133	72.38
249.366	97.38
249.599	108.38
249.832	89.38
250.066	74.38
250.299	96.38
250.532	89.38
250.765	78.38
250.998	101.38
251.231	82.38
251.465	80.38
251.698	87.38
251.931	94.38
252.164	83.38
252.397	86.38
252.63	84.38
252.863	82.38
253.096	79.38
253.329	87.38
253.562	88.38
253.795	81.38
254.028	83.38
254.261	89.38
254.494	94.38
254.727	95.38
254.96	82.38
255.193	81.38
255.426	90.38
255.659	75.38
255.892	118.38
256.124	84.38
256.357	85.38
256.59	84.38
256.823	86.38
257.056	95.38
257.289	95.38
257.521	85.38
257.754	86.38
257.987	76.38
258.22	74.38
258.452	94.38
258.685	97.38
258.918	88.38
259.151	82.38
259.383	79.38
259.616	95.38
259.849	84.38
260.081	99.38
260.314	109.38
260.547	96.38
260.779	112.38
261.012	115.38
261.244	113.38
261.477	115.38
261.71	103.38
261.942	135.38
262.175	142.38
262.407	97.38
262.64	92.38
262.872	77.38
263.105	92.38
263.337	89.38
263.57	77.38
263.802	86.38
264.035	92.38
264.267	89.38
264.499	90.38
264.732	83.38
264.964	96.38
265.197	84.38
265.429	97.38
265.661	103.38
265.894	87.38
266.126	87.38
266.358	80.38
266.591	91.38
266.823	83.38
267.055	72.38
267.287	95.38
267.52	94.38
267.752	88.38
267.984	83.38
268.216	78.38
268.448	100.38
268.681	79.38
268.913	93.38
269.145	76.38
269.377	85.38
269.609	90.38
269.841	90.38
270.073	90.38
270.306	97.38
270.538	89.38
270.77	93.38
271.002	91.38
271.234	101.38
271.466	97.38
271.698	84.38
271.93	89.38
272.162	99.38
272.394	81.38
272.626	93.38
272.858	95.38
273.09	81.38
273.322	84.38
273.553	70.38
273.785	81.38
274.017	84.38
274.249	94.38
274.481	94.38
274.713	93.38
274.945	106.38
275.176	95.38
275.408	106.38
275.64	110.38
275.872	136.38
276.104	104.38
276.335	114.38
276.567	128.38
276.799	152.38
277.031	180.38
277.262	220.38
277.494	169.38
277.726	116.38
277.957	97.38
278.189	93.38
278.421	91.38
278.652	83.38
278.884	91.38
279.115	104.38
279.347	102.38
279.579	135.38
279.81	136.38
280.042	242.38
280.273	284.38
280.505	207.38
280.736	92.38
280.968	80.38
281.199	100.38
281.431	102.38
281.662	76.38
281.894	102.38
282.125	108.38
282.356	145.38
282.588	194.38
282.819	143.38
283.051	94.38
283.282	101.38
283.513	95.38
283.745	82.38
283.976	88.38
284.207	98.38
284.439	91.38
284.67	84.38
284.901	93.38
285.132	100.38
285.364	102.38
285.595	95.38
285.826	97.38
286.057	92.38
286.288	86.38
286.52	84.38
286.751	89.38
286.982	96.38
287.213	83.38
287.444	92.38
287.675	106.38
287.906	102.38
288.138	95.38
288.369	99.38
288.6	88.38
288.831	76.38
289.062	99.38
289.293	109.38
289.524	88.38
289.755	95.38
289.986	85.38
290.217	86.38
290.448	94.38
290.679	82.38
290.91	95.38
291.141	89.38
291.371	91.38
291.602	83.38
291.833	93.38
292.064	70.38
292.295	91.38
292.526	85.38
292.757	88.38
292.987	91.38
293.218	82.38
293.449	93.38
293.68	94.38
293.91	74.38
294.141	90.38
294.372	87.38
294.603	80.38
294.833	88.38
295.064	106.38
295.295	86.38
295.525	87.38
295.756	104.38
295.987	125.38
296.217	164.38
296.448	149.38
296.679	98.38
296.909	105.38
297.14	95.38
297.37	73.38
297.601	85.38
297.831	90.38
298.062	91.38
298.292	101.38
298.523	100.38
298.753	74.38
298.984	94.38
299.214	85.38
299.445	89.38
299.675	98.38
299.905	111.38
300.136	100.38
300.366	104.38
300.597	110.38
300.827	102.38
301.057	117.38
301.288	123.38
301.518	102.38
301.748	112.38
301.979	121.38
302.209	99.38
302.439	98.38
302.669	97.38
302.9	89.38
303.13	105.38
303.36	113.38
303.59	156.38
303.82	152.38
304.051	110.38
304.281	97.38
304.511	106.38
304.741	97.38
304.971	92.38
305.201	105.38
305.431	95.38
305.661	94.38
305.891	89.38
306.121	103.38
306.352	103.38
306.582	109.38
306.812	124.38
307.042	124.38
307.272	182.38
307.502	206.38
307.731	189.38
307.961	141.38
308.191	88.38
308.421	78.38
308.651	88.38
308.881	96.38
309.111	96.38
309.341	97.38
309.571	118.38
309.8	105.38
310.03	114.38
310.26	109.38
310.49	96.38
310.72	113.38
310.949	122.38
311.179	102.38
311.409	99.38
311.639	106.38
311.868	108.38
312.098	101.38
312.328	100.38
312.557	121.38
312.787	134.38
313.017	121.38
313.246	118.38
313.476	99.38
313.706	111.38
313.935	97.38
314.165	112.38
314.394	118.38
314.624	90.38
314.853	106.38
315.083	96.38
315.312	104.38
315.542	99.38
315.771	95.38
316.001	103.38
316.23	100.38
316.46	86.38
316.689	94.38
316.919	105.38
317.148	106.38
317.377	112.38
317.607	97.38
317.836	89.38
318.065	87.38
318.295	100.38
318.524	80.38
318.753	101.38
318.983	110.38
319.212	117.38
319.441	119.38
319.67	124.38
319.9	101.38
320.129	105.38
320.358	99.38
320.587	90.38
320.816	113.38
321.046	108.38
321.275	114.38
321.504	98.38
321.733	112.38
321.962	114.38
322.191	109.38
322.42	128.38
322.649	123.38
322.878	123.38
323.108	140.38
323.337	154.38
323.566	180.38
323.795	211.38
324.024	263.38
324.253	571.38
324.482	1248.38
324.71	2636.38
324.939	3502.38
325.168	1228.38
325.397	337.38
325.626	189.38
325.855	151.38
326.084	161.38
326.313	168.38
326.542	190.38
326.77	301.38
326.999	615.38
327.228	1327.38
327.457	2526.38
327.686	2001.38
327.914	699.38
328.143	646.38
328.372	812.38
328.6	434.38
328.829	230.38
329.058	221.38
329.287	233.38
329.515	205.38
329.744	319.38
329.972	601.38
330.201	1307.38
330.43	1869.38
330.658	792.38
330.887	342.38
331.115	235.38
331.344	158.38
331.572	120.38
331.801	155.38
332.03	134.38
332.258	131.38
332.486	125.38
332.715	118.38
332.943	114.38
333.172	131.38
333.4	147.38
333.629	170.38
333.857	301.38
334.085	545.38
334.314	1202.38
334.542	2400.38
334.771	2157.38
334.999	543.38
335.227	208.38
335.455	142.38
335.684	135.38
335.912	112.38
336.14	115.38
336.369	111.38
336.597	127.38
336.825	112.38
337.053	99.38
337.281	92.38
337.51	92.38
337.738	96.38
337.966	110.38
338.194	108.38
338.422	107.38
338.65	103.38
338.878	105.38
339.106	104.38
339.334	88.38
339.562	107.38
339.79	113.38
340.018	96.38
340.246	106.38
340.474	79.38
340.702	96.38
340.93	94.38
341.158	111.38
341.386	106.38
341.614	113.38
341.842	91.38
342.07	88.38
342.298	111.38
342.526	91.38
342.754	95.38
342.981	97.38
343.209	89.38
343.437	99.38
343.665	79.38
343.893	97.38
344.12	87.38
344.348	102.38
344.576	85.38
344.804	84.38
345.031	101.38
345.259	113.38
345.487	104.38
345.714	87.38
345.942	106.38
346.17	105.38
346.397	98.38
346.625	97.38
346.853	91.38
347.08	102.38
347.308	102.38
347.535	113.38
347.763	112.38
347.99	128.38
348.218	119.38
348.445	123.38
348.673	120.38
348.9	102.38
349.128	102.38
349.355	92.38
349.583	116.38
349.81	98.38
350.037	100.38
350.265	99.38
350.492	91.38
350.72	103.38
350.947	112.38
351.174	114.38
351.402	124.38
351.629	114.38
351.856	113.38
352.083	129.38
352.311	122.38
352.538	139.38
352.765	152.38
352.992	110.38
353.22	126.38
353.447	130.38
353.674	115.38
353.901	101.38
354.128	98.38
354.355	92.38
354.583	115.38
354.81	108.38
355.037	105.38
355.264	92.38
355.491	103.38
355.718	107.38
355.945	98.38
356.172	108.38
356.399	95.38
356.626	100.38
356.853	104.38
357.08	92.38
357.307	89.38
357.534	95.38
357.761	84.38
357.988	91.38
358.215	93.38
358.441	83.38
358.668	92.38
358.895	96.38
359.122	82.38
359.349	97.38
359.576	113.38
359.802	118.38
360.029	144.38
360.256	172.38
360.483	123.38
360.709	97.38
360.936	99.38
361.163	94.38
361.39	109.38
361.616	120.38
361.843	93.38
362.07	92.38
362.296	122.38
362.523	110.38
362.749	91.38
362.976	106.38
363.203	100.38
363.429	81.38
363.656	96.38
363.882	85.38
364.109	96.38
364.335	74.38
364.562	99.38
364.788	98.38
365.015	113.38
365.241	107.38
365.468	112.38
365.694	123.38
365.92	114.38
366.147	112.38
366.373	102.38
366.599	83.38
366.826	94.38
367.052	98.38
367.278	94.38
367.505	98.38
367.731	95.38
367.957	106.38
368.184	90.38
368.41	106.38
368.636	136.38
368.862	132.38
369.089	121.38
369.315	105.38
369.541	91.38
369.767	99.38
369.993	102.38
370.219	99.38
370.445	111.38
370.672	101.38
370.898	92.38
371.124	96.38
371.35	99.38
371.576	104.38
371.802	98.38
372.028	106.38
372.254	91.38
372.48	80.38
372.706	92.38
372.932	101.38
373.158	102.38
373.384	97.38
373.61	108.38
373.835	87.38
374.061	106.38
374.287	97.38
374.513	80.38
374.739	91.38
374.965	92.38
375.191	97.38
375.416	100.38
375.642	97.38
375.868	102.38
376.094	96.38
376.319	102.38
376.545	94.38
376.771	99.38
376.997	97.38
377.222	87.38
377.448	98.38
377.674	89.38
377.899	92.38
378.125	83.38
378.35	83.38
378.576	104.38
378.802	96.38
379.027	84.38
379.253	102.38
379.478	82.38
379.704	93.38
379.929	79.38
380.155	115.38
380.38	99.38
380.606	88.38
380.831	104.38
381.057	102.38
381.282	95.38
381.507	86.38
381.733	94.38
381.958	86.38
382.184	92.38
382.409	97.38
382.634	109.38
382.86	92.38
383.085	96.38
383.31	102.38
383.535	104.38
383.761	102.38
383.986	96.38
384.211	111.38
384.436	98.38
384.662	106.38
384.887	99.38
385.112	109.38
385.337	121.38
385.562	98.38
385.787	110.38
386.013	122.38
386.238	135.38
386.463	133.38
386.688	125.38
386.913	111.38
387.138	124.38
387.363	101.38
387.588	100.38
387.813	105.38
388.038	130.38
388.263	125.38
388.488	124.38
388.713	87.38
388.938	91.38
389.163	105.38
389.387	105.38
389.612	85.38
389.837	94.38
390.062	78.38
390.287	95.38
390.512	71.38
390.736	82.38
390.961	94.38
391.186	92.38
391.411	92.38
391.636	96.38
391.86	90.38
392.085	86.38
392.31	92.38
392.534	86.38
392.759	99.38
392.984	92.38
393.208	82.38
393.433	92.38
393.658	94.38
393.882	91.38
394.107	96.38
394.331	89.38
394.556	104.38
394.78	103.38
395.005	106.38
395.229	85.38
395.454	81.38
395.678	94.38
395.903	93.38
396.127	94.38
396.352	89.38
396.576	110.38
396.801	93.38
397.025	89.38
397.249	78.38
397.474	87.38
397.698	90.38
397.922	101.38
398.147	98.38
398.371	93.38
398.595	90.38
398.82	82.38
399.044	93.38
399.268	76.38
399.492	70.38
399.717	84.38
399.941	89.38
400.165	102.38
400.389	107.38
400.613	92.38
400.837	82.38
401.062	107.38
401.286	91.38
401.51	92.38
401.734	88.38
401.958	114.38
402.182	156.38
402.406	221.38
402.63	166.38
402.854	120.38
403.078	97.38
403.302	87.38
403.526	98.38
403.75	97.38
403.974	97.38
404.198	98.38
404.422	99.38
404.645	97.38
404.869	120.38
405.093	134.38
405.317	150.38
405.541	151.38
405.765	148.38
405.988	151.38
406.212	224.38
406.436	343.38
406.66	232.38
406.883	150.38
407.107	120.38
407.331	92.38
407.555	116.38
407.778	125.38
408.002	94.38
408.226	106.38
408.449	91.38
408.673	96.38
408.896	111.38
409.12	90.38
409.344	80.38
409.567	100.38
409.791	93.38
410.014	96.38
410.238	113.38
410.461	95.38
410.685	88.38
410.908	100.38
411.132	107.38
411.355	95.38
411.578	105.38
411.802	91.38
412.025	81.38
412.249	90.38
412.472	139.38
412.695	156.38
412.919	124.38
413.142	104.38
413.365	94.38
413.589	90.38
413.812	87.38
414.035	96.38
414.258	89.38
414.482	80.38
414.705	87.38
414.928	89.38
415.151	103.38
415.374	90.38
415.597	91.38
415.821	101.38
416.044	88.38
416.267	98.38
416.49	92.38
416.713	98.38
416.936	98.38
417.159	94.38
417.382	103.38
417.605	111.38
417.828	124.38
418.051	111.38
418.274	104.38
418.497	96.38
418.72	81.38
418.943	103.38
419.166	81.38
419.389	92.38
419.611	85.38
419.834	94.38
420.057	88.38
420.28	97.38
420.503	98.38
420.726	88.38
420.948	93.38
421.171	107.38
421.394	105.38
421.617	111.38
421.839	103.38
422.062	108.38
422.285	98.38
422.507	100.38
422.73	128.38
422.953	103.38
423.175	95.38
423.398	71.38
423.621	93.38
423.843	98.38
424.066	76.38
424.288	99.38
424.511	93.38
424.733	109.38
424.956	129.38
425.178	122.38
425.401	109.38
425.623	111.38
425.846	107.38
426.068	115.38
426.291	123.38
426.513	103.38
426.735	92.38
426.958	100.38
427.18	129.38
427.402	201.38
427.625	321.38
427.847	294.38
428.069	257.38
428.292	128.38
428.514	94.38
428.736	113.38
428.958	81.38
429.181	82.38
429.403	83.38
429.625	106.38
429.847	93.38
430.069	121.38
430.292	86.38
430.514	89.38
430.736	94.38
430.958	98.38
431.18	83.38
431.402	94.38
431.624	93.38
431.846	82.38
432.068	93.38
432.29	98.38
432.512	84.38
432.734	100.38
432.956	87.38
433.178	114.38
433.4	119.38
433.622	92.38
433.844	79.38
434.066	92.38
434.287	86.38
434.509	86.38
434.731	88.38
434.953	98.38
435.175	94.38
435.397	102.38
435.618	113.38
435.84	123.38
436.062	157.38
436.284	139.38
436.505	122.38
436.727	103.38
436.949	97.38
437.17	93.38
437.392	100.38
437.614	88.38
437.835	140.38
438.057	172.38
438.278	148.38
438.5	141.38
438.721	151.38
438.943	112.38
439.165	104.38
439.386	96.38
439.608	97.38
439.829	133.38
440.05	176.38
440.272	216.38
440.493	117.38
440.715	99.38
440.936	96.38
441.158	105.38
441.379	95.38
441.6	108.38
441.822	124.38
442.043	108.38
442.264	136.38
442.486	128.38
442.707	111.38
442.928	132.38
443.149	189.38
443.371	206.38
443.592	158.38
443.813	153.38
444.034	130.38
444.255	95.38
444.476	86.38
444.698	98.38
444.919	90.38
445.14	142.38
445.361	154.38
445.582	178.38
445.803	224.38
446.024	205.38
446.245	195.38
446.466	128.38
446.687	108.38
446.908	86.38
447.129	97.38
447.35	89.38
447.571	96.38
447.792	110.38
448.013	98.38
448.234	131.38
448.455	112.38
448.675	132.38
448.896	143.38
449.117	121.38
449.338	122.38
449.559	162.38
449.779	162.38
450	88.38
450.221	102.38
450.442	105.38
450.662	112.38
450.883	129.38
451.104	142.38
451.324	110.38
451.545	92.38
451.766	111.38
451.986	85.38
452.207	96.38
452.428	87.38
452.648	127.38
452.869	145.38
453.089	151.38
453.31	172.38
453.53	111.38
453.751	113.38
453.971	114.38
454.192	146.38
454.412	101.38
454.633	102.38
454.853	83.38
455.073	91.38
455.294	89.38
455.514	118.38
455.734	93.38
455.955	98.38
456.175	85.38
456.395	101.38
456.616	81.38
456.836	92.38
457.056	88.38
457.276	95.38
457.497	94.38
457.717	72.38
457.937	89.38
458.157	96.38
458.377	117.38
458.598	136.38
458.818	253.38
459.038	259.38
459.258	171.38
459.478	101.38
459.698	93.38
459.918	84.38
460.138	83.38
460.358	102.38
460.578	98.38
460.798	100.38
461.018	84.38
461.238	88.38
461.458	94.38
461.678	79.38
461.898	80.38
462.118	71.38
462.338	86.38
462.558	99.38
462.777	92.38
462.997	105.38
463.217	118.38
463.437	87.38
463.657	85.38
463.876	104.38
464.096	102.38
464.316	99.38
464.536	103.38
464.755	99.38
464.975	121.38
465.195	259.38
465.414	268.38
465.634	116.38
465.854	92.38
466.073	102.38
466.293	92.38
466.512	100.38
466.732	99.38
466.951	104.38
467.171	100.38
467.391	119.38
467.61	168.38
467.829	260.38
468.049	719.38
468.268	1064.38
468.488	258.38
468.707	114.38
468.927	98.38
469.146	88.38
469.365	101.38
469.585	99.38
469.804	111.38
470.023	117.38
470.243	112.38
470.462	138.38
470.681	155.38
470.901	117.38
471.12	113.38
471.339	109.38
471.558	120.38
471.777	180.38
471.997	365.38
472.216	1491.38
472.435	3306.38
472.654	729.38
472.873	191.38
473.092	116.38
473.311	94.38
473.53	103.38
473.749	107.38
473.968	119.38
474.187	151.38
474.406	128.38
474.625	101.38
474.844	95.38
475.063	94.38
475.282	98.38
475.501	80.38
475.72	90.38
475.939	104.38
476.158	84.38
476.377	88.38
476.596	77.38
476.814	95.38
477.033	104.38
477.252	100.38
477.471	94.38
477.69	98.38
477.908	110.38
478.127	90.38
478.346	98.38
478.564	88.38
478.783	122.38
479.002	103.38
479.22	111.38
479.439	129.38
479.658	134.38
479.876	127.38
480.095	130.38
480.313	145.38
480.532	198.38
480.751	361.38
480.969	1308.38
481.188	5761.38
481.406	3167.38
481.624	445.38
481.843	170.38
482.061	122.38
482.28	108.38
482.498	109.38
482.717	103.38
482.935	115.38
483.153	95.38
483.372	109.38
483.59	100.38
483.808	99.38
484.027	99.38
484.245	95.38
484.463	98.38
484.681	87.38
484.9	93.38
485.118	92.38
485.336	103.38
485.554	99.38
485.772	100.38
485.99	120.38
486.209	115.38
486.427	134.38
486.645	131.38
486.863	154.38
487.081	132.38
487.299	106.38
487.517	96.38
487.735	92.38
487.953	89.38
488.171	104.38
488.389	111.38
488.607	106.38
488.825	106.38
489.043	97.38
489.261	97.38
489.479	97.38
489.696	104.38
489.914	85.38
490.132	90.38
490.35	93.38
490.568	94.38
490.786	94.38
491.003	102.38
491.221	97.38
491.439	105.38
491.657	100.38
491.874	95.38
492.092	93.38
492.31	100.38
492.527	104.38
492.745	93.38
492.963	90.38
493.18	94.38
493.398	98.38
493.615	93.38
493.833	98.38
494.05	87.38
494.268	86.38
494.485	98.38
494.703	104.38
494.92	98.38
495.138	98.38
495.355	84.38
495.573	96.38
495.79	90.38
496.008	91.38
496.225	89.38
496.442	91.38
496.66	98.38
496.877	94.38
497.094	90.38
497.312	94.38
497.529	77.38
497.746	99.38
497.963	99.38
498.181	97.38
498.398	109.38
498.615	124.38
498.832	110.38
499.049	78.38
499.267	89.38
499.484	100.38
499.701	100.38
499.918	97.38
500.135	84.38
500.352	96.38
500.569	93.38
500.786	94.38
501.003	98.38
501.22	95.38
501.437	88.38
501.654	114.38
501.871	134.38
502.088	113.38
502.305	103.38
502.522	93.38
502.739	102.38
502.956	106.38
503.172	92.38
503.389	112.38
503.606	151.38
503.823	107.38
504.04	95.38
504.256	98.38
504.473	92.38
504.69	103.38
504.907	104.38
505.123	98.38
505.34	80.38
505.557	100.38
505.773	107.38
505.99	96.38
506.207	104.38
506.423	99.38
506.64	99.38
506.856	112.38
507.073	94.38
507.289	96.38
507.506	106.38
507.722	142.38
507.939	146.38
508.155	110.38
508.372	106.38
508.588	90.38
508.805	93.38
509.021	105.38
509.238	90.38
509.454	112.38
509.67	107.38
509.887	114.38
510.103	166.38
510.319	274.38
510.536	1088.38
510.752	3802.38
510.968	989.38
511.184	198.38
511.401	147.38
