Data from Circ_1998_H10_HRD10591_00031.txt Node
Date: Wed Jan 03 11:26:55 EST 2024
User: Yrep
Spectrometer: HR+D1059
Trigger mode: 1
Integration Time (sec): 1.000000E-1
Scans to average: 1
Electric dark correction enabled: true
Nonlinearity correction enabled: false
Boxcar width: 0
XAxis mode: Wavelengths
Number of Pixels in Spectrum: 2048
>>>>>Begin Spectral Data<<<<<
223.165	-19.12
223.4	-19.12
223.635	-19.12
223.869	-20.12
224.104	-33.12
224.338	-26.12
224.573	-23.12
224.808	-8.12
225.042	-3.12
225.277	9.88
225.511	-0.12
225.746	-8.12
225.98	6.88
226.215	6.88
226.449	22.88
226.683	29.88
226.918	25.88
227.152	38.88
227.387	37.88
227.621	40.88
227.856	36.88
228.09	20.88
228.324	53.88
228.559	59.88
228.793	44.88
229.027	67.88
229.262	72.88
229.496	84.88
229.73	90.88
229.964	96.88
230.199	76.88
230.433	88.88
230.667	76.88
230.901	78.88
231.136	76.88
231.37	88.88
231.604	79.88
231.838	76.88
232.072	75.88
232.306	73.88
232.541	74.88
232.775	73.88
233.009	78.88
233.243	76.88
233.477	70.88
233.711	59.88
233.945	76.88
234.179	69.88
234.413	86.88
234.647	78.88
234.881	58.88
235.115	78.88
235.349	70.88
235.583	73.88
235.817	62.88
236.051	85.88
236.285	72.88
236.519	72.88
236.753	59.88
236.987	66.88
237.221	75.88
237.455	85.88
237.689	81.88
237.922	83.88
238.156	74.88
238.39	81.88
238.624	74.88
238.858	67.88
239.091	72.88
239.325	82.88
239.559	70.88
239.793	72.88
240.027	80.88
240.26	71.88
240.494	83.88
240.728	86.88
240.961	80.88
241.195	77.88
241.429	85.88
241.662	71.88
241.896	71.88
242.13	79.88
242.363	61.88
242.597	70.88
242.83	73.88
243.064	87.88
243.298	78.88
243.531	62.88
243.765	82.88
243.998	80.88
244.232	80.88
244.465	69.88
244.699	74.88
244.932	87.88
245.166	81.88
245.399	88.88
245.633	83.88
245.866	73.88
246.099	74.88
246.333	74.88
246.566	79.88
246.8	82.88
247.033	86.88
247.266	75.88
247.5	82.88
247.733	87.88
247.966	95.88
248.2	84.88
248.433	77.88
248.666	85.88
248.899	86.88
249.133	85.88
249.366	91.88
249.599	95.88
249.832	77.88
250.066	86.88
250.299	80.88
250.532	92.88
250.765	82.88
250.998	71.88
251.231	78.88
251.465	74.88
251.698	71.88
251.931	83.88
252.164	78.88
252.397	79.88
252.63	67.88
252.863	83.88
253.096	89.88
253.329	77.88
253.562	68.88
253.795	87.88
254.028	82.88
254.261	84.88
254.494	90.88
254.727	69.88
254.96	63.88
255.193	82.88
255.426	75.88
255.659	80.88
255.892	84.88
256.124	92.88
256.357	77.88
256.59	89.88
256.823	74.88
257.056	75.88
257.289	100.88
257.521	79.88
257.754	86.88
257.987	86.88
258.22	80.88
258.452	100.88
258.685	87.88
258.918	80.88
259.151	76.88
259.383	79.88
259.616	64.88
259.849	85.88
260.081	89.88
260.314	82.88
260.547	69.88
260.779	88.88
261.012	116.88
261.244	105.88
261.477	81.88
261.71	96.88
261.942	109.88
262.175	125.88
262.407	102.88
262.64	98.88
262.872	91.88
263.105	76.88
263.337	82.88
263.57	87.88
263.802	91.88
264.035	86.88
264.267	68.88
264.499	82.88
264.732	82.88
264.964	78.88
265.197	82.88
265.429	62.88
265.661	86.88
265.894	80.88
266.126	89.88
266.358	72.88
266.591	83.88
266.823	79.88
267.055	82.88
267.287	85.88
267.52	76.88
267.752	83.88
267.984	70.88
268.216	90.88
268.448	74.88
268.681	80.88
268.913	85.88
269.145	79.88
269.377	86.88
269.609	72.88
269.841	71.88
270.073	83.88
270.306	85.88
270.538	54.88
270.77	84.88
271.002	76.88
271.234	81.88
271.466	75.88
271.698	96.88
271.93	89.88
272.162	86.88
272.394	91.88
272.626	88.88
272.858	79.88
273.09	85.88
273.322	69.88
273.553	90.88
273.785	76.88
274.017	83.88
274.249	79.88
274.481	89.88
274.713	76.88
274.945	85.88
275.176	82.88
275.408	111.88
275.64	106.88
275.872	114.88
276.104	107.88
276.335	89.88
276.567	108.88
276.799	120.88
277.031	149.88
277.262	186.88
277.494	150.88
277.726	94.88
277.957	95.88
278.189	95.88
278.421	91.88
278.652	87.88
278.884	81.88
279.115	91.88
279.347	90.88
279.579	98.88
279.81	125.88
280.042	191.88
280.273	248.88
280.505	150.88
280.736	109.88
280.968	83.88
281.199	89.88
281.431	93.88
281.662	73.88
281.894	86.88
282.125	101.88
282.356	123.88
282.588	132.88
282.819	124.88
283.051	92.88
283.282	88.88
283.513	91.88
283.745	93.88
283.976	75.88
284.207	80.88
284.439	90.88
284.67	87.88
284.901	94.88
285.132	96.88
285.364	72.88
285.595	87.88
285.826	80.88
286.057	88.88
286.288	82.88
286.52	89.88
286.751	82.88
286.982	80.88
287.213	82.88
287.444	87.88
287.675	87.88
287.906	95.88
288.138	89.88
288.369	89.88
288.6	90.88
288.831	70.88
289.062	90.88
289.293	91.88
289.524	80.88
289.755	77.88
289.986	88.88
290.217	75.88
290.448	74.88
290.679	70.88
290.91	71.88
291.141	86.88
291.371	78.88
291.602	90.88
291.833	90.88
292.064	83.88
292.295	84.88
292.526	91.88
292.757	92.88
292.987	95.88
293.218	80.88
293.449	77.88
293.68	81.88
293.91	82.88
294.141	84.88
294.372	87.88
294.603	98.88
294.833	81.88
295.064	89.88
295.295	86.88
295.525	94.88
295.756	97.88
295.987	124.88
296.217	150.88
296.448	147.88
296.679	84.88
296.909	100.88
297.14	78.88
297.37	88.88
297.601	87.88
297.831	79.88
298.062	82.88
298.292	110.88
298.523	88.88
298.753	81.88
298.984	104.88
299.214	95.88
299.445	85.88
299.675	83.88
299.905	101.88
300.136	96.88
300.366	86.88
300.597	74.88
300.827	88.88
301.057	110.88
301.288	94.88
301.518	86.88
301.748	103.88
301.979	110.88
302.209	100.88
302.439	86.88
302.669	88.88
302.9	98.88
303.13	95.88
303.36	116.88
303.59	123.88
303.82	132.88
304.051	106.88
304.281	100.88
304.511	75.88
304.741	104.88
304.971	67.88
305.201	73.88
305.431	89.88
305.661	79.88
305.891	101.88
306.121	88.88
306.352	102.88
306.582	114.88
306.812	114.88
307.042	119.88
307.272	160.88
307.502	182.88
307.731	177.88
307.961	127.88
308.191	91.88
308.421	99.88
308.651	90.88
308.881	94.88
309.111	97.88
309.341	88.88
309.571	99.88
309.8	87.88
310.03	93.88
310.26	100.88
310.49	84.88
310.72	111.88
310.949	96.88
311.179	112.88
311.409	96.88
311.639	99.88
311.868	106.88
312.098	93.88
312.328	91.88
312.557	110.88
312.787	116.88
313.017	111.88
313.246	101.88
313.476	83.88
313.706	84.88
313.935	89.88
314.165	95.88
314.394	102.88
314.624	92.88
314.853	93.88
315.083	98.88
315.312	80.88
315.542	90.88
315.771	90.88
316.001	96.88
316.23	89.88
316.46	69.88
316.689	95.88
316.919	84.88
317.148	93.88
317.377	94.88
317.607	93.88
317.836	81.88
318.065	100.88
318.295	89.88
318.524	72.88
318.753	80.88
318.983	87.88
319.212	96.88
319.441	117.88
319.67	104.88
319.9	101.88
320.129	97.88
320.358	95.88
320.587	87.88
320.816	103.88
321.046	111.88
321.275	112.88
321.504	100.88
321.733	110.88
321.962	110.88
322.191	108.88
322.42	98.88
322.649	111.88
322.878	120.88
323.108	120.88
323.337	123.88
323.566	158.88
323.795	199.88
324.024	263.88
324.253	524.88
324.482	1108.88
324.71	2377.88
324.939	3244.88
325.168	1120.88
325.397	297.88
325.626	176.88
325.855	148.88
326.084	154.88
326.313	153.88
326.542	172.88
326.77	286.88
326.999	594.88
327.228	1284.88
327.457	2445.88
327.686	1968.88
327.914	603.88
328.143	522.88
328.372	664.88
328.6	362.88
328.829	172.88
329.058	179.88
329.287	187.88
329.515	182.88
329.744	253.88
329.972	477.88
330.201	1008.88
330.43	1432.88
330.658	636.88
330.887	263.88
331.115	181.88
331.344	118.88
331.572	119.88
331.801	105.88
332.03	118.88
332.258	109.88
332.486	108.88
332.715	98.88
332.943	100.88
333.172	131.88
333.4	138.88
333.629	164.88
333.857	232.88
334.085	436.88
334.314	959.88
334.542	1874.88
334.771	1690.88
334.999	435.88
335.227	176.88
335.455	116.88
335.684	106.88
335.912	96.88
336.14	102.88
336.369	108.88
336.597	107.88
336.825	97.88
337.053	85.88
337.281	105.88
337.51	93.88
337.738	92.88
337.966	100.88
338.194	99.88
338.422	105.88
338.65	87.88
338.878	91.88
339.106	83.88
339.334	92.88
339.562	96.88
339.79	79.88
340.018	83.88
340.246	92.88
340.474	80.88
340.702	97.88
340.93	89.88
341.158	95.88
341.386	94.88
341.614	102.88
341.842	74.88
342.07	99.88
342.298	94.88
342.526	95.88
342.754	77.88
342.981	70.88
343.209	82.88
343.437	96.88
343.665	84.88
343.893	102.88
344.12	99.88
344.348	97.88
344.576	103.88
344.804	79.88
345.031	95.88
345.259	96.88
345.487	94.88
345.714	85.88
345.942	97.88
346.17	91.88
346.397	106.88
346.625	87.88
346.853	94.88
347.08	103.88
347.308	99.88
347.535	108.88
347.763	116.88
347.99	97.88
348.218	98.88
348.445	107.88
348.673	94.88
348.9	96.88
349.128	91.88
349.355	90.88
349.583	89.88
349.81	91.88
350.037	97.88
350.265	95.88
350.492	97.88
350.72	92.88
350.947	102.88
351.174	115.88
351.402	109.88
351.629	89.88
351.856	103.88
352.083	105.88
352.311	103.88
352.538	107.88
352.765	101.88
352.992	113.88
353.22	108.88
353.447	115.88
353.674	99.88
353.901	96.88
354.128	96.88
354.355	91.88
354.583	94.88
354.81	107.88
355.037	86.88
355.264	92.88
355.491	93.88
355.718	103.88
355.945	101.88
356.172	104.88
356.399	105.88
356.626	100.88
356.853	91.88
357.08	86.88
357.307	94.88
357.534	96.88
357.761	94.88
357.988	101.88
358.215	109.88
358.441	95.88
358.668	92.88
358.895	82.88
359.122	82.88
359.349	89.88
359.576	83.88
359.802	120.88
360.029	132.88
360.256	124.88
360.483	103.88
360.709	90.88
360.936	101.88
361.163	98.88
361.39	96.88
361.616	98.88
361.843	88.88
362.07	91.88
362.296	102.88
362.523	87.88
362.749	94.88
362.976	87.88
363.203	105.88
363.429	76.88
363.656	79.88
363.882	93.88
364.109	105.88
364.335	94.88
364.562	79.88
364.788	82.88
365.015	95.88
365.241	91.88
365.468	93.88
365.694	112.88
365.92	106.88
366.147	91.88
366.373	92.88
366.599	94.88
366.826	86.88
367.052	94.88
367.278	91.88
367.505	90.88
367.731	95.88
367.957	96.88
368.184	99.88
368.41	112.88
368.636	108.88
368.862	121.88
369.089	117.88
369.315	99.88
369.541	98.88
369.767	94.88
369.993	103.88
370.219	92.88
370.445	93.88
370.672	92.88
370.898	98.88
371.124	80.88
371.35	91.88
371.576	78.88
371.802	90.88
372.028	77.88
372.254	88.88
372.48	89.88
372.706	75.88
372.932	99.88
373.158	76.88
373.384	84.88
373.61	83.88
373.835	84.88
374.061	97.88
374.287	97.88
374.513	83.88
374.739	83.88
374.965	86.88
375.191	84.88
375.416	89.88
375.642	100.88
375.868	77.88
376.094	73.88
376.319	87.88
376.545	90.88
376.771	102.88
376.997	99.88
377.222	89.88
377.448	105.88
377.674	77.88
377.899	84.88
378.125	98.88
378.35	89.88
378.576	93.88
378.802	77.88
379.027	92.88
379.253	70.88
379.478	90.88
379.704	82.88
379.929	84.88
380.155	78.88
380.38	80.88
380.606	96.88
380.831	92.88
381.057	110.88
381.282	87.88
381.507	104.88
381.733	90.88
381.958	99.88
382.184	100.88
382.409	91.88
382.634	107.88
382.86	96.88
383.085	98.88
383.31	98.88
383.535	102.88
383.761	97.88
383.986	99.88
384.211	85.88
384.436	105.88
384.662	97.88
384.887	103.88
385.112	116.88
385.337	109.88
385.562	96.88
385.787	114.88
386.013	109.88
386.238	100.88
386.463	104.88
386.688	112.88
386.913	104.88
387.138	104.88
387.363	101.88
387.588	90.88
387.813	94.88
388.038	114.88
388.263	119.88
388.488	111.88
388.713	93.88
388.938	89.88
389.163	86.88
389.387	106.88
389.612	83.88
389.837	86.88
390.062	90.88
390.287	83.88
390.512	86.88
390.736	86.88
390.961	84.88
391.186	99.88
391.411	88.88
391.636	92.88
391.86	83.88
392.085	105.88
392.31	103.88
392.534	98.88
392.759	83.88
392.984	90.88
393.208	93.88
393.433	102.88
393.658	79.88
393.882	91.88
394.107	94.88
394.331	82.88
394.556	88.88
394.78	102.88
395.005	86.88
395.229	82.88
395.454	93.88
395.678	95.88
395.903	89.88
396.127	85.88
396.352	98.88
396.576	94.88
396.801	89.88
397.025	89.88
397.249	79.88
397.474	90.88
397.698	94.88
397.922	88.88
398.147	86.88
398.371	78.88
398.595	75.88
398.82	89.88
399.044	87.88
399.268	82.88
399.492	100.88
399.717	103.88
399.941	88.88
400.165	94.88
400.389	88.88
400.613	88.88
400.837	91.88
401.062	98.88
401.286	90.88
401.51	93.88
401.734	78.88
401.958	95.88
402.182	120.88
402.406	178.88
402.63	135.88
402.854	95.88
403.078	84.88
403.302	75.88
403.526	96.88
403.75	92.88
403.974	85.88
404.198	86.88
404.422	85.88
404.645	84.88
404.869	90.88
405.093	111.88
405.317	144.88
405.541	136.88
405.765	122.88
405.988	111.88
406.212	184.88
406.436	264.88
406.66	187.88
406.883	108.88
407.107	103.88
407.331	103.88
407.555	97.88
407.778	97.88
408.002	95.88
408.226	88.88
408.449	79.88
408.673	99.88
408.896	104.88
409.12	92.88
409.344	81.88
409.567	91.88
409.791	91.88
410.014	95.88
410.238	91.88
410.461	106.88
410.685	89.88
410.908	99.88
411.132	110.88
411.355	103.88
411.578	93.88
411.802	88.88
412.025	87.88
412.249	91.88
412.472	115.88
412.695	144.88
412.919	108.88
413.142	95.88
413.365	88.88
413.589	95.88
413.812	74.88
414.035	91.88
414.258	102.88
414.482	90.88
414.705	93.88
414.928	81.88
415.151	93.88
415.374	76.88
415.597	72.88
415.821	95.88
416.044	86.88
416.267	94.88
416.49	78.88
416.713	85.88
416.936	90.88
417.159	84.88
417.382	104.88
417.605	104.88
417.828	108.88
418.051	109.88
418.274	95.88
418.497	82.88
418.72	87.88
418.943	96.88
419.166	97.88
419.389	83.88
419.611	95.88
419.834	91.88
420.057	99.88
420.28	92.88
420.503	83.88
420.726	101.88
420.948	75.88
421.171	88.88
421.394	92.88
421.617	98.88
421.839	89.88
422.062	69.88
422.285	90.88
422.507	84.88
422.73	97.88
422.953	98.88
423.175	95.88
423.398	97.88
423.621	82.88
423.843	74.88
424.066	80.88
424.288	97.88
424.511	98.88
424.733	114.88
424.956	110.88
425.178	96.88
425.401	104.88
425.623	97.88
425.846	95.88
426.068	94.88
426.291	88.88
426.513	91.88
426.735	92.88
426.958	118.88
427.18	122.88
427.402	180.88
427.625	240.88
427.847	244.88
428.069	246.88
428.292	147.88
428.514	96.88
428.736	95.88
428.958	95.88
429.181	102.88
429.403	96.88
429.625	81.88
429.847	85.88
430.069	114.88
430.292	103.88
430.514	88.88
430.736	92.88
430.958	82.88
431.18	85.88
431.402	78.88
431.624	88.88
431.846	85.88
432.068	86.88
432.29	88.88
432.512	80.88
432.734	92.88
432.956	100.88
433.178	96.88
433.4	104.88
433.622	93.88
433.844	94.88
434.066	87.88
434.287	85.88
434.509	66.88
434.731	105.88
434.953	99.88
435.175	83.88
435.397	90.88
435.618	100.88
435.84	111.88
436.062	133.88
436.284	142.88
436.505	108.88
436.727	107.88
436.949	93.88
437.17	79.88
437.392	83.88
437.614	89.88
437.835	107.88
438.057	135.88
438.278	127.88
438.5	122.88
438.721	138.88
438.943	110.88
439.165	93.88
439.386	89.88
439.608	103.88
439.829	100.88
440.05	139.88
440.272	203.88
440.493	118.88
440.715	78.88
440.936	95.88
441.158	89.88
441.379	103.88
441.6	97.88
441.822	104.88
442.043	103.88
442.264	121.88
442.486	105.88
442.707	102.88
442.928	121.88
443.149	155.88
443.371	151.88
443.592	129.88
443.813	140.88
444.034	124.88
444.255	100.88
444.476	93.88
444.698	76.88
444.919	98.88
445.14	148.88
445.361	130.88
445.582	156.88
445.803	198.88
446.024	166.88
446.245	169.88
446.466	119.88
446.687	86.88
446.908	108.88
447.129	85.88
447.35	93.88
447.571	87.88
447.792	87.88
448.013	94.88
448.234	108.88
448.455	104.88
448.675	131.88
448.896	127.88
449.117	101.88
449.338	109.88
449.559	136.88
449.779	152.88
450	94.88
450.221	93.88
450.442	96.88
450.662	101.88
450.883	110.88
451.104	113.88
451.324	92.88
451.545	93.88
451.766	99.88
451.986	82.88
452.207	83.88
452.428	83.88
452.648	102.88
452.869	114.88
453.089	122.88
453.31	135.88
453.53	103.88
453.751	85.88
453.971	105.88
454.192	122.88
454.412	94.88
454.633	77.88
454.853	93.88
455.073	76.88
455.294	84.88
455.514	99.88
455.734	100.88
455.955	99.88
456.175	84.88
456.395	88.88
456.616	74.88
456.836	76.88
457.056	91.88
457.276	88.88
457.497	78.88
457.717	88.88
457.937	96.88
458.157	97.88
458.377	100.88
458.598	99.88
458.818	187.88
459.038	217.88
459.258	143.88
459.478	103.88
459.698	96.88
459.918	82.88
460.138	72.88
460.358	82.88
460.578	79.88
460.798	95.88
461.018	81.88
461.238	78.88
461.458	96.88
461.678	80.88
461.898	92.88
462.118	87.88
462.338	99.88
462.558	100.88
462.777	87.88
462.997	99.88
463.217	103.88
463.437	104.88
463.657	85.88
463.876	86.88
464.096	79.88
464.316	108.88
464.536	104.88
464.755	99.88
464.975	127.88
465.195	218.88
465.414	214.88
465.634	117.88
465.854	95.88
466.073	74.88
466.293	77.88
466.512	74.88
466.732	91.88
466.951	94.88
467.171	99.88
467.391	108.88
467.61	146.88
467.829	206.88
468.049	597.88
468.268	844.88
468.488	225.88
468.707	116.88
468.927	107.88
469.146	88.88
469.365	87.88
469.585	97.88
469.804	109.88
470.023	96.88
470.243	102.88
470.462	110.88
470.681	136.88
470.901	89.88
471.12	115.88
471.339	104.88
471.558	110.88
471.777	155.88
471.997	313.88
472.216	1181.88
472.435	2657.88
472.654	594.88
472.873	152.88
473.092	106.88
473.311	86.88
473.53	88.88
473.749	93.88
473.968	98.88
474.187	108.88
474.406	111.88
474.625	77.88
474.844	88.88
475.063	82.88
475.282	99.88
475.501	86.88
475.72	91.88
475.939	74.88
476.158	91.88
476.377	85.88
476.596	86.88
476.814	104.88
477.033	93.88
477.252	84.88
477.471	74.88
477.69	84.88
477.908	76.88
478.127	94.88
478.346	86.88
478.564	83.88
478.783	103.88
479.002	95.88
479.22	108.88
479.439	111.88
479.658	126.88
479.876	105.88
480.095	123.88
480.313	139.88
480.532	198.88
480.751	309.88
480.969	1081.88
481.188	4691.88
481.406	2557.88
481.624	364.88
481.843	130.88
482.061	99.88
482.28	109.88
482.498	88.88
482.717	89.88
482.935	87.88
483.153	89.88
483.372	82.88
483.59	82.88
483.808	92.88
484.027	94.88
484.245	106.88
484.463	96.88
484.681	100.88
484.9	88.88
485.118	83.88
485.336	99.88
485.554	87.88
485.772	116.88
485.99	108.88
486.209	91.88
486.427	114.88
486.645	115.88
486.863	119.88
487.081	108.88
487.299	104.88
487.517	94.88
487.735	95.88
487.953	87.88
488.171	88.88
488.389	103.88
488.607	105.88
488.825	97.88
489.043	102.88
489.261	91.88
489.479	79.88
489.696	95.88
489.914	82.88
490.132	84.88
490.35	89.88
490.568	96.88
490.786	71.88
491.003	94.88
491.221	84.88
491.439	97.88
491.657	93.88
491.874	89.88
492.092	94.88
492.31	84.88
492.527	97.88
492.745	95.88
492.963	95.88
493.18	91.88
493.398	90.88
493.615	87.88
493.833	106.88
494.05	91.88
494.268	96.88
494.485	95.88
494.703	88.88
494.92	94.88
495.138	78.88
495.355	88.88
495.573	88.88
495.79	104.88
496.008	95.88
496.225	92.88
496.442	91.88
496.66	85.88
496.877	92.88
497.094	90.88
497.312	78.88
497.529	82.88
497.746	102.88
497.963	100.88
498.181	85.88
498.398	91.88
498.615	112.88
498.832	99.88
499.049	94.88
499.267	93.88
499.484	90.88
499.701	95.88
499.918	82.88
500.135	98.88
500.352	85.88
500.569	94.88
500.786	113.88
501.003	92.88
501.22	85.88
501.437	95.88
501.654	99.88
501.871	120.88
502.088	94.88
502.305	100.88
502.522	95.88
502.739	102.88
502.956	94.88
503.172	85.88
503.389	93.88
503.606	120.88
503.823	91.88
504.04	83.88
504.256	88.88
504.473	88.88
504.69	83.88
504.907	108.88
505.123	100.88
505.34	81.88
505.557	79.88
505.773	95.88
505.99	77.88
506.207	90.88
506.423	90.88
506.64	85.88
506.856	103.88
507.073	101.88
507.289	88.88
507.506	92.88
507.722	131.88
507.939	112.88
508.155	101.88
508.372	78.88
508.588	99.88
508.805	93.88
509.021	118.88
509.238	83.88
509.454	103.88
509.67	115.88
509.887	103.88
510.103	124.88
510.319	218.88
510.536	852.88
510.752	2935.88
510.968	777.88
511.184	168.88
511.401	122.88
511.617	106.88
511.833	111.88
512.049	95.88
512.265	95.88
512.481	97.88
512.698	94.88
512.914	96.88
513.13	98.88
513.346	86.88
513.562	99.88
513.778	93.88
513.994	111.88
514.21	106.88
