Data from Circ_1998_H10_HRD10591_00006.txt Node
Date: Wed Jan 03 11:26:50 EST 2024
User: Yrep
Spectrometer: HR+D1059
Trigger mode: 1
Integration Time (sec): 1.000000E-1
Scans to average: 1
Electric dark correction enabled: true
Nonlinearity correction enabled: false
Boxcar width: 0
XAxis mode: Wavelengths
Number of Pixels in Spectrum: 2048
>>>>>Begin Spectral Data<<<<<
223.165	-12.44
223.4	-12.44
223.635	-12.44
223.869	-14.44
224.104	-18.44
224.338	-18.44
224.573	-12.44
224.808	-10.44
225.042	-12.44
225.277	-1.44
225.511	-11.44
225.746	-6.44
225.98	22.56
226.215	16.56
226.449	-1.44
226.683	13.56
226.918	28.56
227.152	38.56
227.387	19.56
227.621	24.56
227.856	38.56
228.09	57.56
228.324	52.56
228.559	61.56
228.793	44.56
229.027	57.56
229.262	71.56
229.496	80.56
229.73	106.56
229.964	89.56
230.199	68.56
230.433	75.56
230.667	88.56
230.901	70.56
231.136	86.56
231.37	87.56
231.604	80.56
231.838	89.56
232.072	78.56
232.306	70.56
232.541	74.56
232.775	81.56
233.009	80.56
233.243	75.56
233.477	92.56
233.711	80.56
233.945	85.56
234.179	81.56
234.413	78.56
234.647	86.56
234.881	78.56
235.115	74.56
235.349	66.56
235.583	79.56
235.817	74.56
236.051	97.56
236.285	85.56
236.519	82.56
236.753	81.56
236.987	85.56
237.221	85.56
237.455	86.56
237.689	66.56
237.922	65.56
238.156	81.56
238.39	71.56
238.624	88.56
238.858	78.56
239.091	70.56
239.325	96.56
239.559	78.56
239.793	84.56
240.027	84.56
240.26	70.56
240.494	84.56
240.728	76.56
240.961	83.56
241.195	86.56
241.429	74.56
241.662	81.56
241.896	68.56
242.13	77.56
242.363	65.56
242.597	76.56
242.83	89.56
243.064	82.56
243.298	69.56
243.531	84.56
243.765	69.56
243.998	85.56
244.232	67.56
244.465	93.56
244.699	80.56
244.932	78.56
245.166	89.56
245.399	87.56
245.633	81.56
245.866	74.56
246.099	68.56
246.333	85.56
246.566	73.56
246.8	88.56
247.033	71.56
247.266	73.56
247.5	83.56
247.733	66.56
247.966	91.56
248.2	76.56
248.433	74.56
248.666	79.56
248.899	76.56
249.133	100.56
249.366	94.56
249.599	110.56
249.832	84.56
250.066	90.56
250.299	94.56
250.532	93.56
250.765	95.56
250.998	77.56
251.231	81.56
251.465	69.56
251.698	85.56
251.931	76.56
252.164	88.56
252.397	88.56
252.63	79.56
252.863	76.56
253.096	72.56
253.329	86.56
253.562	62.56
253.795	96.56
254.028	81.56
254.261	73.56
254.494	78.56
254.727	94.56
254.96	101.56
255.193	82.56
255.426	98.56
255.659	99.56
255.892	96.56
256.124	81.56
256.357	87.56
256.59	82.56
256.823	89.56
257.056	93.56
257.289	96.56
257.521	87.56
257.754	79.56
257.987	90.56
258.22	79.56
258.452	76.56
258.685	101.56
258.918	86.56
259.151	86.56
259.383	83.56
259.616	99.56
259.849	77.56
260.081	77.56
260.314	85.56
260.547	81.56
260.779	87.56
261.012	85.56
261.244	104.56
261.477	68.56
261.71	101.56
261.942	130.56
262.175	133.56
262.407	94.56
262.64	81.56
262.872	84.56
263.105	96.56
263.337	88.56
263.57	80.56
263.802	81.56
264.035	80.56
264.267	93.56
264.499	82.56
264.732	83.56
264.964	79.56
265.197	91.56
265.429	81.56
265.661	85.56
265.894	70.56
266.126	80.56
266.358	76.56
266.591	75.56
266.823	87.56
267.055	71.56
267.287	84.56
267.52	100.56
267.752	101.56
267.984	83.56
268.216	88.56
268.448	72.56
268.681	75.56
268.913	93.56
269.145	88.56
269.377	80.56
269.609	71.56
269.841	73.56
270.073	74.56
270.306	96.56
270.538	76.56
270.77	82.56
271.002	86.56
271.234	85.56
271.466	86.56
271.698	104.56
271.93	84.56
272.162	79.56
272.394	93.56
272.626	90.56
272.858	79.56
273.09	70.56
273.322	88.56
273.553	89.56
273.785	72.56
274.017	89.56
274.249	80.56
274.481	84.56
274.713	78.56
274.945	90.56
275.176	87.56
275.408	107.56
275.64	98.56
275.872	110.56
276.104	101.56
276.335	96.56
276.567	108.56
276.799	136.56
277.031	126.56
277.262	153.56
277.494	127.56
277.726	93.56
277.957	92.56
278.189	86.56
278.421	86.56
278.652	82.56
278.884	89.56
279.115	91.56
279.347	103.56
279.579	97.56
279.81	133.56
280.042	178.56
280.273	214.56
280.505	153.56
280.736	98.56
280.968	93.56
281.199	92.56
281.431	90.56
281.662	94.56
281.894	94.56
282.125	94.56
282.356	111.56
282.588	129.56
282.819	132.56
283.051	81.56
283.282	98.56
283.513	94.56
283.745	93.56
283.976	83.56
284.207	73.56
284.439	69.56
284.67	86.56
284.901	92.56
285.132	72.56
285.364	89.56
285.595	91.56
285.826	97.56
286.057	76.56
286.288	77.56
286.52	85.56
286.751	90.56
286.982	94.56
287.213	97.56
287.444	94.56
287.675	99.56
287.906	94.56
288.138	86.56
288.369	80.56
288.6	90.56
288.831	85.56
289.062	74.56
289.293	94.56
289.524	74.56
289.755	72.56
289.986	87.56
290.217	76.56
290.448	78.56
290.679	77.56
290.91	74.56
291.141	79.56
291.371	80.56
291.602	84.56
291.833	90.56
292.064	98.56
292.295	90.56
292.526	98.56
292.757	86.56
292.987	86.56
293.218	88.56
293.449	86.56
293.68	76.56
293.91	98.56
294.141	88.56
294.372	79.56
294.603	92.56
294.833	88.56
295.064	92.56
295.295	86.56
295.525	91.56
295.756	96.56
295.987	120.56
296.217	155.56
296.448	120.56
296.679	81.56
296.909	93.56
297.14	82.56
297.37	88.56
297.601	87.56
297.831	84.56
298.062	99.56
298.292	88.56
298.523	84.56
298.753	98.56
298.984	77.56
299.214	91.56
299.445	87.56
299.675	97.56
299.905	101.56
300.136	94.56
300.366	93.56
300.597	95.56
300.827	105.56
301.057	98.56
301.288	102.56
301.518	105.56
301.748	84.56
301.979	104.56
302.209	102.56
302.439	96.56
302.669	89.56
302.9	86.56
303.13	89.56
303.36	106.56
303.59	125.56
303.82	117.56
304.051	105.56
304.281	94.56
304.511	85.56
304.741	99.56
304.971	81.56
305.201	84.56
305.431	95.56
305.661	104.56
305.891	99.56
306.121	102.56
306.352	93.56
306.582	120.56
306.812	104.56
307.042	108.56
307.272	150.56
307.502	160.56
307.731	157.56
307.961	126.56
308.191	104.56
308.421	85.56
308.651	99.56
308.881	98.56
309.111	106.56
309.341	96.56
309.571	98.56
309.8	94.56
310.03	100.56
310.26	99.56
310.49	102.56
310.72	98.56
310.949	108.56
311.179	107.56
311.409	94.56
311.639	82.56
311.868	97.56
312.098	105.56
312.328	101.56
312.557	119.56
312.787	109.56
313.017	111.56
313.246	103.56
313.476	93.56
313.706	89.56
313.935	104.56
314.165	87.56
314.394	121.56
314.624	108.56
314.853	110.56
315.083	107.56
315.312	102.56
315.542	101.56
315.771	99.56
316.001	94.56
316.23	92.56
316.46	87.56
316.689	93.56
316.919	97.56
317.148	103.56
317.377	102.56
317.607	104.56
317.836	99.56
318.065	93.56
318.295	94.56
318.524	87.56
318.753	95.56
318.983	89.56
319.212	102.56
319.441	93.56
319.67	102.56
319.9	95.56
320.129	95.56
320.358	95.56
320.587	84.56
320.816	114.56
321.046	98.56
321.275	104.56
321.504	98.56
321.733	100.56
321.962	96.56
322.191	99.56
322.42	107.56
322.649	116.56
322.878	118.56
323.108	132.56
323.337	154.56
323.566	150.56
323.795	181.56
324.024	267.56
324.253	520.56
324.482	1137.56
324.71	2478.56
324.939	3302.56
325.168	1172.56
325.397	296.56
325.626	190.56
325.855	151.56
326.084	152.56
326.313	155.56
326.542	180.56
326.77	267.56
326.999	610.56
327.228	1296.56
327.457	2406.56
327.686	1946.56
327.914	584.56
328.143	473.56
328.372	528.56
328.6	313.56
328.829	193.56
329.058	172.56
329.287	192.56
329.515	168.56
329.744	226.56
329.972	391.56
330.201	774.56
330.43	1107.56
330.658	522.56
330.887	258.56
331.115	162.56
331.344	122.56
331.572	113.56
331.801	113.56
332.03	120.56
332.258	110.56
332.486	101.56
332.715	98.56
332.943	106.56
333.172	95.56
333.4	125.56
333.629	149.56
333.857	205.56
334.085	374.56
334.314	767.56
334.542	1472.56
334.771	1328.56
334.999	361.56
335.227	154.56
335.455	121.56
335.684	116.56
335.912	114.56
336.14	103.56
336.369	109.56
336.597	119.56
336.825	97.56
337.053	102.56
337.281	108.56
337.51	101.56
337.738	102.56
337.966	110.56
338.194	94.56
338.422	90.56
338.65	91.56
338.878	88.56
339.106	102.56
339.334	95.56
339.562	86.56
339.79	83.56
340.018	93.56
340.246	93.56
340.474	93.56
340.702	81.56
340.93	96.56
341.158	91.56
341.386	98.56
341.614	93.56
341.842	98.56
342.07	93.56
342.298	102.56
342.526	82.56
342.754	109.56
342.981	79.56
343.209	90.56
343.437	111.56
343.665	80.56
343.893	88.56
344.12	79.56
344.348	76.56
344.576	98.56
344.804	100.56
345.031	101.56
345.259	97.56
345.487	98.56
345.714	92.56
345.942	81.56
346.17	95.56
346.397	89.56
346.625	85.56
346.853	89.56
347.08	75.56
347.308	91.56
347.535	96.56
347.763	113.56
347.99	95.56
348.218	104.56
348.445	125.56
348.673	106.56
348.9	94.56
349.128	86.56
349.355	91.56
349.583	96.56
349.81	83.56
350.037	99.56
350.265	103.56
350.492	92.56
350.72	105.56
350.947	108.56
351.174	115.56
351.402	115.56
351.629	107.56
351.856	98.56
352.083	92.56
352.311	124.56
352.538	108.56
352.765	117.56
352.992	114.56
353.22	119.56
353.447	100.56
353.674	99.56
353.901	101.56
354.128	100.56
354.355	95.56
354.583	96.56
354.81	100.56
355.037	91.56
355.264	98.56
355.491	88.56
355.718	99.56
355.945	86.56
356.172	104.56
356.399	100.56
356.626	92.56
356.853	89.56
357.08	110.56
357.307	93.56
357.534	90.56
357.761	104.56
357.988	95.56
358.215	88.56
358.441	117.56
358.668	117.56
358.895	100.56
359.122	95.56
359.349	94.56
359.576	109.56
359.802	113.56
360.029	132.56
360.256	134.56
360.483	116.56
360.709	90.56
360.936	87.56
361.163	98.56
361.39	85.56
361.616	98.56
361.843	88.56
362.07	108.56
362.296	88.56
362.523	98.56
362.749	96.56
362.976	98.56
363.203	101.56
363.429	96.56
363.656	87.56
363.882	87.56
364.109	89.56
364.335	94.56
364.562	88.56
364.788	103.56
365.015	97.56
365.241	107.56
365.468	110.56
365.694	109.56
365.92	110.56
366.147	101.56
366.373	88.56
366.599	86.56
366.826	80.56
367.052	87.56
367.278	86.56
367.505	84.56
367.731	77.56
367.957	95.56
368.184	104.56
368.41	102.56
368.636	121.56
368.862	121.56
369.089	113.56
369.315	80.56
369.541	88.56
369.767	98.56
369.993	96.56
370.219	107.56
370.445	82.56
370.672	98.56
370.898	94.56
371.124	96.56
371.35	87.56
371.576	96.56
371.802	80.56
372.028	88.56
372.254	92.56
372.48	65.56
372.706	79.56
372.932	90.56
373.158	102.56
373.384	89.56
373.61	74.56
373.835	87.56
374.061	102.56
374.287	100.56
374.513	90.56
374.739	94.56
374.965	95.56
375.191	81.56
375.416	79.56
375.642	94.56
375.868	93.56
376.094	78.56
376.319	82.56
376.545	91.56
376.771	90.56
376.997	95.56
377.222	100.56
377.448	95.56
377.674	92.56
377.899	107.56
378.125	87.56
378.35	98.56
378.576	94.56
378.802	92.56
379.027	97.56
379.253	104.56
379.478	90.56
379.704	92.56
379.929	93.56
380.155	104.56
380.38	92.56
380.606	95.56
380.831	102.56
381.057	96.56
381.282	98.56
381.507	89.56
381.733	108.56
381.958	103.56
382.184	116.56
382.409	110.56
382.634	104.56
382.86	113.56
383.085	116.56
383.31	125.56
383.535	123.56
383.761	106.56
383.986	111.56
384.211	101.56
384.436	117.56
384.662	114.56
384.887	124.56
385.112	114.56
385.337	129.56
385.562	130.56
385.787	124.56
386.013	141.56
386.238	158.56
386.463	130.56
386.688	116.56
386.913	133.56
387.138	137.56
387.363	119.56
387.588	116.56
387.813	115.56
388.038	128.56
388.263	133.56
388.488	142.56
388.713	118.56
388.938	101.56
389.163	90.56
389.387	82.56
389.612	96.56
389.837	78.56
390.062	100.56
390.287	86.56
390.512	89.56
390.736	86.56
390.961	88.56
391.186	86.56
391.411	75.56
391.636	95.56
391.86	77.56
392.085	101.56
392.31	93.56
392.534	92.56
392.759	99.56
392.984	112.56
393.208	130.56
393.433	216.56
393.658	149.56
393.882	93.56
394.107	80.56
394.331	82.56
394.556	87.56
394.78	105.56
395.005	83.56
395.229	83.56
395.454	85.56
395.678	71.56
395.903	95.56
396.127	100.56
396.352	88.56
396.576	99.56
396.801	129.56
397.025	174.56
397.249	103.56
397.474	73.56
397.698	84.56
397.922	78.56
398.147	90.56
398.371	87.56
398.595	64.56
398.82	79.56
399.044	90.56
399.268	83.56
399.492	95.56
399.717	97.56
399.941	92.56
400.165	100.56
400.389	87.56
400.613	104.56
400.837	82.56
401.062	89.56
401.286	79.56
401.51	73.56
401.734	82.56
401.958	114.56
402.182	141.56
402.406	200.56
402.63	130.56
402.854	96.56
403.078	90.56
403.302	88.56
403.526	96.56
403.75	91.56
403.974	84.56
404.198	82.56
404.422	79.56
404.645	95.56
404.869	100.56
405.093	126.56
405.317	127.56
405.541	134.56
405.765	106.56
405.988	135.56
406.212	200.56
406.436	268.56
406.66	180.56
406.883	118.56
407.107	106.56
407.331	106.56
407.555	110.56
407.778	107.56
408.002	98.56
408.226	89.56
408.449	83.56
408.673	90.56
408.896	105.56
409.12	101.56
409.344	79.56
409.567	80.56
409.791	101.56
410.014	101.56
410.238	98.56
410.461	93.56
410.685	95.56
410.908	106.56
411.132	98.56
411.355	115.56
411.578	100.56
411.802	102.56
412.025	89.56
412.249	96.56
412.472	121.56
412.695	137.56
412.919	110.56
413.142	105.56
413.365	88.56
413.589	83.56
413.812	108.56
414.035	92.56
414.258	80.56
414.482	93.56
414.705	94.56
414.928	96.56
415.151	98.56
415.374	89.56
415.597	83.56
415.821	84.56
416.044	101.56
416.267	87.56
416.49	101.56
416.713	92.56
416.936	91.56
417.159	88.56
417.382	95.56
417.605	98.56
417.828	115.56
418.051	119.56
418.274	97.56
418.497	82.56
418.72	74.56
418.943	97.56
419.166	86.56
419.389	78.56
419.611	95.56
419.834	96.56
420.057	94.56
420.28	94.56
420.503	94.56
420.726	94.56
420.948	94.56
421.171	83.56
421.394	93.56
421.617	82.56
421.839	87.56
422.062	86.56
422.285	102.56
422.507	130.56
422.73	156.56
422.953	138.56
423.175	95.56
423.398	93.56
423.621	85.56
423.843	81.56
424.066	78.56
424.288	88.56
424.511	94.56
424.733	111.56
424.956	117.56
425.178	106.56
425.401	105.56
425.623	116.56
425.846	76.56
426.068	100.56
426.291	109.56
426.513	82.56
426.735	91.56
426.958	100.56
427.18	108.56
427.402	170.56
427.625	247.56
427.847	255.56
428.069	228.56
428.292	120.56
428.514	102.56
428.736	107.56
428.958	85.56
429.181	79.56
429.403	82.56
429.625	110.56
429.847	100.56
430.069	124.56
430.292	103.56
430.514	77.56
430.736	72.56
430.958	86.56
431.18	78.56
431.402	88.56
431.624	80.56
431.846	87.56
432.068	90.56
432.29	89.56
432.512	104.56
432.734	90.56
432.956	97.56
433.178	102.56
433.4	92.56
433.622	91.56
433.844	98.56
434.066	97.56
434.287	101.56
434.509	103.56
434.731	88.56
434.953	90.56
435.175	86.56
435.397	113.56
435.618	101.56
435.84	104.56
436.062	141.56
436.284	134.56
436.505	113.56
436.727	118.56
436.949	77.56
437.17	80.56
437.392	96.56
437.614	91.56
437.835	125.56
438.057	129.56
438.278	137.56
438.5	118.56
438.721	127.56
438.943	117.56
439.165	74.56
439.386	99.56
439.608	108.56
439.829	118.56
440.05	150.56
440.272	186.56
440.493	108.56
440.715	95.56
440.936	88.56
441.158	92.56
441.379	101.56
441.6	102.56
441.822	97.56
442.043	107.56
442.264	125.56
442.486	123.56
442.707	107.56
442.928	121.56
443.149	180.56
443.371	158.56
443.592	135.56
443.813	136.56
444.034	124.56
444.255	89.56
444.476	77.56
444.698	93.56
444.919	105.56
445.14	131.56
445.361	123.56
445.582	156.56
445.803	186.56
446.024	178.56
446.245	182.56
446.466	151.56
446.687	100.56
446.908	98.56
447.129	98.56
447.35	82.56
447.571	100.56
447.792	82.56
448.013	112.56
448.234	98.56
448.455	117.56
448.675	130.56
448.896	152.56
449.117	110.56
449.338	120.56
449.559	142.56
449.779	160.56
450	102.56
450.221	80.56
450.442	81.56
450.662	102.56
450.883	112.56
451.104	117.56
451.324	107.56
451.545	92.56
451.766	97.56
451.986	81.56
452.207	86.56
452.428	87.56
452.648	95.56
452.869	112.56
453.089	128.56
453.31	140.56
453.53	90.56
453.751	100.56
453.971	100.56
454.192	130.56
454.412	99.56
454.633	88.56
454.853	93.56
455.073	87.56
455.294	106.56
455.514	128.56
455.734	88.56
455.955	76.56
456.175	82.56
456.395	91.56
456.616	77.56
456.836	91.56
457.056	94.56
457.276	97.56
457.497	88.56
457.717	85.56
457.937	91.56
458.157	79.56
458.377	105.56
458.598	126.56
458.818	198.56
459.038	222.56
459.258	148.56
459.478	89.56
459.698	86.56
459.918	95.56
460.138	82.56
460.358	70.56
460.578	83.56
460.798	92.56
461.018	91.56
461.238	90.56
461.458	80.56
461.678	74.56
461.898	85.56
462.118	81.56
462.338	85.56
462.558	80.56
462.777	81.56
462.997	91.56
463.217	104.56
463.437	93.56
463.657	82.56
463.876	94.56
464.096	89.56
464.316	85.56
464.536	102.56
464.755	97.56
464.975	109.56
465.195	207.56
465.414	212.56
465.634	111.56
465.854	77.56
466.073	86.56
466.293	90.56
466.512	85.56
466.732	104.56
466.951	87.56
467.171	91.56
467.391	106.56
467.61	118.56
467.829	177.56
468.049	460.56
468.268	656.56
468.488	183.56
468.707	89.56
468.927	77.56
469.146	101.56
469.365	92.56
469.585	102.56
469.804	99.56
470.023	124.56
470.243	108.56
470.462	107.56
470.681	134.56
470.901	88.56
471.12	90.56
471.339	92.56
471.558	95.56
471.777	138.56
471.997	247.56
472.216	881.56
472.435	1968.56
472.654	481.56
472.873	134.56
473.092	91.56
473.311	86.56
473.53	81.56
473.749	96.56
473.968	96.56
474.187	134.56
474.406	98.56
474.625	84.56
474.844	96.56
475.063	77.56
475.282	84.56
475.501	72.56
475.72	85.56
475.939	107.56
476.158	100.56
476.377	86.56
476.596	93.56
476.814	81.56
477.033	112.56
477.252	96.56
477.471	82.56
477.69	87.56
477.908	92.56
478.127	97.56
478.346	91.56
478.564	99.56
478.783	104.56
479.002	87.56
479.22	117.56
479.439	111.56
479.658	126.56
479.876	112.56
480.095	119.56
480.313	114.56
480.532	153.56
480.751	247.56
480.969	831.56
481.188	3522.56
481.406	2013.56
481.624	301.56
481.843	119.56
482.061	96.56
482.28	104.56
482.498	101.56
482.717	100.56
482.935	93.56
483.153	100.56
483.372	86.56
483.59	84.56
483.808	85.56
484.027	94.56
484.245	81.56
484.463	93.56
484.681	91.56
484.9	91.56
485.118	88.56
485.336	83.56
485.554	97.56
485.772	111.56
485.99	116.56
486.209	102.56
486.427	101.56
486.645	125.56
486.863	125.56
487.081	112.56
487.299	104.56
487.517	94.56
487.735	92.56
487.953	98.56
488.171	90.56
488.389	99.56
488.607	93.56
488.825	81.56
489.043	95.56
489.261	97.56
489.479	87.56
489.696	85.56
489.914	97.56
490.132	108.56
490.35	95.56
490.568	89.56
490.786	90.56
491.003	97.56
491.221	103.56
491.439	94.56
491.657	88.56
491.874	89.56
492.092	95.56
492.31	87.56
492.527	94.56
492.745	102.56
492.963	105.56
493.18	104.56
493.398	90.56
493.615	87.56
493.833	95.56
494.05	81.56
494.268	73.56
494.485	89.56
494.703	96.56
494.92	88.56
495.138	91.56
495.355	100.56
495.573	102.56
495.79	95.56
496.008	102.56
496.225	82.56
496.442	93.56
496.66	86.56
496.877	82.56
497.094	97.56
497.312	84.56
497.529	76.56
497.746	94.56
497.963	86.56
498.181	88.56
498.398	109.56
498.615	116.56
498.832	108.56
499.049	90.56
499.267	93.56
499.484	87.56
499.701	92.56
499.918	92.56
500.135	84.56
500.352	87.56
500.569	94.56
500.786	98.56
501.003	80.56
501.22	94.56
501.437	82.56
501.654	90.56
501.871	117.56
502.088	89.56
502.305	101.56
502.522	86.56
502.739	87.56
502.956	100.56
503.172	100.56
503.389	109.56
503.606	109.56
503.823	99.56
504.04	96.56
504.256	88.56
504.473	97.56
504.69	78.56
504.907	95.56
505.123	97.56
505.34	101.56
505.557	96.56
505.773	110.56
505.99	86.56
506.207	86.56
506.423	91.56
506.64	108.56
506.856	71.56
507.073	90.56
507.289	95.56
507.506	115.56
507.722	129.56
507.939	128.56
508.155	101.56
508.372	114.56
508.588	103.56
508.805	111.56
509.021	98.56
509.238	96.56
509.454	94.56
509.67	106.56
509.887	112.56
510.103	137.56
510.319	235.56
510.536	853.56
510.752	2886.56
510.968	795.56
511.184	160.56
511.401	111.56
511.617	110.56
511.833	98.56
512.049	104.56
512.265	82.56
512.481	99.56
512.698	82.56
512.914	99.56
513.13	97.56
