Data from Circ_1998_H10_HRD10591_00100.txt Node
Date: Wed Jan 03 11:27:08 EST 2024
User: Yrep
Spectrometer: HR+D1059
Trigger mode: 1
Integration Time (sec): 1.000000E-1
Scans to average: 1
Electric dark correction enabled: true
Nonlinearity correction enabled: false
Boxcar width: 0
XAxis mode: Wavelengths
Number of Pixels in Spectrum: 2048
>>>>>Begin Spectral Data<<<<<
223.165	-12.44
223.4	-12.44
223.635	-12.44
223.869	-19.44
224.104	-27.44
224.338	-2.44
224.573	-24.44
224.808	-14.44
225.042	-4.44
225.277	-9.44
225.511	-9.44
225.746	-2.44
225.98	6.56
226.215	10.56
226.449	19.56
226.683	14.56
226.918	29.56
227.152	45.56
227.387	31.56
227.621	29.56
227.856	46.56
228.09	52.56
228.324	60.56
228.559	60.56
228.793	53.56
229.027	62.56
229.262	83.56
229.496	87.56
229.73	122.56
229.964	107.56
230.199	87.56
230.433	89.56
230.667	88.56
230.901	75.56
231.136	64.56
231.37	87.56
231.604	88.56
231.838	94.56
232.072	81.56
232.306	81.56
232.541	75.56
232.775	63.56
233.009	76.56
233.243	76.56
233.477	80.56
233.711	81.56
233.945	59.56
234.179	79.56
234.413	79.56
234.647	79.56
234.881	87.56
235.115	84.56
235.349	66.56
235.583	72.56
235.817	76.56
236.051	89.56
236.285	85.56
236.519	85.56
236.753	73.56
236.987	98.56
237.221	87.56
237.455	92.56
237.689	67.56
237.922	80.56
238.156	86.56
238.39	85.56
238.624	86.56
238.858	79.56
239.091	79.56
239.325	88.56
239.559	95.56
239.793	78.56
240.027	71.56
240.26	78.56
240.494	94.56
240.728	75.56
240.961	78.56
241.195	87.56
241.429	71.56
241.662	72.56
241.896	82.56
242.13	90.56
242.363	82.56
242.597	71.56
242.83	86.56
243.064	72.56
243.298	71.56
243.531	88.56
243.765	108.56
243.998	66.56
244.232	79.56
244.465	82.56
244.699	85.56
244.932	70.56
245.166	73.56
245.399	67.56
245.633	72.56
245.866	81.56
246.099	83.56
246.333	94.56
246.566	73.56
246.8	71.56
247.033	87.56
247.266	80.56
247.5	81.56
247.733	82.56
247.966	67.56
248.2	87.56
248.433	101.56
248.666	85.56
248.899	83.56
249.133	102.56
249.366	116.56
249.599	108.56
249.832	93.56
250.066	89.56
250.299	85.56
250.532	85.56
250.765	90.56
250.998	67.56
251.231	77.56
251.465	86.56
251.698	95.56
251.931	97.56
252.164	90.56
252.397	79.56
252.63	74.56
252.863	87.56
253.096	72.56
253.329	83.56
253.562	92.56
253.795	97.56
254.028	81.56
254.261	64.56
254.494	77.56
254.727	86.56
254.96	94.56
255.193	82.56
255.426	83.56
255.659	90.56
255.892	106.56
256.124	102.56
256.357	92.56
256.59	84.56
256.823	98.56
257.056	90.56
257.289	91.56
257.521	96.56
257.754	84.56
257.987	85.56
258.22	89.56
258.452	110.56
258.685	111.56
258.918	109.56
259.151	83.56
259.383	76.56
259.616	78.56
259.849	80.56
260.081	84.56
260.314	92.56
260.547	93.56
260.779	111.56
261.012	142.56
261.244	141.56
261.477	111.56
261.71	116.56
261.942	150.56
262.175	168.56
262.407	124.56
262.64	103.56
262.872	87.56
263.105	95.56
263.337	100.56
263.57	86.56
263.802	86.56
264.035	83.56
264.267	88.56
264.499	83.56
264.732	95.56
264.964	79.56
265.197	88.56
265.429	85.56
265.661	88.56
265.894	86.56
266.126	90.56
266.358	79.56
266.591	86.56
266.823	77.56
267.055	89.56
267.287	101.56
267.52	89.56
267.752	89.56
267.984	82.56
268.216	98.56
268.448	86.56
268.681	89.56
268.913	100.56
269.145	98.56
269.377	85.56
269.609	75.56
269.841	93.56
270.073	81.56
270.306	96.56
270.538	91.56
270.77	70.56
271.002	90.56
271.234	94.56
271.466	109.56
271.698	101.56
271.93	80.56
272.162	83.56
272.394	88.56
272.626	81.56
272.858	77.56
273.09	83.56
273.322	83.56
273.553	106.56
273.785	89.56
274.017	95.56
274.249	93.56
274.481	89.56
274.713	90.56
274.945	98.56
275.176	84.56
275.408	118.56
275.64	142.56
275.872	158.56
276.104	121.56
276.335	109.56
276.567	143.56
276.799	203.56
277.031	267.56
277.262	329.56
277.494	227.56
277.726	126.56
277.957	110.56
278.189	88.56
278.421	99.56
278.652	97.56
278.884	92.56
279.115	89.56
279.347	101.56
279.579	117.56
279.81	184.56
280.042	328.56
280.273	493.56
280.505	314.56
280.736	149.56
280.968	104.56
281.199	95.56
281.431	99.56
281.662	99.56
281.894	110.56
282.125	104.56
282.356	161.56
282.588	222.56
282.819	157.56
283.051	102.56
283.282	71.56
283.513	97.56
283.745	88.56
283.976	77.56
284.207	86.56
284.439	90.56
284.67	97.56
284.901	112.56
285.132	97.56
285.364	92.56
285.595	94.56
285.826	84.56
286.057	88.56
286.288	85.56
286.52	94.56
286.751	102.56
286.982	75.56
287.213	94.56
287.444	95.56
287.675	96.56
287.906	87.56
288.138	91.56
288.369	91.56
288.6	98.56
288.831	93.56
289.062	90.56
289.293	95.56
289.524	83.56
289.755	94.56
289.986	85.56
290.217	104.56
290.448	90.56
290.679	87.56
290.91	97.56
291.141	86.56
291.371	93.56
291.602	87.56
291.833	82.56
292.064	81.56
292.295	90.56
292.526	104.56
292.757	87.56
292.987	89.56
293.218	88.56
293.449	70.56
293.68	102.56
293.91	83.56
294.141	92.56
294.372	90.56
294.603	90.56
294.833	90.56
295.064	98.56
295.295	85.56
295.525	91.56
295.756	105.56
295.987	159.56
296.217	198.56
296.448	157.56
296.679	97.56
296.909	87.56
297.14	88.56
297.37	90.56
297.601	97.56
297.831	88.56
298.062	94.56
298.292	85.56
298.523	88.56
298.753	105.56
298.984	81.56
299.214	88.56
299.445	89.56
299.675	102.56
299.905	101.56
300.136	107.56
300.366	96.56
300.597	95.56
300.827	95.56
301.057	122.56
301.288	113.56
301.518	105.56
301.748	104.56
301.979	134.56
302.209	114.56
302.439	89.56
302.669	86.56
302.9	101.56
303.13	98.56
303.36	127.56
303.59	167.56
303.82	192.56
304.051	122.56
304.281	97.56
304.511	85.56
304.741	99.56
304.971	81.56
305.201	98.56
305.431	100.56
305.661	92.56
305.891	85.56
306.121	93.56
306.352	124.56
306.582	139.56
306.812	122.56
307.042	164.56
307.272	239.56
307.502	278.56
307.731	254.56
307.961	181.56
308.191	111.56
308.421	108.56
308.651	101.56
308.881	87.56
309.111	101.56
309.341	95.56
309.571	120.56
309.8	99.56
310.03	121.56
310.26	117.56
310.49	97.56
310.72	109.56
310.949	138.56
311.179	123.56
311.409	100.56
311.639	97.56
311.868	122.56
312.098	97.56
312.328	99.56
312.557	133.56
312.787	140.56
313.017	122.56
313.246	103.56
313.476	107.56
313.706	108.56
313.935	129.56
314.165	119.56
314.394	96.56
314.624	113.56
314.853	97.56
315.083	99.56
315.312	90.56
315.542	101.56
315.771	103.56
316.001	98.56
316.23	87.56
316.46	84.56
316.689	95.56
316.919	95.56
317.148	96.56
317.377	106.56
317.607	100.56
317.836	90.56
318.065	106.56
318.295	98.56
318.524	110.56
318.753	92.56
318.983	108.56
319.212	123.56
319.441	141.56
319.67	134.56
319.9	98.56
320.129	101.56
320.358	86.56
320.587	107.56
320.816	115.56
321.046	116.56
321.275	119.56
321.504	109.56
321.733	124.56
321.962	98.56
322.191	121.56
322.42	126.56
322.649	142.56
322.878	144.56
323.108	167.56
323.337	186.56
323.566	208.56
323.795	236.56
324.024	303.56
324.253	661.56
324.482	1481.56
324.71	3306.56
324.939	4247.56
325.168	1467.56
325.397	382.56
325.626	206.56
325.855	172.56
326.084	178.56
326.313	180.56
326.542	219.56
326.77	355.56
326.999	749.56
327.228	1610.56
327.457	2981.56
327.686	2377.56
327.914	879.56
328.143	968.56
328.372	1310.56
328.6	663.56
328.829	287.56
329.058	267.56
329.287	268.56
329.515	262.56
329.744	417.56
329.972	981.56
330.201	2073.56
330.43	3093.56
330.658	1219.56
330.887	457.56
331.115	249.56
331.344	169.56
331.572	161.56
331.801	169.56
332.03	165.56
332.258	141.56
332.486	120.56
332.715	137.56
332.943	126.56
333.172	163.56
333.4	174.56
333.629	237.56
333.857	382.56
334.085	833.56
334.314	1909.56
334.542	3805.56
334.771	3516.56
334.999	799.56
335.227	262.56
335.455	173.56
335.684	147.56
335.912	115.56
336.14	123.56
336.369	113.56
336.597	134.56
336.825	133.56
337.053	109.56
337.281	107.56
337.51	101.56
337.738	106.56
337.966	111.56
338.194	134.56
338.422	119.56
338.65	95.56
338.878	96.56
339.106	97.56
339.334	101.56
339.562	85.56
339.79	93.56
340.018	99.56
340.246	106.56
340.474	110.56
340.702	119.56
340.93	112.56
341.158	109.56
341.386	97.56
341.614	111.56
341.842	112.56
342.07	109.56
342.298	90.56
342.526	96.56
342.754	71.56
342.981	93.56
343.209	93.56
343.437	106.56
343.665	81.56
343.893	98.56
344.12	100.56
344.348	89.56
344.576	90.56
344.804	104.56
345.031	126.56
345.259	122.56
345.487	116.56
345.714	92.56
345.942	103.56
346.17	93.56
346.397	89.56
346.625	95.56
346.853	110.56
347.08	105.56
347.308	105.56
347.535	115.56
347.763	120.56
347.99	107.56
348.218	107.56
348.445	126.56
348.673	117.56
348.9	113.56
349.128	97.56
349.355	89.56
349.583	92.56
349.81	104.56
350.037	96.56
350.265	101.56
350.492	110.56
350.72	117.56
350.947	107.56
351.174	114.56
351.402	142.56
351.629	111.56
351.856	130.56
352.083	129.56
352.311	124.56
352.538	129.56
352.765	131.56
352.992	150.56
353.22	122.56
353.447	97.56
353.674	103.56
353.901	93.56
354.128	90.56
354.355	89.56
354.583	95.56
354.81	103.56
355.037	95.56
355.264	92.56
355.491	95.56
355.718	97.56
355.945	94.56
356.172	77.56
356.399	85.56
356.626	87.56
356.853	103.56
357.08	98.56
357.307	84.56
357.534	70.56
357.761	93.56
357.988	89.56
358.215	102.56
358.441	99.56
358.668	102.56
358.895	99.56
359.122	99.56
359.349	102.56
359.576	121.56
359.802	106.56
360.029	175.56
360.256	155.56
360.483	105.56
360.709	89.56
360.936	92.56
361.163	103.56
361.39	100.56
361.616	87.56
361.843	114.56
362.07	114.56
362.296	114.56
362.523	94.56
362.749	106.56
362.976	100.56
363.203	114.56
363.429	88.56
363.656	82.56
363.882	102.56
364.109	96.56
364.335	99.56
364.562	105.56
364.788	108.56
365.015	103.56
365.241	108.56
365.468	121.56
365.694	134.56
365.92	115.56
366.147	93.56
366.373	83.56
366.599	97.56
366.826	108.56
367.052	90.56
367.278	103.56
367.505	94.56
367.731	91.56
367.957	94.56
368.184	101.56
368.41	113.56
368.636	130.56
368.862	158.56
369.089	128.56
369.315	110.56
369.541	114.56
369.767	106.56
369.993	103.56
370.219	103.56
370.445	108.56
370.672	93.56
370.898	91.56
371.124	91.56
371.35	82.56
371.576	89.56
371.802	78.56
372.028	89.56
372.254	109.56
372.48	85.56
372.706	101.56
372.932	91.56
373.158	82.56
373.384	82.56
373.61	89.56
373.835	92.56
374.061	66.56
374.287	89.56
374.513	78.56
374.739	81.56
374.965	98.56
375.191	85.56
375.416	81.56
375.642	93.56
375.868	92.56
376.094	84.56
376.319	81.56
376.545	83.56
376.771	82.56
376.997	94.56
377.222	84.56
377.448	84.56
377.674	83.56
377.899	84.56
378.125	81.56
378.35	105.56
378.576	89.56
378.802	88.56
379.027	88.56
379.253	105.56
379.478	109.56
379.704	89.56
379.929	101.56
380.155	103.56
380.38	101.56
380.606	98.56
380.831	88.56
381.057	104.56
381.282	87.56
381.507	89.56
381.733	86.56
381.958	101.56
382.184	99.56
382.409	103.56
382.634	95.56
382.86	99.56
383.085	93.56
383.31	103.56
383.535	99.56
383.761	75.56
383.986	97.56
384.211	88.56
384.436	98.56
384.662	90.56
384.887	97.56
385.112	100.56
385.337	92.56
385.562	109.56
385.787	98.56
386.013	112.56
386.238	130.56
386.463	108.56
386.688	101.56
386.913	94.56
387.138	97.56
387.363	98.56
387.588	78.56
387.813	88.56
388.038	98.56
388.263	119.56
388.488	109.56
388.713	97.56
388.938	85.56
389.163	76.56
389.387	94.56
389.612	82.56
389.837	89.56
390.062	95.56
390.287	95.56
390.512	83.56
390.736	85.56
390.961	94.56
391.186	95.56
391.411	94.56
391.636	98.56
391.86	80.56
392.085	89.56
392.31	91.56
392.534	76.56
392.759	101.56
392.984	83.56
393.208	93.56
393.433	89.56
393.658	88.56
393.882	87.56
394.107	98.56
394.331	93.56
394.556	82.56
394.78	91.56
395.005	90.56
395.229	83.56
395.454	101.56
395.678	83.56
395.903	66.56
396.127	98.56
396.352	94.56
396.576	83.56
396.801	96.56
397.025	82.56
397.249	92.56
397.474	84.56
397.698	84.56
397.922	68.56
398.147	91.56
398.371	93.56
398.595	87.56
398.82	78.56
399.044	77.56
399.268	87.56
399.492	77.56
399.717	80.56
399.941	96.56
400.165	93.56
400.389	91.56
400.613	99.56
400.837	101.56
401.062	98.56
401.286	86.56
401.51	92.56
401.734	91.56
401.958	125.56
402.182	183.56
402.406	242.56
402.63	164.56
402.854	116.56
403.078	109.56
403.302	100.56
403.526	85.56
403.75	78.56
403.974	86.56
404.198	94.56
404.422	79.56
404.645	121.56
404.869	115.56
405.093	138.56
405.317	179.56
405.541	179.56
405.765	145.56
405.988	149.56
406.212	247.56
406.436	411.56
406.66	271.56
406.883	130.56
407.107	107.56
407.331	109.56
407.555	121.56
407.778	124.56
408.002	105.56
408.226	94.56
408.449	102.56
408.673	94.56
408.896	98.56
409.12	110.56
409.344	85.56
409.567	69.56
409.791	90.56
410.014	90.56
410.238	87.56
410.461	90.56
410.685	98.56
410.908	108.56
411.132	106.56
411.355	98.56
411.578	86.56
411.802	95.56
412.025	83.56
412.249	110.56
412.472	128.56
412.695	173.56
412.919	107.56
413.142	95.56
413.365	85.56
413.589	90.56
413.812	92.56
414.035	99.56
414.258	87.56
414.482	95.56
414.705	89.56
414.928	100.56
415.151	75.56
415.374	98.56
415.597	103.56
415.821	89.56
416.044	101.56
416.267	89.56
416.49	84.56
416.713	87.56
416.936	86.56
417.159	99.56
417.382	108.56
417.605	126.56
417.828	120.56
418.051	99.56
418.274	84.56
418.497	88.56
418.72	81.56
418.943	92.56
419.166	77.56
419.389	83.56
419.611	96.56
419.834	99.56
420.057	101.56
420.28	109.56
420.503	103.56
420.726	99.56
420.948	101.56
421.171	108.56
421.394	107.56
421.617	89.56
421.839	93.56
422.062	88.56
422.285	101.56
422.507	94.56
422.73	111.56
422.953	112.56
423.175	108.56
423.398	88.56
423.621	88.56
423.843	83.56
424.066	77.56
424.288	81.56
424.511	97.56
424.733	111.56
424.956	117.56
425.178	105.56
425.401	111.56
425.623	120.56
425.846	109.56
426.068	94.56
426.291	109.56
426.513	88.56
426.735	86.56
426.958	111.56
427.18	128.56
427.402	204.56
427.625	379.56
427.847	357.56
428.069	333.56
428.292	164.56
428.514	128.56
428.736	86.56
428.958	94.56
429.181	91.56
429.403	96.56
429.625	80.56
429.847	107.56
430.069	108.56
430.292	104.56
430.514	82.56
430.736	72.56
430.958	76.56
431.18	97.56
431.402	89.56
431.624	91.56
431.846	101.56
432.068	89.56
432.29	79.56
432.512	89.56
432.734	85.56
432.956	90.56
433.178	109.56
433.4	108.56
433.622	104.56
433.844	87.56
434.066	88.56
434.287	82.56
434.509	79.56
434.731	93.56
434.953	85.56
435.175	92.56
435.397	96.56
435.618	98.56
435.84	121.56
436.062	165.56
436.284	148.56
436.505	135.56
436.727	106.56
436.949	99.56
437.17	92.56
437.392	93.56
437.614	100.56
437.835	148.56
438.057	181.56
438.278	144.56
438.5	129.56
438.721	130.56
438.943	111.56
439.165	107.56
439.386	87.56
439.608	121.56
439.829	134.56
440.05	193.56
440.272	244.56
440.493	122.56
440.715	88.56
440.936	95.56
441.158	111.56
441.379	110.56
441.6	100.56
441.822	109.56
442.043	118.56
442.264	131.56
442.486	109.56
442.707	123.56
442.928	142.56
443.149	223.56
443.371	223.56
443.592	176.56
443.813	143.56
444.034	136.56
444.255	92.56
444.476	88.56
444.698	96.56
444.919	81.56
445.14	136.56
445.361	146.56
445.582	145.56
445.803	241.56
446.024	214.56
446.245	210.56
446.466	157.56
446.687	104.56
446.908	84.56
447.129	98.56
447.35	94.56
447.571	103.56
447.792	93.56
448.013	116.56
448.234	142.56
448.455	127.56
448.675	153.56
448.896	150.56
449.117	118.56
449.338	119.56
449.559	174.56
449.779	182.56
450	93.56
450.221	84.56
450.442	101.56
450.662	103.56
450.883	162.56
451.104	178.56
451.324	109.56
451.545	83.56
451.766	89.56
451.986	77.56
452.207	93.56
452.428	104.56
452.648	105.56
452.869	154.56
453.089	157.56
453.31	166.56
453.53	102.56
453.751	115.56
453.971	126.56
454.192	143.56
454.412	108.56
454.633	104.56
454.853	82.56
455.073	90.56
455.294	98.56
455.514	125.56
455.734	77.56
455.955	90.56
456.175	77.56
456.395	91.56
456.616	91.56
456.836	93.56
457.056	75.56
457.276	86.56
457.497	84.56
457.717	90.56
457.937	79.56
458.157	83.56
458.377	102.56
458.598	133.56
458.818	269.56
459.038	297.56
459.258	183.56
459.478	114.56
459.698	99.56
459.918	77.56
460.138	86.56
460.358	86.56
460.578	91.56
460.798	97.56
461.018	90.56
461.238	88.56
461.458	87.56
461.678	83.56
461.898	74.56
462.118	91.56
462.338	84.56
462.558	82.56
462.777	88.56
462.997	118.56
463.217	125.56
463.437	93.56
463.657	83.56
463.876	99.56
464.096	102.56
464.316	103.56
464.536	104.56
464.755	119.56
464.975	147.56
465.195	316.56
465.414	314.56
465.634	118.56
465.854	95.56
466.073	86.56
466.293	92.56
466.512	90.56
466.732	94.56
466.951	107.56
467.171	100.56
467.391	139.56
467.61	193.56
467.829	345.56
468.049	1168.56
468.268	1764.56
468.488	377.56
468.707	131.56
468.927	93.56
469.146	94.56
469.365	99.56
469.585	106.56
469.804	118.56
470.023	126.56
470.243	106.56
470.462	147.56
470.681	186.56
470.901	125.56
471.12	120.56
471.339	121.56
471.558	169.56
471.777	235.56
471.997	529.56
472.216	2284.56
472.435	5313.56
472.654	1115.56
472.873	248.56
473.092	115.56
473.311	102.56
473.53	93.56
473.749	104.56
473.968	119.56
474.187	137.56
474.406	115.56
474.625	92.56
474.844	88.56
475.063	93.56
475.282	93.56
475.501	95.56
475.72	83.56
475.939	81.56
476.158	96.56
476.377	90.56
476.596	85.56
476.814	102.56
477.033	115.56
477.252	103.56
477.471	98.56
477.69	99.56
477.908	95.56
478.127	93.56
478.346	92.56
478.564	110.56
478.783	131.56
479.002	119.56
479.22	134.56
479.439	159.56
479.658	160.56
479.876	148.56
480.095	148.56
480.313	165.56
480.532	244.56
480.751	486.56
480.969	2026.56
481.188	8998.56
481.406	5037.56
481.624	628.56
481.843	207.56
482.061	133.56
482.28	106.56
482.498	96.56
482.717	121.56
482.935	94.56
483.153	88.56
483.372	107.56
483.59	94.56
483.808	97.56
484.027	94.56
484.245	97.56
484.463	80.56
484.681	112.56
484.9	100.56
485.118	91.56
485.336	88.56
485.554	89.56
485.772	102.56
485.99	107.56
486.209	110.56
486.427	107.56
486.645	129.56
486.863	146.56
487.081	126.56
487.299	99.56
487.517	96.56
487.735	86.56
487.953	98.56
488.171	99.56
488.389	88.56
488.607	115.56
488.825	105.56
489.043	103.56
489.261	89.56
489.479	95.56
489.696	80.56
489.914	93.56
490.132	81.56
490.35	94.56
490.568	86.56
490.786	93.56
491.003	98.56
491.221	84.56
491.439	97.56
491.657	101.56
491.874	99.56
492.092	101.56
492.31	94.56
492.527	98.56
492.745	102.56
492.963	89.56
493.18	107.56
493.398	95.56
493.615	96.56
493.833	94.56
494.05	92.56
494.268	76.56
494.485	86.56
494.703	96.56
494.92	96.56
495.138	101.56
495.355	105.56
495.573	94.56
495.79	89.56
496.008	92.56
496.225	100.56
496.442	90.56
496.66	97.56
496.877	95.56
497.094	97.56
497.312	77.56
497.529	102.56
497.746	81.56
497.963	103.56
498.181	106.56
498.398	87.56
498.615	141.56
498.832	114.56
499.049	90.56
499.267	97.56
499.484	92.56
499.701	84.56
499.918	102.56
500.135	82.56
500.352	113.56
500.569	103.56
500.786	100.56
501.003	89.56
501.22	100.56
501.437	102.56
501.654	109.56
501.871	156.56
502.088	105.56
502.305	92.56
502.522	109.56
502.739	95.56
502.956	84.56
503.172	90.56
503.389	103.56
503.606	143.56
503.823	115.56
504.04	115.56
504.256	96.56
504.473	107.56
504.69	91.56
504.907	92.56
505.123	92.56
505.34	86.56
505.557	80.56
505.773	92.56
505.99	89.56
506.207	84.56
506.423	94.56
506.64	90.56
506.856	91.56
507.073	89.56
507.289	109.56
507.506	102.56
507.722	156.56
507.939	141.56
508.155	100.56
508.372	105.56
508.588	76.56
508.805	114.56
509.021	90.56
509.238	97.56
509.454	102.56
509.67	102.56
509.887	135.56
510.103	155.56
510.319	289.56
510.536	1213.56
510.752	4364.56
510.968	1132.56
511.184	209.56
511.401	143.56
511.617	112.56
