Data from Circ_1998_H10_HRD10591_00098.txt Node
Date: Wed Jan 03 11:27:08 EST 2024
User: Yrep
Spectrometer: HR+D1059
Trigger mode: 1
Integration Time (sec): 1.000000E-1
Scans to average: 1
Electric dark correction enabled: true
Nonlinearity correction enabled: false
Boxcar width: 0
XAxis mode: Wavelengths
Number of Pixels in Spectrum: 2048
>>>>>Begin Spectral Data<<<<<
223.165	-22.38
223.4	-22.38
223.635	-22.38
223.869	-7.38
224.104	-22.38
224.338	-5.38
224.573	-22.38
224.808	-17.38
225.042	-2.38
225.277	-1.38
225.511	-4.38
225.746	10.62
225.98	-10.38
226.215	17.62
226.449	12.62
226.683	15.62
226.918	23.62
227.152	35.62
227.387	29.62
227.621	25.62
227.856	48.62
228.09	45.62
228.324	58.62
228.559	57.62
228.793	65.62
229.027	67.62
229.262	60.62
229.496	76.62
229.73	105.62
229.964	92.62
230.199	75.62
230.433	67.62
230.667	70.62
230.901	73.62
231.136	83.62
231.37	94.62
231.604	75.62
231.838	71.62
232.072	77.62
232.306	81.62
232.541	96.62
232.775	74.62
233.009	85.62
233.243	72.62
233.477	95.62
233.711	87.62
233.945	77.62
234.179	84.62
234.413	78.62
234.647	66.62
234.881	80.62
235.115	86.62
235.349	93.62
235.583	83.62
235.817	86.62
236.051	85.62
236.285	98.62
236.519	78.62
236.753	89.62
236.987	77.62
237.221	98.62
237.455	98.62
237.689	74.62
237.922	78.62
238.156	61.62
238.39	82.62
238.624	81.62
238.858	80.62
239.091	80.62
239.325	71.62
239.559	85.62
239.793	84.62
240.027	83.62
240.26	79.62
240.494	71.62
240.728	88.62
240.961	77.62
241.195	87.62
241.429	86.62
241.662	79.62
241.896	71.62
242.13	81.62
242.363	71.62
242.597	72.62
242.83	91.62
243.064	95.62
243.298	87.62
243.531	79.62
243.765	83.62
243.998	86.62
244.232	88.62
244.465	96.62
244.699	92.62
244.932	73.62
245.166	75.62
245.399	81.62
245.633	85.62
245.866	77.62
246.099	82.62
246.333	87.62
246.566	80.62
246.8	79.62
247.033	87.62
247.266	93.62
247.5	77.62
247.733	93.62
247.966	92.62
248.2	85.62
248.433	78.62
248.666	71.62
248.899	85.62
249.133	96.62
249.366	109.62
249.599	114.62
249.832	102.62
250.066	80.62
250.299	88.62
250.532	97.62
250.765	83.62
250.998	80.62
251.231	94.62
251.465	78.62
251.698	82.62
251.931	94.62
252.164	88.62
252.397	80.62
252.63	87.62
252.863	79.62
253.096	70.62
253.329	78.62
253.562	89.62
253.795	86.62
254.028	82.62
254.261	87.62
254.494	85.62
254.727	87.62
254.96	80.62
255.193	105.62
255.426	87.62
255.659	84.62
255.892	98.62
256.124	115.62
256.357	98.62
256.59	88.62
256.823	89.62
257.056	96.62
257.289	96.62
257.521	85.62
257.754	85.62
257.987	82.62
258.22	113.62
258.452	110.62
258.685	114.62
258.918	82.62
259.151	96.62
259.383	94.62
259.616	83.62
259.849	81.62
260.081	79.62
260.314	76.62
260.547	85.62
260.779	103.62
261.012	119.62
261.244	136.62
261.477	122.62
261.71	113.62
261.942	152.62
262.175	145.62
262.407	104.62
262.64	80.62
262.872	90.62
263.105	96.62
263.337	82.62
263.57	89.62
263.802	95.62
264.035	82.62
264.267	87.62
264.499	93.62
264.732	95.62
264.964	76.62
265.197	83.62
265.429	95.62
265.661	92.62
265.894	91.62
266.126	102.62
266.358	91.62
266.591	77.62
266.823	71.62
267.055	82.62
267.287	84.62
267.52	67.62
267.752	87.62
267.984	102.62
268.216	97.62
268.448	99.62
268.681	80.62
268.913	91.62
269.145	100.62
269.377	90.62
269.609	81.62
269.841	79.62
270.073	85.62
270.306	87.62
270.538	95.62
270.77	99.62
271.002	90.62
271.234	89.62
271.466	94.62
271.698	87.62
271.93	103.62
272.162	100.62
272.394	91.62
272.626	94.62
272.858	82.62
273.09	90.62
273.322	87.62
273.553	81.62
273.785	85.62
274.017	94.62
274.249	87.62
274.481	94.62
274.713	85.62
274.945	85.62
275.176	99.62
275.408	105.62
275.64	126.62
275.872	137.62
276.104	115.62
276.335	106.62
276.567	119.62
276.799	177.62
277.031	224.62
277.262	281.62
277.494	202.62
277.726	112.62
277.957	102.62
278.189	98.62
278.421	102.62
278.652	88.62
278.884	94.62
279.115	91.62
279.347	97.62
279.579	123.62
279.81	169.62
280.042	281.62
280.273	390.62
280.505	250.62
280.736	123.62
280.968	99.62
281.199	98.62
281.431	96.62
281.662	89.62
281.894	90.62
282.125	111.62
282.356	150.62
282.588	195.62
282.819	140.62
283.051	107.62
283.282	85.62
283.513	94.62
283.745	88.62
283.976	90.62
284.207	103.62
284.439	93.62
284.67	101.62
284.901	82.62
285.132	74.62
285.364	96.62
285.595	91.62
285.826	80.62
286.057	99.62
286.288	84.62
286.52	92.62
286.751	93.62
286.982	102.62
287.213	89.62
287.444	97.62
287.675	87.62
287.906	104.62
288.138	98.62
288.369	87.62
288.6	88.62
288.831	102.62
289.062	89.62
289.293	95.62
289.524	86.62
289.755	93.62
289.986	83.62
290.217	94.62
290.448	88.62
290.679	97.62
290.91	88.62
291.141	87.62
291.371	89.62
291.602	94.62
291.833	100.62
292.064	76.62
292.295	84.62
292.526	87.62
292.757	89.62
292.987	86.62
293.218	89.62
293.449	92.62
293.68	102.62
293.91	85.62
294.141	99.62
294.372	93.62
294.603	105.62
294.833	79.62
295.064	94.62
295.295	95.62
295.525	94.62
295.756	104.62
295.987	146.62
296.217	184.62
296.448	159.62
296.679	102.62
296.909	92.62
297.14	89.62
297.37	113.62
297.601	86.62
297.831	79.62
298.062	82.62
298.292	96.62
298.523	91.62
298.753	93.62
298.984	77.62
299.214	105.62
299.445	97.62
299.675	87.62
299.905	96.62
300.136	99.62
300.366	94.62
300.597	83.62
300.827	105.62
301.057	113.62
301.288	115.62
301.518	117.62
301.748	118.62
301.979	136.62
302.209	117.62
302.439	97.62
302.669	86.62
302.9	105.62
303.13	98.62
303.36	124.62
303.59	153.62
303.82	185.62
304.051	119.62
304.281	96.62
304.511	98.62
304.741	93.62
304.971	86.62
305.201	85.62
305.431	96.62
305.661	106.62
305.891	97.62
306.121	89.62
306.352	120.62
306.582	113.62
306.812	118.62
307.042	147.62
307.272	207.62
307.502	256.62
307.731	229.62
307.961	172.62
308.191	91.62
308.421	103.62
308.651	111.62
308.881	76.62
309.111	96.62
309.341	113.62
309.571	97.62
309.8	106.62
310.03	109.62
310.26	101.62
310.49	103.62
310.72	112.62
310.949	141.62
311.179	117.62
311.409	102.62
311.639	113.62
311.868	109.62
312.098	106.62
312.328	114.62
312.557	128.62
312.787	134.62
313.017	120.62
313.246	106.62
313.476	101.62
313.706	91.62
313.935	98.62
314.165	114.62
314.394	129.62
314.624	124.62
314.853	101.62
315.083	108.62
315.312	98.62
315.542	109.62
315.771	94.62
316.001	112.62
316.23	101.62
316.46	100.62
316.689	105.62
316.919	94.62
317.148	96.62
317.377	85.62
317.607	96.62
317.836	105.62
318.065	86.62
318.295	103.62
318.524	71.62
318.753	88.62
318.983	99.62
319.212	111.62
319.441	122.62
319.67	125.62
319.9	118.62
320.129	108.62
320.358	107.62
320.587	105.62
320.816	104.62
321.046	107.62
321.275	107.62
321.504	110.62
321.733	114.62
321.962	110.62
322.191	118.62
322.42	115.62
322.649	131.62
322.878	121.62
323.108	158.62
323.337	155.62
323.566	172.62
323.795	214.62
324.024	283.62
324.253	587.62
324.482	1244.62
324.71	2646.62
324.939	3562.62
325.168	1299.62
325.397	356.62
325.626	205.62
325.855	163.62
326.084	149.62
326.313	149.62
326.542	206.62
326.77	320.62
326.999	621.62
327.228	1335.62
327.457	2512.62
327.686	2063.62
327.914	754.62
328.143	797.62
328.372	1112.62
328.6	567.62
328.829	264.62
329.058	222.62
329.287	249.62
329.515	252.62
329.744	367.62
329.972	770.62
330.201	1695.62
330.43	2484.62
330.658	1028.62
330.887	402.62
331.115	234.62
331.344	153.62
331.572	138.62
331.801	148.62
332.03	141.62
332.258	128.62
332.486	111.62
332.715	119.62
332.943	117.62
333.172	149.62
333.4	161.62
333.629	197.62
333.857	328.62
334.085	690.62
334.314	1543.62
334.542	3148.62
334.771	2901.62
334.999	687.62
335.227	240.62
335.455	167.62
335.684	130.62
335.912	112.62
336.14	110.62
336.369	122.62
336.597	126.62
336.825	117.62
337.053	101.62
337.281	99.62
337.51	99.62
337.738	81.62
337.966	104.62
338.194	123.62
338.422	105.62
338.65	111.62
338.878	91.62
339.106	90.62
339.334	96.62
339.562	107.62
339.79	100.62
340.018	95.62
340.246	98.62
340.474	88.62
340.702	104.62
340.93	98.62
341.158	109.62
341.386	96.62
341.614	99.62
341.842	91.62
342.07	96.62
342.298	108.62
342.526	97.62
342.754	86.62
342.981	78.62
343.209	93.62
343.437	94.62
343.665	92.62
343.893	92.62
344.12	88.62
344.348	90.62
344.576	85.62
344.804	122.62
345.031	108.62
345.259	111.62
345.487	119.62
345.714	118.62
345.942	102.62
346.17	109.62
346.397	109.62
346.625	109.62
346.853	101.62
347.08	94.62
347.308	90.62
347.535	95.62
347.763	125.62
347.99	121.62
348.218	122.62
348.445	124.62
348.673	112.62
348.9	99.62
349.128	96.62
349.355	104.62
349.583	107.62
349.81	103.62
350.037	103.62
350.265	91.62
350.492	102.62
350.72	108.62
350.947	107.62
351.174	129.62
351.402	129.62
351.629	114.62
351.856	106.62
352.083	117.62
352.311	120.62
352.538	134.62
352.765	111.62
352.992	136.62
353.22	125.62
353.447	110.62
353.674	99.62
353.901	108.62
354.128	98.62
354.355	97.62
354.583	100.62
354.81	83.62
355.037	98.62
355.264	95.62
355.491	98.62
355.718	85.62
355.945	92.62
356.172	107.62
356.399	86.62
356.626	97.62
356.853	92.62
357.08	85.62
357.307	93.62
357.534	86.62
357.761	91.62
357.988	94.62
358.215	105.62
358.441	84.62
358.668	109.62
358.895	93.62
359.122	90.62
359.349	102.62
359.576	108.62
359.802	119.62
360.029	155.62
360.256	152.62
360.483	122.62
360.709	97.62
360.936	89.62
361.163	106.62
361.39	113.62
361.616	111.62
361.843	99.62
362.07	89.62
362.296	115.62
362.523	112.62
362.749	107.62
362.976	93.62
363.203	85.62
363.429	94.62
363.656	85.62
363.882	89.62
364.109	97.62
364.335	96.62
364.562	107.62
364.788	94.62
365.015	107.62
365.241	107.62
365.468	121.62
365.694	112.62
365.92	114.62
366.147	98.62
366.373	96.62
366.599	87.62
366.826	96.62
367.052	87.62
367.278	107.62
367.505	79.62
367.731	101.62
367.957	101.62
368.184	94.62
368.41	112.62
368.636	125.62
368.862	130.62
369.089	120.62
369.315	96.62
369.541	110.62
369.767	101.62
369.993	87.62
370.219	93.62
370.445	91.62
370.672	97.62
370.898	91.62
371.124	78.62
371.35	99.62
371.576	104.62
371.802	83.62
372.028	86.62
372.254	89.62
372.48	99.62
372.706	99.62
372.932	70.62
373.158	97.62
373.384	93.62
373.61	94.62
373.835	94.62
374.061	93.62
374.287	97.62
374.513	90.62
374.739	102.62
374.965	93.62
375.191	98.62
375.416	97.62
375.642	93.62
375.868	94.62
376.094	95.62
376.319	92.62
376.545	82.62
376.771	95.62
376.997	99.62
377.222	90.62
377.448	94.62
377.674	95.62
377.899	84.62
378.125	74.62
378.35	104.62
378.576	98.62
378.802	102.62
379.027	96.62
379.253	96.62
379.478	102.62
379.704	100.62
379.929	93.62
380.155	99.62
380.38	96.62
380.606	102.62
380.831	108.62
381.057	95.62
381.282	106.62
381.507	99.62
381.733	93.62
381.958	106.62
382.184	100.62
382.409	106.62
382.634	120.62
382.86	115.62
383.085	107.62
383.31	103.62
383.535	96.62
383.761	103.62
383.986	103.62
384.211	93.62
384.436	96.62
384.662	90.62
384.887	95.62
385.112	91.62
385.337	99.62
385.562	89.62
385.787	96.62
386.013	110.62
386.238	120.62
386.463	104.62
386.688	105.62
386.913	107.62
387.138	98.62
387.363	90.62
387.588	107.62
387.813	107.62
388.038	107.62
388.263	97.62
388.488	98.62
388.713	95.62
388.938	91.62
389.163	105.62
389.387	86.62
389.612	105.62
389.837	108.62
390.062	104.62
390.287	87.62
390.512	79.62
390.736	105.62
390.961	90.62
391.186	106.62
391.411	88.62
391.636	96.62
391.86	88.62
392.085	94.62
392.31	86.62
392.534	90.62
392.759	98.62
392.984	96.62
393.208	85.62
393.433	98.62
393.658	94.62
393.882	93.62
394.107	87.62
394.331	101.62
394.556	99.62
394.78	94.62
395.005	86.62
395.229	77.62
395.454	90.62
395.678	87.62
395.903	85.62
396.127	90.62
396.352	92.62
396.576	93.62
396.801	84.62
397.025	94.62
397.249	85.62
397.474	93.62
397.698	96.62
397.922	102.62
398.147	89.62
398.371	89.62
398.595	96.62
398.82	95.62
399.044	88.62
399.268	80.62
399.492	84.62
399.717	85.62
399.941	94.62
400.165	96.62
400.389	92.62
400.613	96.62
400.837	95.62
401.062	97.62
401.286	102.62
401.51	99.62
401.734	108.62
401.958	120.62
402.182	146.62
402.406	213.62
402.63	158.62
402.854	125.62
403.078	98.62
403.302	96.62
403.526	95.62
403.75	88.62
403.974	102.62
404.198	81.62
404.422	98.62
404.645	92.62
404.869	113.62
405.093	128.62
405.317	178.62
405.541	167.62
405.765	137.62
405.988	145.62
406.212	240.62
406.436	347.62
406.66	220.62
406.883	133.62
407.107	112.62
407.331	130.62
407.555	135.62
407.778	119.62
408.002	92.62
408.226	106.62
408.449	91.62
408.673	108.62
408.896	102.62
409.12	104.62
409.344	105.62
409.567	86.62
409.791	93.62
410.014	90.62
410.238	102.62
410.461	88.62
410.685	82.62
410.908	85.62
411.132	112.62
411.355	103.62
411.578	98.62
411.802	96.62
412.025	103.62
412.249	117.62
412.472	133.62
412.695	166.62
412.919	130.62
413.142	83.62
413.365	107.62
413.589	96.62
413.812	96.62
414.035	101.62
414.258	97.62
414.482	96.62
414.705	95.62
414.928	99.62
415.151	96.62
415.374	99.62
415.597	107.62
415.821	103.62
416.044	116.62
416.267	95.62
416.49	81.62
416.713	97.62
416.936	99.62
417.159	102.62
417.382	106.62
417.605	120.62
417.828	122.62
418.051	109.62
418.274	77.62
418.497	101.62
418.72	71.62
418.943	92.62
419.166	102.62
419.389	93.62
419.611	107.62
419.834	91.62
420.057	99.62
420.28	106.62
420.503	97.62
420.726	107.62
420.948	102.62
421.171	101.62
421.394	107.62
421.617	102.62
421.839	93.62
422.062	99.62
422.285	102.62
422.507	109.62
422.73	104.62
422.953	115.62
423.175	92.62
423.398	109.62
423.621	79.62
423.843	84.62
424.066	88.62
424.288	98.62
424.511	98.62
424.733	110.62
424.956	128.62
425.178	126.62
425.401	118.62
425.623	108.62
425.846	93.62
426.068	116.62
426.291	107.62
426.513	97.62
426.735	92.62
426.958	120.62
427.18	123.62
427.402	208.62
427.625	331.62
427.847	314.62
428.069	309.62
428.292	159.62
428.514	104.62
428.736	102.62
428.958	96.62
429.181	89.62
429.403	81.62
429.625	94.62
429.847	113.62
430.069	125.62
430.292	113.62
430.514	97.62
430.736	99.62
430.958	92.62
431.18	85.62
431.402	80.62
431.624	87.62
431.846	85.62
432.068	87.62
432.29	99.62
432.512	96.62
432.734	91.62
432.956	101.62
433.178	109.62
433.4	108.62
433.622	98.62
433.844	105.62
434.066	100.62
434.287	93.62
434.509	87.62
434.731	96.62
434.953	95.62
435.175	91.62
435.397	105.62
435.618	101.62
435.84	131.62
436.062	153.62
436.284	149.62
436.505	125.62
436.727	125.62
436.949	92.62
437.17	92.62
437.392	84.62
437.614	104.62
437.835	129.62
438.057	168.62
438.278	145.62
438.5	127.62
438.721	146.62
438.943	113.62
439.165	91.62
439.386	92.62
439.608	99.62
439.829	130.62
440.05	184.62
440.272	235.62
440.493	123.62
440.715	90.62
440.936	85.62
441.158	94.62
441.379	96.62
441.6	105.62
441.822	126.62
442.043	111.62
442.264	137.62
442.486	127.62
442.707	108.62
442.928	136.62
443.149	222.62
443.371	201.62
443.592	160.62
443.813	149.62
444.034	122.62
444.255	108.62
444.476	98.62
444.698	90.62
444.919	91.62
445.14	144.62
445.361	152.62
445.582	160.62
445.803	232.62
446.024	197.62
446.245	194.62
446.466	147.62
446.687	95.62
446.908	97.62
447.129	86.62
447.35	91.62
447.571	98.62
447.792	101.62
448.013	109.62
448.234	128.62
448.455	119.62
448.675	153.62
448.896	160.62
449.117	97.62
449.338	118.62
449.559	164.62
449.779	164.62
450	102.62
450.221	81.62
450.442	97.62
450.662	119.62
450.883	119.62
451.104	143.62
451.324	112.62
451.545	98.62
451.766	87.62
451.986	85.62
452.207	95.62
452.428	99.62
452.648	120.62
452.869	130.62
453.089	154.62
453.31	147.62
453.53	114.62
453.751	123.62
453.971	135.62
454.192	153.62
454.412	122.62
454.633	92.62
454.853	103.62
455.073	100.62
455.294	93.62
455.514	129.62
455.734	104.62
455.955	111.62
456.175	90.62
456.395	80.62
456.616	91.62
456.836	77.62
457.056	96.62
457.276	100.62
457.497	91.62
457.717	73.62
457.937	95.62
458.157	91.62
458.377	100.62
458.598	141.62
458.818	232.62
459.038	270.62
459.258	178.62
459.478	101.62
459.698	95.62
459.918	95.62
460.138	83.62
460.358	80.62
460.578	86.62
460.798	86.62
461.018	91.62
461.238	94.62
461.458	88.62
461.678	97.62
461.898	88.62
462.118	86.62
462.338	71.62
462.558	83.62
462.777	96.62
462.997	108.62
463.217	129.62
463.437	114.62
463.657	108.62
463.876	101.62
464.096	111.62
464.316	112.62
464.536	108.62
464.755	109.62
464.975	135.62
465.195	269.62
465.414	281.62
465.634	121.62
465.854	111.62
466.073	90.62
466.293	95.62
466.512	107.62
466.732	94.62
466.951	98.62
467.171	127.62
467.391	127.62
467.61	169.62
467.829	295.62
468.049	915.62
468.268	1431.62
468.488	327.62
468.707	139.62
468.927	104.62
469.146	109.62
469.365	89.62
469.585	101.62
469.804	107.62
470.023	141.62
470.243	116.62
470.462	146.62
470.681	163.62
470.901	112.62
471.12	106.62
471.339	113.62
471.558	143.62
471.777	197.62
471.997	448.62
472.216	1896.62
472.435	4437.62
472.654	923.62
472.873	225.62
473.092	143.62
473.311	103.62
473.53	99.62
473.749	112.62
473.968	110.62
474.187	149.62
474.406	122.62
474.625	98.62
474.844	102.62
475.063	103.62
475.282	103.62
475.501	96.62
475.72	92.62
475.939	99.62
476.158	98.62
476.377	107.62
476.596	106.62
476.814	123.62
477.033	116.62
477.252	114.62
477.471	107.62
477.69	98.62
477.908	96.62
478.127	102.62
478.346	105.62
478.564	108.62
478.783	130.62
479.002	124.62
479.22	136.62
479.439	146.62
479.658	163.62
479.876	137.62
480.095	156.62
480.313	178.62
480.532	227.62
480.751	441.62
480.969	1727.62
481.188	7620.62
481.406	4188.62
481.624	560.62
481.843	185.62
482.061	150.62
482.28	130.62
482.498	111.62
482.717	127.62
482.935	96.62
483.153	103.62
483.372	97.62
483.59	97.62
483.808	82.62
484.027	104.62
484.245	107.62
484.463	85.62
484.681	105.62
484.9	100.62
485.118	108.62
485.336	104.62
485.554	116.62
485.772	99.62
485.99	114.62
486.209	122.62
486.427	120.62
486.645	127.62
486.863	133.62
487.081	105.62
487.299	98.62
487.517	105.62
487.735	87.62
487.953	92.62
488.171	91.62
488.389	103.62
488.607	123.62
488.825	98.62
489.043	92.62
489.261	94.62
489.479	85.62
489.696	94.62
489.914	98.62
490.132	87.62
490.35	99.62
490.568	100.62
490.786	102.62
491.003	95.62
491.221	114.62
491.439	114.62
491.657	99.62
491.874	93.62
492.092	95.62
492.31	114.62
492.527	96.62
492.745	104.62
492.963	98.62
493.18	98.62
493.398	101.62
493.615	105.62
493.833	97.62
494.05	94.62
494.268	109.62
494.485	89.62
494.703	88.62
494.92	94.62
495.138	88.62
495.355	99.62
495.573	94.62
495.79	99.62
496.008	99.62
496.225	99.62
496.442	94.62
496.66	114.62
496.877	99.62
497.094	109.62
497.312	92.62
497.529	95.62
497.746	113.62
497.963	95.62
498.181	103.62
498.398	112.62
498.615	117.62
498.832	121.62
499.049	98.62
499.267	91.62
499.484	91.62
499.701	89.62
499.918	97.62
500.135	87.62
500.352	99.62
500.569	121.62
500.786	105.62
501.003	100.62
501.22	108.62
501.437	99.62
501.654	108.62
501.871	134.62
502.088	105.62
502.305	109.62
502.522	90.62
502.739	99.62
502.956	107.62
503.172	97.62
503.389	118.62
503.606	141.62
503.823	111.62
504.04	94.62
504.256	81.62
504.473	93.62
504.69	79.62
504.907	96.62
505.123	97.62
505.34	95.62
505.557	92.62
505.773	92.62
505.99	90.62
506.207	80.62
506.423	95.62
506.64	102.62
506.856	89.62
507.073	87.62
507.289	97.62
507.506	117.62
507.722	149.62
507.939	149.62
508.155	86.62
508.372	110.62
508.588	105.62
508.805	115.62
509.021	110.62
509.238	113.62
509.454	107.62
509.67	108.62
509.887	99.62
510.103	142.62
510.319	269.62
510.536	1039.62
510.752	3785.62
510.968	992.62
511.184	209.62
