Data from Circ_1998_H10_HRD10591_00009.txt Node
Date: Wed Jan 03 11:26:50 EST 2024
User: Yrep
Spectrometer: HR+D1059
Trigger mode: 1
Integration Time (sec): 1.000000E-1
Scans to average: 1
Electric dark correction enabled: true
Nonlinearity correction enabled: false
Boxcar width: 0
XAxis mode: Wavelengths
Number of Pixels in Spectrum: 2048
>>>>>Begin Spectral Data<<<<<
223.165	-22
223.4	-22
223.635	-22
223.869	-14
224.104	-10
224.338	-20
224.573	-3
224.808	-6
225.042	-7
225.277	-1
225.511	-6
225.746	-7
225.98	5
226.215	-3
226.449	9
226.683	16
226.918	31
227.152	38
227.387	44
227.621	44
227.856	40
228.09	39
228.324	50
228.559	60
228.793	83
229.027	65
229.262	74
229.496	83
229.73	105
229.964	106
230.199	80
230.433	85
230.667	80
230.901	79
231.136	96
231.37	82
231.604	76
231.838	68
232.072	87
232.306	73
232.541	95
232.775	72
233.009	90
233.243	88
233.477	65
233.711	87
233.945	82
234.179	78
234.413	86
234.647	74
234.881	79
235.115	83
235.349	83
235.583	98
235.817	85
236.051	74
236.285	86
236.519	93
236.753	90
236.987	85
237.221	94
237.455	92
237.689	78
237.922	82
238.156	68
238.39	80
238.624	84
238.858	73
239.091	78
239.325	85
239.559	90
239.793	83
240.027	76
240.26	69
240.494	79
240.728	78
240.961	68
241.195	75
241.429	89
241.662	80
241.896	84
242.13	72
242.363	72
242.597	70
242.83	91
243.064	79
243.298	83
243.531	77
243.765	86
243.998	84
244.232	79
244.465	88
244.699	88
244.932	91
245.166	85
245.399	84
245.633	95
245.866	84
246.099	81
246.333	76
246.566	78
246.8	82
247.033	94
247.266	74
247.5	79
247.733	93
247.966	97
248.2	93
248.433	95
248.666	81
248.899	96
249.133	96
249.366	110
249.599	109
249.832	92
250.066	79
250.299	92
250.532	96
250.765	81
250.998	81
251.231	81
251.465	92
251.698	90
251.931	82
252.164	88
252.397	76
252.63	83
252.863	94
253.096	96
253.329	79
253.562	86
253.795	81
254.028	85
254.261	73
254.494	85
254.727	81
254.96	77
255.193	84
255.426	89
255.659	80
255.892	84
256.124	98
256.357	94
256.59	84
256.823	85
257.056	89
257.289	83
257.521	91
257.754	90
257.987	70
258.22	99
258.452	81
258.685	108
258.918	76
259.151	77
259.383	77
259.616	85
259.849	88
260.081	97
260.314	90
260.547	98
260.779	104
261.012	100
261.244	110
261.477	101
261.71	101
261.942	137
262.175	132
262.407	99
262.64	91
262.872	89
263.105	82
263.337	84
263.57	88
263.802	90
264.035	73
264.267	100
264.499	86
264.732	88
264.964	92
265.197	87
265.429	85
265.661	80
265.894	82
266.126	79
266.358	93
266.591	82
266.823	65
267.055	83
267.287	90
267.52	92
267.752	86
267.984	80
268.216	97
268.448	83
268.681	100
268.913	84
269.145	86
269.377	92
269.609	102
269.841	83
270.073	82
270.306	92
270.538	99
270.77	91
271.002	80
271.234	88
271.466	89
271.698	86
271.93	92
272.162	80
272.394	115
272.626	90
272.858	75
273.09	88
273.322	92
273.553	92
273.785	89
274.017	94
274.249	97
274.481	97
274.713	84
274.945	98
275.176	86
275.408	102
275.64	110
275.872	105
276.104	84
276.335	106
276.567	116
276.799	152
277.031	147
277.262	174
277.494	133
277.726	104
277.957	100
278.189	84
278.421	87
278.652	84
278.884	96
279.115	85
279.347	90
279.579	102
279.81	109
280.042	175
280.273	218
280.505	154
280.736	101
280.968	93
281.199	100
281.431	86
281.662	98
281.894	92
282.125	107
282.356	128
282.588	160
282.819	132
283.051	112
283.282	104
283.513	99
283.745	87
283.976	74
284.207	82
284.439	99
284.67	90
284.901	90
285.132	90
285.364	99
285.595	83
285.826	91
286.057	84
286.288	88
286.52	91
286.751	83
286.982	89
287.213	87
287.444	90
287.675	98
287.906	99
288.138	91
288.369	94
288.6	100
288.831	76
289.062	96
289.293	92
289.524	94
289.755	81
289.986	85
290.217	90
290.448	90
290.679	80
290.91	79
291.141	93
291.371	83
291.602	82
291.833	97
292.064	103
292.295	86
292.526	88
292.757	86
292.987	82
293.218	92
293.449	85
293.68	96
293.91	96
294.141	92
294.372	86
294.603	85
294.833	90
295.064	85
295.295	94
295.525	106
295.756	111
295.987	126
296.217	153
296.448	131
296.679	102
296.909	108
297.14	82
297.37	84
297.601	97
297.831	76
298.062	94
298.292	109
298.523	100
298.753	93
298.984	92
299.214	94
299.445	89
299.675	107
299.905	100
300.136	105
300.366	89
300.597	85
300.827	78
301.057	107
301.288	114
301.518	89
301.748	102
301.979	115
302.209	107
302.439	98
302.669	111
302.9	92
303.13	96
303.36	106
303.59	120
303.82	143
304.051	102
304.281	93
304.511	108
304.741	95
304.971	77
305.201	84
305.431	94
305.661	80
305.891	97
306.121	113
306.352	109
306.582	93
306.812	112
307.042	133
307.272	152
307.502	172
307.731	172
307.961	133
308.191	111
308.421	101
308.651	90
308.881	103
309.111	84
309.341	98
309.571	89
309.8	110
310.03	97
310.26	105
310.49	86
310.72	113
310.949	106
311.179	115
311.409	89
311.639	109
311.868	92
312.098	100
312.328	111
312.557	113
312.787	124
313.017	110
313.246	96
313.476	88
313.706	99
313.935	117
314.165	116
314.394	120
314.624	105
314.853	92
315.083	95
315.312	97
315.542	96
315.771	88
316.001	93
316.23	101
316.46	92
316.689	80
316.919	91
317.148	105
317.377	102
317.607	86
317.836	107
318.065	96
318.295	105
318.524	112
318.753	91
318.983	106
319.212	98
319.441	126
319.67	131
319.9	96
320.129	113
320.358	99
320.587	100
320.816	115
321.046	99
321.275	103
321.504	104
321.733	100
321.962	93
322.191	117
322.42	122
322.649	118
322.878	113
323.108	120
323.337	148
323.566	160
323.795	198
324.024	252
324.253	518
324.482	1129
324.71	2413
324.939	3362
325.168	1173
325.397	316
325.626	164
325.855	155
326.084	158
326.313	166
326.542	163
326.77	272
326.999	604
327.228	1327
327.457	2471
327.686	1988
327.914	588
328.143	468
328.372	571
328.6	328
328.829	171
329.058	161
329.287	176
329.515	166
329.744	249
329.972	420
330.201	843
330.43	1225
330.658	552
330.887	260
331.115	160
331.344	128
331.572	117
331.801	131
332.03	111
332.258	114
332.486	126
332.715	111
332.943	108
333.172	125
333.4	115
333.629	160
333.857	224
334.085	374
334.314	796
334.542	1560
334.771	1461
334.999	395
335.227	159
335.455	121
335.684	114
335.912	107
336.14	116
336.369	110
336.597	112
336.825	121
337.053	86
337.281	94
337.51	91
337.738	94
337.966	97
338.194	98
338.422	106
338.65	85
338.878	104
339.106	78
339.334	103
339.562	98
339.79	100
340.018	88
340.246	92
340.474	104
340.702	101
340.93	89
341.158	90
341.386	116
341.614	106
341.842	110
342.07	100
342.298	108
342.526	79
342.754	85
342.981	100
343.209	94
343.437	83
343.665	93
343.893	81
344.12	99
344.348	104
344.576	89
344.804	100
345.031	104
345.259	116
345.487	88
345.714	86
345.942	101
346.17	104
346.397	97
346.625	102
346.853	86
347.08	86
347.308	92
347.535	89
347.763	110
347.99	92
348.218	100
348.445	117
348.673	99
348.9	100
349.128	101
349.355	92
349.583	97
349.81	112
350.037	105
350.265	109
350.492	92
350.72	99
350.947	80
351.174	118
351.402	105
351.629	118
351.856	95
352.083	102
352.311	106
352.538	115
352.765	114
352.992	108
353.22	109
353.447	107
353.674	109
353.901	108
354.128	95
354.355	112
354.583	109
354.81	85
355.037	99
355.264	91
355.491	93
355.718	101
355.945	96
356.172	97
356.399	105
356.626	113
356.853	96
357.08	78
357.307	106
357.534	107
357.761	85
357.988	96
358.215	98
358.441	100
358.668	91
358.895	94
359.122	99
359.349	100
359.576	83
359.802	116
360.029	122
360.256	137
360.483	122
360.709	92
360.936	98
361.163	99
361.39	115
361.616	97
361.843	108
362.07	93
362.296	116
362.523	85
362.749	97
362.976	106
363.203	80
363.429	90
363.656	110
363.882	88
364.109	99
364.335	101
364.562	96
364.788	91
365.015	95
365.241	107
365.468	125
365.694	117
365.92	92
366.147	84
366.373	96
366.599	93
366.826	101
367.052	94
367.278	81
367.505	85
367.731	88
367.957	98
368.184	92
368.41	113
368.636	120
368.862	121
369.089	123
369.315	108
369.541	101
369.767	110
369.993	92
370.219	76
370.445	92
370.672	79
370.898	91
371.124	105
371.35	95
371.576	93
371.802	94
372.028	101
372.254	96
372.48	85
372.706	81
372.932	102
373.158	89
373.384	102
373.61	88
373.835	106
374.061	100
374.287	101
374.513	109
374.739	102
374.965	92
375.191	95
375.416	98
375.642	102
375.868	92
376.094	78
376.319	102
376.545	101
376.771	91
376.997	90
377.222	98
377.448	106
377.674	88
377.899	110
378.125	95
378.35	95
378.576	94
378.802	100
379.027	95
379.253	93
379.478	94
379.704	97
379.929	98
380.155	102
380.38	96
380.606	94
380.831	115
381.057	114
381.282	93
381.507	112
381.733	105
381.958	111
382.184	110
382.409	120
382.634	100
382.86	106
383.085	102
383.31	116
383.535	112
383.761	108
383.986	107
384.211	115
384.436	105
384.662	103
384.887	122
385.112	117
385.337	129
385.562	122
385.787	124
386.013	129
386.238	136
386.463	130
386.688	136
386.913	129
387.138	128
387.363	118
387.588	114
387.813	105
388.038	118
388.263	132
388.488	127
388.713	110
388.938	110
389.163	110
389.387	93
389.612	78
389.837	98
390.062	94
390.287	83
390.512	93
390.736	106
390.961	85
391.186	98
391.411	92
391.636	88
391.86	86
392.085	88
392.31	92
392.534	101
392.759	91
392.984	92
393.208	104
393.433	109
393.658	109
393.882	85
394.107	73
394.331	93
394.556	92
394.78	99
395.005	97
395.229	86
395.454	90
395.678	108
395.903	102
396.127	98
396.352	92
396.576	97
396.801	92
397.025	103
397.249	93
397.474	93
397.698	88
397.922	93
398.147	80
398.371	70
398.595	72
398.82	85
399.044	86
399.268	74
399.492	85
399.717	94
399.941	99
400.165	98
400.389	89
400.613	107
400.837	88
401.062	97
401.286	93
401.51	113
401.734	89
401.958	102
402.182	150
402.406	162
402.63	122
402.854	99
403.078	92
403.302	86
403.526	89
403.75	84
403.974	68
404.198	95
404.422	83
404.645	93
404.869	109
405.093	121
405.317	149
405.541	136
405.765	120
405.988	138
406.212	190
406.436	257
406.66	185
406.883	117
407.107	105
407.331	93
407.555	128
407.778	105
408.002	96
408.226	89
408.449	92
408.673	104
408.896	107
409.12	112
409.344	86
409.567	84
409.791	94
410.014	100
410.238	95
410.461	78
410.685	88
410.908	108
411.132	113
411.355	124
411.578	96
411.802	84
412.025	93
412.249	100
412.472	119
412.695	143
412.919	123
413.142	102
413.365	105
413.589	105
413.812	100
414.035	83
414.258	92
414.482	98
414.705	99
414.928	92
415.151	96
415.374	99
415.597	92
415.821	93
416.044	92
416.267	99
416.49	90
416.713	94
416.936	77
417.159	98
417.382	106
417.605	108
417.828	109
418.051	101
418.274	101
418.497	85
418.72	92
418.943	96
419.166	96
419.389	79
419.611	97
419.834	101
420.057	100
420.28	96
420.503	96
420.726	92
420.948	99
421.171	113
421.394	103
421.617	85
421.839	83
422.062	91
422.285	85
422.507	106
422.73	129
422.953	100
423.175	84
423.398	86
423.621	73
423.843	80
424.066	86
424.288	82
424.511	93
424.733	118
424.956	116
425.178	107
425.401	112
425.623	108
425.846	103
426.068	99
426.291	90
426.513	90
426.735	79
426.958	109
427.18	128
427.402	170
427.625	240
427.847	231
428.069	227
428.292	123
428.514	98
428.736	92
428.958	85
429.181	96
429.403	105
429.625	86
429.847	90
430.069	118
430.292	102
430.514	72
430.736	92
430.958	102
431.18	80
431.402	88
431.624	83
431.846	77
432.068	92
432.29	84
432.512	90
432.734	101
432.956	106
433.178	110
433.4	106
433.622	89
433.844	81
434.066	97
434.287	98
434.509	93
434.731	98
434.953	93
435.175	84
435.397	98
435.618	93
435.84	110
436.062	151
436.284	131
436.505	118
436.727	111
436.949	96
437.17	104
437.392	105
437.614	92
437.835	111
438.057	138
438.278	121
438.5	132
438.721	128
438.943	109
439.165	98
439.386	96
439.608	100
439.829	115
440.05	149
440.272	178
440.493	121
440.715	91
440.936	99
441.158	75
441.379	102
441.6	96
441.822	109
442.043	114
442.264	113
442.486	111
442.707	100
442.928	120
443.149	163
443.371	170
443.592	118
443.813	116
444.034	125
444.255	99
444.476	107
444.698	82
444.919	93
445.14	148
445.361	138
445.582	150
445.803	200
446.024	183
446.245	172
446.466	124
446.687	87
446.908	92
447.129	92
447.35	81
447.571	102
447.792	88
448.013	98
448.234	98
448.455	111
448.675	131
448.896	142
449.117	117
449.338	115
449.559	149
449.779	156
450	99
450.221	99
450.442	106
450.662	94
450.883	128
451.104	128
451.324	109
451.545	90
451.766	90
451.986	86
452.207	98
452.428	96
452.648	111
452.869	111
453.089	126
453.31	134
453.53	101
453.751	106
453.971	108
454.192	129
454.412	83
454.633	90
454.853	99
455.073	92
455.294	93
455.514	102
455.734	85
455.955	83
456.175	93
456.395	95
456.616	86
456.836	91
457.056	89
457.276	86
457.497	82
457.717	84
457.937	98
458.157	83
458.377	93
458.598	106
458.818	203
459.038	211
459.258	138
459.478	92
459.698	101
459.918	85
460.138	88
460.358	90
460.578	87
460.798	91
461.018	95
461.238	105
461.458	85
461.678	88
461.898	96
462.118	90
462.338	97
462.558	89
462.777	99
462.997	94
463.217	83
463.437	81
463.657	96
463.876	89
464.096	92
464.316	87
464.536	86
464.755	107
464.975	114
465.195	199
465.414	227
465.634	105
465.854	95
466.073	72
466.293	91
466.512	80
466.732	91
466.951	105
467.171	106
467.391	112
467.61	143
467.829	188
468.049	474
468.268	696
468.488	195
468.707	108
468.927	91
469.146	76
469.365	88
469.585	99
469.804	93
470.023	113
470.243	94
470.462	112
470.681	146
470.901	95
471.12	99
471.339	95
471.558	126
471.777	136
471.997	253
472.216	961
472.435	2158
472.654	501
472.873	159
473.092	104
473.311	97
473.53	85
473.749	96
473.968	102
474.187	110
474.406	117
474.625	95
474.844	89
475.063	95
475.282	83
475.501	100
475.72	96
475.939	94
476.158	86
476.377	95
476.596	107
476.814	109
477.033	96
477.252	92
477.471	82
477.69	113
477.908	97
478.127	91
478.346	96
478.564	96
478.783	109
479.002	110
479.22	119
479.439	130
479.658	140
479.876	120
480.095	115
480.313	118
480.532	169
480.751	265
480.969	885
481.188	3757
481.406	2094
481.624	322
481.843	136
482.061	110
482.28	100
482.498	109
482.717	94
482.935	103
483.153	93
483.372	82
483.59	69
483.808	99
484.027	83
484.245	89
484.463	110
484.681	106
484.9	91
485.118	101
485.336	86
485.554	101
485.772	100
485.99	118
486.209	128
486.427	124
486.645	115
486.863	122
487.081	102
487.299	95
487.517	104
487.735	97
487.953	102
488.171	104
488.389	108
488.607	100
488.825	104
489.043	98
489.261	99
489.479	81
489.696	101
489.914	91
490.132	95
490.35	87
490.568	83
490.786	105
491.003	99
491.221	105
491.439	104
491.657	98
491.874	102
492.092	92
492.31	97
492.527	93
492.745	93
492.963	112
493.18	93
493.398	94
493.615	97
493.833	83
494.05	91
494.268	109
494.485	88
494.703	101
494.92	82
495.138	93
495.355	93
495.573	101
495.79	110
496.008	92
496.225	97
496.442	88
496.66	90
496.877	85
497.094	94
497.312	107
497.529	100
497.746	88
497.963	101
498.181	98
498.398	98
498.615	113
498.832	106
499.049	84
499.267	93
499.484	98
499.701	99
499.918	90
500.135	97
500.352	84
500.569	96
500.786	99
501.003	83
501.22	88
501.437	85
501.654	108
501.871	105
502.088	105
502.305	105
502.522	103
502.739	99
502.956	76
503.172	104
503.389	102
503.606	136
503.823	92
504.04	98
504.256	96
504.473	95
504.69	100
504.907	114
505.123	101
505.34	93
505.557	97
505.773	103
505.99	100
506.207	92
506.423	92
506.64	90
506.856	98
507.073	96
507.289	101
507.506	102
507.722	123
507.939	114
508.155	102
508.372	92
508.588	102
508.805	109
509.021	87
509.238	104
509.454	99
509.67	106
509.887	112
510.103	134
510.319	228
510.536	814
510.752	2740
510.968	762
511.184	173
511.401	131
511.617	115
511.833	104
512.049	107
512.265	106
512.481	88
512.698	97
512.914	89
513.13	85
513.346	93
513.562	96
513.778	106
513.994	106
514.21	112
514.426	160
514.642	157
514.858	157
515.074	201
515.29	580
515.506	2028
515.721	724
515.937	202
516.153	130
516.369	108
516.585	114
516.801	116
517.016	109
517.232	94
517.448	97
517.664	91
517.879	98
518.095	90
518.311	110
518.527	102
518.742	100
518.958	97
519.173	94
519.389	107
519.605	96
519.82	105
520.036	113
520.251	144
520.467	121
520.682	112
520.898	122
521.113	121
521.329	178
521.544	255
521.76	766
521.975	3441
522.19	2060
522.406	428
522.621	166
522.836	124
523.052	115
523.267	105
523.482	92
523.698	109
523.913	128
524.128	121
524.343	99
524.559	102
524.774	86
524.989	120
525.204	125
525.419	116
525.634	99
525.849	92
526.064	85
526.28	97
526.495	92
526.71	94
526.925	82
527.14	105
527.355	107
527.57	87
527.785	91
527.999	98
528.214	97
528.429	98
528.644	109
528.859	101
529.074	106
529.289	140
529.503	253
529.718	117
529.933	93
530.148	97
530.363	108
530.577	95
530.792	99
531.007	96
531.221	96
531.436	101
531.651	93
531.865	100
532.08	111
532.295	83
532.509	98
532.724	87
532.938	102
533.153	99
533.367	88
533.582	107
533.796	93
534.011	95
534.225	88
534.44	94
534.654	85
534.868	101
535.083	107
535.297	111
535.511	100
535.726	117
535.94	90
536.154	101
536.369	89
536.583	101
536.797	93
537.011	98
537.225	102
537.44	104
537.654	97
537.868	84
538.082	85
538.296	101
538.51	97
538.724	100
538.938	118
539.153	113
539.367	132
539.581	100
539.795	105
540.009	110
540.222	110
540.436	98
540.65	88
540.864	94
541.078	108
541.292	92
541.506	91
541.72	99
541.934	83
542.147	98
542.361	99
542.575	84
542.789	106
543.002	98
543.216	85
543.43	94
543.644	101
543.857	97
544.071	104
544.285	90
544.498	82
544.712	97
544.925	97
545.139	91
545.352	91
545.566	102
545.779	68
545.993	87
546.206	84
546.42	90
546.633	84
546.847	111
547.06	97
547.274	87
547.487	89
547.7	82
547.914	102
548.127	77
548.34	95
548.554	96
548.767	89
548.98	92
549.193	96
549.407	86
549.62	88
549.833	74
550.046	93
550.259	98
550.473	87
550.686	93
550.899	87
551.112	84
551.325	80
551.538	111
551.751	84
551.964	106
552.177	90
552.39	103
552.603	89
552.816	92
553.029	97
553.242	93
553.455	105
553.667	109
553.88	113
554.093	105
554.306	111
554.519	114
554.732	95
554.944	110
555.157	93
555.37	99
555.583	106
555.795	95
556.008	110
556.221	93
556.433	103
556.646	93
556.859	88
557.071	97
557.284	94
557.496	104
557.709	88
557.921	102
558.134	98
558.346	91
558.559	92
558.771	90
558.984	105
559.196	91
559.409	106
559.621	82
559.833	102
560.046	110
560.258	115
560.47	136
560.683	109
560.895	106
561.107	90
561.32	95
561.532	90
561.744	92
561.956	92
562.168	90
562.381	92
562.593	82
562.805	91
563.017	100
563.229	95
563.441	98
563.653	80
563.865	86
564.077	99
564.289	105
564.501	90
564.713	108
564.925	87
565.137	113
565.349	86
565.561	91
565.773	100
565.985	98
566.197	85
566.408	78
566.62	77
566.832	95
567.044	96
567.255	93
567.467	91
567.679	94
567.891	72
568.102	90
568.314	83
568.526	95
568.737	95
568.949	92
569.161	86
569.372	76
569.584	102
569.795	105
570.007	124
570.218	273
570.43	135
570.641	88
570.853	100
571.064	93
571.276	85
571.487	81
571.698	74
571.91	89
572.121	72
572.333	95
572.544	103
572.755	84
572.966	90
573.178	93
573.389	109
573.6	90
573.811	89
574.023	98
574.234	90
574.445	89
574.656	84
574.867	90
575.078	97
575.289	84
575.501	95
575.712	98
575.923	79
576.134	88
576.345	91
576.556	98
576.767	93
576.978	93
577.188	95
577.399	86
577.61	88
577.821	92
578.032	114
578.243	271
578.454	835
578.665	229
578.875	106
