Data from Circ_1998_H10_HRD10591_00077.txt Node
Date: Wed Jan 03 11:27:04 EST 2024
User: Yrep
Spectrometer: HR+D1059
Trigger mode: 1
Integration Time (sec): 1.000000E-1
Scans to average: 1
Electric dark correction enabled: true
Nonlinearity correction enabled: false
Boxcar width: 0
XAxis mode: Wavelengths
Number of Pixels in Spectrum: 2048
>>>>>Begin Spectral Data<<<<<
223.165	-9.12
223.4	-9.12
223.635	-9.12
223.869	-23.12
224.104	-25.12
224.338	-16.12
224.573	-16.12
224.808	-5.12
225.042	-22.12
225.277	-6.12
225.511	14.88
225.746	13.88
225.98	8.88
226.215	7.88
226.449	18.88
226.683	21.88
226.918	14.88
227.152	21.88
227.387	41.88
227.621	36.88
227.856	43.88
228.09	38.88
228.324	43.88
228.559	49.88
228.793	59.88
229.027	72.88
229.262	70.88
229.496	81.88
229.73	116.88
229.964	118.88
230.199	64.88
230.433	79.88
230.667	93.88
230.901	83.88
231.136	65.88
231.37	74.88
231.604	89.88
231.838	75.88
232.072	91.88
232.306	107.88
232.541	87.88
232.775	73.88
233.009	92.88
233.243	91.88
233.477	80.88
233.711	94.88
233.945	73.88
234.179	65.88
234.413	86.88
234.647	84.88
234.881	89.88
235.115	76.88
235.349	86.88
235.583	92.88
235.817	86.88
236.051	85.88
236.285	81.88
236.519	65.88
236.753	75.88
236.987	98.88
237.221	98.88
237.455	107.88
237.689	97.88
237.922	80.88
238.156	62.88
238.39	90.88
238.624	81.88
238.858	81.88
239.091	82.88
239.325	81.88
239.559	88.88
239.793	86.88
240.027	80.88
240.26	86.88
240.494	91.88
240.728	79.88
240.961	69.88
241.195	105.88
241.429	76.88
241.662	81.88
241.896	79.88
242.13	78.88
242.363	86.88
242.597	91.88
242.83	83.88
243.064	72.88
243.298	69.88
243.531	62.88
243.765	77.88
243.998	83.88
244.232	74.88
244.465	89.88
244.699	105.88
244.932	81.88
245.166	74.88
245.399	96.88
245.633	78.88
245.866	72.88
246.099	89.88
246.333	77.88
246.566	90.88
246.8	96.88
247.033	91.88
247.266	78.88
247.5	81.88
247.733	97.88
247.966	85.88
248.2	95.88
248.433	76.88
248.666	85.88
248.899	77.88
249.133	91.88
249.366	120.88
249.599	126.88
249.832	98.88
250.066	94.88
250.299	93.88
250.532	86.88
250.765	93.88
250.998	76.88
251.231	80.88
251.465	78.88
251.698	82.88
251.931	88.88
252.164	77.88
252.397	69.88
252.63	97.88
252.863	76.88
253.096	80.88
253.329	90.88
253.562	82.88
253.795	75.88
254.028	106.88
254.261	74.88
254.494	74.88
254.727	100.88
254.96	78.88
255.193	83.88
255.426	93.88
255.659	94.88
255.892	109.88
256.124	109.88
256.357	97.88
256.59	92.88
256.823	101.88
257.056	97.88
257.289	91.88
257.521	103.88
257.754	75.88
257.987	102.88
258.22	97.88
258.452	103.88
258.685	105.88
258.918	95.88
259.151	77.88
259.383	90.88
259.616	88.88
259.849	92.88
260.081	91.88
260.314	108.88
260.547	93.88
260.779	106.88
261.012	133.88
261.244	153.88
261.477	110.88
261.71	126.88
261.942	157.88
262.175	180.88
262.407	122.88
262.64	99.88
262.872	97.88
263.105	96.88
263.337	90.88
263.57	89.88
263.802	89.88
264.035	85.88
264.267	75.88
264.499	75.88
264.732	75.88
264.964	78.88
265.197	94.88
265.429	77.88
265.661	98.88
265.894	93.88
266.126	96.88
266.358	71.88
266.591	89.88
266.823	93.88
267.055	81.88
267.287	87.88
267.52	95.88
267.752	92.88
267.984	88.88
268.216	88.88
268.448	92.88
268.681	98.88
268.913	91.88
269.145	87.88
269.377	85.88
269.609	90.88
269.841	86.88
270.073	76.88
270.306	95.88
270.538	92.88
270.77	83.88
271.002	97.88
271.234	83.88
271.466	93.88
271.698	102.88
271.93	90.88
272.162	95.88
272.394	93.88
272.626	97.88
272.858	89.88
273.09	97.88
273.322	95.88
273.553	81.88
273.785	89.88
274.017	88.88
274.249	99.88
274.481	103.88
274.713	87.88
274.945	82.88
275.176	97.88
275.408	123.88
275.64	136.88
275.872	162.88
276.104	152.88
276.335	113.88
276.567	137.88
276.799	201.88
277.031	268.88
277.262	302.88
277.494	220.88
277.726	118.88
277.957	87.88
278.189	90.88
278.421	102.88
278.652	111.88
278.884	92.88
279.115	101.88
279.347	99.88
279.579	115.88
279.81	176.88
280.042	311.88
280.273	469.88
280.505	291.88
280.736	133.88
280.968	105.88
281.199	97.88
281.431	94.88
281.662	95.88
281.894	97.88
282.125	115.88
282.356	176.88
282.588	215.88
282.819	168.88
283.051	107.88
283.282	96.88
283.513	98.88
283.745	106.88
283.976	94.88
284.207	95.88
284.439	103.88
284.67	94.88
284.901	81.88
285.132	94.88
285.364	86.88
285.595	96.88
285.826	79.88
286.057	82.88
286.288	91.88
286.52	79.88
286.751	82.88
286.982	94.88
287.213	89.88
287.444	95.88
287.675	96.88
287.906	95.88
288.138	100.88
288.369	91.88
288.6	101.88
288.831	89.88
289.062	96.88
289.293	86.88
289.524	83.88
289.755	89.88
289.986	73.88
290.217	94.88
290.448	82.88
290.679	97.88
290.91	86.88
291.141	97.88
291.371	96.88
291.602	110.88
291.833	82.88
292.064	98.88
292.295	94.88
292.526	93.88
292.757	76.88
292.987	99.88
293.218	101.88
293.449	91.88
293.68	86.88
293.91	107.88
294.141	96.88
294.372	81.88
294.603	75.88
294.833	95.88
295.064	91.88
295.295	97.88
295.525	101.88
295.756	126.88
295.987	159.88
296.217	205.88
296.448	188.88
296.679	125.88
296.909	103.88
297.14	94.88
297.37	89.88
297.601	87.88
297.831	94.88
298.062	98.88
298.292	97.88
298.523	93.88
298.753	101.88
298.984	83.88
299.214	94.88
299.445	104.88
299.675	87.88
299.905	104.88
300.136	94.88
300.366	106.88
300.597	106.88
300.827	105.88
301.057	116.88
301.288	122.88
301.518	120.88
301.748	104.88
301.979	139.88
302.209	125.88
302.439	109.88
302.669	105.88
302.9	96.88
303.13	118.88
303.36	129.88
303.59	167.88
303.82	211.88
304.051	116.88
304.281	110.88
304.511	100.88
304.741	86.88
304.971	96.88
305.201	92.88
305.431	105.88
305.661	95.88
305.891	90.88
306.121	97.88
306.352	128.88
306.582	138.88
306.812	139.88
307.042	166.88
307.272	233.88
307.502	280.88
307.731	251.88
307.961	161.88
308.191	88.88
308.421	85.88
308.651	92.88
308.881	119.88
309.111	104.88
309.341	107.88
309.571	121.88
309.8	117.88
310.03	114.88
310.26	122.88
310.49	109.88
310.72	119.88
310.949	153.88
311.179	138.88
311.409	102.88
311.639	103.88
311.868	104.88
312.098	120.88
312.328	118.88
312.557	130.88
312.787	130.88
313.017	114.88
313.246	106.88
313.476	105.88
313.706	105.88
313.935	111.88
314.165	126.88
314.394	126.88
314.624	121.88
314.853	116.88
315.083	90.88
315.312	107.88
315.542	106.88
315.771	85.88
316.001	103.88
316.23	108.88
316.46	90.88
316.689	101.88
316.919	105.88
317.148	106.88
317.377	115.88
317.607	116.88
317.836	112.88
318.065	94.88
318.295	88.88
318.524	117.88
318.753	109.88
318.983	104.88
319.212	112.88
319.441	123.88
319.67	134.88
319.9	103.88
320.129	99.88
320.358	107.88
320.587	105.88
320.816	130.88
321.046	113.88
321.275	121.88
321.504	103.88
321.733	102.88
321.962	130.88
322.191	117.88
322.42	139.88
322.649	138.88
322.878	143.88
323.108	151.88
323.337	176.88
323.566	197.88
323.795	220.88
324.024	329.88
324.253	626.88
324.482	1435.88
324.71	3056.88
324.939	4128.88
325.168	1481.88
325.397	393.88
325.626	226.88
325.855	160.88
326.084	176.88
326.313	185.88
326.542	210.88
326.77	329.88
326.999	689.88
327.228	1469.88
327.457	2797.88
327.686	2266.88
327.914	869.88
328.143	921.88
328.372	1239.88
328.6	652.88
328.829	271.88
329.058	269.88
329.287	303.88
329.515	268.88
329.744	404.88
329.972	880.88
330.201	1953.88
330.43	2883.88
330.658	1179.88
330.887	477.88
331.115	294.88
331.344	171.88
331.572	159.88
331.801	165.88
332.03	166.88
332.258	141.88
332.486	110.88
332.715	125.88
332.943	138.88
333.172	159.88
333.4	169.88
333.629	238.88
333.857	366.88
334.085	774.88
334.314	1781.88
334.542	3576.88
334.771	3259.88
334.999	776.88
335.227	269.88
335.455	178.88
335.684	157.88
335.912	126.88
336.14	124.88
336.369	134.88
336.597	129.88
336.825	109.88
337.053	95.88
337.281	97.88
337.51	117.88
337.738	93.88
337.966	92.88
338.194	123.88
338.422	124.88
338.65	102.88
338.878	98.88
339.106	94.88
339.334	101.88
339.562	93.88
339.79	104.88
340.018	106.88
340.246	122.88
340.474	117.88
340.702	100.88
340.93	102.88
341.158	97.88
341.386	110.88
341.614	109.88
341.842	102.88
342.07	116.88
342.298	94.88
342.526	91.88
342.754	98.88
342.981	98.88
343.209	82.88
343.437	98.88
343.665	93.88
343.893	97.88
344.12	101.88
344.348	114.88
344.576	106.88
344.804	101.88
345.031	114.88
345.259	120.88
345.487	99.88
345.714	113.88
345.942	107.88
346.17	111.88
346.397	110.88
346.625	95.88
346.853	93.88
347.08	94.88
347.308	103.88
347.535	126.88
347.763	123.88
347.99	124.88
348.218	129.88
348.445	148.88
348.673	141.88
348.9	117.88
349.128	102.88
349.355	95.88
349.583	82.88
349.81	110.88
350.037	110.88
350.265	89.88
350.492	92.88
350.72	98.88
350.947	124.88
351.174	136.88
351.402	157.88
351.629	109.88
351.856	102.88
352.083	127.88
352.311	125.88
352.538	146.88
352.765	140.88
352.992	144.88
353.22	143.88
353.447	118.88
353.674	114.88
353.901	107.88
354.128	103.88
354.355	94.88
354.583	99.88
354.81	101.88
355.037	81.88
355.264	89.88
355.491	102.88
355.718	98.88
355.945	86.88
356.172	89.88
356.399	103.88
356.626	92.88
356.853	90.88
357.08	94.88
357.307	96.88
357.534	90.88
357.761	88.88
357.988	96.88
358.215	97.88
358.441	88.88
358.668	88.88
358.895	93.88
359.122	104.88
359.349	91.88
359.576	99.88
359.802	146.88
360.029	194.88
360.256	174.88
360.483	145.88
360.709	95.88
360.936	109.88
361.163	94.88
361.39	115.88
361.616	128.88
361.843	94.88
362.07	117.88
362.296	112.88
362.523	106.88
362.749	110.88
362.976	103.88
363.203	94.88
363.429	110.88
363.656	89.88
363.882	103.88
364.109	89.88
364.335	94.88
364.562	103.88
364.788	116.88
365.015	111.88
365.241	117.88
365.468	136.88
365.694	130.88
365.92	122.88
366.147	113.88
366.373	97.88
366.599	93.88
366.826	105.88
367.052	89.88
367.278	105.88
367.505	110.88
367.731	95.88
367.957	99.88
368.184	124.88
368.41	106.88
368.636	140.88
368.862	149.88
369.089	138.88
369.315	120.88
369.541	106.88
369.767	103.88
369.993	111.88
370.219	108.88
370.445	99.88
370.672	88.88
370.898	89.88
371.124	86.88
371.35	85.88
371.576	89.88
371.802	81.88
372.028	85.88
372.254	94.88
372.48	86.88
372.706	87.88
372.932	103.88
373.158	85.88
373.384	102.88
373.61	112.88
373.835	85.88
374.061	103.88
374.287	86.88
374.513	98.88
374.739	82.88
374.965	96.88
375.191	75.88
375.416	83.88
375.642	84.88
375.868	106.88
376.094	86.88
376.319	82.88
376.545	67.88
376.771	92.88
376.997	98.88
377.222	93.88
377.448	97.88
377.674	112.88
377.899	85.88
378.125	93.88
378.35	91.88
378.576	94.88
378.802	81.88
379.027	91.88
379.253	93.88
379.478	94.88
379.704	99.88
379.929	94.88
380.155	93.88
380.38	110.88
380.606	120.88
380.831	114.88
381.057	93.88
381.282	100.88
381.507	104.88
381.733	113.88
381.958	111.88
382.184	111.88
382.409	113.88
382.634	98.88
382.86	91.88
383.085	106.88
383.31	90.88
383.535	96.88
383.761	89.88
383.986	107.88
384.211	91.88
384.436	119.88
384.662	97.88
384.887	105.88
385.112	122.88
385.337	113.88
385.562	112.88
385.787	101.88
386.013	125.88
386.238	129.88
386.463	109.88
386.688	123.88
386.913	103.88
387.138	94.88
387.363	100.88
387.588	85.88
387.813	105.88
388.038	110.88
388.263	119.88
388.488	112.88
388.713	100.88
388.938	82.88
389.163	95.88
389.387	98.88
389.612	84.88
389.837	101.88
390.062	101.88
390.287	90.88
390.512	84.88
390.736	96.88
390.961	73.88
391.186	78.88
391.411	93.88
391.636	77.88
391.86	86.88
392.085	93.88
392.31	82.88
392.534	89.88
392.759	92.88
392.984	91.88
393.208	103.88
393.433	127.88
393.658	122.88
393.882	93.88
394.107	93.88
394.331	90.88
394.556	85.88
394.78	93.88
395.005	86.88
395.229	90.88
395.454	92.88
395.678	77.88
395.903	102.88
396.127	87.88
396.352	96.88
396.576	96.88
396.801	115.88
397.025	114.88
397.249	99.88
397.474	100.88
397.698	81.88
397.922	88.88
398.147	93.88
398.371	88.88
398.595	89.88
398.82	92.88
399.044	103.88
399.268	87.88
399.492	80.88
399.717	96.88
399.941	85.88
400.165	101.88
400.389	98.88
400.613	105.88
400.837	89.88
401.062	65.88
401.286	107.88
401.51	101.88
401.734	108.88
401.958	118.88
402.182	191.88
402.406	265.88
402.63	191.88
402.854	105.88
403.078	125.88
403.302	102.88
403.526	98.88
403.75	102.88
403.974	82.88
404.198	101.88
404.422	93.88
404.645	107.88
404.869	107.88
405.093	158.88
405.317	169.88
405.541	171.88
405.765	152.88
405.988	174.88
406.212	303.88
406.436	439.88
406.66	275.88
406.883	149.88
407.107	129.88
407.331	122.88
407.555	128.88
407.778	118.88
408.002	111.88
408.226	98.88
408.449	98.88
408.673	89.88
408.896	97.88
409.12	104.88
409.344	85.88
409.567	88.88
409.791	89.88
410.014	106.88
410.238	103.88
410.461	95.88
410.685	97.88
410.908	104.88
411.132	110.88
411.355	113.88
411.578	101.88
411.802	93.88
412.025	89.88
412.249	111.88
412.472	146.88
412.695	172.88
412.919	116.88
413.142	114.88
413.365	90.88
413.589	99.88
413.812	91.88
414.035	96.88
414.258	101.88
414.482	104.88
414.705	106.88
414.928	91.88
415.151	85.88
415.374	94.88
415.597	92.88
415.821	97.88
416.044	103.88
416.267	94.88
416.49	98.88
416.713	90.88
416.936	98.88
417.159	92.88
417.382	117.88
417.605	120.88
417.828	142.88
418.051	114.88
418.274	101.88
418.497	98.88
418.72	97.88
418.943	86.88
419.166	83.88
419.389	86.88
419.611	91.88
419.834	101.88
420.057	101.88
420.28	114.88
420.503	98.88
420.726	99.88
420.948	111.88
421.171	110.88
421.394	114.88
421.617	98.88
421.839	101.88
422.062	82.88
422.285	98.88
422.507	126.88
422.73	151.88
422.953	140.88
423.175	91.88
423.398	80.88
423.621	79.88
423.843	95.88
424.066	94.88
424.288	96.88
424.511	106.88
424.733	123.88
424.956	142.88
425.178	137.88
425.401	120.88
425.623	123.88
425.846	95.88
426.068	119.88
426.291	104.88
426.513	110.88
426.735	118.88
426.958	113.88
427.18	146.88
427.402	222.88
427.625	378.88
427.847	351.88
428.069	302.88
428.292	167.88
428.514	113.88
428.736	89.88
428.958	110.88
429.181	91.88
429.403	98.88
429.625	94.88
429.847	102.88
430.069	113.88
430.292	97.88
430.514	90.88
430.736	99.88
430.958	87.88
431.18	87.88
431.402	89.88
431.624	88.88
431.846	82.88
432.068	97.88
432.29	95.88
432.512	92.88
432.734	109.88
432.956	102.88
433.178	99.88
433.4	106.88
433.622	104.88
433.844	81.88
434.066	98.88
434.287	90.88
434.509	100.88
434.731	89.88
434.953	106.88
435.175	96.88
435.397	106.88
435.618	106.88
435.84	130.88
436.062	168.88
436.284	155.88
436.505	125.88
436.727	109.88
436.949	94.88
437.17	91.88
437.392	101.88
437.614	103.88
437.835	145.88
438.057	197.88
438.278	153.88
438.5	136.88
438.721	159.88
438.943	130.88
439.165	95.88
439.386	105.88
439.608	106.88
439.829	129.88
440.05	192.88
440.272	252.88
440.493	139.88
440.715	84.88
440.936	91.88
441.158	94.88
441.379	115.88
441.6	123.88
441.822	115.88
442.043	117.88
442.264	147.88
442.486	130.88
442.707	103.88
442.928	160.88
443.149	224.88
443.371	235.88
443.592	173.88
443.813	163.88
444.034	133.88
444.255	97.88
444.476	97.88
444.698	97.88
444.919	98.88
445.14	158.88
445.361	161.88
445.582	156.88
445.803	250.88
446.024	239.88
446.245	224.88
446.466	154.88
446.687	123.88
446.908	110.88
447.129	88.88
447.35	96.88
447.571	95.88
447.792	109.88
448.013	109.88
448.234	149.88
448.455	133.88
448.675	149.88
448.896	157.88
449.117	114.88
449.338	114.88
449.559	171.88
449.779	191.88
450	122.88
450.221	91.88
450.442	94.88
450.662	119.88
450.883	152.88
451.104	190.88
451.324	127.88
451.545	80.88
451.766	88.88
451.986	86.88
452.207	88.88
452.428	106.88
452.648	119.88
452.869	161.88
453.089	174.88
453.31	189.88
453.53	127.88
453.751	114.88
453.971	134.88
454.192	167.88
454.412	116.88
454.633	90.88
454.853	86.88
455.073	99.88
455.294	129.88
455.514	118.88
455.734	111.88
455.955	95.88
456.175	86.88
456.395	112.88
456.616	95.88
456.836	85.88
457.056	98.88
457.276	106.88
457.497	85.88
457.717	96.88
457.937	97.88
458.157	93.88
458.377	100.88
458.598	155.88
458.818	291.88
459.038	335.88
459.258	195.88
459.478	109.88
459.698	102.88
459.918	91.88
460.138	88.88
460.358	99.88
460.578	92.88
460.798	97.88
461.018	112.88
461.238	79.88
461.458	93.88
461.678	87.88
461.898	86.88
462.118	108.88
462.338	88.88
462.558	109.88
462.777	106.88
462.997	111.88
463.217	131.88
463.437	121.88
463.657	113.88
463.876	85.88
464.096	98.88
464.316	111.88
464.536	118.88
464.755	111.88
464.975	154.88
465.195	317.88
465.414	329.88
465.634	130.88
465.854	105.88
466.073	91.88
466.293	89.88
466.512	95.88
466.732	99.88
466.951	98.88
467.171	108.88
467.391	141.88
467.61	219.88
467.829	343.88
468.049	1106.88
468.268	1692.88
468.488	377.88
468.707	132.88
468.927	107.88
469.146	93.88
469.365	105.88
469.585	104.88
469.804	140.88
470.023	154.88
470.243	120.88
470.462	155.88
470.681	178.88
470.901	124.88
471.12	121.88
471.339	136.88
471.558	154.88
471.777	219.88
471.997	527.88
472.216	2178.88
472.435	5067.88
472.654	1055.88
472.873	223.88
473.092	136.88
473.311	113.88
473.53	94.88
473.749	105.88
473.968	120.88
474.187	160.88
474.406	138.88
474.625	88.88
474.844	104.88
475.063	102.88
475.282	92.88
475.501	103.88
475.72	104.88
475.939	89.88
476.158	97.88
476.377	107.88
476.596	123.88
476.814	114.88
477.033	119.88
477.252	107.88
477.471	104.88
477.69	104.88
477.908	98.88
478.127	103.88
478.346	94.88
478.564	107.88
478.783	137.88
479.002	110.88
479.22	133.88
479.439	153.88
479.658	179.88
479.876	152.88
480.095	153.88
480.313	184.88
480.532	262.88
480.751	496.88
480.969	1953.88
481.188	8512.88
481.406	4825.88
481.624	621.88
481.843	190.88
482.061	143.88
482.28	135.88
482.498	116.88
482.717	96.88
482.935	95.88
483.153	107.88
483.372	91.88
483.59	102.88
483.808	94.88
484.027	104.88
484.245	97.88
484.463	117.88
484.681	104.88
484.9	90.88
485.118	117.88
485.336	101.88
485.554	101.88
485.772	111.88
485.99	102.88
486.209	113.88
486.427	119.88
486.645	139.88
486.863	161.88
487.081	134.88
487.299	104.88
487.517	94.88
487.735	104.88
487.953	97.88
488.171	96.88
488.389	101.88
488.607	113.88
488.825	79.88
489.043	98.88
489.261	85.88
489.479	98.88
489.696	92.88
489.914	102.88
490.132	113.88
490.35	98.88
490.568	101.88
490.786	85.88
491.003	97.88
491.221	105.88
491.439	107.88
491.657	101.88
491.874	91.88
492.092	98.88
492.31	103.88
492.527	105.88
492.745	106.88
492.963	105.88
493.18	80.88
493.398	112.88
493.615	99.88
493.833	104.88
494.05	89.88
494.268	86.88
494.485	98.88
494.703	96.88
494.92	86.88
495.138	93.88
495.355	97.88
495.573	97.88
495.79	96.88
496.008	98.88
496.225	97.88
496.442	100.88
496.66	107.88
496.877	89.88
497.094	95.88
497.312	90.88
497.529	95.88
497.746	101.88
497.963	110.88
498.181	109.88
498.398	105.88
498.615	138.88
498.832	129.88
499.049	111.88
499.267	105.88
499.484	92.88
499.701	101.88
499.918	83.88
500.135	87.88
500.352	96.88
500.569	105.88
500.786	104.88
501.003	114.88
501.22	104.88
501.437	100.88
501.654	125.88
501.871	158.88
502.088	113.88
502.305	94.88
502.522	77.88
502.739	89.88
502.956	106.88
503.172	106.88
503.389	119.88
503.606	161.88
503.823	108.88
504.04	102.88
504.256	106.88
504.473	83.88
504.69	103.88
504.907	101.88
505.123	97.88
505.34	87.88
505.557	98.88
505.773	81.88
505.99	99.88
506.207	103.88
506.423	94.88
506.64	112.88
506.856	80.88
507.073	102.88
507.289	105.88
507.506	106.88
507.722	161.88
507.939	161.88
508.155	124.88
508.372	91.88
508.588	102.88
508.805	106.88
509.021	108.88
509.238	104.88
509.454	114.88
509.67	138.88
509.887	127.88
510.103	180.88
510.319	318.88
