Data from Circ_1998_H10_HRD10591_00043.txt Node
Date: Wed Jan 03 11:26:57 EST 2024
User: Yrep
Spectrometer: HR+D1059
Trigger mode: 1
Integration Time (sec): 1.000000E-1
Scans to average: 1
Electric dark correction enabled: true
Nonlinearity correction enabled: false
Boxcar width: 0
XAxis mode: Wavelengths
Number of Pixels in Spectrum: 2048
>>>>>Begin Spectral Data<<<<<
223.165	-17.12
223.4	-17.12
223.635	-17.12
223.869	-16.12
224.104	-18.12
224.338	-9.12
224.573	-9.12
224.808	-16.12
225.042	-6.12
225.277	-11.12
225.511	-20.12
225.746	-4.12
225.98	13.88
226.215	0.88
226.449	6.88
226.683	26.88
226.918	36.88
227.152	41.88
227.387	37.88
227.621	39.88
227.856	56.88
228.09	45.88
228.324	53.88
228.559	67.88
228.793	64.88
229.027	61.88
229.262	66.88
229.496	78.88
229.73	94.88
229.964	87.88
230.199	77.88
230.433	84.88
230.667	63.88
230.901	80.88
231.136	78.88
231.37	78.88
231.604	75.88
231.838	78.88
232.072	78.88
232.306	86.88
232.541	81.88
232.775	83.88
233.009	80.88
233.243	84.88
233.477	89.88
233.711	71.88
233.945	76.88
234.179	77.88
234.413	76.88
234.647	80.88
234.881	84.88
235.115	73.88
235.349	83.88
235.583	77.88
235.817	82.88
236.051	81.88
236.285	81.88
236.519	76.88
236.753	89.88
236.987	91.88
237.221	87.88
237.455	93.88
237.689	74.88
237.922	74.88
238.156	75.88
238.39	74.88
238.624	87.88
238.858	80.88
239.091	80.88
239.325	92.88
239.559	74.88
239.793	90.88
240.027	79.88
240.26	89.88
240.494	68.88
240.728	79.88
240.961	73.88
241.195	92.88
241.429	78.88
241.662	82.88
241.896	73.88
242.13	68.88
242.363	80.88
242.597	86.88
242.83	71.88
243.064	85.88
243.298	102.88
243.531	81.88
243.765	95.88
243.998	76.88
244.232	70.88
244.465	86.88
244.699	67.88
244.932	76.88
245.166	81.88
245.399	78.88
245.633	84.88
245.866	89.88
246.099	95.88
246.333	79.88
246.566	78.88
246.8	79.88
247.033	74.88
247.266	79.88
247.5	84.88
247.733	93.88
247.966	104.88
248.2	79.88
248.433	79.88
248.666	75.88
248.899	90.88
249.133	90.88
249.366	115.88
249.599	114.88
249.832	90.88
250.066	88.88
250.299	82.88
250.532	87.88
250.765	71.88
250.998	88.88
251.231	92.88
251.465	74.88
251.698	86.88
251.931	77.88
252.164	99.88
252.397	87.88
252.63	94.88
252.863	79.88
253.096	76.88
253.329	75.88
253.562	78.88
253.795	82.88
254.028	78.88
254.261	82.88
254.494	93.88
254.727	94.88
254.96	66.88
255.193	93.88
255.426	91.88
255.659	92.88
255.892	94.88
256.124	97.88
256.357	101.88
256.59	94.88
256.823	73.88
257.056	88.88
257.289	102.88
257.521	92.88
257.754	89.88
257.987	88.88
258.22	89.88
258.452	91.88
258.685	98.88
258.918	89.88
259.151	88.88
259.383	86.88
259.616	81.88
259.849	77.88
260.081	92.88
260.314	83.88
260.547	83.88
260.779	103.88
261.012	108.88
261.244	119.88
261.477	119.88
261.71	110.88
261.942	131.88
262.175	134.88
262.407	87.88
262.64	97.88
262.872	88.88
263.105	88.88
263.337	85.88
263.57	91.88
263.802	89.88
264.035	78.88
264.267	78.88
264.499	88.88
264.732	92.88
264.964	81.88
265.197	82.88
265.429	79.88
265.661	76.88
265.894	76.88
266.126	83.88
266.358	90.88
266.591	60.88
266.823	75.88
267.055	78.88
267.287	91.88
267.52	85.88
267.752	91.88
267.984	76.88
268.216	84.88
268.448	98.88
268.681	91.88
268.913	96.88
269.145	87.88
269.377	87.88
269.609	98.88
269.841	91.88
270.073	87.88
270.306	87.88
270.538	89.88
270.77	93.88
271.002	79.88
271.234	83.88
271.466	108.88
271.698	83.88
271.93	75.88
272.162	72.88
272.394	88.88
272.626	66.88
272.858	87.88
273.09	95.88
273.322	80.88
273.553	85.88
273.785	87.88
274.017	67.88
274.249	92.88
274.481	114.88
274.713	83.88
274.945	89.88
275.176	92.88
275.408	99.88
275.64	119.88
275.872	116.88
276.104	111.88
276.335	101.88
276.567	109.88
276.799	147.88
277.031	180.88
277.262	187.88
277.494	162.88
277.726	111.88
277.957	96.88
278.189	105.88
278.421	85.88
278.652	97.88
278.884	98.88
279.115	91.88
279.347	90.88
279.579	112.88
279.81	136.88
280.042	204.88
280.273	270.88
280.505	192.88
280.736	116.88
280.968	92.88
281.199	90.88
281.431	90.88
281.662	94.88
281.894	84.88
282.125	106.88
282.356	132.88
282.588	153.88
282.819	128.88
283.051	92.88
283.282	80.88
283.513	89.88
283.745	81.88
283.976	65.88
284.207	78.88
284.439	87.88
284.67	91.88
284.901	92.88
285.132	88.88
285.364	83.88
285.595	80.88
285.826	86.88
286.057	83.88
286.288	96.88
286.52	99.88
286.751	89.88
286.982	91.88
287.213	90.88
287.444	90.88
287.675	98.88
287.906	104.88
288.138	94.88
288.369	82.88
288.6	89.88
288.831	95.88
289.062	90.88
289.293	99.88
289.524	87.88
289.755	94.88
289.986	80.88
290.217	88.88
290.448	88.88
290.679	93.88
290.91	104.88
291.141	96.88
291.371	90.88
291.602	90.88
291.833	81.88
292.064	98.88
292.295	101.88
292.526	84.88
292.757	86.88
292.987	90.88
293.218	84.88
293.449	87.88
293.68	83.88
293.91	76.88
294.141	91.88
294.372	74.88
294.603	97.88
294.833	95.88
295.064	97.88
295.295	92.88
295.525	102.88
295.756	120.88
295.987	122.88
296.217	158.88
296.448	128.88
296.679	89.88
296.909	106.88
297.14	89.88
297.37	74.88
297.601	97.88
297.831	92.88
298.062	98.88
298.292	98.88
298.523	89.88
298.753	84.88
298.984	96.88
299.214	86.88
299.445	86.88
299.675	94.88
299.905	92.88
300.136	81.88
300.366	100.88
300.597	85.88
300.827	97.88
301.057	101.88
301.288	105.88
301.518	88.88
301.748	99.88
301.979	122.88
302.209	100.88
302.439	108.88
302.669	98.88
302.9	100.88
303.13	95.88
303.36	113.88
303.59	131.88
303.82	138.88
304.051	125.88
304.281	86.88
304.511	82.88
304.741	86.88
304.971	93.88
305.201	81.88
305.431	85.88
305.661	90.88
305.891	110.88
306.121	102.88
306.352	109.88
306.582	111.88
306.812	107.88
307.042	125.88
307.272	150.88
307.502	201.88
307.731	191.88
307.961	129.88
308.191	101.88
308.421	89.88
308.651	105.88
308.881	98.88
309.111	109.88
309.341	103.88
309.571	101.88
309.8	110.88
310.03	108.88
310.26	119.88
310.49	98.88
310.72	106.88
310.949	111.88
311.179	115.88
311.409	94.88
311.639	122.88
311.868	99.88
312.098	103.88
312.328	106.88
312.557	111.88
312.787	116.88
313.017	120.88
313.246	98.88
313.476	108.88
313.706	94.88
313.935	96.88
314.165	105.88
314.394	106.88
314.624	99.88
314.853	98.88
315.083	96.88
315.312	94.88
315.542	101.88
315.771	99.88
316.001	92.88
316.23	94.88
316.46	94.88
316.689	98.88
316.919	105.88
317.148	111.88
317.377	110.88
317.607	97.88
317.836	103.88
318.065	100.88
318.295	100.88
318.524	103.88
318.753	91.88
318.983	105.88
319.212	108.88
319.441	122.88
319.67	113.88
319.9	95.88
320.129	98.88
320.358	96.88
320.587	98.88
320.816	97.88
321.046	113.88
321.275	111.88
321.504	102.88
321.733	107.88
321.962	111.88
322.191	102.88
322.42	117.88
322.649	120.88
322.878	122.88
323.108	106.88
323.337	142.88
323.566	142.88
323.795	192.88
324.024	241.88
324.253	489.88
324.482	1064.88
324.71	2206.88
324.939	2971.88
325.168	1062.88
325.397	312.88
325.626	184.88
325.855	144.88
326.084	145.88
326.313	147.88
326.542	174.88
326.77	276.88
326.999	558.88
327.228	1194.88
327.457	2176.88
327.686	1735.88
327.914	576.88
328.143	572.88
328.372	723.88
328.6	379.88
328.829	194.88
329.058	186.88
329.287	208.88
329.515	186.88
329.744	262.88
329.972	531.88
330.201	1061.88
330.43	1547.88
330.658	704.88
330.887	298.88
331.115	185.88
331.344	131.88
331.572	135.88
331.801	128.88
332.03	128.88
332.258	132.88
332.486	104.88
332.715	109.88
332.943	128.88
333.172	126.88
333.4	130.88
333.629	164.88
333.857	250.88
334.085	481.88
334.314	1024.88
334.542	1990.88
334.771	1801.88
334.999	471.88
335.227	188.88
335.455	130.88
335.684	128.88
335.912	113.88
336.14	106.88
336.369	95.88
336.597	116.88
336.825	96.88
337.053	92.88
337.281	101.88
337.51	100.88
337.738	98.88
337.966	97.88
338.194	105.88
338.422	109.88
338.65	100.88
338.878	88.88
339.106	94.88
339.334	106.88
339.562	88.88
339.79	94.88
340.018	97.88
340.246	96.88
340.474	103.88
340.702	93.88
340.93	110.88
341.158	98.88
341.386	103.88
341.614	96.88
341.842	102.88
342.07	94.88
342.298	103.88
342.526	88.88
342.754	76.88
342.981	103.88
343.209	95.88
343.437	101.88
343.665	86.88
343.893	88.88
344.12	94.88
344.348	90.88
344.576	92.88
344.804	88.88
345.031	99.88
345.259	115.88
345.487	107.88
345.714	103.88
345.942	109.88
346.17	92.88
346.397	88.88
346.625	83.88
346.853	100.88
347.08	94.88
347.308	100.88
347.535	107.88
347.763	100.88
347.99	102.88
348.218	98.88
348.445	112.88
348.673	99.88
348.9	102.88
349.128	92.88
349.355	84.88
349.583	88.88
349.81	100.88
350.037	106.88
350.265	91.88
350.492	107.88
350.72	97.88
350.947	112.88
351.174	118.88
351.402	111.88
351.629	104.88
351.856	104.88
352.083	104.88
352.311	120.88
352.538	102.88
352.765	113.88
352.992	107.88
353.22	120.88
353.447	102.88
353.674	95.88
353.901	93.88
354.128	102.88
354.355	96.88
354.583	119.88
354.81	84.88
355.037	88.88
355.264	99.88
355.491	80.88
355.718	88.88
355.945	96.88
356.172	98.88
356.399	101.88
356.626	89.88
356.853	79.88
357.08	87.88
357.307	87.88
357.534	95.88
357.761	95.88
357.988	97.88
358.215	97.88
358.441	83.88
358.668	102.88
358.895	87.88
359.122	109.88
359.349	98.88
359.576	97.88
359.802	116.88
360.029	146.88
360.256	136.88
360.483	119.88
360.709	99.88
360.936	94.88
361.163	106.88
361.39	102.88
361.616	97.88
361.843	100.88
362.07	102.88
362.296	111.88
362.523	100.88
362.749	97.88
362.976	87.88
363.203	87.88
363.429	89.88
363.656	95.88
363.882	90.88
364.109	89.88
364.335	99.88
364.562	93.88
364.788	92.88
365.015	105.88
365.241	92.88
365.468	107.88
365.694	99.88
365.92	97.88
366.147	95.88
366.373	95.88
366.599	86.88
366.826	104.88
367.052	104.88
367.278	99.88
367.505	90.88
367.731	92.88
367.957	86.88
368.184	100.88
368.41	118.88
368.636	123.88
368.862	114.88
369.089	125.88
369.315	104.88
369.541	90.88
369.767	97.88
369.993	82.88
370.219	90.88
370.445	94.88
370.672	86.88
370.898	89.88
371.124	102.88
371.35	100.88
371.576	86.88
371.802	72.88
372.028	100.88
372.254	83.88
372.48	108.88
372.706	85.88
372.932	75.88
373.158	94.88
373.384	100.88
373.61	88.88
373.835	90.88
374.061	88.88
374.287	81.88
374.513	99.88
374.739	89.88
374.965	83.88
375.191	91.88
375.416	100.88
375.642	89.88
375.868	89.88
376.094	92.88
376.319	85.88
376.545	87.88
376.771	96.88
376.997	106.88
377.222	94.88
377.448	95.88
377.674	83.88
377.899	94.88
378.125	88.88
378.35	91.88
378.576	81.88
378.802	99.88
379.027	91.88
379.253	89.88
379.478	92.88
379.704	100.88
379.929	103.88
380.155	79.88
380.38	93.88
380.606	98.88
380.831	104.88
381.057	104.88
381.282	91.88
381.507	103.88
381.733	102.88
381.958	95.88
382.184	98.88
382.409	104.88
382.634	96.88
382.86	85.88
383.085	103.88
383.31	107.88
383.535	104.88
383.761	111.88
383.986	94.88
384.211	92.88
384.436	98.88
384.662	91.88
384.887	102.88
385.112	95.88
385.337	93.88
385.562	94.88
385.787	109.88
386.013	115.88
386.238	117.88
386.463	105.88
386.688	112.88
386.913	90.88
387.138	118.88
387.363	92.88
387.588	103.88
387.813	113.88
388.038	98.88
388.263	109.88
388.488	106.88
388.713	97.88
388.938	96.88
389.163	87.88
389.387	93.88
389.612	86.88
389.837	90.88
390.062	83.88
390.287	88.88
390.512	91.88
390.736	87.88
390.961	85.88
391.186	96.88
391.411	104.88
391.636	92.88
391.86	80.88
392.085	101.88
392.31	73.88
392.534	82.88
392.759	90.88
392.984	92.88
393.208	93.88
393.433	96.88
393.658	86.88
393.882	72.88
394.107	64.88
394.331	88.88
394.556	87.88
394.78	82.88
395.005	88.88
395.229	91.88
395.454	102.88
395.678	89.88
395.903	87.88
396.127	86.88
396.352	92.88
396.576	78.88
396.801	79.88
397.025	95.88
397.249	91.88
397.474	83.88
397.698	94.88
397.922	94.88
398.147	97.88
398.371	85.88
398.595	102.88
398.82	88.88
399.044	77.88
399.268	89.88
399.492	89.88
399.717	89.88
399.941	87.88
400.165	97.88
400.389	103.88
400.613	90.88
400.837	86.88
401.062	108.88
401.286	114.88
401.51	105.88
401.734	90.88
401.958	106.88
402.182	139.88
402.406	172.88
402.63	139.88
402.854	97.88
403.078	108.88
403.302	94.88
403.526	82.88
403.75	80.88
403.974	78.88
404.198	106.88
404.422	88.88
404.645	100.88
404.869	108.88
405.093	121.88
405.317	143.88
405.541	139.88
405.765	115.88
405.988	141.88
406.212	198.88
406.436	276.88
406.66	202.88
406.883	121.88
407.107	107.88
407.331	113.88
407.555	112.88
407.778	100.88
408.002	93.88
408.226	86.88
408.449	98.88
408.673	87.88
408.896	118.88
409.12	98.88
409.344	88.88
409.567	90.88
409.791	106.88
410.014	82.88
410.238	96.88
410.461	90.88
410.685	92.88
410.908	91.88
411.132	114.88
411.355	108.88
411.578	86.88
411.802	96.88
412.025	105.88
412.249	102.88
412.472	129.88
412.695	163.88
412.919	142.88
413.142	103.88
413.365	72.88
413.589	81.88
413.812	77.88
414.035	82.88
414.258	87.88
414.482	83.88
414.705	92.88
414.928	99.88
415.151	92.88
415.374	92.88
415.597	93.88
415.821	97.88
416.044	93.88
416.267	99.88
416.49	77.88
416.713	84.88
416.936	101.88
417.159	90.88
417.382	97.88
417.605	108.88
417.828	103.88
418.051	102.88
418.274	97.88
418.497	94.88
418.72	102.88
418.943	88.88
419.166	88.88
419.389	88.88
419.611	93.88
419.834	108.88
420.057	100.88
420.28	114.88
420.503	94.88
420.726	90.88
420.948	83.88
421.171	111.88
421.394	105.88
421.617	84.88
421.839	98.88
422.062	94.88
422.285	90.88
422.507	108.88
422.73	112.88
422.953	92.88
423.175	94.88
423.398	80.88
423.621	92.88
423.843	92.88
424.066	83.88
424.288	84.88
424.511	100.88
424.733	109.88
424.956	113.88
425.178	107.88
425.401	96.88
425.623	114.88
425.846	99.88
426.068	98.88
426.291	93.88
426.513	88.88
426.735	90.88
426.958	93.88
427.18	99.88
427.402	185.88
427.625	266.88
427.847	247.88
428.069	236.88
428.292	125.88
428.514	98.88
428.736	99.88
428.958	92.88
429.181	87.88
429.403	93.88
429.625	98.88
429.847	88.88
430.069	116.88
430.292	93.88
430.514	94.88
430.736	81.88
430.958	71.88
431.18	91.88
431.402	80.88
431.624	88.88
431.846	82.88
432.068	86.88
432.29	88.88
432.512	80.88
432.734	83.88
432.956	87.88
433.178	101.88
433.4	97.88
433.622	91.88
433.844	83.88
434.066	104.88
434.287	93.88
434.509	87.88
434.731	86.88
434.953	86.88
435.175	76.88
435.397	95.88
435.618	94.88
435.84	124.88
436.062	144.88
436.284	121.88
436.505	118.88
436.727	103.88
436.949	83.88
437.17	91.88
437.392	95.88
437.614	94.88
437.835	114.88
438.057	134.88
438.278	133.88
438.5	125.88
438.721	148.88
438.943	108.88
439.165	93.88
439.386	85.88
439.608	100.88
439.829	105.88
440.05	171.88
440.272	188.88
440.493	106.88
440.715	91.88
440.936	79.88
441.158	100.88
441.379	88.88
441.6	105.88
441.822	100.88
442.043	110.88
442.264	125.88
442.486	118.88
442.707	93.88
442.928	117.88
443.149	170.88
443.371	175.88
443.592	127.88
443.813	128.88
444.034	121.88
444.255	100.88
444.476	79.88
444.698	92.88
444.919	90.88
445.14	146.88
445.361	135.88
445.582	145.88
445.803	205.88
446.024	193.88
446.245	187.88
446.466	139.88
446.687	101.88
446.908	78.88
447.129	85.88
447.35	74.88
447.571	80.88
447.792	90.88
448.013	94.88
448.234	117.88
448.455	112.88
448.675	125.88
448.896	142.88
449.117	112.88
449.338	107.88
449.559	154.88
449.779	150.88
450	103.88
450.221	93.88
450.442	98.88
450.662	107.88
450.883	118.88
451.104	134.88
451.324	100.88
451.545	99.88
451.766	91.88
451.986	99.88
452.207	89.88
452.428	79.88
452.648	96.88
452.869	116.88
453.089	139.88
453.31	140.88
453.53	110.88
453.751	87.88
453.971	106.88
454.192	126.88
454.412	106.88
454.633	89.88
454.853	87.88
455.073	88.88
455.294	96.88
455.514	110.88
455.734	100.88
455.955	70.88
456.175	92.88
456.395	76.88
456.616	98.88
456.836	86.88
457.056	89.88
457.276	89.88
457.497	95.88
457.717	91.88
457.937	94.88
458.157	94.88
458.377	93.88
458.598	121.88
458.818	191.88
459.038	224.88
459.258	163.88
459.478	96.88
459.698	83.88
459.918	90.88
460.138	98.88
460.358	75.88
460.578	82.88
460.798	86.88
461.018	92.88
461.238	84.88
461.458	97.88
461.678	82.88
461.898	74.88
462.118	94.88
462.338	90.88
462.558	84.88
462.777	83.88
462.997	103.88
463.217	106.88
463.437	101.88
463.657	95.88
463.876	103.88
464.096	96.88
464.316	98.88
464.536	106.88
464.755	98.88
464.975	123.88
465.195	234.88
465.414	222.88
465.634	125.88
465.854	87.88
466.073	101.88
466.293	99.88
466.512	98.88
466.732	104.88
466.951	98.88
467.171	110.88
467.391	101.88
467.61	140.88
467.829	244.88
468.049	636.88
468.268	932.88
468.488	232.88
468.707	115.88
468.927	86.88
469.146	89.88
469.365	94.88
469.585	89.88
469.804	113.88
470.023	107.88
470.243	116.88
470.462	113.88
470.681	123.88
470.901	108.88
471.12	107.88
471.339	102.88
471.558	124.88
471.777	168.88
471.997	328.88
472.216	1273.88
472.435	2887.88
472.654	646.88
472.873	168.88
473.092	103.88
473.311	111.88
473.53	99.88
473.749	83.88
473.968	108.88
474.187	121.88
474.406	110.88
474.625	81.88
474.844	103.88
475.063	87.88
475.282	76.88
475.501	87.88
475.72	86.88
475.939	110.88
476.158	98.88
476.377	97.88
476.596	93.88
476.814	93.88
477.033	97.88
477.252	105.88
477.471	84.88
477.69	99.88
477.908	110.88
478.127	94.88
478.346	107.88
478.564	104.88
478.783	108.88
479.002	101.88
479.22	112.88
479.439	126.88
479.658	115.88
479.876	137.88
480.095	133.88
480.313	150.88
480.532	181.88
480.751	320.88
480.969	1153.88
481.188	5039.88
481.406	2746.88
481.624	390.88
481.843	135.88
482.061	113.88
482.28	114.88
482.498	103.88
482.717	91.88
482.935	111.88
483.153	112.88
483.372	106.88
483.59	95.88
483.808	86.88
484.027	97.88
484.245	99.88
484.463	79.88
484.681	95.88
484.9	97.88
485.118	83.88
485.336	91.88
485.554	111.88
485.772	100.88
485.99	105.88
486.209	104.88
486.427	109.88
486.645	111.88
486.863	128.88
487.081	101.88
487.299	110.88
487.517	102.88
487.735	98.88
487.953	98.88
488.171	100.88
488.389	107.88
488.607	93.88
488.825	78.88
489.043	101.88
489.261	94.88
489.479	96.88
489.696	92.88
489.914	74.88
490.132	93.88
490.35	103.88
490.568	88.88
490.786	96.88
491.003	100.88
491.221	93.88
491.439	98.88
491.657	96.88
491.874	84.88
492.092	99.88
492.31	113.88
492.527	99.88
492.745	108.88
492.963	104.88
493.18	91.88
493.398	99.88
493.615	102.88
493.833	89.88
494.05	104.88
494.268	100.88
494.485	91.88
494.703	94.88
494.92	89.88
495.138	81.88
495.355	79.88
495.573	90.88
495.79	100.88
496.008	92.88
496.225	87.88
496.442	89.88
496.66	107.88
496.877	111.88
497.094	96.88
497.312	81.88
497.529	84.88
497.746	105.88
497.963	100.88
498.181	101.88
498.398	103.88
498.615	126.88
498.832	109.88
499.049	95.88
499.267	82.88
499.484	90.88
499.701	91.88
499.918	86.88
500.135	92.88
500.352	102.88
500.569	99.88
500.786	104.88
501.003	102.88
501.22	92.88
501.437	94.88
501.654	107.88
501.871	109.88
502.088	85.88
502.305	76.88
502.522	87.88
502.739	78.88
502.956	92.88
503.172	91.88
503.389	111.88
503.606	127.88
503.823	112.88
504.04	83.88
504.256	102.88
504.473	93.88
504.69	86.88
504.907	101.88
505.123	89.88
505.34	99.88
505.557	110.88
505.773	88.88
505.99	74.88
506.207	81.88
506.423	102.88
506.64	96.88
506.856	98.88
507.073	97.88
507.289	92.88
507.506	105.88
507.722	138.88
507.939	132.88
508.155	100.88
508.372	83.88
508.588	114.88
508.805	108.88
509.021	106.88
509.238	94.88
509.454	106.88
509.67	113.88
509.887	119.88
510.103	145.88
510.319	246.88
510.536	915.88
510.752	3202.88
510.968	855.88
511.184	188.88
511.401	134.88
511.617	102.88
511.833	123.88
512.049	99.88
512.265	89.88
512.481	86.88
