Data from Circ_1998_H10_HRD10591_00024.txt Node
Date: Wed Jan 03 11:26:53 EST 2024
User: Yrep
Spectrometer: HR+D1059
Trigger mode: 1
Integration Time (sec): 1.000000E-1
Scans to average: 1
Electric dark correction enabled: true
Nonlinearity correction enabled: false
Boxcar width: 0
XAxis mode: Wavelengths
Number of Pixels in Spectrum: 2048
>>>>>Begin Spectral Data<<<<<
223.165	-9.12
223.4	-9.12
223.635	-9.12
223.869	-19.12
224.104	-5.12
224.338	-1.12
224.573	-18.12
224.808	-20.12
225.042	-15.12
225.277	-12.12
225.511	-6.12
225.746	5.88
225.98	6.88
226.215	9.88
226.449	21.88
226.683	16.88
226.918	23.88
227.152	20.88
227.387	32.88
227.621	38.88
227.856	64.88
228.09	56.88
228.324	66.88
228.559	54.88
228.793	66.88
229.027	72.88
229.262	74.88
229.496	81.88
229.73	99.88
229.964	95.88
230.199	73.88
230.433	76.88
230.667	83.88
230.901	81.88
231.136	82.88
231.37	79.88
231.604	83.88
231.838	72.88
232.072	82.88
232.306	88.88
232.541	82.88
232.775	73.88
233.009	82.88
233.243	87.88
233.477	94.88
233.711	69.88
233.945	71.88
234.179	77.88
234.413	92.88
234.647	91.88
234.881	77.88
235.115	88.88
235.349	63.88
235.583	71.88
235.817	81.88
236.051	83.88
236.285	66.88
236.519	89.88
236.753	87.88
236.987	80.88
237.221	87.88
237.455	87.88
237.689	91.88
237.922	78.88
238.156	69.88
238.39	80.88
238.624	90.88
238.858	85.88
239.091	83.88
239.325	84.88
239.559	78.88
239.793	79.88
240.027	85.88
240.26	83.88
240.494	75.88
240.728	81.88
240.961	73.88
241.195	77.88
241.429	76.88
241.662	87.88
241.896	92.88
242.13	80.88
242.363	83.88
242.597	79.88
242.83	98.88
243.064	83.88
243.298	91.88
243.531	80.88
243.765	77.88
243.998	84.88
244.232	92.88
244.465	82.88
244.699	78.88
244.932	78.88
245.166	86.88
245.399	75.88
245.633	69.88
245.866	67.88
246.099	71.88
246.333	82.88
246.566	89.88
246.8	73.88
247.033	90.88
247.266	86.88
247.5	84.88
247.733	74.88
247.966	72.88
248.2	95.88
248.433	85.88
248.666	69.88
248.899	85.88
249.133	89.88
249.366	107.88
249.599	100.88
249.832	102.88
250.066	84.88
250.299	71.88
250.532	75.88
250.765	80.88
250.998	90.88
251.231	86.88
251.465	97.88
251.698	87.88
251.931	85.88
252.164	69.88
252.397	81.88
252.63	78.88
252.863	73.88
253.096	74.88
253.329	80.88
253.562	76.88
253.795	78.88
254.028	77.88
254.261	76.88
254.494	91.88
254.727	76.88
254.96	92.88
255.193	83.88
255.426	71.88
255.659	87.88
255.892	102.88
256.124	115.88
256.357	85.88
256.59	96.88
256.823	86.88
257.056	85.88
257.289	95.88
257.521	87.88
257.754	86.88
257.987	100.88
258.22	82.88
258.452	94.88
258.685	95.88
258.918	85.88
259.151	96.88
259.383	108.88
259.616	77.88
259.849	87.88
260.081	96.88
260.314	95.88
260.547	83.88
260.779	88.88
261.012	110.88
261.244	109.88
261.477	94.88
261.71	102.88
261.942	123.88
262.175	133.88
262.407	103.88
262.64	89.88
262.872	78.88
263.105	79.88
263.337	88.88
263.57	84.88
263.802	91.88
264.035	86.88
264.267	91.88
264.499	85.88
264.732	75.88
264.964	90.88
265.197	81.88
265.429	86.88
265.661	94.88
265.894	84.88
266.126	81.88
266.358	77.88
266.591	80.88
266.823	83.88
267.055	81.88
267.287	78.88
267.52	87.88
267.752	84.88
267.984	82.88
268.216	70.88
268.448	85.88
268.681	85.88
268.913	94.88
269.145	92.88
269.377	98.88
269.609	71.88
269.841	89.88
270.073	91.88
270.306	80.88
270.538	96.88
270.77	79.88
271.002	82.88
271.234	105.88
271.466	96.88
271.698	84.88
271.93	86.88
272.162	84.88
272.394	82.88
272.626	92.88
272.858	72.88
273.09	87.88
273.322	97.88
273.553	78.88
273.785	95.88
274.017	82.88
274.249	73.88
274.481	83.88
274.713	69.88
274.945	82.88
275.176	89.88
275.408	95.88
275.64	105.88
275.872	122.88
276.104	91.88
276.335	107.88
276.567	112.88
276.799	138.88
277.031	160.88
277.262	183.88
277.494	138.88
277.726	106.88
277.957	84.88
278.189	88.88
278.421	98.88
278.652	94.88
278.884	95.88
279.115	98.88
279.347	91.88
279.579	101.88
279.81	117.88
280.042	183.88
280.273	242.88
280.505	191.88
280.736	107.88
280.968	95.88
281.199	90.88
281.431	96.88
281.662	94.88
281.894	83.88
282.125	83.88
282.356	130.88
282.588	178.88
282.819	120.88
283.051	91.88
283.282	98.88
283.513	91.88
283.745	87.88
283.976	80.88
284.207	100.88
284.439	87.88
284.67	83.88
284.901	76.88
285.132	89.88
285.364	77.88
285.595	91.88
285.826	86.88
286.057	89.88
286.288	85.88
286.52	97.88
286.751	84.88
286.982	80.88
287.213	96.88
287.444	99.88
287.675	89.88
287.906	77.88
288.138	95.88
288.369	90.88
288.6	85.88
288.831	95.88
289.062	100.88
289.293	85.88
289.524	81.88
289.755	95.88
289.986	92.88
290.217	93.88
290.448	99.88
290.679	69.88
290.91	103.88
291.141	81.88
291.371	95.88
291.602	86.88
291.833	96.88
292.064	82.88
292.295	102.88
292.526	87.88
292.757	93.88
292.987	88.88
293.218	77.88
293.449	99.88
293.68	85.88
293.91	89.88
294.141	94.88
294.372	74.88
294.603	87.88
294.833	78.88
295.064	72.88
295.295	89.88
295.525	89.88
295.756	117.88
295.987	126.88
296.217	156.88
296.448	134.88
296.679	85.88
296.909	102.88
297.14	86.88
297.37	95.88
297.601	99.88
297.831	80.88
298.062	110.88
298.292	102.88
298.523	89.88
298.753	82.88
298.984	104.88
299.214	83.88
299.445	97.88
299.675	107.88
299.905	115.88
300.136	97.88
300.366	82.88
300.597	78.88
300.827	102.88
301.057	99.88
301.288	112.88
301.518	93.88
301.748	109.88
301.979	121.88
302.209	113.88
302.439	99.88
302.669	85.88
302.9	87.88
303.13	97.88
303.36	103.88
303.59	123.88
303.82	135.88
304.051	105.88
304.281	84.88
304.511	99.88
304.741	82.88
304.971	87.88
305.201	83.88
305.431	77.88
305.661	96.88
305.891	83.88
306.121	96.88
306.352	103.88
306.582	116.88
306.812	111.88
307.042	128.88
307.272	159.88
307.502	167.88
307.731	172.88
307.961	130.88
308.191	88.88
308.421	85.88
308.651	91.88
308.881	89.88
309.111	85.88
309.341	92.88
309.571	105.88
309.8	102.88
310.03	106.88
310.26	102.88
310.49	105.88
310.72	111.88
310.949	119.88
311.179	103.88
311.409	100.88
311.639	110.88
311.868	104.88
312.098	99.88
312.328	106.88
312.557	100.88
312.787	124.88
313.017	111.88
313.246	95.88
313.476	90.88
313.706	87.88
313.935	99.88
314.165	107.88
314.394	118.88
314.624	92.88
314.853	99.88
315.083	85.88
315.312	97.88
315.542	91.88
315.771	100.88
316.001	86.88
316.23	97.88
316.46	88.88
316.689	88.88
316.919	97.88
317.148	105.88
317.377	90.88
317.607	108.88
317.836	100.88
318.065	107.88
318.295	98.88
318.524	88.88
318.753	90.88
318.983	92.88
319.212	103.88
319.441	119.88
319.67	114.88
319.9	107.88
320.129	97.88
320.358	93.88
320.587	110.88
320.816	87.88
321.046	118.88
321.275	112.88
321.504	105.88
321.733	96.88
321.962	117.88
322.191	115.88
322.42	110.88
322.649	133.88
322.878	111.88
323.108	132.88
323.337	154.88
323.566	154.88
323.795	194.88
324.024	262.88
324.253	528.88
324.482	1218.88
324.71	2557.88
324.939	3433.88
325.168	1183.88
325.397	336.88
325.626	171.88
325.855	127.88
326.084	143.88
326.313	159.88
326.542	190.88
326.77	295.88
326.999	634.88
327.228	1381.88
327.457	2585.88
327.686	2053.88
327.914	618.88
328.143	529.88
328.372	650.88
328.6	371.88
328.829	180.88
329.058	181.88
329.287	186.88
329.515	195.88
329.744	251.88
329.972	487.88
330.201	995.88
330.43	1453.88
330.658	628.88
330.887	257.88
331.115	185.88
331.344	139.88
331.572	136.88
331.801	135.88
332.03	121.88
332.258	121.88
332.486	107.88
332.715	106.88
332.943	114.88
333.172	120.88
333.4	140.88
333.629	162.88
333.857	235.88
334.085	447.88
334.314	973.88
334.542	1900.88
334.771	1773.88
334.999	467.88
335.227	182.88
335.455	123.88
335.684	125.88
335.912	105.88
336.14	108.88
336.369	96.88
336.597	102.88
336.825	117.88
337.053	107.88
337.281	98.88
337.51	80.88
337.738	98.88
337.966	93.88
338.194	105.88
338.422	97.88
338.65	97.88
338.878	88.88
339.106	89.88
339.334	92.88
339.562	82.88
339.79	93.88
340.018	91.88
340.246	99.88
340.474	94.88
340.702	111.88
340.93	88.88
341.158	96.88
341.386	95.88
341.614	85.88
341.842	110.88
342.07	90.88
342.298	88.88
342.526	93.88
342.754	82.88
342.981	97.88
343.209	89.88
343.437	89.88
343.665	88.88
343.893	96.88
344.12	97.88
344.348	87.88
344.576	99.88
344.804	101.88
345.031	121.88
345.259	104.88
345.487	90.88
345.714	114.88
345.942	83.88
346.17	99.88
346.397	91.88
346.625	82.88
346.853	100.88
347.08	89.88
347.308	86.88
347.535	114.88
347.763	109.88
347.99	99.88
348.218	103.88
348.445	108.88
348.673	110.88
348.9	106.88
349.128	95.88
349.355	94.88
349.583	104.88
349.81	101.88
350.037	99.88
350.265	99.88
350.492	110.88
350.72	98.88
350.947	104.88
351.174	121.88
351.402	107.88
351.629	108.88
351.856	109.88
352.083	108.88
352.311	115.88
352.538	125.88
352.765	124.88
352.992	107.88
353.22	99.88
353.447	119.88
353.674	109.88
353.901	111.88
354.128	99.88
354.355	93.88
354.583	96.88
354.81	104.88
355.037	97.88
355.264	96.88
355.491	87.88
355.718	94.88
355.945	94.88
356.172	110.88
356.399	79.88
356.626	89.88
356.853	85.88
357.08	104.88
357.307	96.88
357.534	102.88
357.761	93.88
357.988	95.88
358.215	103.88
358.441	97.88
358.668	95.88
358.895	93.88
359.122	90.88
359.349	102.88
359.576	99.88
359.802	112.88
360.029	133.88
360.256	134.88
360.483	123.88
360.709	99.88
360.936	82.88
361.163	99.88
361.39	122.88
361.616	112.88
361.843	105.88
362.07	105.88
362.296	108.88
362.523	112.88
362.749	99.88
362.976	93.88
363.203	85.88
363.429	97.88
363.656	96.88
363.882	84.88
364.109	86.88
364.335	87.88
364.562	83.88
364.788	86.88
365.015	97.88
365.241	89.88
365.468	110.88
365.694	117.88
365.92	110.88
366.147	114.88
366.373	102.88
366.599	94.88
366.826	98.88
367.052	87.88
367.278	96.88
367.505	105.88
367.731	99.88
367.957	99.88
368.184	91.88
368.41	113.88
368.636	117.88
368.862	126.88
369.089	108.88
369.315	110.88
369.541	97.88
369.767	99.88
369.993	92.88
370.219	94.88
370.445	89.88
370.672	91.88
370.898	92.88
371.124	96.88
371.35	93.88
371.576	78.88
371.802	85.88
372.028	76.88
372.254	97.88
372.48	91.88
372.706	77.88
372.932	79.88
373.158	77.88
373.384	100.88
373.61	94.88
373.835	94.88
374.061	95.88
374.287	82.88
374.513	78.88
374.739	87.88
374.965	92.88
375.191	93.88
375.416	105.88
375.642	84.88
375.868	107.88
376.094	102.88
376.319	86.88
376.545	93.88
376.771	94.88
376.997	71.88
377.222	103.88
377.448	91.88
377.674	88.88
377.899	90.88
378.125	96.88
378.35	94.88
378.576	89.88
378.802	89.88
379.027	87.88
379.253	97.88
379.478	86.88
379.704	88.88
379.929	88.88
380.155	98.88
380.38	94.88
380.606	88.88
380.831	97.88
381.057	95.88
381.282	92.88
381.507	95.88
381.733	107.88
381.958	102.88
382.184	88.88
382.409	97.88
382.634	101.88
382.86	107.88
383.085	106.88
383.31	97.88
383.535	94.88
383.761	102.88
383.986	92.88
384.211	95.88
384.436	93.88
384.662	105.88
384.887	106.88
385.112	117.88
385.337	107.88
385.562	98.88
385.787	124.88
386.013	120.88
386.238	129.88
386.463	97.88
386.688	101.88
386.913	110.88
387.138	105.88
387.363	109.88
387.588	102.88
387.813	100.88
388.038	103.88
388.263	110.88
388.488	106.88
388.713	91.88
388.938	106.88
389.163	105.88
389.387	96.88
389.612	117.88
389.837	82.88
390.062	95.88
390.287	92.88
390.512	93.88
390.736	96.88
390.961	87.88
391.186	91.88
391.411	86.88
391.636	91.88
391.86	93.88
392.085	81.88
392.31	96.88
392.534	74.88
392.759	98.88
392.984	88.88
393.208	95.88
393.433	113.88
393.658	96.88
393.882	97.88
394.107	86.88
394.331	83.88
394.556	94.88
394.78	104.88
395.005	81.88
395.229	96.88
395.454	81.88
395.678	96.88
395.903	91.88
396.127	93.88
396.352	89.88
396.576	94.88
396.801	96.88
397.025	83.88
397.249	91.88
397.474	103.88
397.698	85.88
397.922	78.88
398.147	89.88
398.371	91.88
398.595	79.88
398.82	83.88
399.044	83.88
399.268	104.88
399.492	81.88
399.717	93.88
399.941	88.88
400.165	96.88
400.389	109.88
400.613	88.88
400.837	85.88
401.062	91.88
401.286	88.88
401.51	100.88
401.734	86.88
401.958	99.88
402.182	126.88
402.406	186.88
402.63	145.88
402.854	110.88
403.078	95.88
403.302	100.88
403.526	94.88
403.75	93.88
403.974	86.88
404.198	89.88
404.422	83.88
404.645	96.88
404.869	112.88
405.093	117.88
405.317	150.88
405.541	130.88
405.765	99.88
405.988	129.88
406.212	203.88
406.436	289.88
406.66	181.88
406.883	113.88
407.107	97.88
407.331	105.88
407.555	102.88
407.778	111.88
408.002	105.88
408.226	98.88
408.449	94.88
408.673	95.88
408.896	96.88
409.12	112.88
409.344	90.88
409.567	91.88
409.791	89.88
410.014	96.88
410.238	90.88
410.461	78.88
410.685	99.88
410.908	106.88
411.132	90.88
411.355	97.88
411.578	86.88
411.802	80.88
412.025	92.88
412.249	100.88
412.472	113.88
412.695	134.88
412.919	111.88
413.142	109.88
413.365	76.88
413.589	89.88
413.812	96.88
414.035	78.88
414.258	92.88
414.482	93.88
414.705	84.88
414.928	92.88
415.151	106.88
415.374	106.88
415.597	99.88
415.821	94.88
416.044	93.88
416.267	97.88
416.49	83.88
416.713	83.88
416.936	93.88
417.159	95.88
417.382	103.88
417.605	102.88
417.828	107.88
418.051	101.88
418.274	95.88
418.497	98.88
418.72	93.88
418.943	87.88
419.166	77.88
419.389	77.88
419.611	84.88
419.834	106.88
420.057	103.88
420.28	103.88
420.503	94.88
420.726	102.88
420.948	94.88
421.171	106.88
421.394	99.88
421.617	85.88
421.839	88.88
422.062	99.88
422.285	117.88
422.507	110.88
422.73	125.88
422.953	97.88
423.175	109.88
423.398	93.88
423.621	90.88
423.843	106.88
424.066	90.88
424.288	102.88
424.511	96.88
424.733	98.88
424.956	134.88
425.178	115.88
425.401	99.88
425.623	111.88
425.846	95.88
426.068	111.88
426.291	96.88
426.513	98.88
426.735	97.88
426.958	111.88
427.18	137.88
427.402	194.88
427.625	259.88
427.847	256.88
428.069	237.88
428.292	126.88
428.514	103.88
428.736	89.88
428.958	97.88
429.181	95.88
429.403	86.88
429.625	72.88
429.847	99.88
430.069	104.88
430.292	104.88
430.514	90.88
430.736	82.88
430.958	91.88
431.18	83.88
431.402	71.88
431.624	93.88
431.846	86.88
432.068	100.88
432.29	89.88
432.512	105.88
432.734	89.88
432.956	94.88
433.178	105.88
433.4	107.88
433.622	95.88
433.844	101.88
434.066	94.88
434.287	95.88
434.509	99.88
434.731	95.88
434.953	87.88
435.175	90.88
435.397	85.88
435.618	93.88
435.84	122.88
436.062	151.88
436.284	158.88
436.505	124.88
436.727	102.88
436.949	71.88
437.17	79.88
437.392	77.88
437.614	105.88
437.835	131.88
438.057	157.88
438.278	141.88
438.5	133.88
438.721	141.88
438.943	114.88
439.165	83.88
439.386	96.88
439.608	107.88
439.829	124.88
440.05	176.88
440.272	215.88
440.493	133.88
440.715	91.88
440.936	73.88
441.158	96.88
441.379	88.88
441.6	104.88
441.822	113.88
442.043	100.88
442.264	130.88
442.486	123.88
442.707	108.88
442.928	126.88
443.149	189.88
443.371	174.88
443.592	134.88
443.813	120.88
444.034	132.88
444.255	100.88
444.476	89.88
444.698	90.88
444.919	96.88
445.14	137.88
445.361	134.88
445.582	141.88
445.803	203.88
446.024	192.88
446.245	179.88
446.466	134.88
446.687	91.88
446.908	105.88
447.129	98.88
447.35	86.88
447.571	96.88
447.792	104.88
448.013	112.88
448.234	119.88
448.455	109.88
448.675	131.88
448.896	136.88
449.117	115.88
449.338	127.88
449.559	160.88
449.779	167.88
450	119.88
450.221	89.88
450.442	103.88
450.662	104.88
450.883	107.88
451.104	129.88
451.324	106.88
451.545	97.88
451.766	75.88
451.986	83.88
452.207	95.88
452.428	81.88
452.648	118.88
452.869	128.88
453.089	141.88
453.31	138.88
453.53	101.88
453.751	90.88
453.971	121.88
454.192	127.88
454.412	88.88
454.633	101.88
454.853	84.88
455.073	94.88
455.294	100.88
455.514	110.88
455.734	91.88
455.955	89.88
456.175	91.88
456.395	95.88
456.616	84.88
456.836	90.88
457.056	89.88
457.276	80.88
457.497	90.88
457.717	83.88
457.937	79.88
458.157	90.88
458.377	100.88
458.598	114.88
458.818	186.88
459.038	233.88
459.258	139.88
459.478	108.88
459.698	82.88
459.918	93.88
460.138	86.88
460.358	90.88
460.578	76.88
460.798	104.88
461.018	95.88
461.238	87.88
461.458	95.88
461.678	76.88
461.898	94.88
462.118	75.88
462.338	95.88
462.558	81.88
462.777	88.88
462.997	84.88
463.217	113.88
463.437	102.88
463.657	93.88
463.876	98.88
464.096	98.88
464.316	97.88
464.536	102.88
464.755	101.88
464.975	118.88
465.195	218.88
465.414	212.88
465.634	114.88
465.854	93.88
466.073	87.88
466.293	81.88
466.512	94.88
466.732	107.88
466.951	112.88
467.171	98.88
467.391	99.88
467.61	156.88
467.829	206.88
468.049	591.88
468.268	846.88
468.488	206.88
468.707	111.88
468.927	94.88
469.146	96.88
469.365	89.88
469.585	102.88
469.804	102.88
470.023	118.88
470.243	110.88
470.462	105.88
470.681	133.88
470.901	96.88
471.12	108.88
471.339	107.88
471.558	110.88
471.777	154.88
471.997	288.88
472.216	1153.88
472.435	2650.88
472.654	635.88
472.873	163.88
473.092	101.88
473.311	107.88
473.53	102.88
473.749	93.88
473.968	110.88
474.187	129.88
474.406	111.88
474.625	99.88
474.844	94.88
475.063	92.88
475.282	95.88
475.501	96.88
475.72	89.88
475.939	96.88
476.158	80.88
476.377	102.88
476.596	105.88
476.814	111.88
477.033	108.88
477.252	86.88
477.471	96.88
477.69	82.88
477.908	87.88
478.127	87.88
478.346	89.88
478.564	101.88
478.783	122.88
479.002	112.88
479.22	114.88
479.439	126.88
479.658	144.88
479.876	127.88
480.095	116.88
480.313	149.88
480.532	179.88
480.751	307.88
480.969	1078.88
481.188	4602.88
481.406	2565.88
481.624	371.88
481.843	145.88
482.061	99.88
482.28	107.88
482.498	89.88
482.717	103.88
482.935	95.88
483.153	99.88
483.372	94.88
483.59	83.88
483.808	83.88
484.027	88.88
484.245	97.88
484.463	97.88
484.681	90.88
484.9	92.88
485.118	96.88
485.336	107.88
485.554	93.88
485.772	106.88
485.99	109.88
486.209	107.88
486.427	106.88
486.645	140.88
486.863	132.88
487.081	110.88
487.299	96.88
487.517	94.88
487.735	93.88
487.953	95.88
488.171	98.88
488.389	103.88
488.607	106.88
488.825	76.88
489.043	76.88
489.261	104.88
489.479	92.88
489.696	106.88
489.914	93.88
490.132	102.88
490.35	91.88
490.568	91.88
490.786	90.88
491.003	90.88
491.221	94.88
491.439	95.88
491.657	86.88
491.874	102.88
492.092	91.88
492.31	98.88
492.527	90.88
492.745	108.88
492.963	101.88
493.18	106.88
493.398	102.88
493.615	100.88
493.833	89.88
494.05	83.88
494.268	90.88
494.485	95.88
494.703	88.88
494.92	80.88
495.138	94.88
495.355	98.88
495.573	97.88
495.79	96.88
496.008	91.88
496.225	99.88
496.442	76.88
496.66	103.88
496.877	88.88
497.094	104.88
497.312	91.88
497.529	97.88
497.746	93.88
497.963	98.88
498.181	111.88
498.398	88.88
498.615	108.88
498.832	123.88
499.049	108.88
499.267	100.88
499.484	92.88
499.701	92.88
499.918	101.88
500.135	90.88
500.352	95.88
500.569	103.88
500.786	102.88
501.003	85.88
501.22	104.88
501.437	97.88
501.654	98.88
501.871	123.88
502.088	88.88
502.305	99.88
502.522	96.88
502.739	81.88
502.956	105.88
503.172	105.88
503.389	99.88
503.606	119.88
503.823	113.88
504.04	82.88
504.256	98.88
504.473	91.88
504.69	81.88
504.907	90.88
505.123	81.88
505.34	83.88
505.557	94.88
505.773	93.88
505.99	94.88
506.207	75.88
506.423	88.88
506.64	88.88
506.856	103.88
507.073	96.88
507.289	115.88
507.506	102.88
507.722	126.88
507.939	124.88
508.155	107.88
508.372	88.88
508.588	100.88
508.805	92.88
509.021	98.88
509.238	98.88
509.454	99.88
509.67	115.88
509.887	119.88
510.103	147.88
510.319	233.88
510.536	839.88
510.752	2909.88
510.968	776.88
511.184	185.88
511.401	131.88
511.617	105.88
511.833	117.88
512.049	107.88
512.265	111.88
512.481	87.88
512.698	96.88
512.914	83.88
