Data from Circ_1998_H10_HRD10591_00037.txt Node
Date: Wed Jan 03 11:26:56 EST 2024
User: Yrep
Spectrometer: HR+D1059
Trigger mode: 1
Integration Time (sec): 1.000000E-1
Scans to average: 1
Electric dark correction enabled: true
Nonlinearity correction enabled: false
Boxcar width: 0
XAxis mode: Wavelengths
Number of Pixels in Spectrum: 2048
>>>>>Begin Spectral Data<<<<<
223.165	-7.56
223.4	-7.56
223.635	-7.56
223.869	-15.56
224.104	-18.56
224.338	-18.56
224.573	-31.56
224.808	-16.56
225.042	5.44
225.277	-15.56
225.511	6.44
225.746	1.44
225.98	13.44
226.215	20.44
226.449	15.44
226.683	19.44
226.918	12.44
227.152	29.44
227.387	43.44
227.621	43.44
227.856	49.44
228.09	52.44
228.324	54.44
228.559	53.44
228.793	61.44
229.027	65.44
229.262	87.44
229.496	81.44
229.73	115.44
229.964	119.44
230.199	81.44
230.433	76.44
230.667	91.44
230.901	78.44
231.136	87.44
231.37	68.44
231.604	100.44
231.838	88.44
232.072	69.44
232.306	75.44
232.541	84.44
232.775	89.44
233.009	77.44
233.243	70.44
233.477	93.44
233.711	95.44
233.945	75.44
234.179	79.44
234.413	72.44
234.647	88.44
234.881	87.44
235.115	105.44
235.349	89.44
235.583	75.44
235.817	84.44
236.051	80.44
236.285	90.44
236.519	85.44
236.753	85.44
236.987	86.44
237.221	103.44
237.455	109.44
237.689	92.44
237.922	91.44
238.156	80.44
238.39	67.44
238.624	73.44
238.858	81.44
239.091	81.44
239.325	81.44
239.559	78.44
239.793	82.44
240.027	80.44
240.26	72.44
240.494	75.44
240.728	85.44
240.961	62.44
241.195	83.44
241.429	88.44
241.662	79.44
241.896	73.44
242.13	85.44
242.363	85.44
242.597	71.44
242.83	77.44
243.064	90.44
243.298	78.44
243.531	90.44
243.765	95.44
243.998	90.44
244.232	89.44
244.465	96.44
244.699	91.44
244.932	77.44
245.166	83.44
245.399	80.44
245.633	83.44
245.866	80.44
246.099	88.44
246.333	91.44
246.566	88.44
246.8	84.44
247.033	81.44
247.266	83.44
247.5	74.44
247.733	92.44
247.966	89.44
248.2	68.44
248.433	89.44
248.666	93.44
248.899	81.44
249.133	105.44
249.366	113.44
249.599	119.44
249.832	97.44
250.066	89.44
250.299	110.44
250.532	103.44
250.765	95.44
250.998	81.44
251.231	92.44
251.465	93.44
251.698	91.44
251.931	85.44
252.164	96.44
252.397	79.44
252.63	94.44
252.863	85.44
253.096	96.44
253.329	83.44
253.562	74.44
253.795	91.44
254.028	81.44
254.261	89.44
254.494	93.44
254.727	81.44
254.96	105.44
255.193	92.44
255.426	92.44
255.659	91.44
255.892	107.44
256.124	106.44
256.357	89.44
256.59	86.44
256.823	87.44
257.056	95.44
257.289	84.44
257.521	79.44
257.754	97.44
257.987	95.44
258.22	109.44
258.452	123.44
258.685	98.44
258.918	102.44
259.151	93.44
259.383	87.44
259.616	83.44
259.849	91.44
260.081	104.44
260.314	97.44
260.547	95.44
260.779	109.44
261.012	137.44
261.244	132.44
261.477	117.44
261.71	120.44
261.942	147.44
262.175	161.44
262.407	119.44
262.64	96.44
262.872	91.44
263.105	104.44
263.337	96.44
263.57	87.44
263.802	89.44
264.035	84.44
264.267	89.44
264.499	85.44
264.732	96.44
264.964	85.44
265.197	88.44
265.429	84.44
265.661	83.44
265.894	86.44
266.126	95.44
266.358	89.44
266.591	94.44
266.823	81.44
267.055	91.44
267.287	97.44
267.52	97.44
267.752	84.44
267.984	82.44
268.216	81.44
268.448	101.44
268.681	85.44
268.913	89.44
269.145	98.44
269.377	80.44
269.609	87.44
269.841	80.44
270.073	91.44
270.306	91.44
270.538	84.44
270.77	97.44
271.002	98.44
271.234	85.44
271.466	92.44
271.698	99.44
271.93	94.44
272.162	92.44
272.394	83.44
272.626	91.44
272.858	90.44
273.09	86.44
273.322	84.44
273.553	81.44
273.785	90.44
274.017	96.44
274.249	88.44
274.481	84.44
274.713	93.44
274.945	96.44
275.176	108.44
275.408	120.44
275.64	134.44
275.872	141.44
276.104	128.44
276.335	112.44
276.567	137.44
276.799	197.44
277.031	235.44
277.262	270.44
277.494	197.44
277.726	137.44
277.957	93.44
278.189	97.44
278.421	98.44
278.652	97.44
278.884	101.44
279.115	105.44
279.347	97.44
279.579	123.44
279.81	169.44
280.042	287.44
280.273	384.44
280.505	244.44
280.736	109.44
280.968	100.44
281.199	95.44
281.431	101.44
281.662	99.44
281.894	97.44
282.125	122.44
282.356	154.44
282.588	208.44
282.819	159.44
283.051	99.44
283.282	96.44
283.513	98.44
283.745	94.44
283.976	104.44
284.207	104.44
284.439	93.44
284.67	92.44
284.901	102.44
285.132	91.44
285.364	98.44
285.595	91.44
285.826	95.44
286.057	95.44
286.288	83.44
286.52	90.44
286.751	95.44
286.982	90.44
287.213	104.44
287.444	100.44
287.675	104.44
287.906	93.44
288.138	101.44
288.369	101.44
288.6	109.44
288.831	95.44
289.062	79.44
289.293	96.44
289.524	93.44
289.755	95.44
289.986	82.44
290.217	96.44
290.448	83.44
290.679	87.44
290.91	89.44
291.141	98.44
291.371	100.44
291.602	99.44
291.833	97.44
292.064	91.44
292.295	101.44
292.526	104.44
292.757	92.44
292.987	104.44
293.218	89.44
293.449	94.44
293.68	89.44
293.91	96.44
294.141	103.44
294.372	97.44
294.603	95.44
294.833	93.44
295.064	96.44
295.295	79.44
295.525	88.44
295.756	113.44
295.987	130.44
296.217	191.44
296.448	180.44
296.679	98.44
296.909	104.44
297.14	85.44
297.37	92.44
297.601	93.44
297.831	103.44
298.062	103.44
298.292	108.44
298.523	93.44
298.753	100.44
298.984	94.44
299.214	99.44
299.445	101.44
299.675	111.44
299.905	103.44
300.136	93.44
300.366	104.44
300.597	101.44
300.827	92.44
301.057	117.44
301.288	131.44
301.518	99.44
301.748	122.44
301.979	135.44
302.209	117.44
302.439	103.44
302.669	121.44
302.9	107.44
303.13	102.44
303.36	134.44
303.59	140.44
303.82	181.44
304.051	127.44
304.281	98.44
304.511	111.44
304.741	99.44
304.971	93.44
305.201	101.44
305.431	100.44
305.661	100.44
305.891	106.44
306.121	107.44
306.352	128.44
306.582	131.44
306.812	125.44
307.042	147.44
307.272	226.44
307.502	236.44
307.731	216.44
307.961	145.44
308.191	111.44
308.421	95.44
308.651	101.44
308.881	102.44
309.111	107.44
309.341	102.44
309.571	129.44
309.8	107.44
310.03	122.44
310.26	119.44
310.49	117.44
310.72	126.44
310.949	135.44
311.179	135.44
311.409	104.44
311.639	107.44
311.868	115.44
312.098	128.44
312.328	132.44
312.557	130.44
312.787	156.44
313.017	109.44
313.246	121.44
313.476	96.44
313.706	94.44
313.935	109.44
314.165	121.44
314.394	122.44
314.624	115.44
314.853	128.44
315.083	101.44
315.312	101.44
315.542	97.44
315.771	106.44
316.001	81.44
316.23	90.44
316.46	97.44
316.689	101.44
316.919	111.44
317.148	117.44
317.377	106.44
317.607	101.44
317.836	113.44
318.065	96.44
318.295	100.44
318.524	109.44
318.753	100.44
318.983	100.44
319.212	120.44
319.441	139.44
319.67	115.44
319.9	113.44
320.129	95.44
320.358	104.44
320.587	108.44
320.816	121.44
321.046	124.44
321.275	126.44
321.504	108.44
321.733	109.44
321.962	122.44
322.191	116.44
322.42	127.44
322.649	124.44
322.878	134.44
323.108	133.44
323.337	171.44
323.566	189.44
323.795	244.44
324.024	320.44
324.253	677.44
324.482	1506.44
324.71	3211.44
324.939	4219.44
325.168	1473.44
325.397	415.44
325.626	228.44
325.855	160.44
326.084	165.44
326.313	166.44
326.542	226.44
326.77	364.44
326.999	715.44
327.228	1601.44
327.457	3003.44
327.686	2386.44
327.914	842.44
328.143	834.44
328.372	1088.44
328.6	565.44
328.829	259.44
329.058	265.44
329.287	260.44
329.515	249.44
329.744	379.44
329.972	795.44
330.201	1676.44
330.43	2444.44
330.658	1026.44
330.887	429.44
331.115	274.44
331.344	171.44
331.572	160.44
331.801	173.44
332.03	149.44
332.258	131.44
332.486	115.44
332.715	127.44
332.943	135.44
333.172	139.44
333.4	172.44
333.629	221.44
333.857	343.44
334.085	716.44
334.314	1587.44
334.542	3161.44
334.771	2915.44
334.999	664.44
335.227	247.44
335.455	153.44
335.684	148.44
335.912	112.44
336.14	122.44
336.369	117.44
336.597	135.44
336.825	125.44
337.053	104.44
337.281	118.44
337.51	109.44
337.738	112.44
337.966	106.44
338.194	107.44
338.422	125.44
338.65	99.44
338.878	100.44
339.106	95.44
339.334	110.44
339.562	107.44
339.79	96.44
340.018	101.44
340.246	111.44
340.474	114.44
340.702	110.44
340.93	82.44
341.158	91.44
341.386	111.44
341.614	119.44
341.842	126.44
342.07	97.44
342.298	98.44
342.526	89.44
342.754	99.44
342.981	103.44
343.209	98.44
343.437	96.44
343.665	100.44
343.893	88.44
344.12	104.44
344.348	93.44
344.576	98.44
344.804	101.44
345.031	106.44
345.259	124.44
345.487	111.44
345.714	106.44
345.942	105.44
346.17	114.44
346.397	106.44
346.625	89.44
346.853	104.44
347.08	97.44
347.308	110.44
347.535	109.44
347.763	116.44
347.99	106.44
348.218	112.44
348.445	144.44
348.673	128.44
348.9	111.44
349.128	98.44
349.355	88.44
349.583	96.44
349.81	98.44
350.037	101.44
350.265	113.44
350.492	101.44
350.72	100.44
350.947	112.44
351.174	132.44
351.402	146.44
351.629	131.44
351.856	118.44
352.083	123.44
352.311	137.44
352.538	136.44
352.765	143.44
352.992	127.44
353.22	124.44
353.447	111.44
353.674	106.44
353.901	93.44
354.128	104.44
354.355	92.44
354.583	91.44
354.81	106.44
355.037	100.44
355.264	92.44
355.491	96.44
355.718	93.44
355.945	99.44
356.172	83.44
356.399	89.44
356.626	90.44
356.853	104.44
357.08	101.44
357.307	87.44
357.534	95.44
357.761	99.44
357.988	105.44
358.215	100.44
358.441	95.44
358.668	95.44
358.895	95.44
359.122	104.44
359.349	100.44
359.576	103.44
359.802	135.44
360.029	178.44
360.256	167.44
360.483	136.44
360.709	92.44
360.936	95.44
361.163	100.44
361.39	120.44
361.616	121.44
361.843	105.44
362.07	120.44
362.296	113.44
362.523	109.44
362.749	105.44
362.976	105.44
363.203	122.44
363.429	107.44
363.656	113.44
363.882	103.44
364.109	93.44
364.335	101.44
364.562	102.44
364.788	114.44
365.015	108.44
365.241	112.44
365.468	130.44
365.694	129.44
365.92	115.44
366.147	108.44
366.373	99.44
366.599	88.44
366.826	92.44
367.052	92.44
367.278	102.44
367.505	101.44
367.731	107.44
367.957	107.44
368.184	116.44
368.41	128.44
368.636	142.44
368.862	156.44
369.089	131.44
369.315	124.44
369.541	104.44
369.767	101.44
369.993	98.44
370.219	118.44
370.445	110.44
370.672	85.44
370.898	100.44
371.124	91.44
371.35	101.44
371.576	97.44
371.802	96.44
372.028	93.44
372.254	99.44
372.48	109.44
372.706	89.44
372.932	98.44
373.158	88.44
373.384	89.44
373.61	105.44
373.835	105.44
374.061	98.44
374.287	98.44
374.513	112.44
374.739	92.44
374.965	85.44
375.191	91.44
375.416	98.44
375.642	100.44
375.868	116.44
376.094	93.44
376.319	94.44
376.545	91.44
376.771	105.44
376.997	98.44
377.222	111.44
377.448	84.44
377.674	91.44
377.899	85.44
378.125	97.44
378.35	84.44
378.576	98.44
378.802	94.44
379.027	93.44
379.253	94.44
379.478	93.44
379.704	101.44
379.929	109.44
380.155	101.44
380.38	96.44
380.606	95.44
380.831	104.44
381.057	95.44
381.282	99.44
381.507	98.44
381.733	105.44
381.958	100.44
382.184	93.44
382.409	99.44
382.634	112.44
382.86	109.44
383.085	96.44
383.31	93.44
383.535	98.44
383.761	101.44
383.986	105.44
384.211	105.44
384.436	90.44
384.662	105.44
384.887	109.44
385.112	101.44
385.337	115.44
385.562	120.44
385.787	113.44
386.013	117.44
386.238	133.44
386.463	112.44
386.688	126.44
386.913	101.44
387.138	104.44
387.363	120.44
387.588	103.44
387.813	99.44
388.038	114.44
388.263	112.44
388.488	111.44
388.713	93.44
388.938	105.44
389.163	95.44
389.387	90.44
389.612	102.44
389.837	101.44
390.062	101.44
390.287	91.44
390.512	100.44
390.736	95.44
390.961	96.44
391.186	100.44
391.411	90.44
391.636	96.44
391.86	90.44
392.085	89.44
392.31	97.44
392.534	82.44
392.759	102.44
392.984	96.44
393.208	86.44
393.433	106.44
393.658	93.44
393.882	88.44
394.107	87.44
394.331	96.44
394.556	75.44
394.78	99.44
395.005	88.44
395.229	89.44
395.454	99.44
395.678	97.44
395.903	93.44
396.127	98.44
396.352	81.44
396.576	79.44
396.801	103.44
397.025	102.44
397.249	98.44
397.474	105.44
397.698	87.44
397.922	95.44
398.147	93.44
398.371	97.44
398.595	89.44
398.82	98.44
399.044	83.44
399.268	92.44
399.492	79.44
399.717	105.44
399.941	97.44
400.165	101.44
400.389	108.44
400.613	96.44
400.837	95.44
401.062	81.44
401.286	104.44
401.51	102.44
401.734	120.44
401.958	113.44
402.182	183.44
402.406	235.44
402.63	181.44
402.854	127.44
403.078	108.44
403.302	114.44
403.526	87.44
403.75	83.44
403.974	96.44
404.198	91.44
404.422	107.44
404.645	103.44
404.869	117.44
405.093	138.44
405.317	192.44
405.541	181.44
405.765	151.44
405.988	161.44
406.212	255.44
406.436	409.44
406.66	235.44
406.883	155.44
407.107	115.44
407.331	123.44
407.555	115.44
407.778	123.44
408.002	109.44
408.226	106.44
408.449	89.44
408.673	106.44
408.896	115.44
409.12	107.44
409.344	101.44
409.567	83.44
409.791	94.44
410.014	88.44
410.238	94.44
410.461	96.44
410.685	101.44
410.908	110.44
411.132	125.44
411.355	104.44
411.578	107.44
411.802	83.44
412.025	107.44
412.249	108.44
412.472	135.44
412.695	175.44
412.919	125.44
413.142	111.44
413.365	94.44
413.589	84.44
413.812	88.44
414.035	107.44
414.258	85.44
414.482	113.44
414.705	93.44
414.928	93.44
415.151	93.44
415.374	101.44
415.597	105.44
415.821	93.44
416.044	98.44
416.267	113.44
416.49	96.44
416.713	96.44
416.936	97.44
417.159	112.44
417.382	123.44
417.605	114.44
417.828	119.44
418.051	114.44
418.274	98.44
418.497	109.44
418.72	94.44
418.943	93.44
419.166	93.44
419.389	92.44
419.611	98.44
419.834	99.44
420.057	87.44
420.28	107.44
420.503	87.44
420.726	105.44
420.948	113.44
421.171	120.44
421.394	109.44
421.617	98.44
421.839	85.44
422.062	81.44
422.285	98.44
422.507	118.44
422.73	127.44
422.953	121.44
423.175	104.44
423.398	106.44
423.621	94.44
423.843	90.44
424.066	87.44
424.288	86.44
424.511	105.44
424.733	105.44
424.956	133.44
425.178	130.44
425.401	117.44
425.623	118.44
425.846	110.44
426.068	102.44
426.291	119.44
426.513	107.44
426.735	94.44
426.958	99.44
427.18	148.44
427.402	222.44
427.625	339.44
427.847	335.44
428.069	314.44
428.292	155.44
428.514	112.44
428.736	98.44
428.958	100.44
429.181	97.44
429.403	100.44
429.625	96.44
429.847	112.44
430.069	124.44
430.292	107.44
430.514	96.44
430.736	92.44
430.958	93.44
431.18	80.44
431.402	72.44
431.624	82.44
431.846	89.44
432.068	71.44
432.29	100.44
432.512	91.44
432.734	96.44
432.956	91.44
433.178	113.44
433.4	103.44
433.622	109.44
433.844	91.44
434.066	103.44
434.287	103.44
434.509	101.44
434.731	96.44
434.953	83.44
435.175	95.44
435.397	105.44
435.618	111.44
435.84	124.44
436.062	176.44
436.284	156.44
436.505	135.44
436.727	116.44
436.949	106.44
437.17	92.44
437.392	103.44
437.614	106.44
437.835	152.44
438.057	195.44
438.278	155.44
438.5	120.44
438.721	177.44
438.943	121.44
439.165	96.44
439.386	106.44
439.608	111.44
439.829	152.44
440.05	186.44
440.272	240.44
440.493	136.44
440.715	96.44
440.936	99.44
441.158	114.44
441.379	101.44
441.6	108.44
441.822	116.44
442.043	121.44
442.264	139.44
442.486	134.44
442.707	99.44
442.928	164.44
443.149	225.44
443.371	224.44
443.592	179.44
443.813	165.44
444.034	143.44
444.255	111.44
444.476	107.44
444.698	103.44
444.919	79.44
445.14	140.44
445.361	157.44
445.582	172.44
445.803	262.44
446.024	240.44
446.245	215.44
446.466	169.44
446.687	122.44
446.908	99.44
447.129	95.44
447.35	110.44
447.571	96.44
447.792	96.44
448.013	112.44
448.234	136.44
448.455	121.44
448.675	158.44
448.896	161.44
449.117	112.44
449.338	122.44
449.559	179.44
449.779	188.44
450	114.44
450.221	87.44
450.442	99.44
450.662	123.44
450.883	143.44
451.104	160.44
451.324	122.44
451.545	119.44
451.766	103.44
451.986	94.44
452.207	99.44
452.428	121.44
452.648	112.44
452.869	157.44
453.089	165.44
453.31	179.44
453.53	117.44
453.751	112.44
453.971	138.44
454.192	151.44
454.412	123.44
454.633	91.44
454.853	101.44
455.073	101.44
455.294	97.44
455.514	114.44
455.734	100.44
455.955	98.44
456.175	86.44
456.395	104.44
456.616	92.44
456.836	87.44
457.056	93.44
457.276	98.44
457.497	97.44
457.717	84.44
457.937	88.44
458.157	91.44
458.377	108.44
458.598	146.44
458.818	294.44
459.038	323.44
459.258	199.44
459.478	102.44
459.698	104.44
459.918	84.44
460.138	79.44
460.358	93.44
460.578	110.44
460.798	119.44
461.018	90.44
461.238	79.44
461.458	94.44
461.678	92.44
461.898	106.44
462.118	92.44
462.338	103.44
462.558	104.44
462.777	96.44
462.997	112.44
463.217	114.44
463.437	108.44
463.657	89.44
463.876	97.44
464.096	99.44
464.316	98.44
464.536	114.44
464.755	105.44
464.975	151.44
465.195	314.44
465.414	325.44
465.634	113.44
465.854	101.44
466.073	95.44
466.293	89.44
466.512	100.44
466.732	88.44
466.951	109.44
467.171	111.44
467.391	128.44
467.61	193.44
467.829	302.44
468.049	909.44
468.268	1356.44
468.488	320.44
468.707	139.44
468.927	116.44
469.146	91.44
469.365	107.44
469.585	91.44
469.804	120.44
470.023	139.44
470.243	127.44
470.462	136.44
470.681	165.44
470.901	114.44
471.12	124.44
471.339	124.44
471.558	131.44
471.777	196.44
471.997	459.44
472.216	1867.44
472.435	4297.44
472.654	933.44
472.873	239.44
473.092	130.44
473.311	107.44
473.53	93.44
473.749	99.44
473.968	127.44
474.187	158.44
474.406	136.44
474.625	100.44
474.844	99.44
475.063	99.44
475.282	102.44
475.501	109.44
475.72	85.44
475.939	99.44
476.158	90.44
476.377	97.44
476.596	99.44
476.814	120.44
477.033	108.44
477.252	111.44
477.471	87.44
477.69	108.44
477.908	105.44
478.127	104.44
478.346	105.44
478.564	108.44
478.783	126.44
479.002	117.44
479.22	125.44
479.439	167.44
479.658	182.44
479.876	144.44
480.095	151.44
480.313	162.44
480.532	208.44
480.751	448.44
480.969	1669.44
481.188	7381.44
481.406	4098.44
481.624	543.44
481.843	182.44
482.061	135.44
482.28	107.44
482.498	104.44
482.717	99.44
482.935	103.44
483.153	98.44
483.372	106.44
483.59	104.44
483.808	97.44
484.027	102.44
484.245	106.44
484.463	107.44
484.681	99.44
484.9	99.44
485.118	92.44
485.336	99.44
485.554	103.44
485.772	105.44
485.99	114.44
486.209	121.44
486.427	117.44
486.645	141.44
486.863	151.44
487.081	111.44
487.299	109.44
487.517	100.44
487.735	106.44
487.953	111.44
488.171	106.44
488.389	92.44
488.607	121.44
488.825	101.44
489.043	94.44
489.261	107.44
489.479	87.44
489.696	100.44
489.914	96.44
490.132	84.44
490.35	100.44
490.568	97.44
490.786	113.44
491.003	100.44
491.221	99.44
491.439	123.44
491.657	99.44
491.874	99.44
492.092	89.44
492.31	108.44
492.527	115.44
492.745	108.44
492.963	80.44
493.18	105.44
493.398	104.44
493.615	106.44
493.833	99.44
494.05	104.44
494.268	94.44
494.485	93.44
494.703	90.44
494.92	96.44
495.138	91.44
495.355	111.44
495.573	103.44
495.79	95.44
496.008	98.44
496.225	114.44
496.442	92.44
496.66	95.44
496.877	104.44
497.094	92.44
497.312	79.44
497.529	90.44
497.746	92.44
497.963	93.44
498.181	108.44
498.398	104.44
498.615	135.44
498.832	121.44
499.049	110.44
499.267	104.44
499.484	97.44
499.701	104.44
499.918	97.44
500.135	84.44
500.352	95.44
500.569	102.44
500.786	96.44
501.003	98.44
501.22	113.44
501.437	110.44
501.654	135.44
501.871	154.44
502.088	120.44
502.305	100.44
502.522	95.44
502.739	97.44
502.956	84.44
503.172	105.44
503.389	112.44
503.606	155.44
503.823	120.44
504.04	118.44
504.256	90.44
504.473	85.44
504.69	101.44
504.907	102.44
505.123	92.44
505.34	101.44
505.557	101.44
505.773	107.44
505.99	95.44
506.207	92.44
506.423	96.44
506.64	97.44
506.856	99.44
507.073	98.44
507.289	96.44
507.506	114.44
507.722	169.44
507.939	152.44
508.155	108.44
508.372	102.44
508.588	100.44
508.805	112.44
509.021	101.44
509.238	111.44
509.454	115.44
509.67	112.44
