Data from Circ_1998_H10_HRD10591_00045.txt Node
Date: Wed Jan 03 11:26:57 EST 2024
User: Yrep
Spectrometer: HR+D1059
Trigger mode: 1
Integration Time (sec): 1.000000E-1
Scans to average: 1
Electric dark correction enabled: true
Nonlinearity correction enabled: false
Boxcar width: 0
XAxis mode: Wavelengths
Number of Pixels in Spectrum: 2048
>>>>>Begin Spectral Data<<<<<
223.165	-24.81
223.4	-24.81
223.635	-24.81
223.869	-25.81
224.104	-10.81
224.338	-13.81
224.573	-5.81
224.808	-23.81
225.042	-13.81
225.277	-0.81
225.511	-13.81
225.746	15.19
225.98	2.19
226.215	13.19
226.449	26.19
226.683	19.19
226.918	33.19
227.152	24.19
227.387	30.19
227.621	36.19
227.856	36.19
228.09	53.19
228.324	42.19
228.559	56.19
228.793	52.19
229.027	61.19
229.262	67.19
229.496	96.19
229.73	101.19
229.964	90.19
230.199	63.19
230.433	86.19
230.667	74.19
230.901	76.19
231.136	76.19
231.37	74.19
231.604	82.19
231.838	91.19
232.072	95.19
232.306	72.19
232.541	84.19
232.775	93.19
233.009	85.19
233.243	86.19
233.477	103.19
233.711	84.19
233.945	94.19
234.179	93.19
234.413	87.19
234.647	84.19
234.881	100.19
235.115	85.19
235.349	74.19
235.583	74.19
235.817	83.19
236.051	93.19
236.285	80.19
236.519	59.19
236.753	78.19
236.987	75.19
237.221	80.19
237.455	94.19
237.689	81.19
237.922	75.19
238.156	71.19
238.39	87.19
238.624	77.19
238.858	77.19
239.091	82.19
239.325	91.19
239.559	88.19
239.793	82.19
240.027	93.19
240.26	68.19
240.494	86.19
240.728	73.19
240.961	80.19
241.195	97.19
241.429	88.19
241.662	74.19
241.896	78.19
242.13	81.19
242.363	78.19
242.597	65.19
242.83	78.19
243.064	86.19
243.298	94.19
243.531	74.19
243.765	55.19
243.998	75.19
244.232	92.19
244.465	95.19
244.699	83.19
244.932	77.19
245.166	83.19
245.399	85.19
245.633	63.19
245.866	71.19
246.099	83.19
246.333	85.19
246.566	70.19
246.8	72.19
247.033	84.19
247.266	75.19
247.5	78.19
247.733	82.19
247.966	83.19
248.2	87.19
248.433	81.19
248.666	70.19
248.899	90.19
249.133	78.19
249.366	117.19
249.599	109.19
249.832	88.19
250.066	88.19
250.299	86.19
250.532	80.19
250.765	75.19
250.998	87.19
251.231	83.19
251.465	101.19
251.698	93.19
251.931	115.19
252.164	92.19
252.397	72.19
252.63	86.19
252.863	80.19
253.096	76.19
253.329	75.19
253.562	81.19
253.795	81.19
254.028	83.19
254.261	83.19
254.494	84.19
254.727	93.19
254.96	78.19
255.193	74.19
255.426	65.19
255.659	83.19
255.892	84.19
256.124	93.19
256.357	78.19
256.59	92.19
256.823	90.19
257.056	88.19
257.289	98.19
257.521	90.19
257.754	89.19
257.987	96.19
258.22	99.19
258.452	82.19
258.685	96.19
258.918	92.19
259.151	86.19
259.383	71.19
259.616	90.19
259.849	86.19
260.081	97.19
260.314	89.19
260.547	88.19
260.779	103.19
261.012	118.19
261.244	111.19
261.477	99.19
261.71	113.19
261.942	128.19
262.175	143.19
262.407	101.19
262.64	94.19
262.872	95.19
263.105	85.19
263.337	76.19
263.57	86.19
263.802	94.19
264.035	85.19
264.267	86.19
264.499	82.19
264.732	91.19
264.964	75.19
265.197	66.19
265.429	77.19
265.661	81.19
265.894	98.19
266.126	91.19
266.358	82.19
266.591	94.19
266.823	86.19
267.055	75.19
267.287	95.19
267.52	93.19
267.752	84.19
267.984	89.19
268.216	95.19
268.448	91.19
268.681	105.19
268.913	78.19
269.145	87.19
269.377	67.19
269.609	81.19
269.841	91.19
270.073	99.19
270.306	91.19
270.538	85.19
270.77	73.19
271.002	78.19
271.234	79.19
271.466	95.19
271.698	87.19
271.93	90.19
272.162	94.19
272.394	78.19
272.626	88.19
272.858	85.19
273.09	80.19
273.322	95.19
273.553	94.19
273.785	92.19
274.017	93.19
274.249	90.19
274.481	90.19
274.713	94.19
274.945	85.19
275.176	106.19
275.408	98.19
275.64	130.19
275.872	138.19
276.104	110.19
276.335	114.19
276.567	137.19
276.799	164.19
277.031	194.19
277.262	227.19
277.494	167.19
277.726	100.19
277.957	76.19
278.189	89.19
278.421	91.19
278.652	92.19
278.884	99.19
279.115	90.19
279.347	98.19
279.579	100.19
279.81	130.19
280.042	219.19
280.273	306.19
280.505	205.19
280.736	121.19
280.968	91.19
281.199	89.19
281.431	87.19
281.662	98.19
281.894	90.19
282.125	97.19
282.356	134.19
282.588	171.19
282.819	121.19
283.051	89.19
283.282	90.19
283.513	95.19
283.745	106.19
283.976	94.19
284.207	83.19
284.439	89.19
284.67	88.19
284.901	72.19
285.132	98.19
285.364	89.19
285.595	90.19
285.826	76.19
286.057	95.19
286.288	90.19
286.52	94.19
286.751	80.19
286.982	85.19
287.213	97.19
287.444	96.19
287.675	88.19
287.906	100.19
288.138	86.19
288.369	97.19
288.6	91.19
288.831	92.19
289.062	95.19
289.293	87.19
289.524	83.19
289.755	82.19
289.986	84.19
290.217	91.19
290.448	86.19
290.679	80.19
290.91	80.19
291.141	82.19
291.371	78.19
291.602	91.19
291.833	79.19
292.064	87.19
292.295	89.19
292.526	95.19
292.757	81.19
292.987	84.19
293.218	85.19
293.449	82.19
293.68	90.19
293.91	89.19
294.141	99.19
294.372	87.19
294.603	81.19
294.833	78.19
295.064	82.19
295.295	87.19
295.525	97.19
295.756	113.19
295.987	142.19
296.217	163.19
296.448	138.19
296.679	99.19
296.909	95.19
297.14	95.19
297.37	71.19
297.601	91.19
297.831	94.19
298.062	91.19
298.292	91.19
298.523	90.19
298.753	95.19
298.984	88.19
299.214	86.19
299.445	94.19
299.675	78.19
299.905	103.19
300.136	108.19
300.366	82.19
300.597	88.19
300.827	99.19
301.057	111.19
301.288	120.19
301.518	95.19
301.748	109.19
301.979	102.19
302.209	104.19
302.439	107.19
302.669	98.19
302.9	94.19
303.13	95.19
303.36	109.19
303.59	142.19
303.82	127.19
304.051	97.19
304.281	90.19
304.511	109.19
304.741	90.19
304.971	81.19
305.201	86.19
305.431	92.19
305.661	86.19
305.891	92.19
306.121	113.19
306.352	124.19
306.582	140.19
306.812	114.19
307.042	134.19
307.272	172.19
307.502	206.19
307.731	175.19
307.961	125.19
308.191	94.19
308.421	93.19
308.651	93.19
308.881	101.19
309.111	102.19
309.341	113.19
309.571	108.19
309.8	115.19
310.03	116.19
310.26	119.19
310.49	104.19
310.72	117.19
310.949	120.19
311.179	96.19
311.409	110.19
311.639	107.19
311.868	96.19
312.098	99.19
312.328	114.19
312.557	122.19
312.787	123.19
313.017	115.19
313.246	110.19
313.476	95.19
313.706	89.19
313.935	112.19
314.165	108.19
314.394	115.19
314.624	106.19
314.853	90.19
315.083	101.19
315.312	106.19
315.542	89.19
315.771	97.19
316.001	95.19
316.23	101.19
316.46	94.19
316.689	92.19
316.919	89.19
317.148	100.19
317.377	99.19
317.607	106.19
317.836	105.19
318.065	92.19
318.295	93.19
318.524	90.19
318.753	94.19
318.983	94.19
319.212	103.19
319.441	112.19
319.67	111.19
319.9	111.19
320.129	96.19
320.358	99.19
320.587	106.19
320.816	100.19
321.046	111.19
321.275	92.19
321.504	90.19
321.733	108.19
321.962	100.19
322.191	118.19
322.42	110.19
322.649	122.19
322.878	129.19
323.108	135.19
323.337	161.19
323.566	167.19
323.795	182.19
324.024	244.19
324.253	486.19
324.482	1070.19
324.71	2243.19
324.939	2946.19
325.168	1069.19
325.397	316.19
325.626	180.19
325.855	147.19
326.084	152.19
326.313	158.19
326.542	178.19
326.77	261.19
326.999	542.19
327.228	1130.19
327.457	2079.19
327.686	1688.19
327.914	592.19
328.143	609.19
328.372	779.19
328.6	424.19
328.829	202.19
329.058	198.19
329.287	211.19
329.515	195.19
329.744	283.19
329.972	578.19
330.201	1164.19
330.43	1740.19
330.658	756.19
330.887	302.19
331.115	184.19
331.344	135.19
331.572	121.19
331.801	144.19
332.03	130.19
332.258	117.19
332.486	110.19
332.715	123.19
332.943	119.19
333.172	130.19
333.4	131.19
333.629	168.19
333.857	266.19
334.085	522.19
334.314	1079.19
334.542	2154.19
334.771	1996.19
334.999	504.19
335.227	198.19
335.455	129.19
335.684	124.19
335.912	112.19
336.14	127.19
336.369	106.19
336.597	110.19
336.825	115.19
337.053	107.19
337.281	97.19
337.51	95.19
337.738	111.19
337.966	94.19
338.194	101.19
338.422	108.19
338.65	110.19
338.878	95.19
339.106	97.19
339.334	104.19
339.562	96.19
339.79	88.19
340.018	90.19
340.246	92.19
340.474	105.19
340.702	97.19
340.93	99.19
341.158	94.19
341.386	100.19
341.614	105.19
341.842	113.19
342.07	94.19
342.298	96.19
342.526	88.19
342.754	77.19
342.981	97.19
343.209	73.19
343.437	112.19
343.665	89.19
343.893	105.19
344.12	89.19
344.348	91.19
344.576	98.19
344.804	93.19
345.031	101.19
345.259	102.19
345.487	97.19
345.714	96.19
345.942	106.19
346.17	105.19
346.397	100.19
346.625	86.19
346.853	89.19
347.08	107.19
347.308	117.19
347.535	106.19
347.763	126.19
347.99	107.19
348.218	102.19
348.445	122.19
348.673	124.19
348.9	103.19
349.128	86.19
349.355	98.19
349.583	96.19
349.81	96.19
350.037	98.19
350.265	103.19
350.492	102.19
350.72	99.19
350.947	107.19
351.174	106.19
351.402	135.19
351.629	119.19
351.856	94.19
352.083	112.19
352.311	113.19
352.538	134.19
352.765	129.19
352.992	118.19
353.22	119.19
353.447	113.19
353.674	94.19
353.901	110.19
354.128	96.19
354.355	83.19
354.583	103.19
354.81	113.19
355.037	91.19
355.264	103.19
355.491	88.19
355.718	99.19
355.945	93.19
356.172	101.19
356.399	91.19
356.626	102.19
356.853	101.19
357.08	95.19
357.307	95.19
357.534	87.19
357.761	85.19
357.988	99.19
358.215	119.19
358.441	101.19
358.668	97.19
358.895	109.19
359.122	91.19
359.349	84.19
359.576	89.19
359.802	115.19
360.029	154.19
360.256	140.19
360.483	120.19
360.709	87.19
360.936	100.19
361.163	110.19
361.39	92.19
361.616	116.19
361.843	89.19
362.07	94.19
362.296	103.19
362.523	95.19
362.749	90.19
362.976	96.19
363.203	99.19
363.429	97.19
363.656	88.19
363.882	104.19
364.109	106.19
364.335	112.19
364.562	90.19
364.788	104.19
365.015	99.19
365.241	112.19
365.468	118.19
365.694	118.19
365.92	107.19
366.147	86.19
366.373	82.19
366.599	72.19
366.826	86.19
367.052	74.19
367.278	102.19
367.505	99.19
367.731	95.19
367.957	108.19
368.184	100.19
368.41	117.19
368.636	114.19
368.862	123.19
369.089	126.19
369.315	113.19
369.541	95.19
369.767	96.19
369.993	102.19
370.219	95.19
370.445	80.19
370.672	99.19
370.898	84.19
371.124	79.19
371.35	91.19
371.576	106.19
371.802	86.19
372.028	83.19
372.254	106.19
372.48	96.19
372.706	83.19
372.932	80.19
373.158	92.19
373.384	91.19
373.61	82.19
373.835	76.19
374.061	82.19
374.287	97.19
374.513	92.19
374.739	99.19
374.965	91.19
375.191	92.19
375.416	77.19
375.642	82.19
375.868	91.19
376.094	111.19
376.319	97.19
376.545	90.19
376.771	91.19
376.997	95.19
377.222	78.19
377.448	90.19
377.674	95.19
377.899	94.19
378.125	85.19
378.35	102.19
378.576	82.19
378.802	75.19
379.027	74.19
379.253	105.19
379.478	96.19
379.704	105.19
379.929	93.19
380.155	100.19
380.38	91.19
380.606	91.19
380.831	95.19
381.057	99.19
381.282	89.19
381.507	105.19
381.733	86.19
381.958	86.19
382.184	92.19
382.409	99.19
382.634	86.19
382.86	89.19
383.085	91.19
383.31	117.19
383.535	96.19
383.761	102.19
383.986	98.19
384.211	102.19
384.436	112.19
384.662	88.19
384.887	102.19
385.112	104.19
385.337	110.19
385.562	109.19
385.787	104.19
386.013	124.19
386.238	119.19
386.463	130.19
386.688	108.19
386.913	105.19
387.138	104.19
387.363	97.19
387.588	100.19
387.813	102.19
388.038	106.19
388.263	112.19
388.488	100.19
388.713	105.19
388.938	100.19
389.163	90.19
389.387	89.19
389.612	99.19
389.837	97.19
390.062	90.19
390.287	105.19
390.512	91.19
390.736	85.19
390.961	95.19
391.186	104.19
391.411	84.19
391.636	97.19
391.86	86.19
392.085	88.19
392.31	92.19
392.534	81.19
392.759	83.19
392.984	91.19
393.208	92.19
393.433	114.19
393.658	106.19
393.882	97.19
394.107	94.19
394.331	92.19
394.556	83.19
394.78	96.19
395.005	90.19
395.229	91.19
395.454	85.19
395.678	77.19
395.903	95.19
396.127	90.19
396.352	87.19
396.576	81.19
396.801	92.19
397.025	89.19
397.249	87.19
397.474	84.19
397.698	101.19
397.922	80.19
398.147	83.19
398.371	95.19
398.595	91.19
398.82	77.19
399.044	79.19
399.268	108.19
399.492	87.19
399.717	89.19
399.941	97.19
400.165	101.19
400.389	95.19
400.613	82.19
400.837	87.19
401.062	90.19
401.286	96.19
401.51	94.19
401.734	99.19
401.958	111.19
402.182	163.19
402.406	208.19
402.63	146.19
402.854	94.19
403.078	95.19
403.302	93.19
403.526	90.19
403.75	82.19
403.974	89.19
404.198	82.19
404.422	91.19
404.645	96.19
404.869	96.19
405.093	121.19
405.317	150.19
405.541	131.19
405.765	123.19
405.988	138.19
406.212	215.19
406.436	338.19
406.66	226.19
406.883	132.19
407.107	114.19
407.331	119.19
407.555	118.19
407.778	118.19
408.002	99.19
408.226	90.19
408.449	103.19
408.673	88.19
408.896	88.19
409.12	98.19
409.344	82.19
409.567	88.19
409.791	95.19
410.014	101.19
410.238	86.19
410.461	93.19
410.685	93.19
410.908	94.19
411.132	108.19
411.355	118.19
411.578	86.19
411.802	91.19
412.025	95.19
412.249	108.19
412.472	108.19
412.695	144.19
412.919	122.19
413.142	96.19
413.365	88.19
413.589	96.19
413.812	101.19
414.035	74.19
414.258	94.19
414.482	103.19
414.705	94.19
414.928	95.19
415.151	98.19
415.374	94.19
415.597	94.19
415.821	94.19
416.044	90.19
416.267	91.19
416.49	98.19
416.713	95.19
416.936	107.19
417.159	87.19
417.382	94.19
417.605	103.19
417.828	108.19
418.051	109.19
418.274	101.19
418.497	99.19
418.72	88.19
418.943	88.19
419.166	87.19
419.389	110.19
419.611	102.19
419.834	100.19
420.057	108.19
420.28	99.19
420.503	88.19
420.726	88.19
420.948	106.19
421.171	109.19
421.394	98.19
421.617	91.19
421.839	76.19
422.062	92.19
422.285	95.19
422.507	103.19
422.73	111.19
422.953	101.19
423.175	86.19
423.398	90.19
423.621	111.19
423.843	93.19
424.066	93.19
424.288	100.19
424.511	104.19
424.733	120.19
424.956	123.19
425.178	108.19
425.401	111.19
425.623	102.19
425.846	88.19
426.068	102.19
426.291	88.19
426.513	99.19
426.735	98.19
426.958	102.19
427.18	146.19
427.402	178.19
427.625	242.19
427.847	236.19
428.069	251.19
428.292	152.19
428.514	114.19
428.736	86.19
428.958	90.19
429.181	99.19
429.403	96.19
429.625	110.19
429.847	96.19
430.069	113.19
430.292	93.19
430.514	105.19
430.736	85.19
430.958	95.19
431.18	86.19
431.402	97.19
431.624	89.19
431.846	95.19
432.068	80.19
432.29	86.19
432.512	96.19
432.734	93.19
432.956	95.19
433.178	107.19
433.4	87.19
433.622	88.19
433.844	90.19
434.066	90.19
434.287	100.19
434.509	91.19
434.731	93.19
434.953	93.19
435.175	93.19
435.397	96.19
435.618	101.19
435.84	111.19
436.062	138.19
436.284	126.19
436.505	107.19
436.727	101.19
436.949	111.19
437.17	96.19
437.392	75.19
437.614	106.19
437.835	128.19
438.057	150.19
438.278	137.19
438.5	116.19
438.721	146.19
438.943	120.19
439.165	90.19
439.386	88.19
439.608	95.19
439.829	109.19
440.05	154.19
440.272	189.19
440.493	112.19
440.715	108.19
440.936	78.19
441.158	84.19
441.379	100.19
441.6	106.19
441.822	97.19
442.043	93.19
442.264	108.19
442.486	106.19
442.707	111.19
442.928	128.19
443.149	178.19
443.371	166.19
443.592	138.19
443.813	144.19
444.034	126.19
444.255	105.19
444.476	87.19
444.698	89.19
444.919	90.19
445.14	136.19
445.361	127.19
445.582	147.19
445.803	170.19
446.024	185.19
446.245	159.19
446.466	138.19
446.687	94.19
446.908	94.19
447.129	95.19
447.35	82.19
447.571	104.19
447.792	87.19
448.013	127.19
448.234	118.19
448.455	100.19
448.675	120.19
448.896	124.19
449.117	100.19
449.338	113.19
449.559	150.19
449.779	153.19
450	104.19
450.221	81.19
450.442	89.19
450.662	105.19
450.883	131.19
451.104	124.19
451.324	118.19
451.545	92.19
451.766	93.19
451.986	97.19
452.207	112.19
452.428	87.19
452.648	122.19
452.869	153.19
453.089	142.19
453.31	157.19
453.53	122.19
453.751	100.19
453.971	128.19
454.192	154.19
454.412	116.19
454.633	94.19
454.853	74.19
455.073	109.19
455.294	96.19
455.514	113.19
455.734	108.19
455.955	88.19
456.175	92.19
456.395	88.19
456.616	92.19
456.836	94.19
457.056	95.19
457.276	81.19
457.497	83.19
457.717	88.19
457.937	91.19
458.157	90.19
458.377	106.19
458.598	122.19
458.818	231.19
459.038	241.19
459.258	164.19
459.478	98.19
459.698	96.19
459.918	97.19
460.138	99.19
460.358	86.19
460.578	91.19
460.798	102.19
461.018	90.19
461.238	87.19
461.458	85.19
461.678	80.19
461.898	76.19
462.118	77.19
462.338	94.19
462.558	83.19
462.777	80.19
462.997	93.19
463.217	113.19
463.437	96.19
463.657	85.19
463.876	86.19
464.096	89.19
464.316	102.19
464.536	96.19
464.755	98.19
464.975	131.19
465.195	248.19
465.414	244.19
465.634	123.19
465.854	96.19
466.073	104.19
466.293	88.19
466.512	94.19
466.732	95.19
466.951	104.19
467.171	98.19
467.391	122.19
467.61	165.19
467.829	249.19
468.049	705.19
468.268	1051.19
468.488	266.19
468.707	120.19
468.927	96.19
469.146	104.19
469.365	110.19
469.585	104.19
469.804	112.19
470.023	118.19
470.243	122.19
470.462	126.19
470.681	150.19
470.901	115.19
471.12	114.19
471.339	108.19
471.558	125.19
471.777	170.19
471.997	363.19
472.216	1366.19
472.435	3168.19
472.654	727.19
472.873	202.19
473.092	107.19
473.311	89.19
473.53	109.19
473.749	96.19
473.968	92.19
474.187	115.19
474.406	106.19
474.625	92.19
474.844	104.19
475.063	104.19
475.282	108.19
475.501	95.19
475.72	99.19
475.939	98.19
476.158	97.19
476.377	90.19
476.596	84.19
476.814	103.19
477.033	114.19
477.252	97.19
477.471	101.19
477.69	99.19
477.908	100.19
478.127	81.19
478.346	95.19
478.564	111.19
478.783	119.19
479.002	106.19
479.22	124.19
479.439	118.19
479.658	126.19
479.876	129.19
480.095	136.19
480.313	147.19
480.532	179.19
480.751	314.19
480.969	1264.19
481.188	5400.19
481.406	2986.19
481.624	436.19
481.843	142.19
482.061	108.19
482.28	102.19
482.498	101.19
482.717	108.19
482.935	98.19
483.153	92.19
483.372	88.19
483.59	80.19
483.808	108.19
484.027	116.19
484.245	117.19
484.463	92.19
484.681	99.19
484.9	83.19
485.118	105.19
485.336	99.19
485.554	104.19
485.772	90.19
485.99	110.19
486.209	105.19
486.427	99.19
486.645	135.19
486.863	128.19
487.081	104.19
487.299	94.19
487.517	91.19
487.735	94.19
487.953	99.19
488.171	99.19
488.389	105.19
488.607	106.19
488.825	97.19
489.043	92.19
489.261	90.19
489.479	103.19
489.696	113.19
489.914	100.19
490.132	81.19
490.35	98.19
490.568	95.19
490.786	95.19
491.003	99.19
491.221	97.19
491.439	104.19
491.657	98.19
491.874	88.19
492.092	88.19
492.31	108.19
492.527	114.19
492.745	107.19
492.963	75.19
493.18	99.19
493.398	90.19
493.615	91.19
493.833	96.19
494.05	87.19
494.268	81.19
494.485	91.19
494.703	97.19
494.92	76.19
495.138	107.19
495.355	98.19
495.573	91.19
495.79	99.19
496.008	108.19
496.225	107.19
496.442	95.19
496.66	90.19
496.877	82.19
497.094	98.19
497.312	82.19
497.529	82.19
497.746	96.19
497.963	100.19
498.181	100.19
498.398	100.19
498.615	123.19
498.832	100.19
499.049	87.19
499.267	97.19
499.484	89.19
499.701	92.19
499.918	103.19
500.135	97.19
500.352	87.19
500.569	89.19
500.786	77.19
501.003	82.19
501.22	91.19
501.437	96.19
501.654	98.19
501.871	142.19
502.088	99.19
502.305	98.19
502.522	96.19
502.739	100.19
502.956	103.19
503.172	116.19
503.389	97.19
503.606	136.19
503.823	110.19
504.04	106.19
504.256	86.19
504.473	88.19
504.69	81.19
504.907	81.19
505.123	84.19
505.34	92.19
505.557	95.19
505.773	91.19
505.99	100.19
506.207	102.19
506.423	99.19
506.64	90.19
506.856	86.19
507.073	91.19
507.289	99.19
507.506	109.19
507.722	150.19
507.939	134.19
508.155	104.19
508.372	110.19
508.588	110.19
508.805	93.19
509.021	99.19
509.238	102.19
509.454	104.19
509.67	98.19
509.887	127.19
510.103	146.19
510.319	263.19
510.536	992.19
510.752	3628.19
510.968	962.19
511.184	196.19
511.401	131.19
511.617	103.19
511.833	115.19
512.049	111.19
512.265	90.19
