Data from Circ_1998_H10_HRD10591_00065.txt Node
Date: Wed Jan 03 11:27:01 EST 2024
User: Yrep
Spectrometer: HR+D1059
Trigger mode: 1
Integration Time (sec): 1.000000E-1
Scans to average: 1
Electric dark correction enabled: true
Nonlinearity correction enabled: false
Boxcar width: 0
XAxis mode: Wavelengths
Number of Pixels in Spectrum: 2048
>>>>>Begin Spectral Data<<<<<
223.165	-11.44
223.4	-11.44
223.635	-11.44
223.869	-10.44
224.104	-26.44
224.338	-19.44
224.573	-17.44
224.808	-10.44
225.042	-18.44
225.277	-10.44
225.511	7.56
225.746	8.56
225.98	7.56
226.215	21.56
226.449	6.56
226.683	14.56
226.918	17.56
227.152	40.56
227.387	46.56
227.621	34.56
227.856	40.56
228.09	50.56
228.324	53.56
228.559	47.56
228.793	57.56
229.027	56.56
229.262	72.56
229.496	84.56
229.73	113.56
229.964	100.56
230.199	81.56
230.433	71.56
230.667	84.56
230.901	86.56
231.136	68.56
231.37	75.56
231.604	79.56
231.838	90.56
232.072	85.56
232.306	72.56
232.541	77.56
232.775	73.56
233.009	92.56
233.243	76.56
233.477	77.56
233.711	92.56
233.945	98.56
234.179	79.56
234.413	72.56
234.647	81.56
234.881	82.56
235.115	71.56
235.349	70.56
235.583	73.56
235.817	81.56
236.051	78.56
236.285	73.56
236.519	81.56
236.753	84.56
236.987	79.56
237.221	90.56
237.455	103.56
237.689	79.56
237.922	78.56
238.156	91.56
238.39	64.56
238.624	72.56
238.858	72.56
239.091	88.56
239.325	92.56
239.559	89.56
239.793	94.56
240.027	83.56
240.26	91.56
240.494	78.56
240.728	76.56
240.961	79.56
241.195	92.56
241.429	74.56
241.662	84.56
241.896	76.56
242.13	74.56
242.363	80.56
242.597	77.56
242.83	84.56
243.064	79.56
243.298	70.56
243.531	71.56
243.765	87.56
243.998	86.56
244.232	91.56
244.465	90.56
244.699	80.56
244.932	79.56
245.166	87.56
245.399	81.56
245.633	73.56
245.866	79.56
246.099	82.56
246.333	89.56
246.566	72.56
246.8	75.56
247.033	88.56
247.266	77.56
247.5	82.56
247.733	77.56
247.966	67.56
248.2	101.56
248.433	88.56
248.666	80.56
248.899	84.56
249.133	89.56
249.366	107.56
249.599	121.56
249.832	82.56
250.066	78.56
250.299	95.56
250.532	88.56
250.765	93.56
250.998	80.56
251.231	61.56
251.465	72.56
251.698	76.56
251.931	86.56
252.164	90.56
252.397	81.56
252.63	71.56
252.863	74.56
253.096	78.56
253.329	83.56
253.562	98.56
253.795	77.56
254.028	85.56
254.261	80.56
254.494	86.56
254.727	89.56
254.96	76.56
255.193	66.56
255.426	74.56
255.659	77.56
255.892	115.56
256.124	102.56
256.357	102.56
256.59	87.56
256.823	96.56
257.056	92.56
257.289	98.56
257.521	109.56
257.754	95.56
257.987	85.56
258.22	110.56
258.452	117.56
258.685	109.56
258.918	89.56
259.151	83.56
259.383	72.56
259.616	85.56
259.849	84.56
260.081	86.56
260.314	91.56
260.547	101.56
260.779	109.56
261.012	127.56
261.244	109.56
261.477	102.56
261.71	115.56
261.942	170.56
262.175	161.56
262.407	93.56
262.64	81.56
262.872	82.56
263.105	77.56
263.337	80.56
263.57	70.56
263.802	84.56
264.035	76.56
264.267	91.56
264.499	95.56
264.732	82.56
264.964	78.56
265.197	87.56
265.429	88.56
265.661	82.56
265.894	66.56
266.126	75.56
266.358	92.56
266.591	76.56
266.823	86.56
267.055	86.56
267.287	90.56
267.52	75.56
267.752	84.56
267.984	93.56
268.216	90.56
268.448	101.56
268.681	107.56
268.913	86.56
269.145	98.56
269.377	89.56
269.609	73.56
269.841	88.56
270.073	88.56
270.306	93.56
270.538	87.56
270.77	91.56
271.002	79.56
271.234	97.56
271.466	87.56
271.698	90.56
271.93	91.56
272.162	100.56
272.394	98.56
272.626	66.56
272.858	83.56
273.09	80.56
273.322	97.56
273.553	94.56
273.785	100.56
274.017	94.56
274.249	84.56
274.481	103.56
274.713	81.56
274.945	106.56
275.176	109.56
275.408	98.56
275.64	125.56
275.872	156.56
276.104	128.56
276.335	108.56
276.567	150.56
276.799	204.56
277.031	243.56
277.262	279.56
277.494	200.56
277.726	108.56
277.957	84.56
278.189	84.56
278.421	86.56
278.652	96.56
278.884	103.56
279.115	96.56
279.347	98.56
279.579	122.56
279.81	169.56
280.042	298.56
280.273	409.56
280.505	262.56
280.736	119.56
280.968	102.56
281.199	81.56
281.431	102.56
281.662	95.56
281.894	90.56
282.125	124.56
282.356	166.56
282.588	200.56
282.819	172.56
283.051	99.56
283.282	78.56
283.513	76.56
283.745	86.56
283.976	78.56
284.207	89.56
284.439	99.56
284.67	93.56
284.901	108.56
285.132	89.56
285.364	94.56
285.595	73.56
285.826	87.56
286.057	86.56
286.288	72.56
286.52	80.56
286.751	91.56
286.982	79.56
287.213	87.56
287.444	89.56
287.675	87.56
287.906	88.56
288.138	101.56
288.369	102.56
288.6	95.56
288.831	93.56
289.062	85.56
289.293	95.56
289.524	88.56
289.755	82.56
289.986	81.56
290.217	93.56
290.448	84.56
290.679	93.56
290.91	93.56
291.141	97.56
291.371	90.56
291.602	89.56
291.833	97.56
292.064	93.56
292.295	98.56
292.526	97.56
292.757	86.56
292.987	90.56
293.218	74.56
293.449	85.56
293.68	86.56
293.91	96.56
294.141	92.56
294.372	98.56
294.603	93.56
294.833	99.56
295.064	88.56
295.295	87.56
295.525	96.56
295.756	107.56
295.987	134.56
296.217	201.56
296.448	185.56
296.679	110.56
296.909	88.56
297.14	84.56
297.37	95.56
297.601	96.56
297.831	82.56
298.062	94.56
298.292	93.56
298.523	96.56
298.753	102.56
298.984	82.56
299.214	84.56
299.445	94.56
299.675	93.56
299.905	83.56
300.136	91.56
300.366	86.56
300.597	85.56
300.827	86.56
301.057	111.56
301.288	120.56
301.518	101.56
301.748	102.56
301.979	125.56
302.209	123.56
302.439	105.56
302.669	86.56
302.9	82.56
303.13	116.56
303.36	126.56
303.59	158.56
303.82	203.56
304.051	114.56
304.281	101.56
304.511	97.56
304.741	99.56
304.971	102.56
305.201	97.56
305.431	97.56
305.661	96.56
305.891	86.56
306.121	98.56
306.352	121.56
306.582	127.56
306.812	124.56
307.042	144.56
307.272	213.56
307.502	256.56
307.731	225.56
307.961	157.56
308.191	98.56
308.421	102.56
308.651	90.56
308.881	105.56
309.111	92.56
309.341	89.56
309.571	114.56
309.8	119.56
310.03	107.56
310.26	103.56
310.49	111.56
310.72	116.56
310.949	131.56
311.179	137.56
311.409	102.56
311.639	102.56
311.868	105.56
312.098	106.56
312.328	120.56
312.557	124.56
312.787	141.56
313.017	133.56
313.246	109.56
313.476	95.56
313.706	98.56
313.935	118.56
314.165	111.56
314.394	133.56
314.624	119.56
314.853	117.56
315.083	96.56
315.312	89.56
315.542	94.56
315.771	93.56
316.001	105.56
316.23	90.56
316.46	85.56
316.689	92.56
316.919	101.56
317.148	97.56
317.377	87.56
317.607	112.56
317.836	104.56
318.065	98.56
318.295	88.56
318.524	96.56
318.753	95.56
318.983	87.56
319.212	110.56
319.441	132.56
319.67	115.56
319.9	93.56
320.129	113.56
320.358	100.56
320.587	113.56
320.816	117.56
321.046	121.56
321.275	108.56
321.504	86.56
321.733	93.56
321.962	104.56
322.191	112.56
322.42	127.56
322.649	114.56
322.878	150.56
323.108	152.56
323.337	162.56
323.566	171.56
323.795	213.56
324.024	279.56
324.253	584.56
324.482	1333.56
324.71	2801.56
324.939	3746.56
325.168	1329.56
325.397	375.56
325.626	204.56
325.855	166.56
326.084	158.56
326.313	164.56
326.542	181.56
326.77	313.56
326.999	626.56
327.228	1386.56
327.457	2584.56
327.686	2120.56
327.914	778.56
328.143	848.56
328.372	1162.56
328.6	612.56
328.829	250.56
329.058	264.56
329.287	253.56
329.515	237.56
329.744	395.56
329.972	799.56
330.201	1759.56
330.43	2616.56
330.658	1068.56
330.887	428.56
331.115	256.56
331.344	147.56
331.572	132.56
331.801	145.56
332.03	141.56
332.258	152.56
332.486	141.56
332.715	127.56
332.943	134.56
333.172	156.56
333.4	162.56
333.629	213.56
333.857	351.56
334.085	730.56
334.314	1576.56
334.542	3193.56
334.771	2984.56
334.999	730.56
335.227	240.56
335.455	164.56
335.684	115.56
335.912	124.56
336.14	117.56
336.369	125.56
336.597	134.56
336.825	125.56
337.053	106.56
337.281	104.56
337.51	89.56
337.738	89.56
337.966	119.56
338.194	105.56
338.422	117.56
338.65	93.56
338.878	103.56
339.106	84.56
339.334	92.56
339.562	102.56
339.79	81.56
340.018	98.56
340.246	88.56
340.474	107.56
340.702	102.56
340.93	88.56
341.158	102.56
341.386	100.56
341.614	98.56
341.842	100.56
342.07	88.56
342.298	100.56
342.526	96.56
342.754	90.56
342.981	98.56
343.209	89.56
343.437	105.56
343.665	102.56
343.893	80.56
344.12	91.56
344.348	96.56
344.576	77.56
344.804	100.56
345.031	117.56
345.259	115.56
345.487	113.56
345.714	103.56
345.942	104.56
346.17	95.56
346.397	94.56
346.625	87.56
346.853	93.56
347.08	113.56
347.308	98.56
347.535	114.56
347.763	124.56
347.99	112.56
348.218	110.56
348.445	125.56
348.673	118.56
348.9	116.56
349.128	101.56
349.355	80.56
349.583	97.56
349.81	109.56
350.037	110.56
350.265	99.56
350.492	101.56
350.72	104.56
350.947	113.56
351.174	125.56
351.402	130.56
351.629	112.56
351.856	122.56
352.083	121.56
352.311	134.56
352.538	132.56
352.765	148.56
352.992	135.56
353.22	129.56
353.447	116.56
353.674	106.56
353.901	96.56
354.128	107.56
354.355	99.56
354.583	109.56
354.81	106.56
355.037	104.56
355.264	79.56
355.491	94.56
355.718	88.56
355.945	89.56
356.172	104.56
356.399	89.56
356.626	95.56
356.853	103.56
357.08	106.56
357.307	80.56
357.534	90.56
357.761	90.56
357.988	96.56
358.215	102.56
358.441	91.56
358.668	92.56
358.895	95.56
359.122	94.56
359.349	89.56
359.576	110.56
359.802	130.56
360.029	161.56
360.256	164.56
360.483	117.56
360.709	100.56
360.936	89.56
361.163	109.56
361.39	104.56
361.616	112.56
361.843	84.56
362.07	103.56
362.296	116.56
362.523	94.56
362.749	114.56
362.976	113.56
363.203	106.56
363.429	108.56
363.656	102.56
363.882	86.56
364.109	90.56
364.335	98.56
364.562	101.56
364.788	111.56
365.015	101.56
365.241	114.56
365.468	138.56
365.694	146.56
365.92	118.56
366.147	98.56
366.373	105.56
366.599	94.56
366.826	95.56
367.052	115.56
367.278	99.56
367.505	94.56
367.731	96.56
367.957	105.56
368.184	112.56
368.41	114.56
368.636	162.56
368.862	159.56
369.089	148.56
369.315	122.56
369.541	101.56
369.767	103.56
369.993	109.56
370.219	100.56
370.445	109.56
370.672	89.56
370.898	103.56
371.124	87.56
371.35	104.56
371.576	104.56
371.802	94.56
372.028	78.56
372.254	93.56
372.48	97.56
372.706	81.56
372.932	97.56
373.158	90.56
373.384	84.56
373.61	104.56
373.835	100.56
374.061	79.56
374.287	93.56
374.513	94.56
374.739	98.56
374.965	101.56
375.191	87.56
375.416	102.56
375.642	82.56
375.868	94.56
376.094	84.56
376.319	105.56
376.545	92.56
376.771	95.56
376.997	97.56
377.222	86.56
377.448	96.56
377.674	94.56
377.899	82.56
378.125	85.56
378.35	90.56
378.576	78.56
378.802	99.56
379.027	104.56
379.253	81.56
379.478	90.56
379.704	98.56
379.929	95.56
380.155	110.56
380.38	92.56
380.606	96.56
380.831	90.56
381.057	105.56
381.282	92.56
381.507	108.56
381.733	93.56
381.958	111.56
382.184	89.56
382.409	93.56
382.634	104.56
382.86	100.56
383.085	92.56
383.31	98.56
383.535	100.56
383.761	101.56
383.986	91.56
384.211	86.56
384.436	109.56
384.662	85.56
384.887	99.56
385.112	100.56
385.337	88.56
385.562	93.56
385.787	97.56
386.013	112.56
386.238	128.56
386.463	104.56
386.688	98.56
386.913	100.56
387.138	106.56
387.363	103.56
387.588	94.56
387.813	90.56
388.038	103.56
388.263	98.56
388.488	108.56
388.713	93.56
388.938	91.56
389.163	95.56
389.387	79.56
389.612	102.56
389.837	91.56
390.062	95.56
390.287	90.56
390.512	93.56
390.736	87.56
390.961	79.56
391.186	101.56
391.411	92.56
391.636	92.56
391.86	82.56
392.085	94.56
392.31	91.56
392.534	100.56
392.759	91.56
392.984	96.56
393.208	85.56
393.433	88.56
393.658	92.56
393.882	93.56
394.107	94.56
394.331	91.56
394.556	91.56
394.78	82.56
395.005	89.56
395.229	91.56
395.454	89.56
395.678	84.56
395.903	97.56
396.127	101.56
396.352	76.56
396.576	90.56
396.801	109.56
397.025	102.56
397.249	93.56
397.474	85.56
397.698	89.56
397.922	94.56
398.147	90.56
398.371	86.56
398.595	96.56
398.82	85.56
399.044	82.56
399.268	87.56
399.492	95.56
399.717	92.56
399.941	96.56
400.165	98.56
400.389	85.56
400.613	106.56
400.837	76.56
401.062	88.56
401.286	84.56
401.51	110.56
401.734	102.56
401.958	125.56
402.182	159.56
402.406	255.56
402.63	184.56
402.854	129.56
403.078	103.56
403.302	96.56
403.526	89.56
403.75	96.56
403.974	87.56
404.198	99.56
404.422	85.56
404.645	93.56
404.869	115.56
405.093	109.56
405.317	168.56
405.541	154.56
405.765	152.56
405.988	161.56
406.212	292.56
406.436	424.56
406.66	284.56
406.883	146.56
407.107	117.56
407.331	112.56
407.555	99.56
407.778	118.56
408.002	99.56
408.226	94.56
408.449	92.56
408.673	85.56
408.896	109.56
409.12	100.56
409.344	101.56
409.567	95.56
409.791	97.56
410.014	90.56
410.238	89.56
410.461	102.56
410.685	96.56
410.908	107.56
411.132	127.56
411.355	102.56
411.578	114.56
411.802	95.56
412.025	88.56
412.249	112.56
412.472	121.56
412.695	140.56
412.919	112.56
413.142	107.56
413.365	94.56
413.589	101.56
413.812	106.56
414.035	84.56
414.258	90.56
414.482	89.56
414.705	94.56
414.928	90.56
415.151	113.56
415.374	98.56
415.597	79.56
415.821	86.56
416.044	96.56
416.267	106.56
416.49	98.56
416.713	101.56
416.936	96.56
417.159	105.56
417.382	107.56
417.605	132.56
417.828	149.56
418.051	101.56
418.274	97.56
418.497	91.56
418.72	91.56
418.943	84.56
419.166	90.56
419.389	100.56
419.611	95.56
419.834	91.56
420.057	96.56
420.28	115.56
420.503	108.56
420.726	87.56
420.948	104.56
421.171	112.56
421.394	102.56
421.617	100.56
421.839	102.56
422.062	101.56
422.285	93.56
422.507	109.56
422.73	108.56
422.953	103.56
423.175	99.56
423.398	85.56
423.621	89.56
423.843	95.56
424.066	100.56
424.288	95.56
424.511	96.56
424.733	109.56
424.956	136.56
425.178	143.56
425.401	133.56
425.623	109.56
425.846	98.56
426.068	98.56
426.291	103.56
426.513	101.56
426.735	96.56
426.958	98.56
427.18	141.56
427.402	207.56
427.625	340.56
427.847	329.56
428.069	284.56
428.292	149.56
428.514	118.56
428.736	102.56
428.958	98.56
429.181	89.56
429.403	107.56
429.625	98.56
429.847	101.56
430.069	122.56
430.292	95.56
430.514	90.56
430.736	86.56
430.958	89.56
431.18	98.56
431.402	97.56
431.624	73.56
431.846	85.56
432.068	95.56
432.29	89.56
432.512	97.56
432.734	90.56
432.956	88.56
433.178	105.56
433.4	97.56
433.622	88.56
433.844	102.56
434.066	92.56
434.287	102.56
434.509	95.56
434.731	104.56
434.953	90.56
435.175	87.56
435.397	95.56
435.618	97.56
435.84	108.56
436.062	135.56
436.284	141.56
436.505	119.56
436.727	112.56
436.949	98.56
437.17	92.56
437.392	105.56
437.614	112.56
437.835	145.56
438.057	168.56
438.278	150.56
438.5	116.56
438.721	164.56
438.943	118.56
439.165	98.56
439.386	94.56
439.608	89.56
439.829	123.56
440.05	162.56
440.272	226.56
440.493	118.56
440.715	95.56
440.936	87.56
441.158	92.56
441.379	96.56
441.6	120.56
441.822	120.56
442.043	98.56
442.264	137.56
442.486	119.56
442.707	112.56
442.928	129.56
443.149	212.56
443.371	204.56
443.592	151.56
443.813	130.56
444.034	112.56
444.255	98.56
444.476	111.56
444.698	93.56
444.919	94.56
445.14	142.56
445.361	134.56
445.582	150.56
445.803	213.56
446.024	209.56
446.245	185.56
446.466	146.56
446.687	98.56
446.908	83.56
447.129	117.56
447.35	89.56
447.571	95.56
447.792	105.56
448.013	116.56
448.234	133.56
448.455	119.56
448.675	125.56
448.896	157.56
449.117	119.56
449.338	120.56
449.559	156.56
449.779	182.56
450	107.56
450.221	98.56
450.442	102.56
450.662	112.56
450.883	145.56
451.104	139.56
451.324	116.56
451.545	92.56
451.766	100.56
451.986	106.56
452.207	97.56
452.428	111.56
452.648	121.56
452.869	150.56
453.089	159.56
453.31	169.56
453.53	120.56
453.751	111.56
453.971	139.56
454.192	162.56
454.412	121.56
454.633	96.56
454.853	71.56
455.073	94.56
455.294	87.56
455.514	125.56
455.734	97.56
455.955	95.56
456.175	89.56
456.395	80.56
456.616	70.56
456.836	92.56
457.056	97.56
457.276	85.56
457.497	97.56
457.717	94.56
457.937	93.56
458.157	106.56
458.377	104.56
458.598	144.56
458.818	279.56
459.038	298.56
459.258	177.56
459.478	128.56
459.698	86.56
459.918	88.56
460.138	90.56
460.358	103.56
460.578	96.56
460.798	103.56
461.018	96.56
461.238	94.56
461.458	95.56
461.678	77.56
461.898	78.56
462.118	92.56
462.338	83.56
462.558	86.56
462.777	103.56
462.997	111.56
463.217	118.56
463.437	109.56
463.657	98.56
463.876	100.56
464.096	98.56
464.316	112.56
464.536	117.56
464.755	106.56
464.975	160.56
465.195	317.56
465.414	322.56
465.634	127.56
465.854	98.56
466.073	91.56
466.293	100.56
466.512	88.56
466.732	88.56
466.951	104.56
467.171	120.56
467.391	123.56
467.61	177.56
467.829	326.56
468.049	1048.56
468.268	1590.56
468.488	350.56
468.707	136.56
468.927	101.56
469.146	82.56
469.365	95.56
469.585	115.56
469.804	138.56
470.023	140.56
470.243	134.56
470.462	135.56
470.681	171.56
470.901	121.56
471.12	110.56
471.339	123.56
471.558	134.56
471.777	204.56
471.997	474.56
472.216	2046.56
472.435	4778.56
472.654	1002.56
472.873	226.56
473.092	125.56
473.311	107.56
473.53	101.56
473.749	99.56
473.968	112.56
474.187	114.56
474.406	92.56
474.625	90.56
474.844	105.56
475.063	93.56
475.282	97.56
475.501	95.56
475.72	91.56
475.939	105.56
476.158	94.56
476.377	92.56
476.596	113.56
476.814	114.56
477.033	103.56
477.252	95.56
477.471	106.56
477.69	113.56
477.908	110.56
478.127	106.56
478.346	115.56
478.564	111.56
478.783	121.56
479.002	118.56
479.22	118.56
479.439	146.56
479.658	170.56
479.876	156.56
480.095	153.56
480.313	176.56
480.532	234.56
480.751	454.56
480.969	1793.56
481.188	7964.56
481.406	4463.56
481.624	575.56
481.843	190.56
482.061	121.56
482.28	113.56
482.498	95.56
482.717	96.56
482.935	101.56
483.153	111.56
483.372	94.56
483.59	97.56
483.808	96.56
484.027	114.56
484.245	105.56
484.463	98.56
484.681	108.56
484.9	105.56
485.118	102.56
485.336	96.56
485.554	100.56
485.772	90.56
485.99	111.56
486.209	121.56
486.427	118.56
486.645	135.56
486.863	150.56
487.081	124.56
487.299	110.56
487.517	105.56
487.735	103.56
487.953	76.56
488.171	90.56
488.389	108.56
488.607	114.56
488.825	99.56
489.043	110.56
489.261	103.56
489.479	81.56
489.696	99.56
489.914	91.56
490.132	106.56
490.35	90.56
490.568	96.56
490.786	93.56
491.003	104.56
491.221	105.56
491.439	113.56
491.657	85.56
491.874	84.56
492.092	89.56
492.31	97.56
492.527	99.56
492.745	117.56
492.963	111.56
493.18	104.56
493.398	86.56
493.615	111.56
493.833	94.56
494.05	92.56
494.268	89.56
494.485	90.56
494.703	93.56
494.92	93.56
495.138	86.56
495.355	99.56
495.573	118.56
495.79	102.56
496.008	90.56
496.225	92.56
496.442	87.56
496.66	97.56
496.877	102.56
497.094	99.56
497.312	87.56
497.529	97.56
497.746	92.56
497.963	88.56
498.181	99.56
498.398	109.56
498.615	142.56
498.832	118.56
499.049	87.56
499.267	82.56
499.484	89.56
499.701	102.56
499.918	94.56
500.135	98.56
500.352	99.56
500.569	94.56
500.786	97.56
501.003	85.56
501.22	94.56
501.437	105.56
501.654	111.56
501.871	146.56
502.088	104.56
502.305	88.56
502.522	101.56
502.739	101.56
502.956	84.56
503.172	107.56
503.389	111.56
503.606	134.56
503.823	129.56
504.04	90.56
504.256	89.56
504.473	89.56
504.69	92.56
504.907	85.56
505.123	80.56
505.34	86.56
505.557	103.56
505.773	102.56
505.99	97.56
506.207	94.56
506.423	72.56
506.64	84.56
506.856	90.56
507.073	88.56
507.289	105.56
507.506	124.56
507.722	162.56
507.939	154.56
508.155	116.56
508.372	90.56
508.588	99.56
508.805	96.56
509.021	100.56
509.238	110.56
509.454	112.56
509.67	127.56
509.887	115.56
510.103	163.56
510.319	314.56
510.536	1320.56
510.752	4785.56
510.968	1225.56
511.184	224.56
