Data from Circ_1998_H10_HRD10591_00012.txt Node
Date: Wed Jan 03 11:26:51 EST 2024
User: Yrep
Spectrometer: HR+D1059
Trigger mode: 1
Integration Time (sec): 1.000000E-1
Scans to average: 1
Electric dark correction enabled: true
Nonlinearity correction enabled: false
Boxcar width: 0
XAxis mode: Wavelengths
Number of Pixels in Spectrum: 2048
>>>>>Begin Spectral Data<<<<<
223.165	-20.06
223.4	-20.06
223.635	-20.06
223.869	-15.06
224.104	0.94
224.338	-20.06
224.573	-22.06
224.808	-14.06
225.042	-1.06
225.277	-3.06
225.511	10.94
225.746	11.94
225.98	1.94
226.215	7.94
226.449	11.94
226.683	15.94
226.918	18.94
227.152	14.94
227.387	38.94
227.621	44.94
227.856	60.94
228.09	59.94
228.324	53.94
228.559	58.94
228.793	61.94
229.027	54.94
229.262	63.94
229.496	78.94
229.73	76.94
229.964	69.94
230.199	81.94
230.433	80.94
230.667	86.94
230.901	81.94
231.136	77.94
231.37	90.94
231.604	83.94
231.838	83.94
232.072	75.94
232.306	80.94
232.541	75.94
232.775	72.94
233.009	77.94
233.243	82.94
233.477	80.94
233.711	75.94
233.945	83.94
234.179	70.94
234.413	80.94
234.647	85.94
234.881	69.94
235.115	83.94
235.349	92.94
235.583	73.94
235.817	77.94
236.051	84.94
236.285	87.94
236.519	67.94
236.753	89.94
236.987	85.94
237.221	91.94
237.455	92.94
237.689	82.94
237.922	89.94
238.156	65.94
238.39	87.94
238.624	81.94
238.858	66.94
239.091	66.94
239.325	96.94
239.559	78.94
239.793	84.94
240.027	77.94
240.26	85.94
240.494	75.94
240.728	74.94
240.961	67.94
241.195	81.94
241.429	83.94
241.662	76.94
241.896	77.94
242.13	67.94
242.363	91.94
242.597	72.94
242.83	78.94
243.064	68.94
243.298	67.94
243.531	77.94
243.765	92.94
243.998	87.94
244.232	90.94
244.465	90.94
244.699	75.94
244.932	74.94
245.166	71.94
245.399	84.94
245.633	84.94
245.866	80.94
246.099	84.94
246.333	86.94
246.566	83.94
246.8	86.94
247.033	92.94
247.266	78.94
247.5	87.94
247.733	96.94
247.966	76.94
248.2	83.94
248.433	96.94
248.666	88.94
248.899	81.94
249.133	93.94
249.366	114.94
249.599	122.94
249.832	89.94
250.066	93.94
250.299	91.94
250.532	89.94
250.765	83.94
250.998	78.94
251.231	81.94
251.465	78.94
251.698	94.94
251.931	96.94
252.164	89.94
252.397	82.94
252.63	90.94
252.863	74.94
253.096	100.94
253.329	84.94
253.562	83.94
253.795	84.94
254.028	100.94
254.261	86.94
254.494	76.94
254.727	91.94
254.96	85.94
255.193	72.94
255.426	85.94
255.659	80.94
255.892	96.94
256.124	96.94
256.357	94.94
256.59	93.94
256.823	92.94
257.056	91.94
257.289	89.94
257.521	79.94
257.754	82.94
257.987	83.94
258.22	100.94
258.452	99.94
258.685	106.94
258.918	86.94
259.151	89.94
259.383	80.94
259.616	65.94
259.849	95.94
260.081	93.94
260.314	93.94
260.547	101.94
260.779	87.94
261.012	86.94
261.244	110.94
261.477	82.94
261.71	103.94
261.942	138.94
262.175	136.94
262.407	96.94
262.64	95.94
262.872	83.94
263.105	66.94
263.337	100.94
263.57	99.94
263.802	71.94
264.035	94.94
264.267	73.94
264.499	94.94
264.732	93.94
264.964	87.94
265.197	94.94
265.429	95.94
265.661	74.94
265.894	74.94
266.126	100.94
266.358	90.94
266.591	85.94
266.823	79.94
267.055	80.94
267.287	83.94
267.52	96.94
267.752	75.94
267.984	88.94
268.216	92.94
268.448	81.94
268.681	89.94
268.913	71.94
269.145	90.94
269.377	76.94
269.609	84.94
269.841	91.94
270.073	93.94
270.306	101.94
270.538	94.94
270.77	79.94
271.002	80.94
271.234	87.94
271.466	75.94
271.698	79.94
271.93	84.94
272.162	79.94
272.394	95.94
272.626	93.94
272.858	69.94
273.09	93.94
273.322	101.94
273.553	83.94
273.785	84.94
274.017	93.94
274.249	87.94
274.481	81.94
274.713	90.94
274.945	95.94
275.176	97.94
275.408	99.94
275.64	107.94
275.872	99.94
276.104	112.94
276.335	96.94
276.567	95.94
276.799	148.94
277.031	156.94
277.262	167.94
277.494	155.94
277.726	98.94
277.957	81.94
278.189	89.94
278.421	99.94
278.652	101.94
278.884	97.94
279.115	100.94
279.347	85.94
279.579	119.94
279.81	130.94
280.042	179.94
280.273	220.94
280.505	169.94
280.736	107.94
280.968	101.94
281.199	85.94
281.431	88.94
281.662	92.94
281.894	86.94
282.125	102.94
282.356	148.94
282.588	151.94
282.819	125.94
283.051	91.94
283.282	95.94
283.513	100.94
283.745	101.94
283.976	76.94
284.207	86.94
284.439	95.94
284.67	102.94
284.901	95.94
285.132	95.94
285.364	96.94
285.595	98.94
285.826	90.94
286.057	96.94
286.288	80.94
286.52	83.94
286.751	85.94
286.982	84.94
287.213	83.94
287.444	104.94
287.675	78.94
287.906	84.94
288.138	80.94
288.369	87.94
288.6	89.94
288.831	100.94
289.062	87.94
289.293	80.94
289.524	87.94
289.755	90.94
289.986	88.94
290.217	101.94
290.448	75.94
290.679	86.94
290.91	96.94
291.141	105.94
291.371	90.94
291.602	87.94
291.833	84.94
292.064	79.94
292.295	90.94
292.526	94.94
292.757	96.94
292.987	91.94
293.218	81.94
293.449	76.94
293.68	91.94
293.91	94.94
294.141	94.94
294.372	84.94
294.603	95.94
294.833	74.94
295.064	101.94
295.295	100.94
295.525	88.94
295.756	97.94
295.987	144.94
296.217	170.94
296.448	153.94
296.679	106.94
296.909	98.94
297.14	80.94
297.37	98.94
297.601	79.94
297.831	87.94
298.062	101.94
298.292	96.94
298.523	103.94
298.753	98.94
298.984	87.94
299.214	108.94
299.445	99.94
299.675	93.94
299.905	100.94
300.136	105.94
300.366	85.94
300.597	108.94
300.827	111.94
301.057	112.94
301.288	113.94
301.518	99.94
301.748	104.94
301.979	113.94
302.209	99.94
302.439	99.94
302.669	98.94
302.9	104.94
303.13	93.94
303.36	101.94
303.59	131.94
303.82	141.94
304.051	105.94
304.281	107.94
304.511	94.94
304.741	93.94
304.971	95.94
305.201	95.94
305.431	91.94
305.661	94.94
305.891	104.94
306.121	97.94
306.352	116.94
306.582	95.94
306.812	113.94
307.042	119.94
307.272	132.94
307.502	149.94
307.731	142.94
307.961	125.94
308.191	101.94
308.421	83.94
308.651	100.94
308.881	91.94
309.111	96.94
309.341	89.94
309.571	97.94
309.8	91.94
310.03	102.94
310.26	100.94
310.49	106.94
310.72	96.94
310.949	113.94
311.179	105.94
311.409	113.94
311.639	100.94
311.868	91.94
312.098	109.94
312.328	89.94
312.557	127.94
312.787	132.94
313.017	109.94
313.246	113.94
313.476	95.94
313.706	91.94
313.935	110.94
314.165	119.94
314.394	101.94
314.624	92.94
314.853	97.94
315.083	102.94
315.312	83.94
315.542	87.94
315.771	89.94
316.001	88.94
316.23	92.94
316.46	103.94
316.689	100.94
316.919	113.94
317.148	109.94
317.377	103.94
317.607	79.94
317.836	89.94
318.065	95.94
318.295	84.94
318.524	89.94
318.753	98.94
318.983	110.94
319.212	122.94
319.441	104.94
319.67	99.94
319.9	87.94
320.129	107.94
320.358	96.94
320.587	108.94
320.816	114.94
321.046	108.94
321.275	111.94
321.504	102.94
321.733	84.94
321.962	99.94
322.191	98.94
322.42	109.94
322.649	116.94
322.878	126.94
323.108	146.94
323.337	144.94
323.566	157.94
323.795	166.94
324.024	253.94
324.253	525.94
324.482	1167.94
324.71	2519.94
324.939	3359.94
325.168	1163.94
325.397	315.94
325.626	169.94
325.855	146.94
326.084	154.94
326.313	171.94
326.542	187.94
326.77	287.94
326.999	629.94
327.228	1334.94
327.457	2555.94
327.686	2037.94
327.914	609.94
328.143	496.94
328.372	587.94
328.6	329.94
328.829	186.94
329.058	190.94
329.287	192.94
329.515	186.94
329.744	251.94
329.972	448.94
330.201	877.94
330.43	1243.94
330.658	565.94
330.887	273.94
331.115	178.94
331.344	138.94
331.572	128.94
331.801	120.94
332.03	103.94
332.258	109.94
332.486	101.94
332.715	127.94
332.943	118.94
333.172	128.94
333.4	137.94
333.629	140.94
333.857	224.94
334.085	410.94
334.314	882.94
334.542	1645.94
334.771	1499.94
334.999	399.94
335.227	167.94
335.455	130.94
335.684	130.94
335.912	112.94
336.14	112.94
336.369	119.94
336.597	101.94
336.825	106.94
337.053	102.94
337.281	100.94
337.51	99.94
337.738	112.94
337.966	99.94
338.194	102.94
338.422	105.94
338.65	115.94
338.878	86.94
339.106	101.94
339.334	98.94
339.562	94.94
339.79	89.94
340.018	101.94
340.246	97.94
340.474	109.94
340.702	90.94
340.93	87.94
341.158	106.94
341.386	115.94
341.614	122.94
341.842	92.94
342.07	97.94
342.298	79.94
342.526	95.94
342.754	93.94
342.981	89.94
343.209	97.94
343.437	94.94
343.665	104.94
343.893	81.94
344.12	105.94
344.348	88.94
344.576	110.94
344.804	78.94
345.031	105.94
345.259	118.94
345.487	99.94
345.714	89.94
345.942	101.94
346.17	100.94
346.397	100.94
346.625	99.94
346.853	92.94
347.08	77.94
347.308	91.94
347.535	105.94
347.763	107.94
347.99	111.94
348.218	117.94
348.445	115.94
348.673	128.94
348.9	105.94
349.128	94.94
349.355	87.94
349.583	79.94
349.81	86.94
350.037	104.94
350.265	96.94
350.492	111.94
350.72	105.94
350.947	111.94
351.174	123.94
351.402	112.94
351.629	114.94
351.856	111.94
352.083	111.94
352.311	105.94
352.538	114.94
352.765	114.94
352.992	112.94
353.22	120.94
353.447	110.94
353.674	100.94
353.901	94.94
354.128	104.94
354.355	104.94
354.583	93.94
354.81	94.94
355.037	99.94
355.264	91.94
355.491	89.94
355.718	95.94
355.945	89.94
356.172	105.94
356.399	96.94
356.626	95.94
356.853	105.94
357.08	98.94
357.307	93.94
357.534	84.94
357.761	92.94
357.988	105.94
358.215	94.94
358.441	96.94
358.668	99.94
358.895	92.94
359.122	98.94
359.349	92.94
359.576	104.94
359.802	112.94
360.029	142.94
360.256	114.94
360.483	132.94
360.709	105.94
360.936	106.94
361.163	94.94
361.39	97.94
361.616	110.94
361.843	91.94
362.07	96.94
362.296	115.94
362.523	102.94
362.749	107.94
362.976	82.94
363.203	96.94
363.429	85.94
363.656	94.94
363.882	91.94
364.109	97.94
364.335	97.94
364.562	85.94
364.788	109.94
365.015	103.94
365.241	101.94
365.468	111.94
365.694	119.94
365.92	107.94
366.147	89.94
366.373	77.94
366.599	88.94
366.826	98.94
367.052	87.94
367.278	95.94
367.505	93.94
367.731	104.94
367.957	83.94
368.184	87.94
368.41	104.94
368.636	127.94
368.862	126.94
369.089	107.94
369.315	110.94
369.541	101.94
369.767	99.94
369.993	96.94
370.219	112.94
370.445	91.94
370.672	87.94
370.898	105.94
371.124	106.94
371.35	77.94
371.576	106.94
371.802	84.94
372.028	86.94
372.254	90.94
372.48	84.94
372.706	79.94
372.932	99.94
373.158	100.94
373.384	91.94
373.61	106.94
373.835	114.94
374.061	97.94
374.287	85.94
374.513	100.94
374.739	90.94
374.965	83.94
375.191	83.94
375.416	85.94
375.642	83.94
375.868	98.94
376.094	91.94
376.319	96.94
376.545	91.94
376.771	78.94
376.997	95.94
377.222	98.94
377.448	108.94
377.674	114.94
377.899	98.94
378.125	87.94
378.35	90.94
378.576	88.94
378.802	90.94
379.027	94.94
379.253	99.94
379.478	99.94
379.704	87.94
379.929	89.94
380.155	103.94
380.38	96.94
380.606	91.94
380.831	105.94
381.057	98.94
381.282	103.94
381.507	116.94
381.733	104.94
381.958	104.94
382.184	114.94
382.409	108.94
382.634	116.94
382.86	113.94
383.085	96.94
383.31	101.94
383.535	110.94
383.761	112.94
383.986	129.94
384.211	111.94
384.436	109.94
384.662	110.94
384.887	106.94
385.112	115.94
385.337	128.94
385.562	121.94
385.787	119.94
386.013	129.94
386.238	135.94
386.463	113.94
386.688	120.94
386.913	114.94
387.138	124.94
387.363	123.94
387.588	104.94
387.813	105.94
388.038	107.94
388.263	135.94
388.488	134.94
388.713	106.94
388.938	96.94
389.163	78.94
389.387	92.94
389.612	93.94
389.837	103.94
390.062	91.94
390.287	96.94
390.512	87.94
390.736	90.94
390.961	103.94
391.186	80.94
391.411	105.94
391.636	91.94
391.86	90.94
392.085	93.94
392.31	88.94
392.534	88.94
392.759	85.94
392.984	78.94
393.208	98.94
393.433	108.94
393.658	93.94
393.882	89.94
394.107	94.94
394.331	85.94
394.556	75.94
394.78	107.94
395.005	86.94
395.229	85.94
395.454	82.94
395.678	83.94
395.903	79.94
396.127	84.94
396.352	96.94
396.576	88.94
396.801	102.94
397.025	98.94
397.249	92.94
397.474	94.94
397.698	97.94
397.922	95.94
398.147	89.94
398.371	93.94
398.595	82.94
398.82	91.94
399.044	72.94
399.268	91.94
399.492	81.94
399.717	82.94
399.941	100.94
400.165	96.94
400.389	103.94
400.613	96.94
400.837	100.94
401.062	96.94
401.286	93.94
401.51	96.94
401.734	100.94
401.958	111.94
402.182	141.94
402.406	177.94
402.63	128.94
402.854	109.94
403.078	98.94
403.302	103.94
403.526	82.94
403.75	98.94
403.974	91.94
404.198	95.94
404.422	97.94
404.645	94.94
404.869	99.94
405.093	111.94
405.317	142.94
405.541	151.94
405.765	109.94
405.988	135.94
406.212	206.94
406.436	272.94
406.66	168.94
406.883	120.94
407.107	103.94
407.331	98.94
407.555	111.94
407.778	113.94
408.002	98.94
408.226	88.94
408.449	89.94
408.673	101.94
408.896	95.94
409.12	114.94
409.344	95.94
409.567	84.94
409.791	96.94
410.014	108.94
410.238	92.94
410.461	111.94
410.685	103.94
410.908	101.94
411.132	125.94
411.355	107.94
411.578	99.94
411.802	89.94
412.025	98.94
412.249	114.94
412.472	104.94
412.695	143.94
412.919	120.94
413.142	113.94
413.365	84.94
413.589	107.94
413.812	96.94
414.035	87.94
414.258	104.94
414.482	86.94
414.705	119.94
414.928	97.94
415.151	87.94
415.374	85.94
415.597	87.94
415.821	85.94
416.044	85.94
416.267	89.94
416.49	79.94
416.713	99.94
416.936	87.94
417.159	95.94
417.382	101.94
417.605	106.94
417.828	122.94
418.051	89.94
418.274	99.94
418.497	92.94
418.72	100.94
418.943	90.94
419.166	85.94
419.389	95.94
419.611	104.94
419.834	96.94
420.057	108.94
420.28	98.94
420.503	92.94
420.726	84.94
420.948	97.94
421.171	108.94
421.394	101.94
421.617	95.94
421.839	89.94
422.062	87.94
422.285	103.94
422.507	89.94
422.73	121.94
422.953	104.94
423.175	91.94
423.398	97.94
423.621	98.94
423.843	96.94
424.066	91.94
424.288	81.94
424.511	103.94
424.733	96.94
424.956	128.94
425.178	107.94
425.401	119.94
425.623	115.94
425.846	91.94
426.068	101.94
426.291	102.94
426.513	103.94
426.735	112.94
426.958	112.94
427.18	124.94
427.402	183.94
427.625	260.94
427.847	246.94
428.069	216.94
428.292	133.94
428.514	90.94
428.736	94.94
428.958	91.94
429.181	91.94
429.403	93.94
429.625	103.94
429.847	101.94
430.069	119.94
430.292	116.94
430.514	79.94
430.736	87.94
430.958	81.94
431.18	90.94
431.402	85.94
431.624	95.94
431.846	80.94
432.068	80.94
432.29	86.94
432.512	96.94
432.734	90.94
432.956	91.94
433.178	101.94
433.4	110.94
433.622	93.94
433.844	95.94
434.066	93.94
434.287	87.94
434.509	89.94
434.731	95.94
434.953	93.94
435.175	95.94
435.397	90.94
435.618	100.94
435.84	118.94
436.062	151.94
436.284	142.94
436.505	110.94
436.727	116.94
436.949	88.94
437.17	95.94
437.392	97.94
437.614	98.94
437.835	138.94
438.057	160.94
438.278	135.94
438.5	127.94
438.721	158.94
438.943	129.94
439.165	84.94
439.386	94.94
439.608	116.94
439.829	113.94
440.05	168.94
440.272	199.94
440.493	121.94
440.715	86.94
440.936	94.94
441.158	91.94
441.379	96.94
441.6	95.94
441.822	113.94
442.043	105.94
442.264	127.94
442.486	118.94
442.707	107.94
442.928	125.94
443.149	180.94
443.371	173.94
443.592	136.94
443.813	138.94
444.034	128.94
444.255	104.94
444.476	102.94
444.698	94.94
444.919	106.94
445.14	145.94
445.361	127.94
445.582	151.94
445.803	205.94
446.024	193.94
446.245	187.94
446.466	122.94
446.687	88.94
446.908	93.94
447.129	92.94
447.35	92.94
447.571	90.94
447.792	116.94
448.013	111.94
448.234	129.94
448.455	111.94
448.675	138.94
448.896	158.94
449.117	110.94
449.338	123.94
449.559	151.94
449.779	164.94
450	121.94
450.221	92.94
450.442	87.94
450.662	105.94
450.883	129.94
451.104	131.94
451.324	98.94
451.545	99.94
451.766	88.94
451.986	86.94
452.207	88.94
452.428	98.94
452.648	115.94
452.869	121.94
453.089	123.94
453.31	125.94
453.53	99.94
453.751	99.94
453.971	114.94
454.192	136.94
454.412	102.94
454.633	101.94
454.853	98.94
455.073	107.94
455.294	92.94
455.514	126.94
455.734	93.94
455.955	88.94
456.175	103.94
456.395	87.94
456.616	91.94
456.836	92.94
457.056	87.94
457.276	97.94
457.497	92.94
457.717	81.94
457.937	97.94
458.157	88.94
458.377	91.94
458.598	125.94
458.818	183.94
459.038	215.94
459.258	154.94
459.478	99.94
459.698	95.94
459.918	97.94
460.138	98.94
460.358	97.94
460.578	94.94
460.798	99.94
461.018	81.94
461.238	77.94
461.458	100.94
461.678	95.94
461.898	91.94
462.118	82.94
462.338	85.94
462.558	77.94
462.777	81.94
462.997	106.94
463.217	106.94
463.437	91.94
463.657	89.94
463.876	82.94
464.096	99.94
464.316	111.94
464.536	111.94
464.755	99.94
464.975	118.94
465.195	215.94
465.414	210.94
465.634	110.94
465.854	96.94
466.073	85.94
466.293	87.94
466.512	93.94
466.732	98.94
466.951	88.94
467.171	98.94
467.391	119.94
467.61	144.94
467.829	211.94
468.049	496.94
468.268	724.94
468.488	196.94
468.707	115.94
468.927	80.94
469.146	83.94
469.365	81.94
469.585	107.94
469.804	104.94
470.023	106.94
470.243	98.94
470.462	117.94
470.681	138.94
470.901	97.94
471.12	104.94
471.339	95.94
471.558	103.94
471.777	151.94
471.997	277.94
472.216	994.94
472.435	2187.94
472.654	526.94
472.873	163.94
473.092	102.94
473.311	98.94
473.53	92.94
473.749	94.94
473.968	94.94
474.187	138.94
474.406	109.94
474.625	95.94
474.844	97.94
475.063	87.94
475.282	96.94
475.501	84.94
475.72	89.94
475.939	85.94
476.158	83.94
476.377	97.94
476.596	109.94
476.814	98.94
477.033	98.94
477.252	102.94
477.471	99.94
477.69	74.94
477.908	92.94
478.127	95.94
478.346	93.94
478.564	84.94
478.783	105.94
479.002	96.94
479.22	104.94
479.439	131.94
479.658	128.94
479.876	120.94
480.095	121.94
480.313	122.94
480.532	154.94
480.751	273.94
480.969	933.94
481.188	3977.94
481.406	2166.94
481.624	333.94
481.843	128.94
482.061	106.94
482.28	106.94
482.498	94.94
482.717	85.94
482.935	94.94
483.153	99.94
483.372	94.94
483.59	94.94
483.808	94.94
484.027	106.94
484.245	93.94
484.463	81.94
484.681	119.94
484.9	104.94
485.118	93.94
485.336	106.94
485.554	95.94
485.772	103.94
485.99	121.94
486.209	104.94
486.427	112.94
486.645	123.94
486.863	119.94
487.081	113.94
487.299	108.94
487.517	107.94
487.735	101.94
487.953	105.94
488.171	105.94
488.389	89.94
488.607	112.94
488.825	107.94
489.043	89.94
489.261	94.94
489.479	101.94
489.696	100.94
489.914	100.94
490.132	89.94
490.35	85.94
490.568	89.94
490.786	99.94
491.003	92.94
491.221	95.94
491.439	104.94
491.657	95.94
491.874	123.94
492.092	96.94
492.31	99.94
492.527	100.94
492.745	89.94
492.963	91.94
493.18	111.94
493.398	97.94
493.615	108.94
493.833	95.94
494.05	89.94
494.268	84.94
494.485	76.94
494.703	93.94
494.92	93.94
495.138	90.94
495.355	91.94
495.573	107.94
495.79	94.94
496.008	97.94
496.225	87.94
496.442	89.94
496.66	97.94
496.877	87.94
497.094	101.94
497.312	90.94
497.529	98.94
497.746	93.94
497.963	86.94
498.181	103.94
498.398	105.94
498.615	101.94
498.832	113.94
499.049	100.94
499.267	97.94
499.484	79.94
499.701	100.94
499.918	99.94
500.135	93.94
500.352	107.94
500.569	92.94
500.786	107.94
501.003	97.94
501.22	105.94
501.437	97.94
501.654	105.94
501.871	126.94
502.088	98.94
502.305	101.94
502.522	93.94
502.739	72.94
502.956	99.94
503.172	105.94
503.389	101.94
503.606	133.94
503.823	98.94
504.04	90.94
504.256	103.94
504.473	88.94
504.69	84.94
504.907	82.94
505.123	91.94
505.34	105.94
505.557	87.94
505.773	95.94
505.99	101.94
506.207	96.94
506.423	109.94
506.64	92.94
506.856	88.94
507.073	96.94
507.289	100.94
507.506	116.94
507.722	105.94
507.939	130.94
508.155	96.94
508.372	97.94
508.588	96.94
508.805	101.94
509.021	113.94
509.238	113.94
509.454	109.94
509.67	115.94
509.887	104.94
510.103	135.94
510.319	219.94
510.536	842.94
510.752	2817.94
510.968	759.94
511.184	173.94
511.401	131.94
511.617	108.94
511.833	114.94
512.049	101.94
