Data from Circ_1998_H10_HRD10591_00039.txt Node
Date: Wed Jan 03 11:26:56 EST 2024
User: Yrep
Spectrometer: HR+D1059
Trigger mode: 1
Integration Time (sec): 1.000000E-1
Scans to average: 1
Electric dark correction enabled: true
Nonlinearity correction enabled: false
Boxcar width: 0
XAxis mode: Wavelengths
Number of Pixels in Spectrum: 2048
>>>>>Begin Spectral Data<<<<<
223.165	-19.06
223.4	-19.06
223.635	-19.06
223.869	-16.06
224.104	-11.06
224.338	-5.06
224.573	-12.06
224.808	-24.06
225.042	-2.06
225.277	-16.06
225.511	-2.06
225.746	7.94
225.98	17.94
226.215	7.94
226.449	14.94
226.683	21.94
226.918	17.94
227.152	18.94
227.387	25.94
227.621	44.94
227.856	43.94
228.09	61.94
228.324	43.94
228.559	54.94
228.793	65.94
229.027	76.94
229.262	75.94
229.496	98.94
229.73	121.94
229.964	111.94
230.199	93.94
230.433	83.94
230.667	73.94
230.901	80.94
231.136	83.94
231.37	85.94
231.604	88.94
231.838	79.94
232.072	74.94
232.306	85.94
232.541	79.94
232.775	88.94
233.009	82.94
233.243	78.94
233.477	92.94
233.711	83.94
233.945	91.94
234.179	84.94
234.413	95.94
234.647	102.94
234.881	76.94
235.115	86.94
235.349	86.94
235.583	70.94
235.817	89.94
236.051	77.94
236.285	75.94
236.519	75.94
236.753	82.94
236.987	77.94
237.221	95.94
237.455	93.94
237.689	83.94
237.922	81.94
238.156	84.94
238.39	93.94
238.624	78.94
238.858	74.94
239.091	90.94
239.325	70.94
239.559	101.94
239.793	92.94
240.027	75.94
240.26	82.94
240.494	87.94
240.728	80.94
240.961	82.94
241.195	82.94
241.429	101.94
241.662	70.94
241.896	82.94
242.13	86.94
242.363	80.94
242.597	89.94
242.83	87.94
243.064	87.94
243.298	75.94
243.531	76.94
243.765	74.94
243.998	98.94
244.232	92.94
244.465	90.94
244.699	103.94
244.932	80.94
245.166	85.94
245.399	75.94
245.633	91.94
245.866	79.94
246.099	92.94
246.333	84.94
246.566	90.94
246.8	85.94
247.033	73.94
247.266	70.94
247.5	77.94
247.733	95.94
247.966	87.94
248.2	85.94
248.433	87.94
248.666	74.94
248.899	76.94
249.133	97.94
249.366	113.94
249.599	127.94
249.832	84.94
250.066	81.94
250.299	90.94
250.532	101.94
250.765	97.94
250.998	87.94
251.231	94.94
251.465	71.94
251.698	93.94
251.931	100.94
252.164	89.94
252.397	68.94
252.63	82.94
252.863	91.94
253.096	79.94
253.329	81.94
253.562	91.94
253.795	91.94
254.028	82.94
254.261	82.94
254.494	82.94
254.727	89.94
254.96	101.94
255.193	86.94
255.426	83.94
255.659	77.94
255.892	99.94
256.124	116.94
256.357	105.94
256.59	83.94
256.823	92.94
257.056	92.94
257.289	97.94
257.521	97.94
257.754	90.94
257.987	87.94
258.22	79.94
258.452	106.94
258.685	99.94
258.918	87.94
259.151	89.94
259.383	87.94
259.616	86.94
259.849	91.94
260.081	86.94
260.314	91.94
260.547	91.94
260.779	107.94
261.012	127.94
261.244	123.94
261.477	114.94
261.71	106.94
261.942	142.94
262.175	164.94
262.407	106.94
262.64	100.94
262.872	100.94
263.105	95.94
263.337	82.94
263.57	88.94
263.802	94.94
264.035	87.94
264.267	86.94
264.499	68.94
264.732	84.94
264.964	96.94
265.197	90.94
265.429	92.94
265.661	77.94
265.894	84.94
266.126	87.94
266.358	83.94
266.591	92.94
266.823	79.94
267.055	93.94
267.287	79.94
267.52	78.94
267.752	87.94
267.984	95.94
268.216	86.94
268.448	89.94
268.681	110.94
268.913	94.94
269.145	91.94
269.377	82.94
269.609	82.94
269.841	79.94
270.073	87.94
270.306	98.94
270.538	99.94
270.77	80.94
271.002	84.94
271.234	89.94
271.466	99.94
271.698	87.94
271.93	102.94
272.162	99.94
272.394	97.94
272.626	88.94
272.858	94.94
273.09	80.94
273.322	90.94
273.553	92.94
273.785	85.94
274.017	81.94
274.249	90.94
274.481	90.94
274.713	103.94
274.945	95.94
275.176	94.94
275.408	111.94
275.64	115.94
275.872	158.94
276.104	113.94
276.335	101.94
276.567	141.94
276.799	167.94
277.031	203.94
277.262	255.94
277.494	173.94
277.726	108.94
277.957	90.94
278.189	93.94
278.421	110.94
278.652	110.94
278.884	108.94
279.115	94.94
279.347	76.94
279.579	107.94
279.81	157.94
280.042	241.94
280.273	342.94
280.505	224.94
280.736	129.94
280.968	99.94
281.199	87.94
281.431	101.94
281.662	99.94
281.894	107.94
282.125	128.94
282.356	139.94
282.588	202.94
282.819	147.94
283.051	97.94
283.282	92.94
283.513	89.94
283.745	85.94
283.976	86.94
284.207	89.94
284.439	96.94
284.67	105.94
284.901	84.94
285.132	80.94
285.364	89.94
285.595	78.94
285.826	95.94
286.057	94.94
286.288	89.94
286.52	79.94
286.751	85.94
286.982	102.94
287.213	92.94
287.444	102.94
287.675	88.94
287.906	107.94
288.138	100.94
288.369	107.94
288.6	107.94
288.831	95.94
289.062	79.94
289.293	91.94
289.524	86.94
289.755	90.94
289.986	91.94
290.217	96.94
290.448	89.94
290.679	85.94
290.91	99.94
291.141	90.94
291.371	102.94
291.602	89.94
291.833	103.94
292.064	101.94
292.295	95.94
292.526	90.94
292.757	92.94
292.987	94.94
293.218	100.94
293.449	90.94
293.68	96.94
293.91	99.94
294.141	99.94
294.372	102.94
294.603	86.94
294.833	84.94
295.064	91.94
295.295	91.94
295.525	95.94
295.756	111.94
295.987	144.94
296.217	201.94
296.448	155.94
296.679	112.94
296.909	98.94
297.14	89.94
297.37	96.94
297.601	100.94
297.831	89.94
298.062	111.94
298.292	97.94
298.523	100.94
298.753	103.94
298.984	94.94
299.214	91.94
299.445	92.94
299.675	111.94
299.905	114.94
300.136	90.94
300.366	93.94
300.597	89.94
300.827	102.94
301.057	115.94
301.288	120.94
301.518	93.94
301.748	109.94
301.979	122.94
302.209	106.94
302.439	109.94
302.669	94.94
302.9	108.94
303.13	104.94
303.36	126.94
303.59	159.94
303.82	164.94
304.051	126.94
304.281	99.94
304.511	105.94
304.741	83.94
304.971	84.94
305.201	96.94
305.431	102.94
305.661	100.94
305.891	92.94
306.121	96.94
306.352	119.94
306.582	127.94
306.812	109.94
307.042	155.94
307.272	199.94
307.502	228.94
307.731	222.94
307.961	151.94
308.191	106.94
308.421	101.94
308.651	102.94
308.881	101.94
309.111	100.94
309.341	96.94
309.571	116.94
309.8	114.94
310.03	114.94
310.26	118.94
310.49	114.94
310.72	112.94
310.949	139.94
311.179	127.94
311.409	117.94
311.639	100.94
311.868	105.94
312.098	105.94
312.328	117.94
312.557	121.94
312.787	140.94
313.017	131.94
313.246	109.94
313.476	107.94
313.706	108.94
313.935	100.94
314.165	114.94
314.394	128.94
314.624	133.94
314.853	107.94
315.083	93.94
315.312	97.94
315.542	108.94
315.771	101.94
316.001	101.94
316.23	90.94
316.46	100.94
316.689	100.94
316.919	91.94
317.148	114.94
317.377	104.94
317.607	103.94
317.836	109.94
318.065	91.94
318.295	101.94
318.524	87.94
318.753	94.94
318.983	105.94
319.212	121.94
319.441	140.94
319.67	103.94
319.9	112.94
320.129	83.94
320.358	107.94
320.587	109.94
320.816	118.94
321.046	121.94
321.275	106.94
321.504	99.94
321.733	111.94
321.962	118.94
322.191	106.94
322.42	103.94
322.649	118.94
322.878	117.94
323.108	146.94
323.337	163.94
323.566	162.94
323.795	195.94
324.024	285.94
324.253	561.94
324.482	1226.94
324.71	2618.94
324.939	3531.94
325.168	1237.94
325.397	340.94
325.626	193.94
325.855	142.94
326.084	151.94
326.313	163.94
326.542	203.94
326.77	298.94
326.999	624.94
327.228	1304.94
327.457	2485.94
327.686	1975.94
327.914	713.94
328.143	717.94
328.372	907.94
328.6	491.94
328.829	247.94
329.058	233.94
329.287	238.94
329.515	219.94
329.744	313.94
329.972	662.94
330.201	1381.94
330.43	2048.94
330.658	867.94
330.887	365.94
331.115	234.94
331.344	145.94
331.572	141.94
331.801	146.94
332.03	153.94
332.258	139.94
332.486	127.94
332.715	112.94
332.943	131.94
333.172	133.94
333.4	155.94
333.629	191.94
333.857	278.94
334.085	567.94
334.314	1261.94
334.542	2545.94
334.771	2395.94
334.999	571.94
335.227	221.94
335.455	135.94
335.684	130.94
335.912	116.94
336.14	112.94
336.369	116.94
336.597	126.94
336.825	101.94
337.053	102.94
337.281	120.94
337.51	106.94
337.738	100.94
337.966	98.94
338.194	118.94
338.422	109.94
338.65	110.94
338.878	111.94
339.106	104.94
339.334	103.94
339.562	101.94
339.79	97.94
340.018	102.94
340.246	107.94
340.474	128.94
340.702	119.94
340.93	89.94
341.158	105.94
341.386	106.94
341.614	114.94
341.842	123.94
342.07	99.94
342.298	109.94
342.526	100.94
342.754	92.94
342.981	111.94
343.209	86.94
343.437	119.94
343.665	100.94
343.893	100.94
344.12	93.94
344.348	108.94
344.576	105.94
344.804	99.94
345.031	110.94
345.259	123.94
345.487	105.94
345.714	99.94
345.942	94.94
346.17	98.94
346.397	92.94
346.625	126.94
346.853	121.94
347.08	107.94
347.308	117.94
347.535	112.94
347.763	111.94
347.99	116.94
348.218	132.94
348.445	113.94
348.673	113.94
348.9	111.94
349.128	102.94
349.355	101.94
349.583	101.94
349.81	106.94
350.037	98.94
350.265	101.94
350.492	110.94
350.72	107.94
350.947	123.94
351.174	120.94
351.402	138.94
351.629	128.94
351.856	125.94
352.083	124.94
352.311	121.94
352.538	137.94
352.765	127.94
352.992	132.94
353.22	120.94
353.447	121.94
353.674	108.94
353.901	108.94
354.128	98.94
354.355	100.94
354.583	125.94
354.81	97.94
355.037	102.94
355.264	95.94
355.491	107.94
355.718	95.94
355.945	91.94
356.172	102.94
356.399	103.94
356.626	98.94
356.853	104.94
357.08	99.94
357.307	106.94
357.534	94.94
357.761	105.94
357.988	101.94
358.215	95.94
358.441	95.94
358.668	106.94
358.895	87.94
359.122	111.94
359.349	85.94
359.576	105.94
359.802	146.94
360.029	163.94
360.256	156.94
360.483	112.94
360.709	107.94
360.936	106.94
361.163	115.94
361.39	117.94
361.616	110.94
361.843	97.94
362.07	114.94
362.296	119.94
362.523	100.94
362.749	97.94
362.976	111.94
363.203	103.94
363.429	85.94
363.656	109.94
363.882	102.94
364.109	102.94
364.335	110.94
364.562	108.94
364.788	103.94
365.015	114.94
365.241	102.94
365.468	132.94
365.694	125.94
365.92	123.94
366.147	101.94
366.373	90.94
366.599	98.94
366.826	106.94
367.052	110.94
367.278	114.94
367.505	109.94
367.731	114.94
367.957	98.94
368.184	114.94
368.41	112.94
368.636	145.94
368.862	142.94
369.089	147.94
369.315	124.94
369.541	110.94
369.767	106.94
369.993	106.94
370.219	108.94
370.445	100.94
370.672	101.94
370.898	102.94
371.124	88.94
371.35	89.94
371.576	85.94
371.802	95.94
372.028	94.94
372.254	95.94
372.48	96.94
372.706	90.94
372.932	101.94
373.158	100.94
373.384	111.94
373.61	92.94
373.835	88.94
374.061	105.94
374.287	99.94
374.513	91.94
374.739	94.94
374.965	96.94
375.191	87.94
375.416	91.94
375.642	80.94
375.868	100.94
376.094	97.94
376.319	100.94
376.545	98.94
376.771	93.94
376.997	96.94
377.222	105.94
377.448	110.94
377.674	91.94
377.899	90.94
378.125	106.94
378.35	93.94
378.576	90.94
378.802	90.94
379.027	89.94
379.253	84.94
379.478	108.94
379.704	87.94
379.929	104.94
380.155	97.94
380.38	116.94
380.606	103.94
380.831	106.94
381.057	108.94
381.282	108.94
381.507	101.94
381.733	114.94
381.958	98.94
382.184	102.94
382.409	93.94
382.634	100.94
382.86	109.94
383.085	118.94
383.31	106.94
383.535	109.94
383.761	114.94
383.986	105.94
384.211	107.94
384.436	107.94
384.662	115.94
384.887	111.94
385.112	99.94
385.337	107.94
385.562	115.94
385.787	111.94
386.013	125.94
386.238	137.94
386.463	114.94
386.688	118.94
386.913	99.94
387.138	116.94
387.363	98.94
387.588	98.94
387.813	113.94
388.038	115.94
388.263	128.94
388.488	118.94
388.713	111.94
388.938	100.94
389.163	94.94
389.387	111.94
389.612	80.94
389.837	93.94
390.062	89.94
390.287	93.94
390.512	91.94
390.736	98.94
390.961	98.94
391.186	93.94
391.411	87.94
391.636	91.94
391.86	98.94
392.085	92.94
392.31	85.94
392.534	85.94
392.759	96.94
392.984	97.94
393.208	109.94
393.433	88.94
393.658	101.94
393.882	92.94
394.107	89.94
394.331	85.94
394.556	90.94
394.78	95.94
395.005	88.94
395.229	112.94
395.454	93.94
395.678	83.94
395.903	96.94
396.127	95.94
396.352	92.94
396.576	97.94
396.801	95.94
397.025	102.94
397.249	102.94
397.474	74.94
397.698	96.94
397.922	95.94
398.147	96.94
398.371	101.94
398.595	93.94
398.82	93.94
399.044	86.94
399.268	106.94
399.492	93.94
399.717	97.94
399.941	94.94
400.165	102.94
400.389	101.94
400.613	85.94
400.837	96.94
401.062	95.94
401.286	99.94
401.51	96.94
401.734	107.94
401.958	115.94
402.182	165.94
402.406	218.94
402.63	152.94
402.854	111.94
403.078	86.94
403.302	99.94
403.526	104.94
403.75	103.94
403.974	101.94
404.198	97.94
404.422	88.94
404.645	99.94
404.869	103.94
405.093	131.94
405.317	157.94
405.541	145.94
405.765	122.94
405.988	153.94
406.212	267.94
406.436	372.94
406.66	229.94
406.883	141.94
407.107	103.94
407.331	111.94
407.555	115.94
407.778	106.94
408.002	111.94
408.226	111.94
408.449	87.94
408.673	99.94
408.896	112.94
409.12	102.94
409.344	91.94
409.567	94.94
409.791	111.94
410.014	97.94
410.238	100.94
410.461	106.94
410.685	105.94
410.908	110.94
411.132	108.94
411.355	104.94
411.578	113.94
411.802	99.94
412.025	103.94
412.249	104.94
412.472	128.94
412.695	141.94
412.919	128.94
413.142	90.94
413.365	99.94
413.589	107.94
413.812	97.94
414.035	108.94
414.258	92.94
414.482	116.94
414.705	100.94
414.928	102.94
415.151	92.94
415.374	102.94
415.597	96.94
415.821	100.94
416.044	111.94
416.267	102.94
416.49	88.94
416.713	89.94
416.936	115.94
417.159	113.94
417.382	103.94
417.605	122.94
417.828	131.94
418.051	115.94
418.274	91.94
418.497	77.94
418.72	89.94
418.943	98.94
419.166	105.94
419.389	95.94
419.611	99.94
419.834	85.94
420.057	91.94
420.28	112.94
420.503	107.94
420.726	81.94
420.948	93.94
421.171	126.94
421.394	108.94
421.617	108.94
421.839	89.94
422.062	87.94
422.285	96.94
422.507	107.94
422.73	98.94
422.953	100.94
423.175	103.94
423.398	91.94
423.621	101.94
423.843	91.94
424.066	93.94
424.288	98.94
424.511	99.94
424.733	110.94
424.956	132.94
425.178	125.94
425.401	119.94
425.623	129.94
425.846	107.94
426.068	128.94
426.291	121.94
426.513	114.94
426.735	116.94
426.958	111.94
427.18	123.94
427.402	209.94
427.625	303.94
427.847	303.94
428.069	266.94
428.292	153.94
428.514	122.94
428.736	107.94
428.958	94.94
429.181	104.94
429.403	98.94
429.625	97.94
429.847	111.94
430.069	130.94
430.292	95.94
430.514	102.94
430.736	97.94
430.958	93.94
431.18	90.94
431.402	86.94
431.624	92.94
431.846	96.94
432.068	85.94
432.29	97.94
432.512	96.94
432.734	91.94
432.956	110.94
433.178	115.94
433.4	116.94
433.622	96.94
433.844	93.94
434.066	109.94
434.287	88.94
434.509	91.94
434.731	87.94
434.953	98.94
435.175	101.94
435.397	91.94
435.618	105.94
435.84	116.94
436.062	146.94
436.284	142.94
436.505	117.94
436.727	122.94
436.949	109.94
437.17	97.94
437.392	100.94
437.614	116.94
437.835	139.94
438.057	162.94
438.278	122.94
438.5	112.94
438.721	151.94
438.943	116.94
439.165	107.94
439.386	97.94
439.608	92.94
439.829	118.94
440.05	174.94
440.272	215.94
440.493	128.94
440.715	89.94
440.936	103.94
441.158	103.94
441.379	92.94
441.6	103.94
441.822	118.94
442.043	107.94
442.264	106.94
442.486	118.94
442.707	109.94
442.928	139.94
443.149	202.94
443.371	196.94
443.592	130.94
443.813	153.94
444.034	131.94
444.255	111.94
444.476	95.94
444.698	84.94
444.919	79.94
445.14	142.94
445.361	155.94
445.582	157.94
445.803	221.94
446.024	196.94
446.245	190.94
446.466	148.94
446.687	101.94
446.908	83.94
447.129	83.94
447.35	94.94
447.571	99.94
447.792	102.94
448.013	121.94
448.234	129.94
448.455	115.94
448.675	147.94
448.896	153.94
449.117	110.94
449.338	133.94
449.559	170.94
449.779	171.94
450	110.94
450.221	88.94
450.442	110.94
450.662	101.94
450.883	131.94
451.104	154.94
451.324	133.94
451.545	101.94
451.766	85.94
451.986	102.94
452.207	112.94
452.428	91.94
452.648	118.94
452.869	153.94
453.089	161.94
453.31	152.94
453.53	106.94
453.751	97.94
453.971	142.94
454.192	150.94
454.412	115.94
454.633	101.94
454.853	95.94
455.073	83.94
455.294	91.94
455.514	119.94
455.734	90.94
455.955	83.94
456.175	82.94
456.395	115.94
456.616	82.94
456.836	84.94
457.056	98.94
457.276	90.94
457.497	96.94
457.717	103.94
457.937	99.94
458.157	109.94
458.377	115.94
458.598	142.94
458.818	253.94
459.038	299.94
459.258	166.94
459.478	115.94
459.698	97.94
459.918	100.94
460.138	98.94
460.358	98.94
460.578	94.94
460.798	99.94
461.018	96.94
461.238	98.94
461.458	102.94
461.678	93.94
461.898	114.94
462.118	100.94
462.338	92.94
462.558	99.94
462.777	103.94
462.997	102.94
463.217	133.94
463.437	112.94
463.657	90.94
463.876	113.94
464.096	100.94
464.316	105.94
464.536	101.94
464.755	114.94
464.975	151.94
465.195	289.94
465.414	279.94
465.634	115.94
465.854	99.94
466.073	108.94
466.293	102.94
466.512	109.94
466.732	102.94
466.951	101.94
467.171	100.94
467.391	132.94
467.61	180.94
467.829	285.94
468.049	783.94
468.268	1272.94
468.488	301.94
468.707	135.94
468.927	104.94
469.146	89.94
469.365	95.94
469.585	98.94
469.804	102.94
470.023	131.94
470.243	108.94
470.462	146.94
470.681	159.94
470.901	122.94
471.12	115.94
471.339	121.94
471.558	134.94
471.777	178.94
471.997	401.94
472.216	1586.94
472.435	3677.94
472.654	819.94
472.873	213.94
473.092	125.94
473.311	107.94
473.53	103.94
473.749	94.94
473.968	125.94
474.187	130.94
474.406	106.94
474.625	92.94
474.844	91.94
475.063	98.94
475.282	92.94
475.501	102.94
475.72	99.94
475.939	96.94
476.158	84.94
476.377	103.94
476.596	103.94
476.814	105.94
477.033	125.94
477.252	98.94
477.471	107.94
477.69	97.94
477.908	95.94
478.127	99.94
478.346	90.94
478.564	106.94
478.783	121.94
479.002	128.94
479.22	110.94
479.439	140.94
479.658	162.94
479.876	122.94
480.095	140.94
480.313	159.94
480.532	201.94
480.751	377.94
480.969	1456.94
481.188	6305.94
481.406	3538.94
481.624	494.94
481.843	179.94
482.061	107.94
482.28	118.94
482.498	101.94
482.717	106.94
482.935	100.94
483.153	97.94
483.372	103.94
483.59	98.94
483.808	94.94
484.027	102.94
484.245	106.94
484.463	90.94
484.681	107.94
484.9	79.94
485.118	103.94
485.336	111.94
485.554	117.94
485.772	109.94
485.99	109.94
486.209	128.94
486.427	117.94
486.645	120.94
486.863	141.94
487.081	123.94
487.299	107.94
487.517	98.94
487.735	109.94
487.953	98.94
488.171	96.94
488.389	114.94
488.607	117.94
488.825	99.94
489.043	111.94
489.261	102.94
489.479	96.94
489.696	94.94
489.914	91.94
490.132	94.94
490.35	101.94
490.568	92.94
490.786	93.94
491.003	107.94
491.221	108.94
491.439	113.94
491.657	101.94
491.874	129.94
492.092	102.94
492.31	103.94
492.527	107.94
492.745	103.94
492.963	99.94
493.18	103.94
493.398	110.94
493.615	94.94
493.833	95.94
494.05	100.94
494.268	111.94
494.485	97.94
494.703	109.94
494.92	87.94
495.138	97.94
495.355	95.94
495.573	90.94
495.79	99.94
496.008	103.94
496.225	97.94
496.442	102.94
496.66	94.94
496.877	95.94
497.094	97.94
497.312	86.94
497.529	112.94
497.746	89.94
497.963	97.94
498.181	95.94
498.398	105.94
498.615	132.94
498.832	137.94
499.049	107.94
499.267	81.94
499.484	90.94
499.701	101.94
499.918	98.94
500.135	96.94
500.352	99.94
500.569	114.94
500.786	109.94
501.003	102.94
501.22	102.94
501.437	101.94
501.654	101.94
501.871	141.94
502.088	109.94
502.305	110.94
502.522	92.94
502.739	84.94
502.956	106.94
503.172	101.94
503.389	113.94
503.606	130.94
503.823	111.94
504.04	97.94
504.256	100.94
504.473	92.94
504.69	93.94
504.907	85.94
505.123	97.94
505.34	103.94
505.557	85.94
505.773	103.94
505.99	102.94
506.207	110.94
506.423	102.94
506.64	99.94
506.856	104.94
507.073	102.94
507.289	112.94
507.506	108.94
507.722	149.94
507.939	151.94
508.155	102.94
508.372	97.94
508.588	92.94
508.805	106.94
509.021	94.94
509.238	102.94
509.454	114.94
509.67	126.94
