Data from Circ_1998_H10_HRD10591_00063.txt Node
Date: Wed Jan 03 11:27:01 EST 2024
User: Yrep
Spectrometer: HR+D1059
Trigger mode: 1
Integration Time (sec): 1.000000E-1
Scans to average: 1
Electric dark correction enabled: true
Nonlinearity correction enabled: false
Boxcar width: 0
XAxis mode: Wavelengths
Number of Pixels in Spectrum: 2048
>>>>>Begin Spectral Data<<<<<
223.165	-25.44
223.4	-25.44
223.635	-25.44
223.869	-9.44
224.104	-28.44
224.338	-21.44
224.573	-11.44
224.808	-3.44
225.042	-16.44
225.277	-1.44
225.511	11.56
225.746	-5.44
225.98	17.56
226.215	17.56
226.449	7.56
226.683	13.56
226.918	33.56
227.152	21.56
227.387	30.56
227.621	41.56
227.856	34.56
228.09	47.56
228.324	55.56
228.559	73.56
228.793	68.56
229.027	73.56
229.262	67.56
229.496	66.56
229.73	102.56
229.964	90.56
230.199	68.56
230.433	88.56
230.667	90.56
230.901	75.56
231.136	90.56
231.37	84.56
231.604	82.56
231.838	82.56
232.072	91.56
232.306	81.56
232.541	77.56
232.775	71.56
233.009	91.56
233.243	102.56
233.477	81.56
233.711	74.56
233.945	77.56
234.179	71.56
234.413	81.56
234.647	88.56
234.881	86.56
235.115	73.56
235.349	88.56
235.583	90.56
235.817	83.56
236.051	91.56
236.285	72.56
236.519	84.56
236.753	90.56
236.987	89.56
237.221	103.56
237.455	100.56
237.689	93.56
237.922	66.56
238.156	71.56
238.39	86.56
238.624	65.56
238.858	91.56
239.091	83.56
239.325	86.56
239.559	86.56
239.793	89.56
240.027	87.56
240.26	80.56
240.494	72.56
240.728	63.56
240.961	68.56
241.195	70.56
241.429	87.56
241.662	82.56
241.896	68.56
242.13	67.56
242.363	77.56
242.597	63.56
242.83	82.56
243.064	81.56
243.298	79.56
243.531	87.56
243.765	72.56
243.998	85.56
244.232	72.56
244.465	72.56
244.699	67.56
244.932	94.56
245.166	86.56
245.399	83.56
245.633	85.56
245.866	88.56
246.099	100.56
246.333	83.56
246.566	89.56
246.8	84.56
247.033	64.56
247.266	85.56
247.5	91.56
247.733	83.56
247.966	96.56
248.2	80.56
248.433	63.56
248.666	78.56
248.899	97.56
249.133	83.56
249.366	115.56
249.599	112.56
249.832	97.56
250.066	92.56
250.299	86.56
250.532	91.56
250.765	84.56
250.998	78.56
251.231	71.56
251.465	86.56
251.698	88.56
251.931	92.56
252.164	86.56
252.397	76.56
252.63	100.56
252.863	103.56
253.096	84.56
253.329	86.56
253.562	74.56
253.795	93.56
254.028	98.56
254.261	82.56
254.494	92.56
254.727	93.56
254.96	96.56
255.193	89.56
255.426	96.56
255.659	105.56
255.892	108.56
256.124	106.56
256.357	85.56
256.59	97.56
256.823	83.56
257.056	91.56
257.289	91.56
257.521	92.56
257.754	98.56
257.987	90.56
258.22	110.56
258.452	106.56
258.685	95.56
258.918	94.56
259.151	99.56
259.383	94.56
259.616	74.56
259.849	87.56
260.081	91.56
260.314	77.56
260.547	77.56
260.779	95.56
261.012	106.56
261.244	123.56
261.477	101.56
261.71	106.56
261.942	144.56
262.175	160.56
262.407	94.56
262.64	81.56
262.872	89.56
263.105	91.56
263.337	91.56
263.57	84.56
263.802	100.56
264.035	79.56
264.267	90.56
264.499	86.56
264.732	82.56
264.964	95.56
265.197	97.56
265.429	91.56
265.661	82.56
265.894	104.56
266.126	85.56
266.358	84.56
266.591	98.56
266.823	91.56
267.055	92.56
267.287	90.56
267.52	92.56
267.752	93.56
267.984	100.56
268.216	83.56
268.448	87.56
268.681	101.56
268.913	91.56
269.145	73.56
269.377	78.56
269.609	88.56
269.841	82.56
270.073	92.56
270.306	94.56
270.538	83.56
270.77	74.56
271.002	96.56
271.234	99.56
271.466	95.56
271.698	94.56
271.93	93.56
272.162	81.56
272.394	85.56
272.626	86.56
272.858	87.56
273.09	82.56
273.322	86.56
273.553	88.56
273.785	93.56
274.017	95.56
274.249	104.56
274.481	94.56
274.713	93.56
274.945	105.56
275.176	86.56
275.408	103.56
275.64	134.56
275.872	139.56
276.104	104.56
276.335	96.56
276.567	118.56
276.799	138.56
277.031	195.56
277.262	249.56
277.494	182.56
277.726	104.56
277.957	104.56
278.189	108.56
278.421	92.56
278.652	85.56
278.884	91.56
279.115	97.56
279.347	102.56
279.579	121.56
279.81	151.56
280.042	248.56
280.273	328.56
280.505	209.56
280.736	119.56
280.968	96.56
281.199	99.56
281.431	91.56
281.662	86.56
281.894	92.56
282.125	121.56
282.356	150.56
282.588	188.56
282.819	131.56
283.051	84.56
283.282	89.56
283.513	100.56
283.745	96.56
283.976	86.56
284.207	83.56
284.439	81.56
284.67	95.56
284.901	89.56
285.132	89.56
285.364	96.56
285.595	73.56
285.826	99.56
286.057	78.56
286.288	76.56
286.52	83.56
286.751	89.56
286.982	88.56
287.213	89.56
287.444	97.56
287.675	90.56
287.906	98.56
288.138	78.56
288.369	98.56
288.6	98.56
288.831	90.56
289.062	94.56
289.293	91.56
289.524	90.56
289.755	93.56
289.986	93.56
290.217	91.56
290.448	88.56
290.679	74.56
290.91	84.56
291.141	85.56
291.371	87.56
291.602	95.56
291.833	89.56
292.064	98.56
292.295	94.56
292.526	86.56
292.757	90.56
292.987	100.56
293.218	81.56
293.449	99.56
293.68	92.56
293.91	90.56
294.141	93.56
294.372	87.56
294.603	89.56
294.833	75.56
295.064	97.56
295.295	92.56
295.525	87.56
295.756	100.56
295.987	154.56
296.217	164.56
296.448	153.56
296.679	112.56
296.909	86.56
297.14	96.56
297.37	84.56
297.601	100.56
297.831	92.56
298.062	107.56
298.292	83.56
298.523	104.56
298.753	84.56
298.984	94.56
299.214	77.56
299.445	104.56
299.675	92.56
299.905	110.56
300.136	98.56
300.366	102.56
300.597	89.56
300.827	101.56
301.057	116.56
301.288	127.56
301.518	99.56
301.748	86.56
301.979	116.56
302.209	105.56
302.439	104.56
302.669	92.56
302.9	97.56
303.13	100.56
303.36	118.56
303.59	146.56
303.82	154.56
304.051	122.56
304.281	99.56
304.511	99.56
304.741	104.56
304.971	95.56
305.201	82.56
305.431	105.56
305.661	103.56
305.891	107.56
306.121	90.56
306.352	101.56
306.582	127.56
306.812	118.56
307.042	127.56
307.272	182.56
307.502	220.56
307.731	190.56
307.961	150.56
308.191	96.56
308.421	82.56
308.651	98.56
308.881	104.56
309.111	78.56
309.341	94.56
309.571	115.56
309.8	116.56
310.03	107.56
310.26	116.56
310.49	113.56
310.72	99.56
310.949	139.56
311.179	118.56
311.409	96.56
311.639	111.56
311.868	120.56
312.098	97.56
312.328	108.56
312.557	129.56
312.787	133.56
313.017	116.56
313.246	98.56
313.476	105.56
313.706	114.56
313.935	94.56
314.165	112.56
314.394	130.56
314.624	124.56
314.853	112.56
315.083	115.56
315.312	91.56
315.542	88.56
315.771	100.56
316.001	104.56
316.23	96.56
316.46	79.56
316.689	84.56
316.919	91.56
317.148	118.56
317.377	122.56
317.607	112.56
317.836	103.56
318.065	98.56
318.295	102.56
318.524	94.56
318.753	86.56
318.983	101.56
319.212	110.56
319.441	127.56
319.67	120.56
319.9	95.56
320.129	84.56
320.358	95.56
320.587	102.56
320.816	100.56
321.046	118.56
321.275	100.56
321.504	100.56
321.733	102.56
321.962	117.56
322.191	105.56
322.42	116.56
322.649	121.56
322.878	134.56
323.108	153.56
323.337	162.56
323.566	167.56
323.795	186.56
324.024	282.56
324.253	574.56
324.482	1278.56
324.71	2681.56
324.939	3567.56
325.168	1211.56
325.397	338.56
325.626	184.56
325.855	171.56
326.084	163.56
326.313	184.56
326.542	196.56
326.77	329.56
326.999	641.56
327.228	1387.56
327.457	2670.56
327.686	2081.56
327.914	707.56
328.143	689.56
328.372	888.56
328.6	484.56
328.829	218.56
329.058	222.56
329.287	232.56
329.515	201.56
329.744	300.56
329.972	664.56
330.201	1418.56
330.43	2008.56
330.658	860.56
330.887	353.56
331.115	227.56
331.344	155.56
331.572	139.56
331.801	160.56
332.03	142.56
332.258	124.56
332.486	121.56
332.715	125.56
332.943	118.56
333.172	138.56
333.4	167.56
333.629	190.56
333.857	304.56
334.085	594.56
334.314	1344.56
334.542	2666.56
334.771	2380.56
334.999	578.56
335.227	206.56
335.455	141.56
335.684	131.56
335.912	127.56
336.14	120.56
336.369	115.56
336.597	121.56
336.825	112.56
337.053	112.56
337.281	106.56
337.51	105.56
337.738	86.56
337.966	110.56
338.194	114.56
338.422	95.56
338.65	99.56
338.878	101.56
339.106	100.56
339.334	93.56
339.562	102.56
339.79	97.56
340.018	99.56
340.246	110.56
340.474	112.56
340.702	98.56
340.93	108.56
341.158	87.56
341.386	118.56
341.614	115.56
341.842	102.56
342.07	113.56
342.298	91.56
342.526	103.56
342.754	104.56
342.981	105.56
343.209	111.56
343.437	87.56
343.665	83.56
343.893	93.56
344.12	103.56
344.348	99.56
344.576	97.56
344.804	101.56
345.031	111.56
345.259	123.56
345.487	90.56
345.714	102.56
345.942	100.56
346.17	95.56
346.397	85.56
346.625	96.56
346.853	113.56
347.08	92.56
347.308	103.56
347.535	105.56
347.763	123.56
347.99	99.56
348.218	113.56
348.445	122.56
348.673	120.56
348.9	108.56
349.128	91.56
349.355	105.56
349.583	92.56
349.81	98.56
350.037	100.56
350.265	91.56
350.492	100.56
350.72	105.56
350.947	97.56
351.174	115.56
351.402	114.56
351.629	108.56
351.856	92.56
352.083	109.56
352.311	137.56
352.538	146.56
352.765	121.56
352.992	129.56
353.22	122.56
353.447	119.56
353.674	108.56
353.901	103.56
354.128	103.56
354.355	105.56
354.583	96.56
354.81	106.56
355.037	83.56
355.264	88.56
355.491	86.56
355.718	84.56
355.945	87.56
356.172	111.56
356.399	85.56
356.626	92.56
356.853	87.56
357.08	83.56
357.307	79.56
357.534	95.56
357.761	106.56
357.988	94.56
358.215	84.56
358.441	100.56
358.668	79.56
358.895	96.56
359.122	83.56
359.349	88.56
359.576	85.56
359.802	130.56
360.029	154.56
360.256	144.56
360.483	125.56
360.709	90.56
360.936	99.56
361.163	106.56
361.39	100.56
361.616	114.56
361.843	91.56
362.07	100.56
362.296	100.56
362.523	94.56
362.749	72.56
362.976	112.56
363.203	97.56
363.429	89.56
363.656	106.56
363.882	101.56
364.109	103.56
364.335	101.56
364.562	104.56
364.788	99.56
365.015	95.56
365.241	118.56
365.468	121.56
365.694	120.56
365.92	106.56
366.147	103.56
366.373	95.56
366.599	106.56
366.826	93.56
367.052	90.56
367.278	100.56
367.505	88.56
367.731	96.56
367.957	108.56
368.184	95.56
368.41	104.56
368.636	129.56
368.862	138.56
369.089	122.56
369.315	107.56
369.541	102.56
369.767	91.56
369.993	96.56
370.219	94.56
370.445	95.56
370.672	87.56
370.898	86.56
371.124	103.56
371.35	102.56
371.576	89.56
371.802	83.56
372.028	87.56
372.254	90.56
372.48	86.56
372.706	104.56
372.932	85.56
373.158	87.56
373.384	93.56
373.61	99.56
373.835	91.56
374.061	108.56
374.287	92.56
374.513	87.56
374.739	93.56
374.965	101.56
375.191	98.56
375.416	80.56
375.642	102.56
375.868	112.56
376.094	98.56
376.319	90.56
376.545	93.56
376.771	102.56
376.997	99.56
377.222	94.56
377.448	88.56
377.674	88.56
377.899	76.56
378.125	104.56
378.35	97.56
378.576	79.56
378.802	80.56
379.027	90.56
379.253	89.56
379.478	90.56
379.704	97.56
379.929	102.56
380.155	106.56
380.38	100.56
380.606	81.56
380.831	104.56
381.057	93.56
381.282	99.56
381.507	99.56
381.733	86.56
381.958	84.56
382.184	109.56
382.409	110.56
382.634	94.56
382.86	98.56
383.085	91.56
383.31	108.56
383.535	111.56
383.761	109.56
383.986	109.56
384.211	96.56
384.436	104.56
384.662	91.56
384.887	89.56
385.112	103.56
385.337	87.56
385.562	97.56
385.787	115.56
386.013	116.56
386.238	121.56
386.463	116.56
386.688	117.56
386.913	96.56
387.138	115.56
387.363	101.56
387.588	97.56
387.813	89.56
388.038	110.56
388.263	118.56
388.488	108.56
388.713	94.56
388.938	88.56
389.163	84.56
389.387	103.56
389.612	83.56
389.837	96.56
390.062	84.56
390.287	84.56
390.512	81.56
390.736	82.56
390.961	86.56
391.186	91.56
391.411	100.56
391.636	102.56
391.86	93.56
392.085	76.56
392.31	91.56
392.534	93.56
392.759	87.56
392.984	96.56
393.208	93.56
393.433	92.56
393.658	86.56
393.882	94.56
394.107	99.56
394.331	90.56
394.556	84.56
394.78	99.56
395.005	85.56
395.229	102.56
395.454	100.56
395.678	91.56
395.903	87.56
396.127	97.56
396.352	81.56
396.576	88.56
396.801	92.56
397.025	83.56
397.249	100.56
397.474	100.56
397.698	84.56
397.922	93.56
398.147	96.56
398.371	76.56
398.595	80.56
398.82	83.56
399.044	79.56
399.268	92.56
399.492	84.56
399.717	98.56
399.941	102.56
400.165	102.56
400.389	96.56
400.613	95.56
400.837	98.56
401.062	80.56
401.286	84.56
401.51	93.56
401.734	102.56
401.958	112.56
402.182	152.56
402.406	188.56
402.63	159.56
402.854	120.56
403.078	107.56
403.302	98.56
403.526	111.56
403.75	92.56
403.974	85.56
404.198	96.56
404.422	87.56
404.645	90.56
404.869	105.56
405.093	137.56
405.317	161.56
405.541	154.56
405.765	129.56
405.988	144.56
406.212	217.56
406.436	302.56
406.66	219.56
406.883	109.56
407.107	105.56
407.331	111.56
407.555	114.56
407.778	117.56
408.002	105.56
408.226	89.56
408.449	91.56
408.673	87.56
408.896	119.56
409.12	114.56
409.344	99.56
409.567	91.56
409.791	88.56
410.014	88.56
410.238	83.56
410.461	98.56
410.685	108.56
410.908	88.56
411.132	98.56
411.355	106.56
411.578	106.56
411.802	96.56
412.025	96.56
412.249	109.56
412.472	127.56
412.695	162.56
412.919	131.56
413.142	101.56
413.365	111.56
413.589	82.56
413.812	90.56
414.035	99.56
414.258	99.56
414.482	95.56
414.705	97.56
414.928	87.56
415.151	93.56
415.374	100.56
415.597	90.56
415.821	93.56
416.044	98.56
416.267	82.56
416.49	102.56
416.713	96.56
416.936	90.56
417.159	106.56
417.382	105.56
417.605	104.56
417.828	115.56
418.051	102.56
418.274	84.56
418.497	78.56
418.72	83.56
418.943	94.56
419.166	99.56
419.389	81.56
419.611	112.56
419.834	112.56
420.057	104.56
420.28	96.56
420.503	111.56
420.726	97.56
420.948	94.56
421.171	117.56
421.394	118.56
421.617	81.56
421.839	85.56
422.062	91.56
422.285	105.56
422.507	99.56
422.73	110.56
422.953	103.56
423.175	89.56
423.398	83.56
423.621	84.56
423.843	85.56
424.066	88.56
424.288	94.56
424.511	96.56
424.733	111.56
424.956	134.56
425.178	108.56
425.401	128.56
425.623	108.56
425.846	90.56
426.068	95.56
426.291	100.56
426.513	94.56
426.735	95.56
426.958	98.56
427.18	121.56
427.402	211.56
427.625	308.56
427.847	295.56
428.069	267.56
428.292	153.56
428.514	106.56
428.736	92.56
428.958	93.56
429.181	89.56
429.403	85.56
429.625	105.56
429.847	100.56
430.069	112.56
430.292	113.56
430.514	104.56
430.736	103.56
430.958	87.56
431.18	99.56
431.402	78.56
431.624	84.56
431.846	105.56
432.068	109.56
432.29	80.56
432.512	87.56
432.734	90.56
432.956	103.56
433.178	110.56
433.4	112.56
433.622	97.56
433.844	86.56
434.066	91.56
434.287	91.56
434.509	95.56
434.731	84.56
434.953	80.56
435.175	71.56
435.397	107.56
435.618	101.56
435.84	126.56
436.062	166.56
436.284	159.56
436.505	128.56
436.727	114.56
436.949	86.56
437.17	84.56
437.392	84.56
437.614	111.56
437.835	144.56
438.057	168.56
438.278	144.56
438.5	123.56
438.721	160.56
438.943	116.56
439.165	99.56
439.386	99.56
439.608	83.56
439.829	113.56
440.05	167.56
440.272	218.56
440.493	122.56
440.715	111.56
440.936	86.56
441.158	98.56
441.379	83.56
441.6	96.56
441.822	105.56
442.043	107.56
442.264	135.56
442.486	121.56
442.707	113.56
442.928	143.56
443.149	186.56
443.371	182.56
443.592	135.56
443.813	153.56
444.034	135.56
444.255	96.56
444.476	84.56
444.698	81.56
444.919	94.56
445.14	156.56
445.361	149.56
445.582	158.56
445.803	226.56
446.024	206.56
446.245	195.56
446.466	155.56
446.687	96.56
446.908	89.56
447.129	83.56
447.35	97.56
447.571	102.56
447.792	104.56
448.013	121.56
448.234	125.56
448.455	117.56
448.675	138.56
448.896	148.56
449.117	122.56
449.338	124.56
449.559	171.56
449.779	174.56
450	97.56
450.221	87.56
450.442	94.56
450.662	98.56
450.883	131.56
451.104	155.56
451.324	107.56
451.545	102.56
451.766	101.56
451.986	98.56
452.207	98.56
452.428	89.56
452.648	97.56
452.869	133.56
453.089	143.56
453.31	130.56
453.53	106.56
453.751	110.56
453.971	138.56
454.192	128.56
454.412	106.56
454.633	88.56
454.853	99.56
455.073	84.56
455.294	95.56
455.514	119.56
455.734	98.56
455.955	92.56
456.175	86.56
456.395	95.56
456.616	88.56
456.836	82.56
457.056	79.56
457.276	86.56
457.497	77.56
457.717	92.56
457.937	90.56
458.157	90.56
458.377	92.56
458.598	138.56
458.818	233.56
459.038	255.56
459.258	154.56
459.478	96.56
459.698	109.56
459.918	99.56
460.138	95.56
460.358	95.56
460.578	80.56
460.798	88.56
461.018	92.56
461.238	86.56
461.458	101.56
461.678	89.56
461.898	99.56
462.118	85.56
462.338	106.56
462.558	94.56
462.777	98.56
462.997	107.56
463.217	122.56
463.437	95.56
463.657	88.56
463.876	103.56
464.096	110.56
464.316	104.56
464.536	113.56
464.755	106.56
464.975	147.56
465.195	254.56
465.414	266.56
465.634	114.56
465.854	107.56
466.073	83.56
466.293	98.56
466.512	84.56
466.732	84.56
466.951	99.56
467.171	110.56
467.391	119.56
467.61	176.56
467.829	249.56
468.049	770.56
468.268	1162.56
468.488	285.56
468.707	111.56
468.927	98.56
469.146	95.56
469.365	100.56
469.585	93.56
469.804	119.56
470.023	109.56
470.243	129.56
470.462	126.56
470.681	158.56
470.901	126.56
471.12	101.56
471.339	116.56
471.558	134.56
471.777	185.56
471.997	387.56
472.216	1577.56
472.435	3538.56
472.654	783.56
472.873	190.56
473.092	134.56
473.311	107.56
473.53	106.56
473.749	94.56
473.968	106.56
474.187	123.56
474.406	128.56
474.625	93.56
474.844	96.56
475.063	105.56
475.282	89.56
475.501	95.56
475.72	100.56
475.939	91.56
476.158	106.56
476.377	93.56
476.596	92.56
476.814	111.56
477.033	99.56
477.252	111.56
477.471	87.56
477.69	100.56
477.908	93.56
478.127	102.56
478.346	103.56
478.564	108.56
478.783	99.56
479.002	123.56
479.22	130.56
479.439	122.56
479.658	144.56
479.876	150.56
480.095	141.56
480.313	160.56
480.532	191.56
480.751	372.56
480.969	1404.56
481.188	6226.56
481.406	3448.56
481.624	468.56
481.843	162.56
482.061	131.56
482.28	124.56
482.498	97.56
482.717	110.56
482.935	95.56
483.153	82.56
483.372	92.56
483.59	82.56
483.808	86.56
484.027	91.56
484.245	106.56
484.463	106.56
484.681	88.56
484.9	90.56
485.118	98.56
485.336	89.56
485.554	112.56
485.772	100.56
485.99	108.56
486.209	117.56
486.427	113.56
486.645	138.56
486.863	123.56
487.081	123.56
487.299	97.56
487.517	101.56
487.735	97.56
487.953	101.56
488.171	89.56
488.389	120.56
488.607	110.56
488.825	97.56
489.043	103.56
489.261	94.56
489.479	100.56
489.696	98.56
489.914	82.56
490.132	79.56
490.35	93.56
490.568	83.56
490.786	89.56
491.003	104.56
491.221	103.56
491.439	114.56
491.657	89.56
491.874	99.56
492.092	102.56
492.31	84.56
492.527	95.56
492.745	98.56
492.963	106.56
493.18	99.56
493.398	97.56
493.615	111.56
493.833	99.56
494.05	94.56
494.268	105.56
494.485	94.56
494.703	88.56
494.92	84.56
495.138	94.56
495.355	89.56
495.573	110.56
495.79	97.56
496.008	105.56
496.225	106.56
496.442	90.56
496.66	79.56
496.877	92.56
497.094	102.56
497.312	97.56
497.529	83.56
497.746	108.56
497.963	89.56
498.181	93.56
498.398	104.56
498.615	137.56
498.832	143.56
499.049	98.56
499.267	94.56
499.484	90.56
499.701	94.56
499.918	98.56
500.135	91.56
500.352	95.56
500.569	103.56
500.786	96.56
501.003	76.56
501.22	91.56
501.437	93.56
501.654	105.56
501.871	126.56
502.088	87.56
502.305	100.56
502.522	96.56
502.739	103.56
502.956	98.56
503.172	95.56
503.389	98.56
503.606	133.56
503.823	117.56
504.04	101.56
504.256	93.56
504.473	90.56
504.69	99.56
504.907	110.56
505.123	84.56
505.34	95.56
505.557	87.56
505.773	97.56
505.99	86.56
506.207	91.56
506.423	81.56
506.64	85.56
506.856	83.56
507.073	87.56
507.289	99.56
507.506	110.56
507.722	154.56
507.939	142.56
508.155	114.56
508.372	101.56
508.588	94.56
508.805	100.56
509.021	100.56
509.238	120.56
509.454	103.56
509.67	102.56
509.887	109.56
510.103	141.56
510.319	258.56
510.536	977.56
510.752	3363.56
510.968	887.56
511.184	173.56
511.401	148.56
