Data from Circ_1998_H10_HRD10591_00047.txt Node
Date: Wed Jan 03 11:26:58 EST 2024
User: Yrep
Spectrometer: HR+D1059
Trigger mode: 1
Integration Time (sec): 1.000000E-1
Scans to average: 1
Electric dark correction enabled: true
Nonlinearity correction enabled: false
Boxcar width: 0
XAxis mode: Wavelengths
Number of Pixels in Spectrum: 2048
>>>>>Begin Spectral Data<<<<<
223.165	-21.56
223.4	-21.56
223.635	-21.56
223.869	-7.56
224.104	-15.56
224.338	-17.56
224.573	-21.56
224.808	-12.56
225.042	-13.56
225.277	-3.56
225.511	-4.56
225.746	5.44
225.98	5.44
226.215	5.44
226.449	17.44
226.683	25.44
226.918	16.44
227.152	42.44
227.387	35.44
227.621	39.44
227.856	46.44
228.09	48.44
228.324	49.44
228.559	67.44
228.793	64.44
229.027	50.44
229.262	71.44
229.496	73.44
229.73	99.44
229.964	95.44
230.199	82.44
230.433	62.44
230.667	85.44
230.901	79.44
231.136	93.44
231.37	87.44
231.604	84.44
231.838	74.44
232.072	75.44
232.306	73.44
232.541	98.44
232.775	78.44
233.009	87.44
233.243	83.44
233.477	91.44
233.711	79.44
233.945	85.44
234.179	87.44
234.413	77.44
234.647	64.44
234.881	75.44
235.115	86.44
235.349	91.44
235.583	86.44
235.817	89.44
236.051	94.44
236.285	91.44
236.519	86.44
236.753	99.44
236.987	99.44
237.221	93.44
237.455	93.44
237.689	78.44
237.922	78.44
238.156	70.44
238.39	54.44
238.624	86.44
238.858	67.44
239.091	79.44
239.325	82.44
239.559	92.44
239.793	87.44
240.027	80.44
240.26	93.44
240.494	86.44
240.728	82.44
240.961	77.44
241.195	81.44
241.429	88.44
241.662	79.44
241.896	76.44
242.13	66.44
242.363	90.44
242.597	75.44
242.83	83.44
243.064	78.44
243.298	73.44
243.531	82.44
243.765	75.44
243.998	61.44
244.232	87.44
244.465	107.44
244.699	81.44
244.932	82.44
245.166	82.44
245.399	77.44
245.633	75.44
245.866	77.44
246.099	85.44
246.333	96.44
246.566	93.44
246.8	89.44
247.033	71.44
247.266	92.44
247.5	65.44
247.733	66.44
247.966	67.44
248.2	86.44
248.433	89.44
248.666	94.44
248.899	81.44
249.133	93.44
249.366	114.44
249.599	108.44
249.832	76.44
250.066	79.44
250.299	87.44
250.532	98.44
250.765	71.44
250.998	78.44
251.231	85.44
251.465	87.44
251.698	94.44
251.931	81.44
252.164	73.44
252.397	79.44
252.63	78.44
252.863	86.44
253.096	85.44
253.329	81.44
253.562	79.44
253.795	83.44
254.028	90.44
254.261	81.44
254.494	84.44
254.727	83.44
254.96	79.44
255.193	88.44
255.426	75.44
255.659	82.44
255.892	94.44
256.124	104.44
256.357	86.44
256.59	94.44
256.823	94.44
257.056	96.44
257.289	101.44
257.521	92.44
257.754	103.44
257.987	99.44
258.22	93.44
258.452	109.44
258.685	95.44
258.918	85.44
259.151	83.44
259.383	89.44
259.616	83.44
259.849	85.44
260.081	81.44
260.314	80.44
260.547	105.44
260.779	103.44
261.012	104.44
261.244	102.44
261.477	111.44
261.71	93.44
261.942	122.44
262.175	134.44
262.407	93.44
262.64	80.44
262.872	91.44
263.105	81.44
263.337	90.44
263.57	89.44
263.802	82.44
264.035	107.44
264.267	80.44
264.499	97.44
264.732	71.44
264.964	83.44
265.197	95.44
265.429	82.44
265.661	85.44
265.894	93.44
266.126	86.44
266.358	85.44
266.591	91.44
266.823	87.44
267.055	84.44
267.287	90.44
267.52	92.44
267.752	71.44
267.984	95.44
268.216	90.44
268.448	96.44
268.681	79.44
268.913	88.44
269.145	96.44
269.377	84.44
269.609	87.44
269.841	83.44
270.073	89.44
270.306	86.44
270.538	83.44
270.77	89.44
271.002	90.44
271.234	101.44
271.466	96.44
271.698	94.44
271.93	97.44
272.162	80.44
272.394	74.44
272.626	94.44
272.858	95.44
273.09	77.44
273.322	104.44
273.553	80.44
273.785	87.44
274.017	73.44
274.249	87.44
274.481	87.44
274.713	90.44
274.945	105.44
275.176	91.44
275.408	97.44
275.64	110.44
275.872	133.44
276.104	116.44
276.335	111.44
276.567	115.44
276.799	140.44
277.031	185.44
277.262	206.44
277.494	158.44
277.726	90.44
277.957	75.44
278.189	89.44
278.421	94.44
278.652	82.44
278.884	98.44
279.115	110.44
279.347	99.44
279.579	103.44
279.81	148.44
280.042	200.44
280.273	282.44
280.505	193.44
280.736	115.44
280.968	97.44
281.199	109.44
281.431	86.44
281.662	101.44
281.894	94.44
282.125	94.44
282.356	126.44
282.588	172.44
282.819	150.44
283.051	90.44
283.282	99.44
283.513	94.44
283.745	88.44
283.976	90.44
284.207	98.44
284.439	90.44
284.67	98.44
284.901	99.44
285.132	94.44
285.364	87.44
285.595	96.44
285.826	105.44
286.057	81.44
286.288	88.44
286.52	85.44
286.751	84.44
286.982	80.44
287.213	94.44
287.444	90.44
287.675	91.44
287.906	94.44
288.138	102.44
288.369	99.44
288.6	104.44
288.831	89.44
289.062	101.44
289.293	99.44
289.524	93.44
289.755	90.44
289.986	83.44
290.217	84.44
290.448	79.44
290.679	102.44
290.91	87.44
291.141	101.44
291.371	88.44
291.602	78.44
291.833	83.44
292.064	85.44
292.295	88.44
292.526	104.44
292.757	106.44
292.987	105.44
293.218	92.44
293.449	93.44
293.68	78.44
293.91	86.44
294.141	75.44
294.372	93.44
294.603	81.44
294.833	98.44
295.064	103.44
295.295	98.44
295.525	82.44
295.756	115.44
295.987	119.44
296.217	151.44
296.448	139.44
296.679	102.44
296.909	103.44
297.14	95.44
297.37	99.44
297.601	87.44
297.831	89.44
298.062	90.44
298.292	92.44
298.523	78.44
298.753	65.44
298.984	88.44
299.214	84.44
299.445	93.44
299.675	85.44
299.905	110.44
300.136	105.44
300.366	85.44
300.597	71.44
300.827	96.44
301.057	104.44
301.288	96.44
301.518	106.44
301.748	96.44
301.979	103.44
302.209	94.44
302.439	93.44
302.669	98.44
302.9	92.44
303.13	101.44
303.36	108.44
303.59	127.44
303.82	141.44
304.051	98.44
304.281	85.44
304.511	99.44
304.741	93.44
304.971	101.44
305.201	98.44
305.431	99.44
305.661	98.44
305.891	110.44
306.121	89.44
306.352	112.44
306.582	120.44
306.812	104.44
307.042	133.44
307.272	164.44
307.502	205.44
307.731	201.44
307.961	144.44
308.191	98.44
308.421	84.44
308.651	80.44
308.881	99.44
309.111	96.44
309.341	117.44
309.571	89.44
309.8	88.44
310.03	110.44
310.26	102.44
310.49	98.44
310.72	113.44
310.949	125.44
311.179	118.44
311.409	105.44
311.639	99.44
311.868	119.44
312.098	96.44
312.328	112.44
312.557	103.44
312.787	111.44
313.017	97.44
313.246	108.44
313.476	101.44
313.706	105.44
313.935	96.44
314.165	109.44
314.394	118.44
314.624	115.44
314.853	99.44
315.083	106.44
315.312	107.44
315.542	105.44
315.771	102.44
316.001	98.44
316.23	95.44
316.46	103.44
316.689	90.44
316.919	83.44
317.148	93.44
317.377	106.44
317.607	98.44
317.836	96.44
318.065	89.44
318.295	100.44
318.524	94.44
318.753	111.44
318.983	94.44
319.212	91.44
319.441	120.44
319.67	109.44
319.9	98.44
320.129	105.44
320.358	98.44
320.587	114.44
320.816	106.44
321.046	113.44
321.275	111.44
321.504	94.44
321.733	111.44
321.962	112.44
322.191	114.44
322.42	111.44
322.649	125.44
322.878	108.44
323.108	137.44
323.337	161.44
323.566	149.44
323.795	167.44
324.024	251.44
324.253	523.44
324.482	1091.44
324.71	2343.44
324.939	3156.44
325.168	1120.44
325.397	310.44
325.626	182.44
325.855	149.44
326.084	155.44
326.313	174.44
326.542	176.44
326.77	265.44
326.999	572.44
327.228	1201.44
327.457	2242.44
327.686	1824.44
327.914	605.44
328.143	615.44
328.372	763.44
328.6	395.44
328.829	189.44
329.058	195.44
329.287	182.44
329.515	201.44
329.744	285.44
329.972	555.44
330.201	1181.44
330.43	1713.44
330.658	747.44
330.887	305.44
331.115	192.44
331.344	127.44
331.572	109.44
331.801	112.44
332.03	124.44
332.258	114.44
332.486	115.44
332.715	110.44
332.943	112.44
333.172	114.44
333.4	126.44
333.629	169.44
333.857	235.44
334.085	470.44
334.314	1066.44
334.542	2141.44
334.771	2008.44
334.999	514.44
335.227	186.44
335.455	120.44
335.684	113.44
335.912	112.44
336.14	107.44
336.369	104.44
336.597	109.44
336.825	93.44
337.053	110.44
337.281	98.44
337.51	96.44
337.738	110.44
337.966	114.44
338.194	102.44
338.422	105.44
338.65	91.44
338.878	92.44
339.106	85.44
339.334	90.44
339.562	103.44
339.79	91.44
340.018	95.44
340.246	76.44
340.474	109.44
340.702	98.44
340.93	96.44
341.158	102.44
341.386	104.44
341.614	102.44
341.842	110.44
342.07	107.44
342.298	102.44
342.526	99.44
342.754	94.44
342.981	101.44
343.209	94.44
343.437	111.44
343.665	92.44
343.893	100.44
344.12	99.44
344.348	92.44
344.576	91.44
344.804	89.44
345.031	111.44
345.259	105.44
345.487	99.44
345.714	96.44
345.942	80.44
346.17	92.44
346.397	80.44
346.625	96.44
346.853	93.44
347.08	86.44
347.308	96.44
347.535	105.44
347.763	103.44
347.99	90.44
348.218	115.44
348.445	122.44
348.673	124.44
348.9	110.44
349.128	110.44
349.355	92.44
349.583	99.44
349.81	104.44
350.037	105.44
350.265	93.44
350.492	92.44
350.72	89.44
350.947	118.44
351.174	112.44
351.402	120.44
351.629	117.44
351.856	109.44
352.083	96.44
352.311	113.44
352.538	115.44
352.765	113.44
352.992	115.44
353.22	125.44
353.447	96.44
353.674	104.44
353.901	97.44
354.128	92.44
354.355	90.44
354.583	97.44
354.81	89.44
355.037	99.44
355.264	95.44
355.491	96.44
355.718	95.44
355.945	103.44
356.172	99.44
356.399	83.44
356.626	93.44
356.853	98.44
357.08	99.44
357.307	97.44
357.534	92.44
357.761	96.44
357.988	83.44
358.215	109.44
358.441	98.44
358.668	94.44
358.895	104.44
359.122	102.44
359.349	91.44
359.576	105.44
359.802	95.44
360.029	135.44
360.256	128.44
360.483	110.44
360.709	105.44
360.936	95.44
361.163	83.44
361.39	104.44
361.616	107.44
361.843	86.44
362.07	97.44
362.296	117.44
362.523	95.44
362.749	100.44
362.976	95.44
363.203	96.44
363.429	94.44
363.656	96.44
363.882	88.44
364.109	99.44
364.335	80.44
364.562	105.44
364.788	108.44
365.015	83.44
365.241	105.44
365.468	111.44
365.694	102.44
365.92	107.44
366.147	97.44
366.373	98.44
366.599	92.44
366.826	105.44
367.052	82.44
367.278	94.44
367.505	93.44
367.731	97.44
367.957	89.44
368.184	100.44
368.41	122.44
368.636	117.44
368.862	131.44
369.089	121.44
369.315	79.44
369.541	92.44
369.767	89.44
369.993	101.44
370.219	78.44
370.445	93.44
370.672	88.44
370.898	90.44
371.124	90.44
371.35	94.44
371.576	91.44
371.802	81.44
372.028	81.44
372.254	90.44
372.48	85.44
372.706	99.44
372.932	89.44
373.158	89.44
373.384	95.44
373.61	94.44
373.835	99.44
374.061	78.44
374.287	89.44
374.513	90.44
374.739	92.44
374.965	79.44
375.191	88.44
375.416	89.44
375.642	90.44
375.868	99.44
376.094	95.44
376.319	76.44
376.545	87.44
376.771	72.44
376.997	90.44
377.222	95.44
377.448	85.44
377.674	95.44
377.899	91.44
378.125	90.44
378.35	90.44
378.576	90.44
378.802	98.44
379.027	73.44
379.253	91.44
379.478	97.44
379.704	89.44
379.929	94.44
380.155	98.44
380.38	99.44
380.606	88.44
380.831	91.44
381.057	90.44
381.282	95.44
381.507	93.44
381.733	99.44
381.958	88.44
382.184	103.44
382.409	105.44
382.634	93.44
382.86	103.44
383.085	113.44
383.31	94.44
383.535	87.44
383.761	98.44
383.986	97.44
384.211	102.44
384.436	99.44
384.662	104.44
384.887	88.44
385.112	113.44
385.337	107.44
385.562	98.44
385.787	91.44
386.013	117.44
386.238	118.44
386.463	105.44
386.688	121.44
386.913	88.44
387.138	98.44
387.363	107.44
387.588	118.44
387.813	117.44
388.038	93.44
388.263	121.44
388.488	108.44
388.713	78.44
388.938	89.44
389.163	109.44
389.387	100.44
389.612	83.44
389.837	81.44
390.062	90.44
390.287	85.44
390.512	88.44
390.736	91.44
390.961	92.44
391.186	89.44
391.411	87.44
391.636	74.44
391.86	91.44
392.085	83.44
392.31	84.44
392.534	97.44
392.759	79.44
392.984	89.44
393.208	86.44
393.433	85.44
393.658	87.44
393.882	90.44
394.107	76.44
394.331	91.44
394.556	80.44
394.78	93.44
395.005	91.44
395.229	92.44
395.454	88.44
395.678	81.44
395.903	90.44
396.127	79.44
396.352	82.44
396.576	81.44
396.801	82.44
397.025	80.44
397.249	92.44
397.474	80.44
397.698	87.44
397.922	92.44
398.147	95.44
398.371	89.44
398.595	86.44
398.82	88.44
399.044	91.44
399.268	89.44
399.492	92.44
399.717	87.44
399.941	75.44
400.165	94.44
400.389	101.44
400.613	97.44
400.837	73.44
401.062	93.44
401.286	90.44
401.51	110.44
401.734	92.44
401.958	109.44
402.182	122.44
402.406	186.44
402.63	130.44
402.854	98.44
403.078	90.44
403.302	95.44
403.526	89.44
403.75	91.44
403.974	94.44
404.198	91.44
404.422	106.44
404.645	103.44
404.869	106.44
405.093	122.44
405.317	144.44
405.541	149.44
405.765	127.44
405.988	123.44
406.212	201.44
406.436	315.44
406.66	202.44
406.883	117.44
407.107	98.44
407.331	101.44
407.555	115.44
407.778	109.44
408.002	95.44
408.226	105.44
408.449	87.44
408.673	102.44
408.896	107.44
409.12	107.44
409.344	94.44
409.567	98.44
409.791	96.44
410.014	86.44
410.238	82.44
410.461	92.44
410.685	97.44
410.908	99.44
411.132	106.44
411.355	108.44
411.578	100.44
411.802	94.44
412.025	99.44
412.249	105.44
412.472	114.44
412.695	154.44
412.919	117.44
413.142	94.44
413.365	80.44
413.589	81.44
413.812	96.44
414.035	89.44
414.258	99.44
414.482	95.44
414.705	98.44
414.928	91.44
415.151	85.44
415.374	89.44
415.597	100.44
415.821	102.44
416.044	89.44
416.267	87.44
416.49	102.44
416.713	79.44
416.936	92.44
417.159	98.44
417.382	98.44
417.605	115.44
417.828	110.44
418.051	110.44
418.274	92.44
418.497	83.44
418.72	94.44
418.943	96.44
419.166	85.44
419.389	105.44
419.611	95.44
419.834	94.44
420.057	85.44
420.28	105.44
420.503	102.44
420.726	91.44
420.948	85.44
421.171	101.44
421.394	92.44
421.617	99.44
421.839	91.44
422.062	96.44
422.285	97.44
422.507	100.44
422.73	101.44
422.953	96.44
423.175	88.44
423.398	93.44
423.621	79.44
423.843	104.44
424.066	92.44
424.288	76.44
424.511	87.44
424.733	104.44
424.956	129.44
425.178	104.44
425.401	108.44
425.623	94.44
425.846	98.44
426.068	101.44
426.291	93.44
426.513	92.44
426.735	88.44
426.958	108.44
427.18	129.44
427.402	162.44
427.625	269.44
427.847	262.44
428.069	239.44
428.292	147.44
428.514	96.44
428.736	69.44
428.958	106.44
429.181	96.44
429.403	89.44
429.625	98.44
429.847	93.44
430.069	97.44
430.292	103.44
430.514	89.44
430.736	86.44
430.958	80.44
431.18	81.44
431.402	94.44
431.624	97.44
431.846	96.44
432.068	94.44
432.29	98.44
432.512	90.44
432.734	95.44
432.956	101.44
433.178	89.44
433.4	112.44
433.622	98.44
433.844	81.44
434.066	105.44
434.287	95.44
434.509	105.44
434.731	101.44
434.953	85.44
435.175	90.44
435.397	96.44
435.618	86.44
435.84	125.44
436.062	129.44
436.284	112.44
436.505	107.44
436.727	98.44
436.949	108.44
437.17	81.44
437.392	98.44
437.614	103.44
437.835	128.44
438.057	145.44
438.278	111.44
438.5	112.44
438.721	137.44
438.943	111.44
439.165	101.44
439.386	97.44
439.608	89.44
439.829	110.44
440.05	152.44
440.272	184.44
440.493	115.44
440.715	79.44
440.936	81.44
441.158	86.44
441.379	79.44
441.6	91.44
441.822	91.44
442.043	105.44
442.264	109.44
442.486	101.44
442.707	108.44
442.928	100.44
443.149	184.44
443.371	180.44
443.592	139.44
443.813	120.44
444.034	118.44
444.255	91.44
444.476	86.44
444.698	87.44
444.919	82.44
445.14	136.44
445.361	137.44
445.582	146.44
445.803	187.44
446.024	172.44
446.245	165.44
446.466	127.44
446.687	91.44
446.908	95.44
447.129	89.44
447.35	83.44
447.571	96.44
447.792	106.44
448.013	110.44
448.234	111.44
448.455	110.44
448.675	122.44
448.896	118.44
449.117	120.44
449.338	119.44
449.559	153.44
449.779	154.44
450	103.44
450.221	93.44
450.442	90.44
450.662	104.44
450.883	128.44
451.104	143.44
451.324	125.44
451.545	87.44
451.766	82.44
451.986	87.44
452.207	96.44
452.428	104.44
452.648	108.44
452.869	127.44
453.089	131.44
453.31	136.44
453.53	96.44
453.751	93.44
453.971	109.44
454.192	146.44
454.412	101.44
454.633	85.44
454.853	77.44
455.073	89.44
455.294	86.44
455.514	106.44
455.734	104.44
455.955	101.44
456.175	88.44
456.395	89.44
456.616	83.44
456.836	81.44
457.056	103.44
457.276	100.44
457.497	100.44
457.717	83.44
457.937	77.44
458.157	98.44
458.377	100.44
458.598	126.44
458.818	205.44
459.038	230.44
459.258	147.44
459.478	100.44
459.698	85.44
459.918	95.44
460.138	85.44
460.358	103.44
460.578	92.44
460.798	99.44
461.018	80.44
461.238	97.44
461.458	84.44
461.678	86.44
461.898	92.44
462.118	91.44
462.338	77.44
462.558	83.44
462.777	94.44
462.997	103.44
463.217	116.44
463.437	99.44
463.657	91.44
463.876	93.44
464.096	103.44
464.316	103.44
464.536	106.44
464.755	92.44
464.975	120.44
465.195	225.44
465.414	247.44
465.634	111.44
465.854	79.44
466.073	100.44
466.293	97.44
466.512	92.44
466.732	91.44
466.951	98.44
467.171	111.44
467.391	114.44
467.61	151.44
467.829	229.44
468.049	685.44
468.268	1029.44
468.488	261.44
468.707	119.44
468.927	97.44
469.146	105.44
469.365	105.44
469.585	95.44
469.804	110.44
470.023	106.44
470.243	113.44
470.462	123.44
470.681	139.44
470.901	108.44
471.12	99.44
471.339	124.44
471.558	148.44
471.777	167.44
471.997	349.44
472.216	1349.44
472.435	3178.44
472.654	716.44
472.873	177.44
473.092	114.44
473.311	109.44
473.53	91.44
473.749	104.44
473.968	111.44
474.187	129.44
474.406	105.44
474.625	108.44
474.844	102.44
475.063	94.44
475.282	83.44
475.501	98.44
475.72	89.44
475.939	95.44
476.158	94.44
476.377	90.44
476.596	91.44
476.814	106.44
477.033	90.44
477.252	111.44
477.471	94.44
477.69	81.44
477.908	97.44
478.127	103.44
478.346	97.44
478.564	102.44
478.783	117.44
479.002	112.44
479.22	109.44
479.439	123.44
479.658	135.44
479.876	133.44
480.095	117.44
480.313	136.44
480.532	169.44
480.751	317.44
480.969	1269.44
481.188	5489.44
481.406	3033.44
481.624	419.44
481.843	143.44
482.061	114.44
482.28	102.44
482.498	105.44
482.717	97.44
482.935	98.44
483.153	94.44
483.372	92.44
483.59	94.44
483.808	87.44
484.027	97.44
484.245	84.44
484.463	83.44
484.681	82.44
484.9	90.44
485.118	93.44
485.336	104.44
485.554	96.44
485.772	111.44
485.99	95.44
486.209	106.44
486.427	101.44
486.645	106.44
486.863	115.44
487.081	106.44
487.299	105.44
487.517	92.44
487.735	84.44
487.953	89.44
488.171	83.44
488.389	90.44
488.607	118.44
488.825	99.44
489.043	100.44
489.261	99.44
489.479	111.44
489.696	98.44
489.914	83.44
490.132	93.44
490.35	85.44
490.568	89.44
490.786	99.44
491.003	80.44
491.221	99.44
491.439	101.44
491.657	97.44
491.874	96.44
492.092	93.44
492.31	94.44
492.527	108.44
492.745	90.44
492.963	97.44
493.18	89.44
493.398	106.44
493.615	103.44
493.833	97.44
494.05	90.44
494.268	83.44
494.485	91.44
494.703	97.44
494.92	79.44
495.138	90.44
495.355	101.44
495.573	96.44
495.79	79.44
496.008	97.44
496.225	91.44
496.442	77.44
496.66	92.44
496.877	84.44
497.094	98.44
497.312	99.44
497.529	97.44
497.746	81.44
497.963	87.44
498.181	95.44
498.398	97.44
498.615	115.44
498.832	110.44
499.049	89.44
499.267	83.44
499.484	103.44
499.701	94.44
499.918	101.44
500.135	85.44
500.352	69.44
500.569	90.44
500.786	89.44
501.003	98.44
501.22	88.44
501.437	82.44
501.654	93.44
501.871	99.44
502.088	97.44
502.305	96.44
502.522	80.44
502.739	94.44
502.956	97.44
503.172	92.44
503.389	119.44
503.606	127.44
503.823	105.44
504.04	99.44
504.256	89.44
504.473	82.44
504.69	93.44
504.907	104.44
505.123	91.44
505.34	78.44
505.557	95.44
505.773	92.44
505.99	81.44
506.207	98.44
506.423	74.44
506.64	79.44
506.856	88.44
507.073	85.44
507.289	97.44
507.506	99.44
507.722	138.44
507.939	120.44
508.155	109.44
508.372	99.44
508.588	112.44
508.805	88.44
509.021	95.44
509.238	114.44
509.454	113.44
509.67	112.44
509.887	123.44
510.103	139.44
510.319	257.44
510.536	949.44
510.752	3380.44
510.968	870.44
511.184	201.44
511.401	124.44
511.617	117.44
511.833	104.44
512.049	102.44
512.265	90.44
512.481	101.44
512.698	98.44
