Data from Circ_1998_H10_HRD10591_00096.txt Node
Date: Wed Jan 03 11:27:08 EST 2024
User: Yrep
Spectrometer: HR+D1059
Trigger mode: 1
Integration Time (sec): 1.000000E-1
Scans to average: 1
Electric dark correction enabled: true
Nonlinearity correction enabled: false
Boxcar width: 0
XAxis mode: Wavelengths
Number of Pixels in Spectrum: 2048
>>>>>Begin Spectral Data<<<<<
223.165	-23.44
223.4	-23.44
223.635	-23.44
223.869	-12.44
224.104	-20.44
224.338	-11.44
224.573	-12.44
224.808	-17.44
225.042	-17.44
225.277	-8.44
225.511	3.56
225.746	2.56
225.98	10.56
226.215	-4.44
226.449	30.56
226.683	22.56
226.918	29.56
227.152	28.56
227.387	31.56
227.621	34.56
227.856	60.56
228.09	44.56
228.324	61.56
228.559	65.56
228.793	61.56
229.027	72.56
229.262	88.56
229.496	83.56
229.73	90.56
229.964	98.56
230.199	91.56
230.433	78.56
230.667	75.56
230.901	87.56
231.136	90.56
231.37	86.56
231.604	79.56
231.838	84.56
232.072	75.56
232.306	71.56
232.541	97.56
232.775	96.56
233.009	77.56
233.243	91.56
233.477	82.56
233.711	91.56
233.945	87.56
234.179	84.56
234.413	82.56
234.647	87.56
234.881	80.56
235.115	89.56
235.349	80.56
235.583	97.56
235.817	87.56
236.051	80.56
236.285	88.56
236.519	98.56
236.753	86.56
236.987	79.56
237.221	91.56
237.455	116.56
237.689	82.56
237.922	79.56
238.156	84.56
238.39	89.56
238.624	82.56
238.858	93.56
239.091	56.56
239.325	69.56
239.559	91.56
239.793	91.56
240.027	75.56
240.26	82.56
240.494	82.56
240.728	81.56
240.961	83.56
241.195	81.56
241.429	70.56
241.662	70.56
241.896	75.56
242.13	67.56
242.363	85.56
242.597	79.56
242.83	82.56
243.064	84.56
243.298	79.56
243.531	82.56
243.765	82.56
243.998	77.56
244.232	91.56
244.465	103.56
244.699	87.56
244.932	60.56
245.166	78.56
245.399	75.56
245.633	74.56
245.866	77.56
246.099	89.56
246.333	86.56
246.566	87.56
246.8	78.56
247.033	84.56
247.266	91.56
247.5	87.56
247.733	82.56
247.966	90.56
248.2	95.56
248.433	90.56
248.666	83.56
248.899	87.56
249.133	90.56
249.366	114.56
249.599	128.56
249.832	98.56
250.066	86.56
250.299	96.56
250.532	97.56
250.765	91.56
250.998	84.56
251.231	93.56
251.465	81.56
251.698	81.56
251.931	92.56
252.164	98.56
252.397	79.56
252.63	81.56
252.863	96.56
253.096	79.56
253.329	65.56
253.562	75.56
253.795	86.56
254.028	94.56
254.261	92.56
254.494	81.56
254.727	95.56
254.96	76.56
255.193	76.56
255.426	84.56
255.659	92.56
255.892	109.56
256.124	113.56
256.357	100.56
256.59	89.56
256.823	99.56
257.056	80.56
257.289	93.56
257.521	111.56
257.754	102.56
257.987	99.56
258.22	104.56
258.452	116.56
258.685	113.56
258.918	85.56
259.151	81.56
259.383	86.56
259.616	75.56
259.849	86.56
260.081	84.56
260.314	99.56
260.547	95.56
260.779	111.56
261.012	153.56
261.244	145.56
261.477	131.56
261.71	126.56
261.942	178.56
262.175	183.56
262.407	111.56
262.64	87.56
262.872	94.56
263.105	82.56
263.337	88.56
263.57	78.56
263.802	105.56
264.035	87.56
264.267	86.56
264.499	79.56
264.732	89.56
264.964	97.56
265.197	94.56
265.429	88.56
265.661	91.56
265.894	77.56
266.126	84.56
266.358	97.56
266.591	92.56
266.823	88.56
267.055	91.56
267.287	96.56
267.52	83.56
267.752	90.56
267.984	88.56
268.216	91.56
268.448	101.56
268.681	102.56
268.913	94.56
269.145	86.56
269.377	96.56
269.609	86.56
269.841	85.56
270.073	87.56
270.306	102.56
270.538	78.56
270.77	86.56
271.002	102.56
271.234	90.56
271.466	113.56
271.698	107.56
271.93	104.56
272.162	110.56
272.394	97.56
272.626	104.56
272.858	99.56
273.09	94.56
273.322	93.56
273.553	80.56
273.785	87.56
274.017	107.56
274.249	87.56
274.481	82.56
274.713	86.56
274.945	101.56
275.176	102.56
275.408	120.56
275.64	139.56
275.872	178.56
276.104	140.56
276.335	112.56
276.567	151.56
276.799	211.56
277.031	249.56
277.262	315.56
277.494	225.56
277.726	130.56
277.957	98.56
278.189	100.56
278.421	100.56
278.652	103.56
278.884	99.56
279.115	95.56
279.347	113.56
279.579	120.56
279.81	190.56
280.042	310.56
280.273	445.56
280.505	287.56
280.736	148.56
280.968	112.56
281.199	94.56
281.431	110.56
281.662	93.56
281.894	113.56
282.125	108.56
282.356	175.56
282.588	220.56
282.819	166.56
283.051	100.56
283.282	92.56
283.513	96.56
283.745	90.56
283.976	86.56
284.207	87.56
284.439	91.56
284.67	100.56
284.901	98.56
285.132	92.56
285.364	102.56
285.595	97.56
285.826	94.56
286.057	94.56
286.288	90.56
286.52	100.56
286.751	83.56
286.982	93.56
287.213	106.56
287.444	98.56
287.675	96.56
287.906	110.56
288.138	104.56
288.369	104.56
288.6	111.56
288.831	100.56
289.062	105.56
289.293	94.56
289.524	98.56
289.755	75.56
289.986	72.56
290.217	98.56
290.448	90.56
290.679	88.56
290.91	99.56
291.141	86.56
291.371	80.56
291.602	86.56
291.833	87.56
292.064	90.56
292.295	94.56
292.526	105.56
292.757	104.56
292.987	86.56
293.218	98.56
293.449	77.56
293.68	90.56
293.91	85.56
294.141	100.56
294.372	91.56
294.603	98.56
294.833	104.56
295.064	90.56
295.295	91.56
295.525	99.56
295.756	104.56
295.987	150.56
296.217	211.56
296.448	171.56
296.679	106.56
296.909	94.56
297.14	83.56
297.37	95.56
297.601	91.56
297.831	95.56
298.062	96.56
298.292	105.56
298.523	88.56
298.753	91.56
298.984	93.56
299.214	103.56
299.445	98.56
299.675	104.56
299.905	92.56
300.136	100.56
300.366	105.56
300.597	95.56
300.827	92.56
301.057	97.56
301.288	120.56
301.518	129.56
301.748	109.56
301.979	141.56
302.209	113.56
302.439	100.56
302.669	94.56
302.9	96.56
303.13	120.56
303.36	143.56
303.59	173.56
303.82	187.56
304.051	129.56
304.281	110.56
304.511	90.56
304.741	96.56
304.971	88.56
305.201	108.56
305.431	99.56
305.661	94.56
305.891	100.56
306.121	126.56
306.352	120.56
306.582	138.56
306.812	128.56
307.042	165.56
307.272	241.56
307.502	272.56
307.731	260.56
307.961	168.56
308.191	106.56
308.421	118.56
308.651	105.56
308.881	104.56
309.111	103.56
309.341	102.56
309.571	116.56
309.8	118.56
310.03	115.56
310.26	106.56
310.49	116.56
310.72	115.56
310.949	127.56
311.179	120.56
311.409	123.56
311.639	113.56
311.868	113.56
312.098	112.56
312.328	105.56
312.557	128.56
312.787	137.56
313.017	124.56
313.246	98.56
313.476	100.56
313.706	96.56
313.935	108.56
314.165	124.56
314.394	145.56
314.624	120.56
314.853	108.56
315.083	99.56
315.312	86.56
315.542	94.56
315.771	104.56
316.001	91.56
316.23	84.56
316.46	106.56
316.689	100.56
316.919	106.56
317.148	111.56
317.377	111.56
317.607	118.56
317.836	110.56
318.065	106.56
318.295	108.56
318.524	115.56
318.753	102.56
318.983	102.56
319.212	130.56
319.441	132.56
319.67	128.56
319.9	100.56
320.129	100.56
320.358	96.56
320.587	112.56
320.816	116.56
321.046	147.56
321.275	120.56
321.504	90.56
321.733	113.56
321.962	106.56
322.191	115.56
322.42	140.56
322.649	145.56
322.878	145.56
323.108	157.56
323.337	164.56
323.566	178.56
323.795	210.56
324.024	302.56
324.253	613.56
324.482	1314.56
324.71	2712.56
324.939	3550.56
325.168	1319.56
325.397	381.56
325.626	214.56
325.855	162.56
326.084	167.56
326.313	172.56
326.542	204.56
326.77	307.56
326.999	626.56
327.228	1309.56
327.457	2511.56
327.686	2037.56
327.914	782.56
328.143	918.56
328.372	1246.56
328.6	657.56
328.829	274.56
329.058	247.56
329.287	282.56
329.515	262.56
329.744	414.56
329.972	879.56
330.201	1914.56
330.43	2868.56
330.658	1182.56
330.887	449.56
331.115	262.56
331.344	154.56
331.572	161.56
331.801	172.56
332.03	153.56
332.258	126.56
332.486	127.56
332.715	135.56
332.943	134.56
333.172	147.56
333.4	169.56
333.629	223.56
333.857	363.56
334.085	748.56
334.314	1718.56
334.542	3442.56
334.771	3181.56
334.999	742.56
335.227	256.56
335.455	171.56
335.684	147.56
335.912	126.56
336.14	116.56
336.369	112.56
336.597	130.56
336.825	151.56
337.053	109.56
337.281	92.56
337.51	102.56
337.738	104.56
337.966	97.56
338.194	134.56
338.422	115.56
338.65	118.56
338.878	88.56
339.106	111.56
339.334	102.56
339.562	97.56
339.79	108.56
340.018	113.56
340.246	123.56
340.474	100.56
340.702	100.56
340.93	111.56
341.158	109.56
341.386	106.56
341.614	127.56
341.842	101.56
342.07	108.56
342.298	99.56
342.526	91.56
342.754	93.56
342.981	94.56
343.209	99.56
343.437	101.56
343.665	103.56
343.893	95.56
344.12	90.56
344.348	99.56
344.576	93.56
344.804	110.56
345.031	109.56
345.259	116.56
345.487	101.56
345.714	114.56
345.942	84.56
346.17	102.56
346.397	115.56
346.625	104.56
346.853	111.56
347.08	110.56
347.308	112.56
347.535	111.56
347.763	116.56
347.99	121.56
348.218	123.56
348.445	127.56
348.673	116.56
348.9	95.56
349.128	97.56
349.355	96.56
349.583	97.56
349.81	97.56
350.037	108.56
350.265	110.56
350.492	95.56
350.72	108.56
350.947	116.56
351.174	126.56
351.402	123.56
351.629	111.56
351.856	135.56
352.083	128.56
352.311	129.56
352.538	145.56
352.765	156.56
352.992	151.56
353.22	124.56
353.447	138.56
353.674	94.56
353.901	101.56
354.128	107.56
354.355	104.56
354.583	97.56
354.81	99.56
355.037	106.56
355.264	105.56
355.491	96.56
355.718	97.56
355.945	89.56
356.172	95.56
356.399	109.56
356.626	105.56
356.853	100.56
357.08	88.56
357.307	103.56
357.534	100.56
357.761	84.56
357.988	106.56
358.215	104.56
358.441	90.56
358.668	85.56
358.895	109.56
359.122	86.56
359.349	94.56
359.576	114.56
359.802	135.56
360.029	186.56
360.256	172.56
360.483	125.56
360.709	106.56
360.936	107.56
361.163	88.56
361.39	106.56
361.616	134.56
361.843	105.56
362.07	100.56
362.296	117.56
362.523	97.56
362.749	97.56
362.976	110.56
363.203	102.56
363.429	103.56
363.656	107.56
363.882	94.56
364.109	97.56
364.335	103.56
364.562	102.56
364.788	94.56
365.015	104.56
365.241	111.56
365.468	134.56
365.694	138.56
365.92	115.56
366.147	108.56
366.373	95.56
366.599	91.56
366.826	104.56
367.052	108.56
367.278	107.56
367.505	92.56
367.731	114.56
367.957	101.56
368.184	103.56
368.41	125.56
368.636	154.56
368.862	156.56
369.089	139.56
369.315	114.56
369.541	106.56
369.767	97.56
369.993	107.56
370.219	100.56
370.445	103.56
370.672	88.56
370.898	90.56
371.124	94.56
371.35	103.56
371.576	91.56
371.802	81.56
372.028	93.56
372.254	86.56
372.48	91.56
372.706	99.56
372.932	96.56
373.158	107.56
373.384	99.56
373.61	102.56
373.835	99.56
374.061	96.56
374.287	88.56
374.513	96.56
374.739	99.56
374.965	87.56
375.191	99.56
375.416	98.56
375.642	91.56
375.868	87.56
376.094	105.56
376.319	109.56
376.545	81.56
376.771	84.56
376.997	104.56
377.222	95.56
377.448	105.56
377.674	91.56
377.899	95.56
378.125	95.56
378.35	93.56
378.576	84.56
378.802	86.56
379.027	98.56
379.253	98.56
379.478	87.56
379.704	102.56
379.929	100.56
380.155	104.56
380.38	93.56
380.606	88.56
380.831	91.56
381.057	101.56
381.282	104.56
381.507	82.56
381.733	106.56
381.958	106.56
382.184	103.56
382.409	100.56
382.634	100.56
382.86	103.56
383.085	91.56
383.31	107.56
383.535	97.56
383.761	94.56
383.986	93.56
384.211	89.56
384.436	109.56
384.662	95.56
384.887	104.56
385.112	100.56
385.337	93.56
385.562	82.56
385.787	105.56
386.013	116.56
386.238	124.56
386.463	110.56
386.688	98.56
386.913	100.56
387.138	96.56
387.363	87.56
387.588	91.56
387.813	102.56
388.038	98.56
388.263	108.56
388.488	125.56
388.713	95.56
388.938	87.56
389.163	97.56
389.387	91.56
389.612	99.56
389.837	100.56
390.062	89.56
390.287	87.56
390.512	76.56
390.736	78.56
390.961	90.56
391.186	99.56
391.411	86.56
391.636	79.56
391.86	86.56
392.085	86.56
392.31	86.56
392.534	97.56
392.759	95.56
392.984	94.56
393.208	100.56
393.433	90.56
393.658	82.56
393.882	86.56
394.107	98.56
394.331	89.56
394.556	84.56
394.78	102.56
395.005	94.56
395.229	98.56
395.454	92.56
395.678	79.56
395.903	91.56
396.127	81.56
396.352	93.56
396.576	87.56
396.801	95.56
397.025	106.56
397.249	86.56
397.474	113.56
397.698	94.56
397.922	97.56
398.147	98.56
398.371	82.56
398.595	87.56
398.82	82.56
399.044	90.56
399.268	86.56
399.492	96.56
399.717	105.56
399.941	97.56
400.165	106.56
400.389	95.56
400.613	90.56
400.837	98.56
401.062	107.56
401.286	104.56
401.51	106.56
401.734	118.56
401.958	126.56
402.182	188.56
402.406	259.56
402.63	195.56
402.854	104.56
403.078	99.56
403.302	94.56
403.526	104.56
403.75	97.56
403.974	110.56
404.198	101.56
404.422	90.56
404.645	82.56
404.869	111.56
405.093	128.56
405.317	181.56
405.541	175.56
405.765	132.56
405.988	177.56
406.212	286.56
406.436	446.56
406.66	277.56
406.883	142.56
407.107	117.56
407.331	96.56
407.555	134.56
407.778	112.56
408.002	99.56
408.226	91.56
408.449	90.56
408.673	94.56
408.896	102.56
409.12	103.56
409.344	94.56
409.567	100.56
409.791	92.56
410.014	91.56
410.238	96.56
410.461	93.56
410.685	116.56
410.908	81.56
411.132	95.56
411.355	110.56
411.578	97.56
411.802	79.56
412.025	95.56
412.249	112.56
412.472	114.56
412.695	167.56
412.919	135.56
413.142	111.56
413.365	97.56
413.589	95.56
413.812	104.56
414.035	89.56
414.258	105.56
414.482	116.56
414.705	106.56
414.928	97.56
415.151	93.56
415.374	88.56
415.597	89.56
415.821	96.56
416.044	94.56
416.267	97.56
416.49	99.56
416.713	94.56
416.936	102.56
417.159	114.56
417.382	105.56
417.605	114.56
417.828	155.56
418.051	116.56
418.274	92.56
418.497	96.56
418.72	74.56
418.943	90.56
419.166	102.56
419.389	98.56
419.611	94.56
419.834	106.56
420.057	105.56
420.28	98.56
420.503	117.56
420.726	98.56
420.948	96.56
421.171	117.56
421.394	107.56
421.617	100.56
421.839	105.56
422.062	86.56
422.285	95.56
422.507	106.56
422.73	107.56
422.953	106.56
423.175	90.56
423.398	94.56
423.621	91.56
423.843	101.56
424.066	93.56
424.288	97.56
424.511	106.56
424.733	106.56
424.956	147.56
425.178	123.56
425.401	128.56
425.623	119.56
425.846	107.56
426.068	103.56
426.291	102.56
426.513	116.56
426.735	98.56
426.958	103.56
427.18	150.56
427.402	223.56
427.625	360.56
427.847	310.56
428.069	286.56
428.292	176.56
428.514	116.56
428.736	104.56
428.958	103.56
429.181	87.56
429.403	98.56
429.625	94.56
429.847	109.56
430.069	110.56
430.292	103.56
430.514	85.56
430.736	90.56
430.958	93.56
431.18	92.56
431.402	86.56
431.624	80.56
431.846	90.56
432.068	77.56
432.29	81.56
432.512	93.56
432.734	106.56
432.956	99.56
433.178	106.56
433.4	107.56
433.622	100.56
433.844	106.56
434.066	98.56
434.287	91.56
434.509	90.56
434.731	100.56
434.953	106.56
435.175	101.56
435.397	95.56
435.618	106.56
435.84	134.56
436.062	160.56
436.284	133.56
436.505	104.56
436.727	118.56
436.949	110.56
437.17	103.56
437.392	92.56
437.614	116.56
437.835	148.56
438.057	179.56
438.278	139.56
438.5	135.56
438.721	154.56
438.943	108.56
439.165	93.56
439.386	97.56
439.608	110.56
439.829	133.56
440.05	189.56
440.272	225.56
440.493	132.56
440.715	102.56
440.936	113.56
441.158	88.56
441.379	103.56
441.6	111.56
441.822	103.56
442.043	121.56
442.264	128.56
442.486	126.56
442.707	112.56
442.928	150.56
443.149	219.56
443.371	224.56
443.592	156.56
443.813	152.56
444.034	131.56
444.255	104.56
444.476	102.56
444.698	113.56
444.919	90.56
445.14	131.56
445.361	144.56
445.582	146.56
445.803	226.56
446.024	216.56
446.245	193.56
446.466	132.56
446.687	107.56
446.908	98.56
447.129	104.56
447.35	111.56
447.571	99.56
447.792	112.56
448.013	136.56
448.234	135.56
448.455	115.56
448.675	140.56
448.896	156.56
449.117	112.56
449.338	130.56
449.559	153.56
449.779	173.56
450	111.56
450.221	93.56
450.442	97.56
450.662	96.56
450.883	160.56
451.104	172.56
451.324	113.56
451.545	114.56
451.766	98.56
451.986	94.56
452.207	99.56
452.428	106.56
452.648	117.56
452.869	166.56
453.089	170.56
453.31	154.56
453.53	113.56
453.751	117.56
453.971	128.56
454.192	170.56
454.412	108.56
454.633	99.56
454.853	99.56
455.073	93.56
455.294	102.56
455.514	122.56
455.734	106.56
455.955	94.56
456.175	83.56
456.395	88.56
456.616	85.56
456.836	86.56
457.056	83.56
457.276	88.56
457.497	96.56
457.717	105.56
457.937	98.56
458.157	115.56
458.377	112.56
458.598	139.56
458.818	269.56
459.038	299.56
459.258	194.56
459.478	111.56
459.698	94.56
459.918	96.56
460.138	84.56
460.358	91.56
460.578	96.56
460.798	110.56
461.018	108.56
461.238	102.56
461.458	100.56
461.678	104.56
461.898	97.56
462.118	99.56
462.338	93.56
462.558	105.56
462.777	99.56
462.997	113.56
463.217	128.56
463.437	108.56
463.657	108.56
463.876	94.56
464.096	96.56
464.316	116.56
464.536	116.56
464.755	109.56
464.975	158.56
465.195	335.56
465.414	316.56
465.634	126.56
465.854	106.56
466.073	94.56
466.293	99.56
466.512	87.56
466.732	91.56
466.951	102.56
467.171	108.56
467.391	136.56
467.61	189.56
467.829	360.56
468.049	1153.56
468.268	1762.56
468.488	364.56
468.707	142.56
468.927	119.56
469.146	102.56
469.365	110.56
469.585	105.56
469.804	144.56
470.023	127.56
470.243	123.56
470.462	134.56
470.681	185.56
470.901	119.56
471.12	127.56
471.339	121.56
471.558	163.56
471.777	215.56
471.997	547.56
472.216	2211.56
472.435	5213.56
472.654	1055.56
472.873	259.56
473.092	154.56
473.311	120.56
473.53	100.56
473.749	99.56
473.968	117.56
474.187	136.56
474.406	125.56
474.625	95.56
474.844	90.56
475.063	103.56
475.282	108.56
475.501	97.56
475.72	91.56
475.939	98.56
476.158	97.56
476.377	103.56
476.596	91.56
476.814	119.56
477.033	111.56
477.252	107.56
477.471	102.56
477.69	109.56
477.908	114.56
478.127	110.56
478.346	102.56
478.564	109.56
478.783	129.56
479.002	139.56
479.22	120.56
479.439	156.56
479.658	160.56
479.876	149.56
480.095	171.56
480.313	189.56
480.532	240.56
480.751	468.56
480.969	1942.56
481.188	8707.56
481.406	4810.56
481.624	616.56
481.843	186.56
482.061	131.56
482.28	99.56
482.498	95.56
482.717	113.56
482.935	105.56
483.153	110.56
483.372	105.56
483.59	110.56
483.808	86.56
484.027	104.56
484.245	108.56
484.463	121.56
484.681	101.56
484.9	93.56
485.118	104.56
485.336	101.56
485.554	96.56
485.772	107.56
485.99	120.56
486.209	102.56
486.427	137.56
486.645	141.56
486.863	157.56
487.081	124.56
487.299	108.56
487.517	107.56
487.735	104.56
487.953	112.56
488.171	127.56
488.389	128.56
488.607	113.56
488.825	113.56
489.043	103.56
489.261	90.56
489.479	98.56
489.696	103.56
489.914	101.56
490.132	89.56
490.35	105.56
490.568	103.56
490.786	99.56
491.003	95.56
491.221	103.56
491.439	114.56
491.657	108.56
491.874	104.56
492.092	88.56
492.31	95.56
492.527	108.56
492.745	108.56
492.963	95.56
493.18	94.56
493.398	106.56
493.615	104.56
493.833	96.56
494.05	87.56
494.268	93.56
494.485	100.56
494.703	96.56
494.92	88.56
495.138	93.56
495.355	88.56
495.573	111.56
495.79	96.56
496.008	114.56
496.225	110.56
496.442	92.56
496.66	104.56
496.877	96.56
497.094	95.56
497.312	95.56
497.529	94.56
497.746	77.56
497.963	94.56
498.181	100.56
498.398	114.56
498.615	126.56
498.832	136.56
499.049	107.56
499.267	80.56
499.484	99.56
499.701	86.56
499.918	101.56
500.135	85.56
500.352	103.56
500.569	108.56
500.786	111.56
501.003	105.56
501.22	99.56
501.437	92.56
501.654	106.56
501.871	146.56
502.088	122.56
502.305	99.56
502.522	93.56
502.739	86.56
502.956	94.56
503.172	103.56
503.389	110.56
503.606	144.56
503.823	130.56
504.04	108.56
504.256	100.56
504.473	98.56
504.69	95.56
504.907	100.56
505.123	98.56
505.34	105.56
505.557	102.56
505.773	92.56
505.99	105.56
506.207	99.56
506.423	91.56
506.64	101.56
506.856	100.56
507.073	99.56
507.289	108.56
507.506	113.56
507.722	160.56
507.939	162.56
508.155	106.56
508.372	104.56
508.588	114.56
508.805	102.56
509.021	96.56
509.238	105.56
509.454	114.56
509.67	121.56
