Data from Circ_1998_H10_HRD10591_00046.txt Node
Date: Wed Jan 03 11:26:58 EST 2024
User: Yrep
Spectrometer: HR+D1059
Trigger mode: 1
Integration Time (sec): 1.000000E-1
Scans to average: 1
Electric dark correction enabled: true
Nonlinearity correction enabled: false
Boxcar width: 0
XAxis mode: Wavelengths
Number of Pixels in Spectrum: 2048
>>>>>Begin Spectral Data<<<<<
223.165	-25.38
223.4	-25.38
223.635	-25.38
223.869	-25.38
224.104	-9.38
224.338	-11.38
224.573	-12.38
224.808	-18.38
225.042	2.62
225.277	-1.38
225.511	-2.38
225.746	0.62
225.98	12.62
226.215	10.62
226.449	24.62
226.683	26.62
226.918	13.62
227.152	14.62
227.387	35.62
227.621	39.62
227.856	52.62
228.09	61.62
228.324	58.62
228.559	69.62
228.793	66.62
229.027	62.62
229.262	90.62
229.496	89.62
229.73	112.62
229.964	104.62
230.199	89.62
230.433	79.62
230.667	86.62
230.901	86.62
231.136	78.62
231.37	77.62
231.604	82.62
231.838	81.62
232.072	87.62
232.306	94.62
232.541	92.62
232.775	94.62
233.009	69.62
233.243	85.62
233.477	97.62
233.711	94.62
233.945	81.62
234.179	66.62
234.413	73.62
234.647	89.62
234.881	95.62
235.115	86.62
235.349	71.62
235.583	77.62
235.817	98.62
236.051	84.62
236.285	85.62
236.519	85.62
236.753	83.62
236.987	94.62
237.221	85.62
237.455	97.62
237.689	89.62
237.922	86.62
238.156	83.62
238.39	74.62
238.624	87.62
238.858	93.62
239.091	81.62
239.325	75.62
239.559	82.62
239.793	82.62
240.027	76.62
240.26	84.62
240.494	82.62
240.728	92.62
240.961	84.62
241.195	83.62
241.429	76.62
241.662	83.62
241.896	89.62
242.13	70.62
242.363	68.62
242.597	82.62
242.83	87.62
243.064	98.62
243.298	97.62
243.531	93.62
243.765	83.62
243.998	83.62
244.232	84.62
244.465	94.62
244.699	104.62
244.932	90.62
245.166	86.62
245.399	83.62
245.633	78.62
245.866	80.62
246.099	68.62
246.333	84.62
246.566	83.62
246.8	85.62
247.033	92.62
247.266	80.62
247.5	80.62
247.733	79.62
247.966	88.62
248.2	86.62
248.433	77.62
248.666	93.62
248.899	93.62
249.133	106.62
249.366	112.62
249.599	106.62
249.832	80.62
250.066	79.62
250.299	87.62
250.532	101.62
250.765	94.62
250.998	89.62
251.231	83.62
251.465	82.62
251.698	82.62
251.931	99.62
252.164	87.62
252.397	92.62
252.63	94.62
252.863	76.62
253.096	82.62
253.329	87.62
253.562	78.62
253.795	85.62
254.028	82.62
254.261	78.62
254.494	82.62
254.727	85.62
254.96	94.62
255.193	81.62
255.426	84.62
255.659	78.62
255.892	103.62
256.124	86.62
256.357	84.62
256.59	95.62
256.823	92.62
257.056	84.62
257.289	96.62
257.521	90.62
257.754	81.62
257.987	83.62
258.22	110.62
258.452	107.62
258.685	90.62
258.918	95.62
259.151	83.62
259.383	89.62
259.616	87.62
259.849	77.62
260.081	92.62
260.314	106.62
260.547	101.62
260.779	98.62
261.012	117.62
261.244	127.62
261.477	114.62
261.71	108.62
261.942	149.62
262.175	150.62
262.407	109.62
262.64	88.62
262.872	81.62
263.105	91.62
263.337	83.62
263.57	82.62
263.802	104.62
264.035	81.62
264.267	98.62
264.499	80.62
264.732	98.62
264.964	87.62
265.197	95.62
265.429	69.62
265.661	91.62
265.894	81.62
266.126	78.62
266.358	93.62
266.591	79.62
266.823	92.62
267.055	93.62
267.287	93.62
267.52	96.62
267.752	86.62
267.984	81.62
268.216	86.62
268.448	91.62
268.681	89.62
268.913	93.62
269.145	76.62
269.377	95.62
269.609	94.62
269.841	89.62
270.073	89.62
270.306	77.62
270.538	92.62
270.77	100.62
271.002	88.62
271.234	92.62
271.466	97.62
271.698	95.62
271.93	99.62
272.162	100.62
272.394	100.62
272.626	90.62
272.858	78.62
273.09	88.62
273.322	89.62
273.553	96.62
273.785	91.62
274.017	95.62
274.249	97.62
274.481	77.62
274.713	87.62
274.945	89.62
275.176	96.62
275.408	106.62
275.64	139.62
275.872	136.62
276.104	100.62
276.335	125.62
276.567	135.62
276.799	165.62
277.031	203.62
277.262	257.62
277.494	187.62
277.726	123.62
277.957	108.62
278.189	92.62
278.421	89.62
278.652	105.62
278.884	108.62
279.115	85.62
279.347	106.62
279.579	115.62
279.81	158.62
280.042	243.62
280.273	326.62
280.505	211.62
280.736	129.62
280.968	92.62
281.199	92.62
281.431	94.62
281.662	94.62
281.894	101.62
282.125	105.62
282.356	146.62
282.588	182.62
282.819	133.62
283.051	80.62
283.282	107.62
283.513	94.62
283.745	91.62
283.976	103.62
284.207	93.62
284.439	90.62
284.67	83.62
284.901	105.62
285.132	92.62
285.364	86.62
285.595	93.62
285.826	83.62
286.057	95.62
286.288	88.62
286.52	90.62
286.751	89.62
286.982	88.62
287.213	99.62
287.444	98.62
287.675	93.62
287.906	93.62
288.138	96.62
288.369	103.62
288.6	96.62
288.831	100.62
289.062	91.62
289.293	100.62
289.524	98.62
289.755	101.62
289.986	95.62
290.217	98.62
290.448	80.62
290.679	85.62
290.91	87.62
291.141	101.62
291.371	93.62
291.602	86.62
291.833	82.62
292.064	99.62
292.295	91.62
292.526	89.62
292.757	80.62
292.987	99.62
293.218	94.62
293.449	93.62
293.68	91.62
293.91	101.62
294.141	98.62
294.372	95.62
294.603	90.62
294.833	110.62
295.064	106.62
295.295	103.62
295.525	99.62
295.756	95.62
295.987	141.62
296.217	172.62
296.448	142.62
296.679	117.62
296.909	98.62
297.14	87.62
297.37	101.62
297.601	101.62
297.831	80.62
298.062	89.62
298.292	111.62
298.523	92.62
298.753	95.62
298.984	85.62
299.214	101.62
299.445	90.62
299.675	112.62
299.905	90.62
300.136	99.62
300.366	92.62
300.597	98.62
300.827	102.62
301.057	110.62
301.288	112.62
301.518	109.62
301.748	102.62
301.979	117.62
302.209	100.62
302.439	94.62
302.669	86.62
302.9	100.62
303.13	107.62
303.36	119.62
303.59	142.62
303.82	149.62
304.051	94.62
304.281	100.62
304.511	107.62
304.741	91.62
304.971	85.62
305.201	100.62
305.431	98.62
305.661	101.62
305.891	92.62
306.121	97.62
306.352	113.62
306.582	132.62
306.812	128.62
307.042	154.62
307.272	213.62
307.502	217.62
307.731	211.62
307.961	139.62
308.191	95.62
308.421	103.62
308.651	119.62
308.881	100.62
309.111	115.62
309.341	99.62
309.571	102.62
309.8	106.62
310.03	113.62
310.26	115.62
310.49	115.62
310.72	108.62
310.949	126.62
311.179	122.62
311.409	112.62
311.639	101.62
311.868	107.62
312.098	95.62
312.328	107.62
312.557	103.62
312.787	138.62
313.017	133.62
313.246	109.62
313.476	115.62
313.706	106.62
313.935	114.62
314.165	114.62
314.394	132.62
314.624	118.62
314.853	113.62
315.083	111.62
315.312	108.62
315.542	93.62
315.771	109.62
316.001	100.62
316.23	75.62
316.46	98.62
316.689	77.62
316.919	111.62
317.148	117.62
317.377	113.62
317.607	97.62
317.836	103.62
318.065	104.62
318.295	103.62
318.524	93.62
318.753	109.62
318.983	112.62
319.212	102.62
319.441	123.62
319.67	130.62
319.9	119.62
320.129	98.62
320.358	102.62
320.587	110.62
320.816	114.62
321.046	110.62
321.275	119.62
321.504	94.62
321.733	118.62
321.962	106.62
322.191	113.62
322.42	115.62
322.649	123.62
322.878	130.62
323.108	130.62
323.337	155.62
323.566	175.62
323.795	213.62
324.024	285.62
324.253	581.62
324.482	1275.62
324.71	2668.62
324.939	3558.62
325.168	1264.62
325.397	364.62
325.626	200.62
325.855	166.62
326.084	165.62
326.313	168.62
326.542	197.62
326.77	310.62
326.999	614.62
327.228	1386.62
327.457	2564.62
327.686	2073.62
327.914	716.62
328.143	691.62
328.372	897.62
328.6	482.62
328.829	218.62
329.058	238.62
329.287	228.62
329.515	219.62
329.744	315.62
329.972	664.62
330.201	1403.62
330.43	2045.62
330.658	857.62
330.887	364.62
331.115	231.62
331.344	147.62
331.572	127.62
331.801	142.62
332.03	143.62
332.258	129.62
332.486	133.62
332.715	109.62
332.943	131.62
333.172	140.62
333.4	140.62
333.629	198.62
333.857	294.62
334.085	576.62
334.314	1286.62
334.542	2573.62
334.771	2295.62
334.999	605.62
335.227	213.62
335.455	147.62
335.684	123.62
335.912	117.62
336.14	116.62
336.369	127.62
336.597	139.62
336.825	127.62
337.053	98.62
337.281	114.62
337.51	113.62
337.738	100.62
337.966	98.62
338.194	110.62
338.422	98.62
338.65	104.62
338.878	115.62
339.106	97.62
339.334	94.62
339.562	92.62
339.79	80.62
340.018	108.62
340.246	111.62
340.474	109.62
340.702	108.62
340.93	96.62
341.158	103.62
341.386	102.62
341.614	117.62
341.842	111.62
342.07	103.62
342.298	103.62
342.526	85.62
342.754	101.62
342.981	98.62
343.209	85.62
343.437	101.62
343.665	93.62
343.893	97.62
344.12	105.62
344.348	91.62
344.576	86.62
344.804	96.62
345.031	110.62
345.259	120.62
345.487	106.62
345.714	115.62
345.942	104.62
346.17	109.62
346.397	115.62
346.625	107.62
346.853	102.62
347.08	97.62
347.308	102.62
347.535	121.62
347.763	137.62
347.99	95.62
348.218	126.62
348.445	142.62
348.673	105.62
348.9	105.62
349.128	99.62
349.355	96.62
349.583	109.62
349.81	109.62
350.037	106.62
350.265	107.62
350.492	103.62
350.72	110.62
350.947	106.62
351.174	109.62
351.402	134.62
351.629	123.62
351.856	120.62
352.083	107.62
352.311	137.62
352.538	134.62
352.765	127.62
352.992	140.62
353.22	121.62
353.447	114.62
353.674	101.62
353.901	110.62
354.128	105.62
354.355	107.62
354.583	98.62
354.81	101.62
355.037	95.62
355.264	90.62
355.491	111.62
355.718	88.62
355.945	98.62
356.172	96.62
356.399	88.62
356.626	91.62
356.853	91.62
357.08	84.62
357.307	96.62
357.534	95.62
357.761	100.62
357.988	98.62
358.215	93.62
358.441	95.62
358.668	88.62
358.895	101.62
359.122	96.62
359.349	99.62
359.576	103.62
359.802	131.62
360.029	144.62
360.256	158.62
360.483	140.62
360.709	102.62
360.936	99.62
361.163	93.62
361.39	114.62
361.616	99.62
361.843	91.62
362.07	103.62
362.296	116.62
362.523	98.62
362.749	111.62
362.976	98.62
363.203	87.62
363.429	94.62
363.656	99.62
363.882	111.62
364.109	83.62
364.335	86.62
364.562	94.62
364.788	106.62
365.015	115.62
365.241	115.62
365.468	141.62
365.694	132.62
365.92	125.62
366.147	108.62
366.373	104.62
366.599	105.62
366.826	102.62
367.052	97.62
367.278	101.62
367.505	109.62
367.731	97.62
367.957	115.62
368.184	111.62
368.41	105.62
368.636	135.62
368.862	140.62
369.089	131.62
369.315	101.62
369.541	110.62
369.767	90.62
369.993	100.62
370.219	105.62
370.445	107.62
370.672	98.62
370.898	80.62
371.124	91.62
371.35	96.62
371.576	74.62
371.802	94.62
372.028	97.62
372.254	91.62
372.48	84.62
372.706	98.62
372.932	84.62
373.158	97.62
373.384	84.62
373.61	100.62
373.835	99.62
374.061	89.62
374.287	88.62
374.513	94.62
374.739	87.62
374.965	83.62
375.191	90.62
375.416	90.62
375.642	87.62
375.868	101.62
376.094	87.62
376.319	106.62
376.545	96.62
376.771	98.62
376.997	99.62
377.222	86.62
377.448	104.62
377.674	99.62
377.899	93.62
378.125	90.62
378.35	85.62
378.576	82.62
378.802	96.62
379.027	100.62
379.253	112.62
379.478	108.62
379.704	101.62
379.929	103.62
380.155	102.62
380.38	99.62
380.606	93.62
380.831	106.62
381.057	108.62
381.282	97.62
381.507	115.62
381.733	117.62
381.958	93.62
382.184	93.62
382.409	100.62
382.634	103.62
382.86	96.62
383.085	104.62
383.31	104.62
383.535	106.62
383.761	104.62
383.986	96.62
384.211	100.62
384.436	108.62
384.662	100.62
384.887	107.62
385.112	122.62
385.337	103.62
385.562	108.62
385.787	121.62
386.013	126.62
386.238	128.62
386.463	116.62
386.688	112.62
386.913	108.62
387.138	103.62
387.363	93.62
387.588	109.62
387.813	106.62
388.038	98.62
388.263	115.62
388.488	110.62
388.713	110.62
388.938	99.62
389.163	103.62
389.387	84.62
389.612	96.62
389.837	103.62
390.062	82.62
390.287	92.62
390.512	87.62
390.736	100.62
390.961	93.62
391.186	102.62
391.411	100.62
391.636	103.62
391.86	82.62
392.085	92.62
392.31	106.62
392.534	91.62
392.759	98.62
392.984	101.62
393.208	87.62
393.433	101.62
393.658	86.62
393.882	99.62
394.107	95.62
394.331	89.62
394.556	84.62
394.78	88.62
395.005	93.62
395.229	99.62
395.454	100.62
395.678	98.62
395.903	99.62
396.127	99.62
396.352	108.62
396.576	91.62
396.801	99.62
397.025	97.62
397.249	97.62
397.474	100.62
397.698	82.62
397.922	92.62
398.147	93.62
398.371	98.62
398.595	76.62
398.82	102.62
399.044	90.62
399.268	87.62
399.492	97.62
399.717	94.62
399.941	101.62
400.165	111.62
400.389	87.62
400.613	92.62
400.837	102.62
401.062	93.62
401.286	94.62
401.51	107.62
401.734	110.62
401.958	119.62
402.182	157.62
402.406	224.62
402.63	161.62
402.854	116.62
403.078	73.62
403.302	96.62
403.526	93.62
403.75	97.62
403.974	87.62
404.198	94.62
404.422	104.62
404.645	99.62
404.869	99.62
405.093	134.62
405.317	176.62
405.541	147.62
405.765	131.62
405.988	155.62
406.212	230.62
406.436	358.62
406.66	220.62
406.883	142.62
407.107	109.62
407.331	112.62
407.555	123.62
407.778	110.62
408.002	105.62
408.226	94.62
408.449	87.62
408.673	110.62
408.896	104.62
409.12	109.62
409.344	109.62
409.567	98.62
409.791	103.62
410.014	90.62
410.238	109.62
410.461	85.62
410.685	89.62
410.908	99.62
411.132	119.62
411.355	130.62
411.578	109.62
411.802	100.62
412.025	100.62
412.249	116.62
412.472	115.62
412.695	148.62
412.919	126.62
413.142	95.62
413.365	94.62
413.589	104.62
413.812	99.62
414.035	112.62
414.258	107.62
414.482	93.62
414.705	96.62
414.928	106.62
415.151	100.62
415.374	90.62
415.597	91.62
415.821	108.62
416.044	114.62
416.267	111.62
416.49	98.62
416.713	99.62
416.936	92.62
417.159	110.62
417.382	107.62
417.605	118.62
417.828	113.62
418.051	113.62
418.274	97.62
418.497	97.62
418.72	98.62
418.943	96.62
419.166	95.62
419.389	101.62
419.611	78.62
419.834	88.62
420.057	101.62
420.28	107.62
420.503	96.62
420.726	83.62
420.948	96.62
421.171	110.62
421.394	107.62
421.617	97.62
421.839	86.62
422.062	96.62
422.285	99.62
422.507	120.62
422.73	121.62
422.953	105.62
423.175	98.62
423.398	85.62
423.621	97.62
423.843	100.62
424.066	97.62
424.288	93.62
424.511	94.62
424.733	114.62
424.956	114.62
425.178	128.62
425.401	113.62
425.623	109.62
425.846	93.62
426.068	122.62
426.291	105.62
426.513	110.62
426.735	103.62
426.958	111.62
427.18	160.62
427.402	205.62
427.625	321.62
427.847	312.62
428.069	286.62
428.292	158.62
428.514	109.62
428.736	93.62
428.958	80.62
429.181	100.62
429.403	84.62
429.625	106.62
429.847	101.62
430.069	113.62
430.292	109.62
430.514	104.62
430.736	87.62
430.958	82.62
431.18	95.62
431.402	92.62
431.624	97.62
431.846	90.62
432.068	96.62
432.29	90.62
432.512	80.62
432.734	89.62
432.956	103.62
433.178	116.62
433.4	117.62
433.622	97.62
433.844	88.62
434.066	90.62
434.287	99.62
434.509	101.62
434.731	93.62
434.953	89.62
435.175	82.62
435.397	79.62
435.618	100.62
435.84	114.62
436.062	140.62
436.284	146.62
436.505	130.62
436.727	115.62
436.949	104.62
437.17	102.62
437.392	94.62
437.614	106.62
437.835	131.62
438.057	181.62
438.278	157.62
438.5	126.62
438.721	153.62
438.943	110.62
439.165	107.62
439.386	101.62
439.608	103.62
439.829	121.62
440.05	168.62
440.272	219.62
440.493	122.62
440.715	97.62
440.936	99.62
441.158	98.62
441.379	98.62
441.6	100.62
441.822	108.62
442.043	108.62
442.264	130.62
442.486	120.62
442.707	96.62
442.928	125.62
443.149	191.62
443.371	202.62
443.592	147.62
443.813	135.62
444.034	141.62
444.255	110.62
444.476	97.62
444.698	102.62
444.919	108.62
445.14	141.62
445.361	157.62
445.582	165.62
445.803	209.62
446.024	199.62
446.245	198.62
446.466	142.62
446.687	100.62
446.908	103.62
447.129	117.62
447.35	99.62
447.571	99.62
447.792	94.62
448.013	105.62
448.234	130.62
448.455	124.62
448.675	133.62
448.896	150.62
449.117	124.62
449.338	130.62
449.559	168.62
449.779	185.62
450	100.62
450.221	100.62
450.442	89.62
450.662	110.62
450.883	138.62
451.104	155.62
451.324	120.62
451.545	102.62
451.766	97.62
451.986	88.62
452.207	95.62
452.428	106.62
452.648	114.62
452.869	143.62
453.089	161.62
453.31	157.62
453.53	111.62
453.751	87.62
453.971	123.62
454.192	146.62
454.412	125.62
454.633	70.62
454.853	108.62
455.073	95.62
455.294	108.62
455.514	117.62
455.734	99.62
455.955	87.62
456.175	105.62
456.395	93.62
456.616	96.62
456.836	99.62
457.056	103.62
457.276	97.62
457.497	95.62
457.717	90.62
457.937	86.62
458.157	97.62
458.377	97.62
458.598	153.62
458.818	241.62
459.038	256.62
459.258	156.62
459.478	104.62
459.698	94.62
459.918	87.62
460.138	79.62
460.358	103.62
460.578	102.62
460.798	89.62
461.018	109.62
461.238	99.62
461.458	94.62
461.678	84.62
461.898	101.62
462.118	107.62
462.338	87.62
462.558	97.62
462.777	113.62
462.997	116.62
463.217	128.62
463.437	112.62
463.657	113.62
463.876	90.62
464.096	91.62
464.316	95.62
464.536	106.62
464.755	106.62
464.975	129.62
465.195	258.62
465.414	266.62
465.634	124.62
465.854	101.62
466.073	110.62
466.293	103.62
466.512	94.62
466.732	97.62
466.951	113.62
467.171	104.62
467.391	106.62
467.61	167.62
467.829	282.62
468.049	790.62
468.268	1229.62
468.488	288.62
468.707	122.62
468.927	107.62
469.146	93.62
469.365	111.62
469.585	103.62
469.804	108.62
470.023	125.62
470.243	108.62
470.462	131.62
470.681	159.62
470.901	109.62
471.12	104.62
471.339	121.62
471.558	129.62
471.777	189.62
471.997	402.62
472.216	1615.62
472.435	3641.62
472.654	797.62
472.873	197.62
473.092	130.62
473.311	115.62
473.53	107.62
473.749	109.62
473.968	127.62
474.187	137.62
474.406	113.62
474.625	85.62
474.844	98.62
475.063	97.62
475.282	94.62
475.501	105.62
475.72	106.62
475.939	94.62
476.158	93.62
476.377	104.62
476.596	95.62
476.814	104.62
477.033	109.62
477.252	85.62
477.471	95.62
477.69	89.62
477.908	100.62
478.127	111.62
478.346	103.62
478.564	112.62
478.783	111.62
479.002	107.62
479.22	114.62
479.439	146.62
479.658	153.62
479.876	152.62
480.095	141.62
480.313	169.62
480.532	209.62
480.751	378.62
480.969	1434.62
481.188	6325.62
481.406	3550.62
481.624	485.62
481.843	169.62
482.061	116.62
482.28	129.62
482.498	113.62
482.717	103.62
482.935	82.62
483.153	100.62
483.372	93.62
483.59	94.62
483.808	98.62
484.027	97.62
484.245	99.62
484.463	92.62
484.681	102.62
484.9	114.62
485.118	115.62
485.336	112.62
485.554	101.62
485.772	114.62
485.99	116.62
486.209	111.62
486.427	117.62
486.645	139.62
486.863	140.62
487.081	110.62
487.299	88.62
487.517	100.62
487.735	105.62
487.953	102.62
488.171	116.62
488.389	102.62
488.607	107.62
488.825	99.62
489.043	100.62
489.261	106.62
489.479	86.62
489.696	89.62
489.914	89.62
490.132	96.62
490.35	95.62
490.568	93.62
490.786	102.62
491.003	101.62
491.221	96.62
491.439	105.62
491.657	114.62
491.874	111.62
492.092	105.62
492.31	105.62
492.527	96.62
492.745	101.62
492.963	94.62
493.18	96.62
493.398	104.62
493.615	114.62
493.833	94.62
494.05	109.62
494.268	93.62
494.485	101.62
494.703	98.62
494.92	89.62
495.138	111.62
495.355	89.62
495.573	94.62
495.79	102.62
496.008	111.62
496.225	101.62
496.442	89.62
496.66	93.62
496.877	110.62
497.094	91.62
497.312	91.62
497.529	104.62
497.746	108.62
497.963	103.62
498.181	112.62
498.398	117.62
498.615	130.62
498.832	123.62
499.049	96.62
499.267	95.62
499.484	99.62
499.701	99.62
499.918	101.62
500.135	94.62
500.352	103.62
500.569	107.62
500.786	103.62
501.003	113.62
501.22	97.62
501.437	102.62
501.654	112.62
501.871	131.62
502.088	111.62
502.305	101.62
502.522	84.62
502.739	94.62
502.956	96.62
503.172	93.62
503.389	119.62
503.606	119.62
503.823	100.62
504.04	87.62
504.256	97.62
504.473	113.62
504.69	85.62
504.907	125.62
505.123	110.62
505.34	110.62
505.557	87.62
505.773	98.62
505.99	96.62
506.207	82.62
506.423	87.62
506.64	101.62
506.856	98.62
507.073	96.62
507.289	99.62
507.506	111.62
507.722	163.62
507.939	147.62
508.155	109.62
508.372	99.62
508.588	111.62
508.805	123.62
509.021	102.62
509.238	122.62
509.454	101.62
509.67	115.62
509.887	128.62
510.103	167.62
