Data from Circ_1998_H10_HRD10591_00084.txt Node
Date: Wed Jan 03 11:27:05 EST 2024
User: Yrep
Spectrometer: HR+D1059
Trigger mode: 1
Integration Time (sec): 1.000000E-1
Scans to average: 1
Electric dark correction enabled: true
Nonlinearity correction enabled: false
Boxcar width: 0
XAxis mode: Wavelengths
Number of Pixels in Spectrum: 2048
>>>>>Begin Spectral Data<<<<<
223.165	-11.38
223.4	-11.38
223.635	-11.38
223.869	-5.38
224.104	-21.38
224.338	-18.38
224.573	-16.38
224.808	-10.38
225.042	-10.38
225.277	-4.38
225.511	-5.38
225.746	-3.38
225.98	20.62
226.215	3.62
226.449	9.62
226.683	14.62
226.918	23.62
227.152	34.62
227.387	36.62
227.621	35.62
227.856	62.62
228.09	50.62
228.324	59.62
228.559	69.62
228.793	62.62
229.027	52.62
229.262	67.62
229.496	76.62
229.73	80.62
229.964	100.62
230.199	77.62
230.433	76.62
230.667	87.62
230.901	89.62
231.136	71.62
231.37	69.62
231.604	98.62
231.838	79.62
232.072	93.62
232.306	101.62
232.541	84.62
232.775	94.62
233.009	76.62
233.243	71.62
233.477	74.62
233.711	82.62
233.945	82.62
234.179	84.62
234.413	82.62
234.647	75.62
234.881	85.62
235.115	71.62
235.349	88.62
235.583	89.62
235.817	69.62
236.051	75.62
236.285	83.62
236.519	73.62
236.753	73.62
236.987	82.62
237.221	83.62
237.455	80.62
237.689	84.62
237.922	77.62
238.156	96.62
238.39	83.62
238.624	83.62
238.858	68.62
239.091	84.62
239.325	83.62
239.559	99.62
239.793	99.62
240.027	73.62
240.26	89.62
240.494	80.62
240.728	90.62
240.961	88.62
241.195	91.62
241.429	78.62
241.662	85.62
241.896	71.62
242.13	69.62
242.363	76.62
242.597	80.62
242.83	83.62
243.064	83.62
243.298	75.62
243.531	91.62
243.765	88.62
243.998	103.62
244.232	95.62
244.465	99.62
244.699	97.62
244.932	104.62
245.166	85.62
245.399	92.62
245.633	80.62
245.866	89.62
246.099	75.62
246.333	82.62
246.566	88.62
246.8	79.62
247.033	88.62
247.266	74.62
247.5	77.62
247.733	76.62
247.966	71.62
248.2	82.62
248.433	78.62
248.666	75.62
248.899	78.62
249.133	106.62
249.366	108.62
249.599	106.62
249.832	103.62
250.066	92.62
250.299	77.62
250.532	85.62
250.765	99.62
250.998	77.62
251.231	81.62
251.465	95.62
251.698	98.62
251.931	91.62
252.164	92.62
252.397	90.62
252.63	84.62
252.863	91.62
253.096	77.62
253.329	96.62
253.562	90.62
253.795	90.62
254.028	76.62
254.261	81.62
254.494	79.62
254.727	86.62
254.96	80.62
255.193	71.62
255.426	75.62
255.659	95.62
255.892	100.62
256.124	107.62
256.357	89.62
256.59	71.62
256.823	93.62
257.056	98.62
257.289	104.62
257.521	99.62
257.754	79.62
257.987	83.62
258.22	91.62
258.452	112.62
258.685	106.62
258.918	100.62
259.151	89.62
259.383	76.62
259.616	96.62
259.849	88.62
260.081	94.62
260.314	89.62
260.547	85.62
260.779	96.62
261.012	127.62
261.244	134.62
261.477	119.62
261.71	105.62
261.942	155.62
262.175	138.62
262.407	94.62
262.64	79.62
262.872	96.62
263.105	95.62
263.337	84.62
263.57	86.62
263.802	90.62
264.035	88.62
264.267	92.62
264.499	91.62
264.732	98.62
264.964	84.62
265.197	90.62
265.429	89.62
265.661	90.62
265.894	83.62
266.126	99.62
266.358	92.62
266.591	100.62
266.823	95.62
267.055	91.62
267.287	89.62
267.52	104.62
267.752	99.62
267.984	83.62
268.216	83.62
268.448	99.62
268.681	96.62
268.913	76.62
269.145	89.62
269.377	87.62
269.609	103.62
269.841	104.62
270.073	91.62
270.306	93.62
270.538	85.62
270.77	98.62
271.002	87.62
271.234	83.62
271.466	100.62
271.698	91.62
271.93	90.62
272.162	83.62
272.394	87.62
272.626	87.62
272.858	89.62
273.09	98.62
273.322	84.62
273.553	81.62
273.785	100.62
274.017	91.62
274.249	87.62
274.481	90.62
274.713	87.62
274.945	87.62
275.176	88.62
275.408	99.62
275.64	120.62
275.872	156.62
276.104	111.62
276.335	120.62
276.567	135.62
276.799	175.62
277.031	215.62
277.262	247.62
277.494	188.62
277.726	109.62
277.957	86.62
278.189	105.62
278.421	109.62
278.652	99.62
278.884	91.62
279.115	107.62
279.347	103.62
279.579	113.62
279.81	161.62
280.042	246.62
280.273	363.62
280.505	242.62
280.736	120.62
280.968	107.62
281.199	109.62
281.431	95.62
281.662	103.62
281.894	105.62
282.125	127.62
282.356	136.62
282.588	188.62
282.819	135.62
283.051	103.62
283.282	96.62
283.513	99.62
283.745	92.62
283.976	93.62
284.207	92.62
284.439	97.62
284.67	92.62
284.901	92.62
285.132	91.62
285.364	85.62
285.595	88.62
285.826	87.62
286.057	81.62
286.288	81.62
286.52	98.62
286.751	94.62
286.982	84.62
287.213	91.62
287.444	83.62
287.675	100.62
287.906	92.62
288.138	94.62
288.369	92.62
288.6	107.62
288.831	91.62
289.062	87.62
289.293	105.62
289.524	93.62
289.755	97.62
289.986	84.62
290.217	94.62
290.448	89.62
290.679	95.62
290.91	82.62
291.141	88.62
291.371	77.62
291.602	96.62
291.833	83.62
292.064	106.62
292.295	85.62
292.526	89.62
292.757	86.62
292.987	89.62
293.218	94.62
293.449	89.62
293.68	97.62
293.91	84.62
294.141	95.62
294.372	72.62
294.603	97.62
294.833	90.62
295.064	94.62
295.295	92.62
295.525	103.62
295.756	109.62
295.987	139.62
296.217	185.62
296.448	169.62
296.679	96.62
296.909	81.62
297.14	90.62
297.37	95.62
297.601	101.62
297.831	87.62
298.062	100.62
298.292	101.62
298.523	92.62
298.753	80.62
298.984	81.62
299.214	99.62
299.445	101.62
299.675	91.62
299.905	110.62
300.136	89.62
300.366	80.62
300.597	103.62
300.827	109.62
301.057	106.62
301.288	116.62
301.518	102.62
301.748	122.62
301.979	116.62
302.209	107.62
302.439	98.62
302.669	100.62
302.9	99.62
303.13	104.62
303.36	118.62
303.59	151.62
303.82	173.62
304.051	125.62
304.281	89.62
304.511	87.62
304.741	93.62
304.971	97.62
305.201	96.62
305.431	107.62
305.661	96.62
305.891	96.62
306.121	109.62
306.352	111.62
306.582	130.62
306.812	140.62
307.042	152.62
307.272	201.62
307.502	226.62
307.731	242.62
307.961	159.62
308.191	101.62
308.421	87.62
308.651	95.62
308.881	107.62
309.111	104.62
309.341	113.62
309.571	109.62
309.8	111.62
310.03	104.62
310.26	121.62
310.49	106.62
310.72	124.62
310.949	114.62
311.179	120.62
311.409	104.62
311.639	92.62
311.868	106.62
312.098	104.62
312.328	110.62
312.557	120.62
312.787	109.62
313.017	109.62
313.246	111.62
313.476	107.62
313.706	104.62
313.935	101.62
314.165	100.62
314.394	122.62
314.624	112.62
314.853	117.62
315.083	89.62
315.312	81.62
315.542	109.62
315.771	98.62
316.001	89.62
316.23	100.62
316.46	100.62
316.689	105.62
316.919	105.62
317.148	111.62
317.377	111.62
317.607	101.62
317.836	107.62
318.065	95.62
318.295	100.62
318.524	92.62
318.753	109.62
318.983	104.62
319.212	114.62
319.441	126.62
319.67	129.62
319.9	107.62
320.129	102.62
320.358	100.62
320.587	99.62
320.816	111.62
321.046	118.62
321.275	123.62
321.504	97.62
321.733	109.62
321.962	122.62
322.191	120.62
322.42	137.62
322.649	135.62
322.878	108.62
323.108	142.62
323.337	149.62
323.566	169.62
323.795	195.62
324.024	271.62
324.253	482.62
324.482	1111.62
324.71	2320.62
324.939	3037.62
325.168	1125.62
325.397	332.62
325.626	189.62
325.855	138.62
326.084	156.62
326.313	144.62
326.542	188.62
326.77	287.62
326.999	566.62
327.228	1174.62
327.457	2175.62
327.686	1711.62
327.914	681.62
328.143	735.62
328.372	989.62
328.6	520.62
328.829	233.62
329.058	217.62
329.287	240.62
329.515	206.62
329.744	334.62
329.972	709.62
330.201	1496.62
330.43	2199.62
330.658	911.62
330.887	343.62
331.115	212.62
331.344	163.62
331.572	146.62
331.801	150.62
332.03	136.62
332.258	130.62
332.486	105.62
332.715	122.62
332.943	129.62
333.172	135.62
333.4	154.62
333.629	188.62
333.857	297.62
334.085	591.62
334.314	1341.62
334.542	2675.62
334.771	2490.62
334.999	606.62
335.227	216.62
335.455	166.62
335.684	131.62
335.912	122.62
336.14	121.62
336.369	112.62
336.597	125.62
336.825	108.62
337.053	104.62
337.281	99.62
337.51	83.62
337.738	114.62
337.966	97.62
338.194	111.62
338.422	112.62
338.65	101.62
338.878	105.62
339.106	110.62
339.334	101.62
339.562	105.62
339.79	96.62
340.018	110.62
340.246	101.62
340.474	103.62
340.702	106.62
340.93	97.62
341.158	112.62
341.386	107.62
341.614	108.62
341.842	116.62
342.07	116.62
342.298	95.62
342.526	99.62
342.754	90.62
342.981	106.62
343.209	100.62
343.437	102.62
343.665	91.62
343.893	93.62
344.12	86.62
344.348	83.62
344.576	88.62
344.804	95.62
345.031	101.62
345.259	121.62
345.487	102.62
345.714	98.62
345.942	85.62
346.17	92.62
346.397	99.62
346.625	109.62
346.853	114.62
347.08	104.62
347.308	102.62
347.535	114.62
347.763	116.62
347.99	115.62
348.218	125.62
348.445	130.62
348.673	119.62
348.9	102.62
349.128	94.62
349.355	99.62
349.583	101.62
349.81	108.62
350.037	88.62
350.265	87.62
350.492	88.62
350.72	92.62
350.947	111.62
351.174	129.62
351.402	126.62
351.629	109.62
351.856	107.62
352.083	127.62
352.311	120.62
352.538	146.62
352.765	121.62
352.992	124.62
353.22	117.62
353.447	112.62
353.674	115.62
353.901	97.62
354.128	108.62
354.355	98.62
354.583	93.62
354.81	94.62
355.037	103.62
355.264	95.62
355.491	81.62
355.718	84.62
355.945	98.62
356.172	108.62
356.399	95.62
356.626	84.62
356.853	95.62
357.08	104.62
357.307	100.62
357.534	99.62
357.761	83.62
357.988	88.62
358.215	90.62
358.441	83.62
358.668	94.62
358.895	93.62
359.122	83.62
359.349	95.62
359.576	107.62
359.802	110.62
360.029	138.62
360.256	143.62
360.483	121.62
360.709	95.62
360.936	114.62
361.163	106.62
361.39	97.62
361.616	109.62
361.843	93.62
362.07	104.62
362.296	106.62
362.523	106.62
362.749	106.62
362.976	94.62
363.203	101.62
363.429	96.62
363.656	105.62
363.882	101.62
364.109	101.62
364.335	97.62
364.562	109.62
364.788	112.62
365.015	105.62
365.241	128.62
365.468	134.62
365.694	131.62
365.92	101.62
366.147	101.62
366.373	96.62
366.599	104.62
366.826	97.62
367.052	96.62
367.278	81.62
367.505	99.62
367.731	105.62
367.957	118.62
368.184	106.62
368.41	109.62
368.636	118.62
368.862	146.62
369.089	147.62
369.315	97.62
369.541	110.62
369.767	93.62
369.993	105.62
370.219	82.62
370.445	93.62
370.672	85.62
370.898	87.62
371.124	93.62
371.35	73.62
371.576	90.62
371.802	97.62
372.028	105.62
372.254	91.62
372.48	84.62
372.706	95.62
372.932	104.62
373.158	97.62
373.384	100.62
373.61	84.62
373.835	89.62
374.061	81.62
374.287	97.62
374.513	105.62
374.739	112.62
374.965	84.62
375.191	91.62
375.416	93.62
375.642	92.62
375.868	86.62
376.094	105.62
376.319	99.62
376.545	89.62
376.771	89.62
376.997	107.62
377.222	102.62
377.448	97.62
377.674	93.62
377.899	91.62
378.125	88.62
378.35	97.62
378.576	83.62
378.802	90.62
379.027	99.62
379.253	97.62
379.478	103.62
379.704	95.62
379.929	109.62
380.155	97.62
380.38	111.62
380.606	107.62
380.831	106.62
381.057	94.62
381.282	100.62
381.507	102.62
381.733	107.62
381.958	95.62
382.184	97.62
382.409	97.62
382.634	113.62
382.86	96.62
383.085	105.62
383.31	106.62
383.535	95.62
383.761	100.62
383.986	110.62
384.211	95.62
384.436	104.62
384.662	95.62
384.887	93.62
385.112	92.62
385.337	110.62
385.562	105.62
385.787	103.62
386.013	118.62
386.238	121.62
386.463	111.62
386.688	102.62
386.913	95.62
387.138	107.62
387.363	102.62
387.588	94.62
387.813	90.62
388.038	90.62
388.263	99.62
388.488	110.62
388.713	91.62
388.938	92.62
389.163	94.62
389.387	96.62
389.612	101.62
389.837	88.62
390.062	84.62
390.287	84.62
390.512	85.62
390.736	96.62
390.961	99.62
391.186	91.62
391.411	99.62
391.636	92.62
391.86	96.62
392.085	83.62
392.31	96.62
392.534	88.62
392.759	100.62
392.984	92.62
393.208	100.62
393.433	101.62
393.658	84.62
393.882	100.62
394.107	80.62
394.331	83.62
394.556	86.62
394.78	97.62
395.005	88.62
395.229	98.62
395.454	83.62
395.678	111.62
395.903	77.62
396.127	95.62
396.352	93.62
396.576	87.62
396.801	97.62
397.025	82.62
397.249	98.62
397.474	89.62
397.698	87.62
397.922	108.62
398.147	96.62
398.371	88.62
398.595	79.62
398.82	89.62
399.044	91.62
399.268	83.62
399.492	97.62
399.717	92.62
399.941	98.62
400.165	93.62
400.389	85.62
400.613	95.62
400.837	107.62
401.062	89.62
401.286	95.62
401.51	89.62
401.734	107.62
401.958	113.62
402.182	179.62
402.406	224.62
402.63	164.62
402.854	118.62
403.078	98.62
403.302	88.62
403.526	103.62
403.75	98.62
403.974	86.62
404.198	87.62
404.422	99.62
404.645	109.62
404.869	105.62
405.093	127.62
405.317	136.62
405.541	149.62
405.765	117.62
405.988	138.62
406.212	241.62
406.436	365.62
406.66	246.62
406.883	122.62
407.107	104.62
407.331	123.62
407.555	128.62
407.778	114.62
408.002	104.62
408.226	87.62
408.449	98.62
408.673	97.62
408.896	112.62
409.12	108.62
409.344	92.62
409.567	87.62
409.791	89.62
410.014	87.62
410.238	98.62
410.461	87.62
410.685	85.62
410.908	115.62
411.132	121.62
411.355	106.62
411.578	91.62
411.802	104.62
412.025	96.62
412.249	100.62
412.472	124.62
412.695	135.62
412.919	119.62
413.142	94.62
413.365	97.62
413.589	92.62
413.812	99.62
414.035	83.62
414.258	91.62
414.482	95.62
414.705	94.62
414.928	100.62
415.151	90.62
415.374	87.62
415.597	92.62
415.821	92.62
416.044	105.62
416.267	89.62
416.49	99.62
416.713	91.62
416.936	105.62
417.159	92.62
417.382	97.62
417.605	108.62
417.828	129.62
418.051	103.62
418.274	105.62
418.497	95.62
418.72	89.62
418.943	92.62
419.166	77.62
419.389	107.62
419.611	94.62
419.834	100.62
420.057	91.62
420.28	99.62
420.503	87.62
420.726	92.62
420.948	111.62
421.171	115.62
421.394	111.62
421.617	89.62
421.839	88.62
422.062	98.62
422.285	111.62
422.507	104.62
422.73	116.62
422.953	94.62
423.175	83.62
423.398	93.62
423.621	86.62
423.843	82.62
424.066	102.62
424.288	96.62
424.511	89.62
424.733	117.62
424.956	115.62
425.178	119.62
425.401	118.62
425.623	109.62
425.846	93.62
426.068	100.62
426.291	89.62
426.513	86.62
426.735	88.62
426.958	107.62
427.18	116.62
427.402	193.62
427.625	292.62
427.847	283.62
428.069	240.62
428.292	143.62
428.514	106.62
428.736	96.62
428.958	99.62
429.181	96.62
429.403	96.62
429.625	100.62
429.847	106.62
430.069	118.62
430.292	104.62
430.514	110.62
430.736	98.62
430.958	77.62
431.18	79.62
431.402	84.62
431.624	87.62
431.846	94.62
432.068	116.62
432.29	101.62
432.512	87.62
432.734	81.62
432.956	89.62
433.178	100.62
433.4	103.62
433.622	94.62
433.844	83.62
434.066	101.62
434.287	104.62
434.509	95.62
434.731	101.62
434.953	100.62
435.175	100.62
435.397	103.62
435.618	106.62
435.84	115.62
436.062	152.62
436.284	127.62
436.505	98.62
436.727	92.62
436.949	93.62
437.17	100.62
437.392	89.62
437.614	100.62
437.835	137.62
438.057	154.62
438.278	142.62
438.5	119.62
438.721	146.62
438.943	109.62
439.165	85.62
439.386	83.62
439.608	102.62
439.829	124.62
440.05	147.62
440.272	177.62
440.493	115.62
440.715	92.62
440.936	96.62
441.158	89.62
441.379	92.62
441.6	111.62
441.822	113.62
442.043	108.62
442.264	129.62
442.486	135.62
442.707	97.62
442.928	126.62
443.149	187.62
443.371	175.62
443.592	135.62
443.813	124.62
444.034	121.62
444.255	97.62
444.476	91.62
444.698	100.62
444.919	97.62
445.14	124.62
445.361	136.62
445.582	131.62
445.803	185.62
446.024	186.62
446.245	175.62
446.466	113.62
446.687	91.62
446.908	101.62
447.129	93.62
447.35	96.62
447.571	99.62
447.792	96.62
448.013	125.62
448.234	135.62
448.455	141.62
448.675	130.62
448.896	139.62
449.117	103.62
449.338	120.62
449.559	150.62
449.779	161.62
450	101.62
450.221	90.62
450.442	87.62
450.662	108.62
450.883	123.62
451.104	157.62
451.324	112.62
451.545	108.62
451.766	100.62
451.986	96.62
452.207	92.62
452.428	97.62
452.648	125.62
452.869	136.62
453.089	144.62
453.31	160.62
453.53	109.62
453.751	112.62
453.971	131.62
454.192	148.62
454.412	113.62
454.633	107.62
454.853	105.62
455.073	87.62
455.294	97.62
455.514	110.62
455.734	89.62
455.955	83.62
456.175	81.62
456.395	94.62
456.616	86.62
456.836	88.62
457.056	98.62
457.276	77.62
457.497	92.62
457.717	77.62
457.937	94.62
458.157	100.62
458.377	103.62
458.598	130.62
458.818	238.62
459.038	258.62
459.258	165.62
459.478	111.62
459.698	93.62
459.918	106.62
460.138	91.62
460.358	86.62
460.578	98.62
460.798	98.62
461.018	107.62
461.238	100.62
461.458	90.62
461.678	90.62
461.898	104.62
462.118	90.62
462.338	84.62
462.558	107.62
462.777	98.62
462.997	120.62
463.217	128.62
463.437	94.62
463.657	89.62
463.876	103.62
464.096	98.62
464.316	113.62
464.536	95.62
464.755	107.62
464.975	139.62
465.195	264.62
465.414	279.62
465.634	130.62
465.854	98.62
466.073	96.62
466.293	111.62
466.512	86.62
466.732	106.62
466.951	103.62
467.171	112.62
467.391	120.62
467.61	156.62
467.829	285.62
468.049	915.62
468.268	1412.62
468.488	311.62
468.707	134.62
468.927	103.62
469.146	92.62
469.365	119.62
469.585	110.62
469.804	126.62
470.023	125.62
470.243	115.62
470.462	115.62
470.681	160.62
470.901	134.62
471.12	108.62
471.339	130.62
471.558	147.62
471.777	193.62
471.997	455.62
472.216	1784.62
472.435	4167.62
472.654	881.62
472.873	225.62
473.092	130.62
473.311	115.62
473.53	103.62
473.749	101.62
473.968	129.62
474.187	128.62
474.406	109.62
474.625	115.62
474.844	101.62
475.063	103.62
475.282	100.62
475.501	100.62
475.72	105.62
475.939	107.62
476.158	98.62
476.377	103.62
476.596	106.62
476.814	106.62
477.033	101.62
477.252	96.62
477.471	92.62
477.69	111.62
477.908	112.62
478.127	104.62
478.346	107.62
478.564	108.62
478.783	124.62
479.002	107.62
479.22	109.62
479.439	125.62
479.658	165.62
479.876	145.62
480.095	146.62
480.313	177.62
480.532	212.62
480.751	398.62
480.969	1573.62
481.188	7002.62
481.406	3830.62
481.624	512.62
481.843	169.62
482.061	135.62
482.28	113.62
482.498	109.62
482.717	99.62
482.935	91.62
483.153	108.62
483.372	107.62
483.59	100.62
483.808	109.62
484.027	111.62
484.245	96.62
484.463	95.62
484.681	97.62
484.9	88.62
485.118	119.62
485.336	106.62
485.554	123.62
485.772	114.62
485.99	119.62
486.209	119.62
486.427	119.62
486.645	119.62
486.863	143.62
487.081	111.62
487.299	110.62
487.517	105.62
487.735	93.62
487.953	101.62
488.171	78.62
488.389	107.62
488.607	112.62
488.825	97.62
489.043	91.62
489.261	88.62
489.479	90.62
489.696	90.62
489.914	96.62
490.132	100.62
490.35	102.62
490.568	107.62
490.786	92.62
491.003	96.62
491.221	97.62
491.439	106.62
491.657	95.62
491.874	110.62
492.092	88.62
492.31	88.62
492.527	104.62
492.745	105.62
492.963	99.62
493.18	89.62
493.398	82.62
493.615	101.62
493.833	101.62
494.05	73.62
494.268	82.62
494.485	83.62
494.703	94.62
494.92	97.62
495.138	103.62
495.355	88.62
495.573	98.62
495.79	90.62
496.008	97.62
496.225	107.62
496.442	100.62
496.66	99.62
496.877	98.62
497.094	98.62
497.312	101.62
497.529	94.62
497.746	93.62
497.963	99.62
498.181	98.62
498.398	107.62
498.615	138.62
498.832	115.62
499.049	85.62
499.267	105.62
499.484	84.62
499.701	104.62
499.918	92.62
500.135	111.62
500.352	94.62
500.569	106.62
500.786	93.62
501.003	84.62
501.22	89.62
501.437	103.62
501.654	109.62
501.871	139.62
502.088	95.62
502.305	101.62
502.522	96.62
502.739	108.62
502.956	109.62
503.172	95.62
503.389	111.62
503.606	139.62
503.823	112.62
504.04	92.62
504.256	100.62
504.473	94.62
504.69	76.62
504.907	100.62
505.123	91.62
505.34	108.62
505.557	103.62
505.773	96.62
505.99	103.62
506.207	90.62
506.423	106.62
506.64	108.62
506.856	104.62
507.073	101.62
507.289	95.62
507.506	102.62
507.722	147.62
507.939	130.62
508.155	100.62
508.372	84.62
508.588	90.62
508.805	92.62
509.021	99.62
509.238	108.62
509.454	110.62
509.67	105.62
509.887	121.62
510.103	168.62
510.319	282.62
510.536	1156.62
510.752	4186.62
