Data from Circ_1998_H10_HRD10591_00078.txt Node
Date: Wed Jan 03 11:27:04 EST 2024
User: Yrep
Spectrometer: HR+D1059
Trigger mode: 1
Integration Time (sec): 1.000000E-1
Scans to average: 1
Electric dark correction enabled: true
Nonlinearity correction enabled: false
Boxcar width: 0
XAxis mode: Wavelengths
Number of Pixels in Spectrum: 2048
>>>>>Begin Spectral Data<<<<<
223.165	-15.44
223.4	-15.44
223.635	-15.44
223.869	-18.44
224.104	-25.44
224.338	-21.44
224.573	-25.44
224.808	-10.44
225.042	-10.44
225.277	-16.44
225.511	6.56
225.746	1.56
225.98	7.56
226.215	23.56
226.449	27.56
226.683	27.56
226.918	24.56
227.152	24.56
227.387	33.56
227.621	52.56
227.856	44.56
228.09	43.56
228.324	47.56
228.559	53.56
228.793	67.56
229.027	59.56
229.262	71.56
229.496	76.56
229.73	101.56
229.964	85.56
230.199	93.56
230.433	76.56
230.667	80.56
230.901	87.56
231.136	73.56
231.37	74.56
231.604	83.56
231.838	75.56
232.072	97.56
232.306	88.56
232.541	88.56
232.775	67.56
233.009	82.56
233.243	78.56
233.477	77.56
233.711	84.56
233.945	89.56
234.179	76.56
234.413	91.56
234.647	80.56
234.881	81.56
235.115	90.56
235.349	63.56
235.583	73.56
235.817	65.56
236.051	82.56
236.285	81.56
236.519	90.56
236.753	82.56
236.987	58.56
237.221	77.56
237.455	83.56
237.689	67.56
237.922	91.56
238.156	91.56
238.39	78.56
238.624	80.56
238.858	87.56
239.091	67.56
239.325	78.56
239.559	84.56
239.793	86.56
240.027	79.56
240.26	88.56
240.494	66.56
240.728	85.56
240.961	68.56
241.195	68.56
241.429	76.56
241.662	72.56
241.896	82.56
242.13	71.56
242.363	73.56
242.597	80.56
242.83	81.56
243.064	77.56
243.298	76.56
243.531	78.56
243.765	81.56
243.998	87.56
244.232	88.56
244.465	100.56
244.699	79.56
244.932	75.56
245.166	65.56
245.399	88.56
245.633	89.56
245.866	71.56
246.099	67.56
246.333	80.56
246.566	86.56
246.8	89.56
247.033	81.56
247.266	91.56
247.5	89.56
247.733	87.56
247.966	92.56
248.2	84.56
248.433	79.56
248.666	84.56
248.899	82.56
249.133	95.56
249.366	108.56
249.599	113.56
249.832	76.56
250.066	85.56
250.299	78.56
250.532	81.56
250.765	88.56
250.998	72.56
251.231	74.56
251.465	86.56
251.698	76.56
251.931	81.56
252.164	99.56
252.397	78.56
252.63	87.56
252.863	80.56
253.096	77.56
253.329	75.56
253.562	87.56
253.795	87.56
254.028	75.56
254.261	82.56
254.494	81.56
254.727	82.56
254.96	86.56
255.193	94.56
255.426	89.56
255.659	87.56
255.892	91.56
256.124	104.56
256.357	87.56
256.59	88.56
256.823	80.56
257.056	74.56
257.289	92.56
257.521	76.56
257.754	86.56
257.987	99.56
258.22	110.56
258.452	111.56
258.685	105.56
258.918	78.56
259.151	94.56
259.383	83.56
259.616	65.56
259.849	82.56
260.081	94.56
260.314	81.56
260.547	92.56
260.779	117.56
261.012	137.56
261.244	114.56
261.477	107.56
261.71	101.56
261.942	151.56
262.175	157.56
262.407	92.56
262.64	80.56
262.872	84.56
263.105	81.56
263.337	82.56
263.57	86.56
263.802	80.56
264.035	77.56
264.267	71.56
264.499	84.56
264.732	95.56
264.964	84.56
265.197	83.56
265.429	88.56
265.661	63.56
265.894	73.56
266.126	88.56
266.358	79.56
266.591	84.56
266.823	79.56
267.055	80.56
267.287	79.56
267.52	87.56
267.752	94.56
267.984	89.56
268.216	96.56
268.448	79.56
268.681	101.56
268.913	78.56
269.145	91.56
269.377	97.56
269.609	61.56
269.841	87.56
270.073	75.56
270.306	87.56
270.538	77.56
270.77	84.56
271.002	70.56
271.234	79.56
271.466	100.56
271.698	95.56
271.93	90.56
272.162	99.56
272.394	89.56
272.626	94.56
272.858	92.56
273.09	83.56
273.322	90.56
273.553	91.56
273.785	83.56
274.017	77.56
274.249	69.56
274.481	86.56
274.713	96.56
274.945	97.56
275.176	78.56
275.408	92.56
275.64	113.56
275.872	142.56
276.104	100.56
276.335	95.56
276.567	126.56
276.799	167.56
277.031	212.56
277.262	262.56
277.494	186.56
277.726	101.56
277.957	96.56
278.189	74.56
278.421	107.56
278.652	89.56
278.884	104.56
279.115	89.56
279.347	95.56
279.579	111.56
279.81	147.56
280.042	245.56
280.273	351.56
280.505	233.56
280.736	111.56
280.968	95.56
281.199	93.56
281.431	90.56
281.662	87.56
281.894	103.56
282.125	103.56
282.356	149.56
282.588	189.56
282.819	132.56
283.051	93.56
283.282	91.56
283.513	86.56
283.745	101.56
283.976	89.56
284.207	88.56
284.439	76.56
284.67	91.56
284.901	76.56
285.132	94.56
285.364	96.56
285.595	85.56
285.826	78.56
286.057	69.56
286.288	85.56
286.52	85.56
286.751	84.56
286.982	78.56
287.213	79.56
287.444	82.56
287.675	107.56
287.906	97.56
288.138	84.56
288.369	80.56
288.6	80.56
288.831	87.56
289.062	86.56
289.293	103.56
289.524	88.56
289.755	90.56
289.986	88.56
290.217	84.56
290.448	92.56
290.679	91.56
290.91	95.56
291.141	89.56
291.371	99.56
291.602	97.56
291.833	93.56
292.064	89.56
292.295	92.56
292.526	91.56
292.757	86.56
292.987	76.56
293.218	84.56
293.449	83.56
293.68	93.56
293.91	93.56
294.141	73.56
294.372	72.56
294.603	85.56
294.833	84.56
295.064	79.56
295.295	83.56
295.525	86.56
295.756	91.56
295.987	131.56
296.217	184.56
296.448	150.56
296.679	91.56
296.909	96.56
297.14	83.56
297.37	85.56
297.601	87.56
297.831	96.56
298.062	101.56
298.292	81.56
298.523	82.56
298.753	101.56
298.984	103.56
299.214	71.56
299.445	86.56
299.675	102.56
299.905	99.56
300.136	83.56
300.366	92.56
300.597	105.56
300.827	95.56
301.057	102.56
301.288	117.56
301.518	109.56
301.748	106.56
301.979	116.56
302.209	103.56
302.439	89.56
302.669	84.56
302.9	95.56
303.13	105.56
303.36	118.56
303.59	140.56
303.82	161.56
304.051	100.56
304.281	94.56
304.511	98.56
304.741	87.56
304.971	91.56
305.201	79.56
305.431	71.56
305.661	77.56
305.891	110.56
306.121	91.56
306.352	97.56
306.582	117.56
306.812	118.56
307.042	136.56
307.272	197.56
307.502	220.56
307.731	189.56
307.961	142.56
308.191	101.56
308.421	96.56
308.651	104.56
308.881	94.56
309.111	91.56
309.341	107.56
309.571	101.56
309.8	93.56
310.03	93.56
310.26	109.56
310.49	110.56
310.72	112.56
310.949	104.56
311.179	120.56
311.409	100.56
311.639	85.56
311.868	86.56
312.098	84.56
312.328	95.56
312.557	116.56
312.787	133.56
313.017	112.56
313.246	97.56
313.476	91.56
313.706	96.56
313.935	98.56
314.165	119.56
314.394	107.56
314.624	105.56
314.853	103.56
315.083	96.56
315.312	82.56
315.542	87.56
315.771	102.56
316.001	107.56
316.23	90.56
316.46	85.56
316.689	85.56
316.919	96.56
317.148	108.56
317.377	96.56
317.607	100.56
317.836	109.56
318.065	90.56
318.295	96.56
318.524	89.56
318.753	87.56
318.983	89.56
319.212	113.56
319.441	116.56
319.67	104.56
319.9	95.56
320.129	89.56
320.358	99.56
320.587	104.56
320.816	108.56
321.046	107.56
321.275	99.56
321.504	104.56
321.733	104.56
321.962	91.56
322.191	107.56
322.42	116.56
322.649	116.56
322.878	145.56
323.108	153.56
323.337	164.56
323.566	173.56
323.795	203.56
324.024	290.56
324.253	592.56
324.482	1296.56
324.71	2865.56
324.939	3981.56
325.168	1330.56
325.397	352.56
325.626	186.56
325.855	136.56
326.084	153.56
326.313	164.56
326.542	205.56
326.77	323.56
326.999	683.56
327.228	1498.56
327.457	2841.56
327.686	2255.56
327.914	744.56
328.143	741.56
328.372	978.56
328.6	525.56
328.829	236.56
329.058	226.56
329.287	224.56
329.515	206.56
329.744	345.56
329.972	725.56
330.201	1575.56
330.43	2265.56
330.658	918.56
330.887	350.56
331.115	240.56
331.344	136.56
331.572	109.56
331.801	131.56
332.03	136.56
332.258	127.56
332.486	115.56
332.715	110.56
332.943	125.56
333.172	124.56
333.4	146.56
333.629	193.56
333.857	306.56
334.085	667.56
334.314	1468.56
334.542	2932.56
334.771	2637.56
334.999	625.56
335.227	228.56
335.455	165.56
335.684	127.56
335.912	124.56
336.14	112.56
336.369	102.56
336.597	111.56
336.825	113.56
337.053	104.56
337.281	88.56
337.51	93.56
337.738	101.56
337.966	116.56
338.194	116.56
338.422	109.56
338.65	99.56
338.878	99.56
339.106	96.56
339.334	97.56
339.562	80.56
339.79	88.56
340.018	105.56
340.246	96.56
340.474	101.56
340.702	94.56
340.93	97.56
341.158	84.56
341.386	101.56
341.614	111.56
341.842	107.56
342.07	97.56
342.298	102.56
342.526	86.56
342.754	80.56
342.981	88.56
343.209	80.56
343.437	104.56
343.665	96.56
343.893	86.56
344.12	95.56
344.348	90.56
344.576	92.56
344.804	101.56
345.031	100.56
345.259	99.56
345.487	110.56
345.714	98.56
345.942	80.56
346.17	97.56
346.397	79.56
346.625	94.56
346.853	94.56
347.08	94.56
347.308	96.56
347.535	100.56
347.763	115.56
347.99	105.56
348.218	114.56
348.445	109.56
348.673	113.56
348.9	113.56
349.128	98.56
349.355	91.56
349.583	97.56
349.81	82.56
350.037	100.56
350.265	75.56
350.492	96.56
350.72	92.56
350.947	110.56
351.174	124.56
351.402	129.56
351.629	110.56
351.856	109.56
352.083	105.56
352.311	104.56
352.538	143.56
352.765	125.56
352.992	120.56
353.22	113.56
353.447	108.56
353.674	86.56
353.901	88.56
354.128	96.56
354.355	97.56
354.583	101.56
354.81	95.56
355.037	79.56
355.264	88.56
355.491	93.56
355.718	83.56
355.945	83.56
356.172	76.56
356.399	90.56
356.626	81.56
356.853	98.56
357.08	101.56
357.307	85.56
357.534	92.56
357.761	81.56
357.988	95.56
358.215	89.56
358.441	114.56
358.668	93.56
358.895	91.56
359.122	91.56
359.349	84.56
359.576	102.56
359.802	119.56
360.029	165.56
360.256	152.56
360.483	115.56
360.709	90.56
360.936	109.56
361.163	85.56
361.39	112.56
361.616	103.56
361.843	76.56
362.07	103.56
362.296	105.56
362.523	96.56
362.749	99.56
362.976	101.56
363.203	99.56
363.429	101.56
363.656	96.56
363.882	87.56
364.109	80.56
364.335	96.56
364.562	96.56
364.788	96.56
365.015	107.56
365.241	109.56
365.468	115.56
365.694	110.56
365.92	107.56
366.147	91.56
366.373	93.56
366.599	97.56
366.826	100.56
367.052	94.56
367.278	96.56
367.505	86.56
367.731	101.56
367.957	88.56
368.184	87.56
368.41	104.56
368.636	141.56
368.862	125.56
369.089	116.56
369.315	99.56
369.541	83.56
369.767	89.56
369.993	91.56
370.219	85.56
370.445	91.56
370.672	77.56
370.898	90.56
371.124	85.56
371.35	93.56
371.576	74.56
371.802	80.56
372.028	72.56
372.254	93.56
372.48	72.56
372.706	87.56
372.932	85.56
373.158	83.56
373.384	80.56
373.61	88.56
373.835	91.56
374.061	83.56
374.287	89.56
374.513	79.56
374.739	99.56
374.965	90.56
375.191	82.56
375.416	83.56
375.642	87.56
375.868	92.56
376.094	85.56
376.319	84.56
376.545	83.56
376.771	85.56
376.997	86.56
377.222	75.56
377.448	90.56
377.674	86.56
377.899	85.56
378.125	92.56
378.35	90.56
378.576	86.56
378.802	70.56
379.027	92.56
379.253	94.56
379.478	87.56
379.704	98.56
379.929	84.56
380.155	93.56
380.38	93.56
380.606	101.56
380.831	85.56
381.057	84.56
381.282	92.56
381.507	84.56
381.733	90.56
381.958	93.56
382.184	88.56
382.409	89.56
382.634	103.56
382.86	102.56
383.085	92.56
383.31	89.56
383.535	118.56
383.761	101.56
383.986	103.56
384.211	82.56
384.436	95.56
384.662	91.56
384.887	96.56
385.112	103.56
385.337	84.56
385.562	103.56
385.787	103.56
386.013	95.56
386.238	111.56
386.463	101.56
386.688	107.56
386.913	96.56
387.138	100.56
387.363	91.56
387.588	94.56
387.813	91.56
388.038	96.56
388.263	115.56
388.488	96.56
388.713	93.56
388.938	101.56
389.163	99.56
389.387	85.56
389.612	92.56
389.837	78.56
390.062	83.56
390.287	91.56
390.512	95.56
390.736	81.56
390.961	86.56
391.186	84.56
391.411	79.56
391.636	88.56
391.86	96.56
392.085	71.56
392.31	78.56
392.534	84.56
392.759	85.56
392.984	83.56
393.208	97.56
393.433	101.56
393.658	95.56
393.882	83.56
394.107	90.56
394.331	92.56
394.556	83.56
394.78	93.56
395.005	84.56
395.229	89.56
395.454	84.56
395.678	96.56
395.903	83.56
396.127	93.56
396.352	96.56
396.576	94.56
396.801	94.56
397.025	98.56
397.249	85.56
397.474	86.56
397.698	89.56
397.922	100.56
398.147	81.56
398.371	67.56
398.595	87.56
398.82	101.56
399.044	80.56
399.268	94.56
399.492	87.56
399.717	97.56
399.941	84.56
400.165	104.56
400.389	101.56
400.613	94.56
400.837	91.56
401.062	84.56
401.286	90.56
401.51	80.56
401.734	101.56
401.958	109.56
402.182	154.56
402.406	193.56
402.63	153.56
402.854	93.56
403.078	102.56
403.302	79.56
403.526	94.56
403.75	94.56
403.974	92.56
404.198	109.56
404.422	79.56
404.645	69.56
404.869	107.56
405.093	144.56
405.317	154.56
405.541	155.56
405.765	127.56
405.988	139.56
406.212	225.56
406.436	321.56
406.66	214.56
406.883	123.56
407.107	98.56
407.331	112.56
407.555	113.56
407.778	98.56
408.002	87.56
408.226	99.56
408.449	91.56
408.673	108.56
408.896	95.56
409.12	96.56
409.344	87.56
409.567	89.56
409.791	88.56
410.014	89.56
410.238	78.56
410.461	94.56
410.685	89.56
410.908	92.56
411.132	96.56
411.355	105.56
411.578	93.56
411.802	90.56
412.025	83.56
412.249	111.56
412.472	128.56
412.695	141.56
412.919	105.56
413.142	106.56
413.365	78.56
413.589	90.56
413.812	77.56
414.035	86.56
414.258	85.56
414.482	94.56
414.705	93.56
414.928	85.56
415.151	86.56
415.374	95.56
415.597	85.56
415.821	88.56
416.044	99.56
416.267	90.56
416.49	86.56
416.713	74.56
416.936	108.56
417.159	89.56
417.382	93.56
417.605	121.56
417.828	128.56
418.051	97.56
418.274	95.56
418.497	91.56
418.72	80.56
418.943	75.56
419.166	88.56
419.389	99.56
419.611	83.56
419.834	95.56
420.057	86.56
420.28	100.56
420.503	101.56
420.726	99.56
420.948	100.56
421.171	103.56
421.394	110.56
421.617	89.56
421.839	94.56
422.062	87.56
422.285	101.56
422.507	99.56
422.73	123.56
422.953	83.56
423.175	104.56
423.398	99.56
423.621	88.56
423.843	85.56
424.066	91.56
424.288	92.56
424.511	98.56
424.733	112.56
424.956	123.56
425.178	124.56
425.401	111.56
425.623	123.56
425.846	109.56
426.068	99.56
426.291	88.56
426.513	91.56
426.735	92.56
426.958	92.56
427.18	127.56
427.402	206.56
427.625	328.56
427.847	320.56
428.069	302.56
428.292	170.56
428.514	108.56
428.736	102.56
428.958	78.56
429.181	91.56
429.403	87.56
429.625	79.56
429.847	91.56
430.069	109.56
430.292	96.56
430.514	95.56
430.736	86.56
430.958	83.56
431.18	92.56
431.402	91.56
431.624	80.56
431.846	79.56
432.068	93.56
432.29	83.56
432.512	84.56
432.734	81.56
432.956	97.56
433.178	108.56
433.4	121.56
433.622	96.56
433.844	95.56
434.066	88.56
434.287	88.56
434.509	93.56
434.731	84.56
434.953	86.56
435.175	87.56
435.397	89.56
435.618	89.56
435.84	122.56
436.062	170.56
436.284	130.56
436.505	109.56
436.727	112.56
436.949	78.56
437.17	89.56
437.392	104.56
437.614	95.56
437.835	120.56
438.057	160.56
438.278	128.56
438.5	109.56
438.721	165.56
438.943	112.56
439.165	91.56
439.386	83.56
439.608	101.56
439.829	106.56
440.05	169.56
440.272	231.56
440.493	118.56
440.715	100.56
440.936	93.56
441.158	96.56
441.379	95.56
441.6	99.56
441.822	106.56
442.043	92.56
442.264	126.56
442.486	102.56
442.707	97.56
442.928	122.56
443.149	191.56
443.371	185.56
443.592	125.56
443.813	133.56
444.034	133.56
444.255	79.56
444.476	87.56
444.698	86.56
444.919	80.56
445.14	134.56
445.361	156.56
445.582	153.56
445.803	223.56
446.024	203.56
446.245	204.56
446.466	137.56
446.687	97.56
446.908	105.56
447.129	100.56
447.35	78.56
447.571	101.56
447.792	89.56
448.013	116.56
448.234	119.56
448.455	119.56
448.675	140.56
448.896	151.56
449.117	106.56
449.338	124.56
449.559	158.56
449.779	159.56
450	111.56
450.221	95.56
450.442	101.56
450.662	116.56
450.883	132.56
451.104	136.56
451.324	108.56
451.545	100.56
451.766	88.56
451.986	87.56
452.207	101.56
452.428	87.56
452.648	111.56
452.869	131.56
453.089	134.56
453.31	139.56
453.53	106.56
453.751	103.56
453.971	127.56
454.192	143.56
454.412	95.56
454.633	89.56
454.853	93.56
455.073	85.56
455.294	97.56
455.514	105.56
455.734	92.56
455.955	92.56
456.175	99.56
456.395	79.56
456.616	95.56
456.836	93.56
457.056	88.56
457.276	83.56
457.497	84.56
457.717	76.56
457.937	83.56
458.157	88.56
458.377	85.56
458.598	131.56
458.818	231.56
459.038	264.56
459.258	153.56
459.478	95.56
459.698	99.56
459.918	99.56
460.138	81.56
460.358	91.56
460.578	93.56
460.798	93.56
461.018	101.56
461.238	77.56
461.458	86.56
461.678	78.56
461.898	102.56
462.118	84.56
462.338	100.56
462.558	90.56
462.777	88.56
462.997	106.56
463.217	120.56
463.437	109.56
463.657	89.56
463.876	91.56
464.096	103.56
464.316	109.56
464.536	97.56
464.755	95.56
464.975	132.56
465.195	245.56
465.414	259.56
465.634	112.56
465.854	102.56
466.073	89.56
466.293	99.56
466.512	86.56
466.732	83.56
466.951	90.56
467.171	92.56
467.391	119.56
467.61	168.56
467.829	280.56
468.049	887.56
468.268	1282.56
468.488	301.56
468.707	135.56
468.927	93.56
469.146	99.56
469.365	84.56
469.585	100.56
469.804	115.56
470.023	128.56
470.243	122.56
470.462	113.56
470.681	155.56
470.901	122.56
471.12	105.56
471.339	119.56
471.558	124.56
471.777	198.56
471.997	411.56
472.216	1743.56
472.435	3971.56
472.654	860.56
472.873	201.56
473.092	130.56
473.311	101.56
473.53	107.56
473.749	96.56
473.968	109.56
474.187	126.56
474.406	120.56
474.625	78.56
474.844	105.56
475.063	96.56
475.282	106.56
475.501	95.56
475.72	92.56
475.939	84.56
476.158	87.56
476.377	107.56
476.596	95.56
476.814	99.56
477.033	109.56
477.252	103.56
477.471	102.56
477.69	102.56
477.908	87.56
478.127	87.56
478.346	104.56
478.564	96.56
478.783	105.56
479.002	122.56
479.22	112.56
479.439	141.56
479.658	156.56
479.876	128.56
480.095	139.56
480.313	155.56
480.532	196.56
480.751	395.56
480.969	1566.56
481.188	6906.56
481.406	3819.56
481.624	518.56
481.843	182.56
482.061	131.56
482.28	125.56
482.498	109.56
482.717	102.56
482.935	97.56
483.153	96.56
483.372	94.56
483.59	97.56
483.808	90.56
484.027	86.56
484.245	90.56
484.463	80.56
484.681	94.56
484.9	97.56
485.118	101.56
485.336	89.56
485.554	97.56
485.772	99.56
485.99	90.56
486.209	99.56
486.427	101.56
486.645	128.56
486.863	152.56
487.081	122.56
487.299	101.56
487.517	105.56
487.735	97.56
487.953	103.56
488.171	94.56
488.389	92.56
488.607	107.56
488.825	92.56
489.043	91.56
489.261	83.56
489.479	90.56
489.696	91.56
489.914	94.56
490.132	91.56
490.35	72.56
490.568	79.56
490.786	78.56
491.003	97.56
491.221	99.56
491.439	94.56
491.657	97.56
491.874	87.56
492.092	100.56
492.31	102.56
492.527	104.56
492.745	104.56
492.963	98.56
493.18	81.56
493.398	84.56
493.615	86.56
493.833	95.56
494.05	104.56
494.268	87.56
494.485	98.56
494.703	95.56
494.92	84.56
495.138	96.56
495.355	98.56
495.573	78.56
495.79	72.56
496.008	100.56
496.225	87.56
496.442	89.56
496.66	95.56
496.877	92.56
497.094	88.56
497.312	92.56
497.529	77.56
497.746	85.56
497.963	94.56
498.181	103.56
498.398	107.56
498.615	131.56
498.832	115.56
499.049	103.56
499.267	106.56
499.484	80.56
499.701	89.56
499.918	98.56
500.135	96.56
500.352	94.56
500.569	90.56
500.786	98.56
501.003	96.56
501.22	84.56
501.437	97.56
501.654	106.56
501.871	137.56
502.088	96.56
502.305	102.56
502.522	77.56
502.739	94.56
502.956	101.56
503.172	98.56
503.389	105.56
503.606	141.56
503.823	111.56
504.04	100.56
504.256	91.56
504.473	97.56
504.69	96.56
504.907	87.56
505.123	86.56
505.34	90.56
505.557	85.56
505.773	102.56
505.99	87.56
506.207	99.56
506.423	86.56
506.64	83.56
506.856	88.56
507.073	88.56
507.289	104.56
507.506	94.56
507.722	133.56
507.939	141.56
508.155	109.56
508.372	100.56
508.588	111.56
508.805	120.56
509.021	91.56
509.238	113.56
509.454	95.56
509.67	112.56
509.887	120.56
510.103	160.56
510.319	248.56
510.536	1001.56
510.752	3595.56
510.968	936.56
511.184	188.56
511.401	131.56
511.617	109.56
511.833	131.56
512.049	115.56
512.265	101.56
512.481	93.56
512.698	86.56
512.914	96.56
