Data from Circ_1998_H10_HRD10591_00053.txt Node
Date: Wed Jan 03 11:26:59 EST 2024
User: Yrep
Spectrometer: HR+D1059
Trigger mode: 1
Integration Time (sec): 1.000000E-1
Scans to average: 1
Electric dark correction enabled: true
Nonlinearity correction enabled: false
Boxcar width: 0
XAxis mode: Wavelengths
Number of Pixels in Spectrum: 2048
>>>>>Begin Spectral Data<<<<<
223.165	-15.88
223.4	-15.88
223.635	-15.88
223.869	-16.88
224.104	-19.88
224.338	-10.88
224.573	-22.88
224.808	-10.88
225.042	1.12
225.277	-13.88
225.511	-5.88
225.746	-0.88
225.98	7.12
226.215	13.12
226.449	17.12
226.683	13.12
226.918	27.12
227.152	39.12
227.387	40.12
227.621	29.12
227.856	49.12
228.09	55.12
228.324	56.12
228.559	59.12
228.793	64.12
229.027	70.12
229.262	78.12
229.496	77.12
229.73	108.12
229.964	100.12
230.199	62.12
230.433	63.12
230.667	80.12
230.901	83.12
231.136	82.12
231.37	81.12
231.604	78.12
231.838	73.12
232.072	73.12
232.306	68.12
232.541	77.12
232.775	79.12
233.009	87.12
233.243	87.12
233.477	80.12
233.711	89.12
233.945	87.12
234.179	77.12
234.413	78.12
234.647	86.12
234.881	90.12
235.115	77.12
235.349	73.12
235.583	77.12
235.817	86.12
236.051	63.12
236.285	83.12
236.519	79.12
236.753	79.12
236.987	84.12
237.221	102.12
237.455	88.12
237.689	84.12
237.922	85.12
238.156	79.12
238.39	87.12
238.624	71.12
238.858	61.12
239.091	85.12
239.325	73.12
239.559	86.12
239.793	74.12
240.027	97.12
240.26	83.12
240.494	85.12
240.728	85.12
240.961	92.12
241.195	88.12
241.429	79.12
241.662	67.12
241.896	62.12
242.13	75.12
242.363	83.12
242.597	78.12
242.83	85.12
243.064	87.12
243.298	77.12
243.531	89.12
243.765	78.12
243.998	79.12
244.232	90.12
244.465	81.12
244.699	81.12
244.932	87.12
245.166	85.12
245.399	75.12
245.633	61.12
245.866	60.12
246.099	67.12
246.333	79.12
246.566	78.12
246.8	92.12
247.033	81.12
247.266	84.12
247.5	81.12
247.733	95.12
247.966	88.12
248.2	61.12
248.433	81.12
248.666	88.12
248.899	89.12
249.133	106.12
249.366	120.12
249.599	121.12
249.832	87.12
250.066	88.12
250.299	83.12
250.532	90.12
250.765	79.12
250.998	96.12
251.231	101.12
251.465	103.12
251.698	91.12
251.931	84.12
252.164	85.12
252.397	81.12
252.63	101.12
252.863	84.12
253.096	73.12
253.329	84.12
253.562	92.12
253.795	80.12
254.028	91.12
254.261	92.12
254.494	84.12
254.727	76.12
254.96	79.12
255.193	87.12
255.426	68.12
255.659	81.12
255.892	101.12
256.124	93.12
256.357	85.12
256.59	96.12
256.823	87.12
257.056	89.12
257.289	94.12
257.521	87.12
257.754	93.12
257.987	103.12
258.22	94.12
258.452	103.12
258.685	92.12
258.918	90.12
259.151	84.12
259.383	91.12
259.616	75.12
259.849	88.12
260.081	91.12
260.314	93.12
260.547	99.12
260.779	97.12
261.012	116.12
261.244	124.12
261.477	111.12
261.71	115.12
261.942	172.12
262.175	164.12
262.407	96.12
262.64	81.12
262.872	88.12
263.105	87.12
263.337	99.12
263.57	89.12
263.802	87.12
264.035	88.12
264.267	83.12
264.499	75.12
264.732	94.12
264.964	99.12
265.197	83.12
265.429	96.12
265.661	73.12
265.894	76.12
266.126	86.12
266.358	86.12
266.591	80.12
266.823	96.12
267.055	77.12
267.287	84.12
267.52	83.12
267.752	100.12
267.984	77.12
268.216	92.12
268.448	92.12
268.681	89.12
268.913	86.12
269.145	88.12
269.377	87.12
269.609	91.12
269.841	82.12
270.073	77.12
270.306	87.12
270.538	76.12
270.77	68.12
271.002	90.12
271.234	92.12
271.466	88.12
271.698	91.12
271.93	87.12
272.162	91.12
272.394	94.12
272.626	110.12
272.858	76.12
273.09	94.12
273.322	78.12
273.553	87.12
273.785	88.12
274.017	77.12
274.249	82.12
274.481	88.12
274.713	80.12
274.945	95.12
275.176	92.12
275.408	107.12
275.64	131.12
275.872	143.12
276.104	119.12
276.335	123.12
276.567	124.12
276.799	166.12
277.031	231.12
277.262	285.12
277.494	201.12
277.726	111.12
277.957	105.12
278.189	100.12
278.421	102.12
278.652	98.12
278.884	90.12
279.115	96.12
279.347	88.12
279.579	128.12
279.81	156.12
280.042	267.12
280.273	389.12
280.505	275.12
280.736	122.12
280.968	99.12
281.199	100.12
281.431	87.12
281.662	78.12
281.894	103.12
282.125	117.12
282.356	156.12
282.588	204.12
282.819	152.12
283.051	103.12
283.282	89.12
283.513	84.12
283.745	99.12
283.976	76.12
284.207	95.12
284.439	91.12
284.67	91.12
284.901	88.12
285.132	86.12
285.364	93.12
285.595	87.12
285.826	92.12
286.057	105.12
286.288	92.12
286.52	94.12
286.751	79.12
286.982	90.12
287.213	76.12
287.444	90.12
287.675	78.12
287.906	92.12
288.138	95.12
288.369	99.12
288.6	102.12
288.831	92.12
289.062	86.12
289.293	93.12
289.524	90.12
289.755	99.12
289.986	86.12
290.217	82.12
290.448	89.12
290.679	85.12
290.91	85.12
291.141	82.12
291.371	84.12
291.602	85.12
291.833	76.12
292.064	94.12
292.295	96.12
292.526	97.12
292.757	93.12
292.987	86.12
293.218	80.12
293.449	96.12
293.68	84.12
293.91	88.12
294.141	85.12
294.372	89.12
294.603	75.12
294.833	91.12
295.064	96.12
295.295	98.12
295.525	96.12
295.756	96.12
295.987	146.12
296.217	189.12
296.448	169.12
296.679	105.12
296.909	79.12
297.14	88.12
297.37	96.12
297.601	85.12
297.831	112.12
298.062	107.12
298.292	88.12
298.523	106.12
298.753	100.12
298.984	80.12
299.214	76.12
299.445	94.12
299.675	97.12
299.905	112.12
300.136	106.12
300.366	87.12
300.597	91.12
300.827	106.12
301.057	106.12
301.288	135.12
301.518	115.12
301.748	102.12
301.979	119.12
302.209	115.12
302.439	107.12
302.669	93.12
302.9	91.12
303.13	102.12
303.36	131.12
303.59	165.12
303.82	184.12
304.051	115.12
304.281	98.12
304.511	91.12
304.741	91.12
304.971	93.12
305.201	92.12
305.431	91.12
305.661	94.12
305.891	102.12
306.121	104.12
306.352	123.12
306.582	132.12
306.812	111.12
307.042	136.12
307.272	195.12
307.502	240.12
307.731	215.12
307.961	176.12
308.191	109.12
308.421	92.12
308.651	100.12
308.881	96.12
309.111	97.12
309.341	100.12
309.571	111.12
309.8	99.12
310.03	116.12
310.26	120.12
310.49	103.12
310.72	109.12
310.949	104.12
311.179	126.12
311.409	107.12
311.639	108.12
311.868	103.12
312.098	101.12
312.328	100.12
312.557	118.12
312.787	127.12
313.017	129.12
313.246	101.12
313.476	109.12
313.706	74.12
313.935	122.12
314.165	110.12
314.394	124.12
314.624	116.12
314.853	112.12
315.083	106.12
315.312	88.12
315.542	89.12
315.771	104.12
316.001	108.12
316.23	93.12
316.46	94.12
316.689	79.12
316.919	108.12
317.148	113.12
317.377	91.12
317.607	94.12
317.836	92.12
318.065	96.12
318.295	96.12
318.524	91.12
318.753	99.12
318.983	106.12
319.212	101.12
319.441	128.12
319.67	128.12
319.9	104.12
320.129	104.12
320.358	107.12
320.587	104.12
320.816	104.12
321.046	109.12
321.275	109.12
321.504	92.12
321.733	99.12
321.962	108.12
322.191	104.12
322.42	124.12
322.649	125.12
322.878	147.12
323.108	147.12
323.337	155.12
323.566	186.12
323.795	215.12
324.024	299.12
324.253	664.12
324.482	1455.12
324.71	3048.12
324.939	4073.12
325.168	1426.12
325.397	392.12
325.626	207.12
325.855	161.12
326.084	153.12
326.313	168.12
326.542	225.12
326.77	332.12
326.999	711.12
327.228	1479.12
327.457	2865.12
327.686	2302.12
327.914	782.12
328.143	805.12
328.372	1111.12
328.6	584.12
328.829	246.12
329.058	240.12
329.287	286.12
329.515	241.12
329.744	396.12
329.972	773.12
330.201	1772.12
330.43	2554.12
330.658	1057.12
330.887	437.12
331.115	248.12
331.344	162.12
331.572	145.12
331.801	140.12
332.03	154.12
332.258	128.12
332.486	136.12
332.715	120.12
332.943	133.12
333.172	131.12
333.4	155.12
333.629	199.12
333.857	334.12
334.085	687.12
334.314	1535.12
334.542	3110.12
334.771	2911.12
334.999	694.12
335.227	231.12
335.455	158.12
335.684	127.12
335.912	116.12
336.14	120.12
336.369	123.12
336.597	129.12
336.825	113.12
337.053	103.12
337.281	102.12
337.51	103.12
337.738	110.12
337.966	109.12
338.194	119.12
338.422	115.12
338.65	110.12
338.878	94.12
339.106	99.12
339.334	91.12
339.562	92.12
339.79	99.12
340.018	98.12
340.246	103.12
340.474	116.12
340.702	100.12
340.93	102.12
341.158	107.12
341.386	100.12
341.614	101.12
341.842	111.12
342.07	106.12
342.298	104.12
342.526	97.12
342.754	95.12
342.981	75.12
343.209	86.12
343.437	97.12
343.665	94.12
343.893	86.12
344.12	91.12
344.348	92.12
344.576	86.12
344.804	94.12
345.031	116.12
345.259	120.12
345.487	113.12
345.714	121.12
345.942	94.12
346.17	87.12
346.397	105.12
346.625	106.12
346.853	86.12
347.08	96.12
347.308	111.12
347.535	110.12
347.763	117.12
347.99	98.12
348.218	110.12
348.445	127.12
348.673	126.12
348.9	102.12
349.128	102.12
349.355	92.12
349.583	101.12
349.81	104.12
350.037	107.12
350.265	97.12
350.492	95.12
350.72	109.12
350.947	108.12
351.174	136.12
351.402	123.12
351.629	131.12
351.856	105.12
352.083	120.12
352.311	134.12
352.538	126.12
352.765	128.12
352.992	134.12
353.22	121.12
353.447	119.12
353.674	102.12
353.901	91.12
354.128	92.12
354.355	96.12
354.583	107.12
354.81	101.12
355.037	101.12
355.264	95.12
355.491	74.12
355.718	81.12
355.945	90.12
356.172	101.12
356.399	98.12
356.626	100.12
356.853	91.12
357.08	97.12
357.307	91.12
357.534	79.12
357.761	88.12
357.988	92.12
358.215	99.12
358.441	83.12
358.668	84.12
358.895	83.12
359.122	93.12
359.349	81.12
359.576	84.12
359.802	131.12
360.029	168.12
360.256	176.12
360.483	133.12
360.709	102.12
360.936	109.12
361.163	102.12
361.39	108.12
361.616	121.12
361.843	103.12
362.07	97.12
362.296	107.12
362.523	83.12
362.749	117.12
362.976	116.12
363.203	83.12
363.429	96.12
363.656	89.12
363.882	104.12
364.109	91.12
364.335	87.12
364.562	102.12
364.788	109.12
365.015	101.12
365.241	115.12
365.468	120.12
365.694	137.12
365.92	112.12
366.147	102.12
366.373	113.12
366.599	96.12
366.826	80.12
367.052	94.12
367.278	96.12
367.505	96.12
367.731	84.12
367.957	92.12
368.184	100.12
368.41	117.12
368.636	133.12
368.862	147.12
369.089	127.12
369.315	129.12
369.541	108.12
369.767	103.12
369.993	104.12
370.219	89.12
370.445	97.12
370.672	73.12
370.898	88.12
371.124	94.12
371.35	89.12
371.576	91.12
371.802	92.12
372.028	76.12
372.254	83.12
372.48	77.12
372.706	87.12
372.932	84.12
373.158	92.12
373.384	104.12
373.61	98.12
373.835	81.12
374.061	94.12
374.287	105.12
374.513	96.12
374.739	83.12
374.965	92.12
375.191	93.12
375.416	94.12
375.642	97.12
375.868	90.12
376.094	92.12
376.319	89.12
376.545	81.12
376.771	97.12
376.997	88.12
377.222	84.12
377.448	103.12
377.674	81.12
377.899	95.12
378.125	79.12
378.35	85.12
378.576	84.12
378.802	89.12
379.027	89.12
379.253	108.12
379.478	86.12
379.704	86.12
379.929	97.12
380.155	102.12
380.38	67.12
380.606	108.12
380.831	99.12
381.057	89.12
381.282	120.12
381.507	99.12
381.733	88.12
381.958	100.12
382.184	87.12
382.409	101.12
382.634	112.12
382.86	105.12
383.085	101.12
383.31	96.12
383.535	103.12
383.761	97.12
383.986	90.12
384.211	86.12
384.436	83.12
384.662	88.12
384.887	93.12
385.112	102.12
385.337	101.12
385.562	111.12
385.787	109.12
386.013	112.12
386.238	122.12
386.463	111.12
386.688	114.12
386.913	100.12
387.138	106.12
387.363	101.12
387.588	95.12
387.813	109.12
388.038	104.12
388.263	108.12
388.488	108.12
388.713	79.12
388.938	89.12
389.163	82.12
389.387	84.12
389.612	86.12
389.837	94.12
390.062	84.12
390.287	93.12
390.512	80.12
390.736	86.12
390.961	92.12
391.186	77.12
391.411	91.12
391.636	92.12
391.86	89.12
392.085	77.12
392.31	80.12
392.534	85.12
392.759	93.12
392.984	95.12
393.208	82.12
393.433	98.12
393.658	88.12
393.882	85.12
394.107	83.12
394.331	78.12
394.556	76.12
394.78	88.12
395.005	96.12
395.229	80.12
395.454	86.12
395.678	88.12
395.903	99.12
396.127	117.12
396.352	93.12
396.576	78.12
396.801	98.12
397.025	81.12
397.249	90.12
397.474	100.12
397.698	101.12
397.922	83.12
398.147	95.12
398.371	83.12
398.595	76.12
398.82	77.12
399.044	85.12
399.268	94.12
399.492	85.12
399.717	84.12
399.941	92.12
400.165	98.12
400.389	98.12
400.613	85.12
400.837	79.12
401.062	84.12
401.286	95.12
401.51	92.12
401.734	90.12
401.958	115.12
402.182	179.12
402.406	245.12
402.63	173.12
402.854	131.12
403.078	97.12
403.302	97.12
403.526	96.12
403.75	91.12
403.974	92.12
404.198	88.12
404.422	87.12
404.645	97.12
404.869	106.12
405.093	134.12
405.317	180.12
405.541	176.12
405.765	126.12
405.988	155.12
406.212	267.12
406.436	412.12
406.66	259.12
406.883	158.12
407.107	124.12
407.331	107.12
407.555	109.12
407.778	108.12
408.002	110.12
408.226	96.12
408.449	97.12
408.673	90.12
408.896	103.12
409.12	112.12
409.344	90.12
409.567	90.12
409.791	81.12
410.014	84.12
410.238	101.12
410.461	99.12
410.685	84.12
410.908	110.12
411.132	111.12
411.355	116.12
411.578	87.12
411.802	87.12
412.025	93.12
412.249	103.12
412.472	114.12
412.695	156.12
412.919	131.12
413.142	91.12
413.365	93.12
413.589	87.12
413.812	102.12
414.035	101.12
414.258	88.12
414.482	87.12
414.705	80.12
414.928	92.12
415.151	92.12
415.374	93.12
415.597	89.12
415.821	87.12
416.044	89.12
416.267	93.12
416.49	83.12
416.713	97.12
416.936	98.12
417.159	84.12
417.382	107.12
417.605	137.12
417.828	135.12
418.051	106.12
418.274	95.12
418.497	81.12
418.72	88.12
418.943	88.12
419.166	87.12
419.389	87.12
419.611	97.12
419.834	108.12
420.057	107.12
420.28	115.12
420.503	99.12
420.726	94.12
420.948	91.12
421.171	104.12
421.394	91.12
421.617	92.12
421.839	88.12
422.062	77.12
422.285	87.12
422.507	101.12
422.73	116.12
422.953	108.12
423.175	100.12
423.398	95.12
423.621	90.12
423.843	88.12
424.066	88.12
424.288	97.12
424.511	95.12
424.733	102.12
424.956	129.12
425.178	106.12
425.401	115.12
425.623	118.12
425.846	92.12
426.068	116.12
426.291	109.12
426.513	96.12
426.735	94.12
426.958	112.12
427.18	136.12
427.402	226.12
427.625	338.12
427.847	331.12
428.069	309.12
428.292	156.12
428.514	101.12
428.736	91.12
428.958	97.12
429.181	86.12
429.403	96.12
429.625	89.12
429.847	101.12
430.069	123.12
430.292	107.12
430.514	91.12
430.736	88.12
430.958	96.12
431.18	89.12
431.402	87.12
431.624	73.12
431.846	94.12
432.068	88.12
432.29	101.12
432.512	85.12
432.734	92.12
432.956	110.12
433.178	103.12
433.4	102.12
433.622	96.12
433.844	85.12
434.066	106.12
434.287	92.12
434.509	94.12
434.731	97.12
434.953	87.12
435.175	96.12
435.397	91.12
435.618	109.12
435.84	119.12
436.062	157.12
436.284	156.12
436.505	103.12
436.727	104.12
436.949	82.12
437.17	87.12
437.392	111.12
437.614	95.12
437.835	141.12
438.057	166.12
438.278	146.12
438.5	135.12
438.721	156.12
438.943	122.12
439.165	88.12
439.386	86.12
439.608	95.12
439.829	123.12
440.05	186.12
440.272	240.12
440.493	124.12
440.715	93.12
440.936	97.12
441.158	89.12
441.379	93.12
441.6	113.12
441.822	101.12
442.043	89.12
442.264	121.12
442.486	105.12
442.707	105.12
442.928	136.12
443.149	205.12
443.371	214.12
443.592	155.12
443.813	153.12
444.034	131.12
444.255	91.12
444.476	85.12
444.698	86.12
444.919	104.12
445.14	145.12
445.361	157.12
445.582	159.12
445.803	232.12
446.024	220.12
446.245	206.12
446.466	157.12
446.687	106.12
446.908	76.12
447.129	89.12
447.35	76.12
447.571	88.12
447.792	103.12
448.013	112.12
448.234	129.12
448.455	112.12
448.675	128.12
448.896	155.12
449.117	117.12
449.338	122.12
449.559	155.12
449.779	179.12
450	123.12
450.221	92.12
450.442	95.12
450.662	135.12
450.883	129.12
451.104	166.12
451.324	123.12
451.545	106.12
451.766	85.12
451.986	91.12
452.207	103.12
452.428	109.12
452.648	115.12
452.869	143.12
453.089	150.12
453.31	169.12
453.53	107.12
453.751	101.12
453.971	144.12
454.192	150.12
454.412	115.12
454.633	96.12
454.853	105.12
455.073	77.12
455.294	96.12
455.514	129.12
455.734	104.12
455.955	77.12
456.175	76.12
456.395	81.12
456.616	89.12
456.836	83.12
457.056	94.12
457.276	80.12
457.497	94.12
457.717	88.12
457.937	97.12
458.157	79.12
458.377	117.12
458.598	152.12
458.818	256.12
459.038	302.12
459.258	171.12
459.478	103.12
459.698	86.12
459.918	69.12
460.138	98.12
460.358	95.12
460.578	90.12
460.798	94.12
461.018	79.12
461.238	91.12
461.458	92.12
461.678	93.12
461.898	106.12
462.118	89.12
462.338	80.12
462.558	81.12
462.777	86.12
462.997	108.12
463.217	118.12
463.437	105.12
463.657	95.12
463.876	99.12
464.096	98.12
464.316	105.12
464.536	120.12
464.755	111.12
464.975	135.12
465.195	311.12
465.414	329.12
465.634	113.12
465.854	87.12
466.073	92.12
466.293	96.12
466.512	92.12
466.732	100.12
466.951	109.12
467.171	118.12
467.391	132.12
467.61	186.12
467.829	297.12
468.049	951.12
468.268	1489.12
468.488	337.12
468.707	152.12
468.927	107.12
469.146	112.12
469.365	102.12
469.585	108.12
469.804	109.12
470.023	143.12
470.243	112.12
470.462	134.12
470.681	160.12
470.901	132.12
471.12	117.12
471.339	131.12
471.558	132.12
471.777	194.12
471.997	478.12
472.216	1906.12
472.435	4514.12
472.654	955.12
472.873	240.12
473.092	126.12
473.311	112.12
473.53	108.12
473.749	102.12
473.968	103.12
474.187	127.12
474.406	121.12
474.625	93.12
474.844	102.12
475.063	87.12
475.282	93.12
475.501	96.12
475.72	97.12
475.939	97.12
476.158	104.12
476.377	92.12
476.596	93.12
476.814	107.12
477.033	100.12
477.252	96.12
477.471	106.12
477.69	100.12
477.908	96.12
478.127	99.12
478.346	99.12
478.564	115.12
478.783	133.12
479.002	125.12
479.22	121.12
479.439	161.12
479.658	153.12
479.876	148.12
480.095	154.12
480.313	170.12
480.532	219.12
480.751	431.12
480.969	1647.12
481.188	7598.12
481.406	4293.12
481.624	552.12
481.843	161.12
482.061	144.12
482.28	120.12
482.498	109.12
482.717	87.12
482.935	107.12
483.153	92.12
483.372	109.12
483.59	98.12
483.808	85.12
484.027	90.12
484.245	106.12
484.463	88.12
484.681	108.12
484.9	99.12
485.118	96.12
485.336	115.12
485.554	99.12
485.772	108.12
485.99	105.12
486.209	110.12
486.427	116.12
486.645	125.12
486.863	139.12
487.081	112.12
487.299	99.12
487.517	107.12
487.735	91.12
487.953	106.12
488.171	103.12
488.389	102.12
488.607	103.12
488.825	92.12
489.043	88.12
489.261	96.12
489.479	89.12
489.696	91.12
489.914	88.12
490.132	91.12
490.35	84.12
490.568	85.12
490.786	89.12
491.003	95.12
491.221	109.12
491.439	98.12
491.657	115.12
491.874	79.12
492.092	97.12
492.31	96.12
492.527	104.12
492.745	88.12
492.963	98.12
493.18	101.12
493.398	96.12
493.615	92.12
493.833	103.12
494.05	90.12
494.268	89.12
494.485	89.12
494.703	101.12
494.92	103.12
495.138	86.12
495.355	89.12
495.573	92.12
495.79	91.12
496.008	89.12
496.225	105.12
496.442	84.12
496.66	88.12
496.877	100.12
497.094	118.12
497.312	92.12
497.529	98.12
497.746	95.12
497.963	80.12
498.181	93.12
498.398	117.12
498.615	127.12
498.832	116.12
499.049	95.12
499.267	93.12
499.484	94.12
499.701	112.12
499.918	90.12
500.135	94.12
500.352	89.12
500.569	99.12
500.786	96.12
501.003	99.12
501.22	101.12
501.437	97.12
501.654	104.12
501.871	162.12
502.088	103.12
502.305	91.12
502.522	78.12
502.739	95.12
502.956	114.12
503.172	111.12
503.389	115.12
503.606	138.12
503.823	110.12
504.04	100.12
504.256	78.12
504.473	94.12
504.69	91.12
504.907	86.12
505.123	101.12
505.34	101.12
505.557	85.12
505.773	85.12
505.99	90.12
506.207	95.12
506.423	99.12
506.64	94.12
506.856	97.12
507.073	102.12
507.289	98.12
507.506	116.12
507.722	156.12
507.939	145.12
508.155	102.12
508.372	96.12
508.588	107.12
508.805	113.12
509.021	116.12
509.238	109.12
509.454	101.12
509.67	112.12
509.887	122.12
510.103	170.12
510.319	297.12
510.536	1215.12
510.752	4412.12
510.968	1131.12
511.184	223.12
511.401	156.12
