Data from Circ_1998_H10_HRD10591_00029.txt Node
Date: Wed Jan 03 11:26:54 EST 2024
User: Yrep
Spectrometer: HR+D1059
Trigger mode: 1
Integration Time (sec): 1.000000E-1
Scans to average: 1
Electric dark correction enabled: true
Nonlinearity correction enabled: false
Boxcar width: 0
XAxis mode: Wavelengths
Number of Pixels in Spectrum: 2048
>>>>>Begin Spectral Data<<<<<
223.165	-26.12
223.4	-26.12
223.635	-26.12
223.869	-17.12
224.104	-13.12
224.338	-15.12
224.573	-15.12
224.808	-14.12
225.042	-4.12
225.277	-0.12
225.511	-3.12
225.746	7.88
225.98	0.88
226.215	18.88
226.449	14.88
226.683	3.88
226.918	22.88
227.152	38.88
227.387	34.88
227.621	45.88
227.856	52.88
228.09	49.88
228.324	48.88
228.559	44.88
228.793	58.88
229.027	73.88
229.262	67.88
229.496	72.88
229.73	103.88
229.964	75.88
230.199	89.88
230.433	80.88
230.667	83.88
230.901	74.88
231.136	89.88
231.37	84.88
231.604	90.88
231.838	70.88
232.072	61.88
232.306	88.88
232.541	82.88
232.775	76.88
233.009	76.88
233.243	86.88
233.477	82.88
233.711	82.88
233.945	77.88
234.179	76.88
234.413	86.88
234.647	73.88
234.881	77.88
235.115	68.88
235.349	88.88
235.583	79.88
235.817	86.88
236.051	82.88
236.285	72.88
236.519	72.88
236.753	77.88
236.987	87.88
237.221	98.88
237.455	88.88
237.689	90.88
237.922	57.88
238.156	84.88
238.39	85.88
238.624	76.88
238.858	74.88
239.091	87.88
239.325	88.88
239.559	103.88
239.793	93.88
240.027	95.88
240.26	83.88
240.494	72.88
240.728	80.88
240.961	76.88
241.195	86.88
241.429	80.88
241.662	81.88
241.896	68.88
242.13	67.88
242.363	75.88
242.597	56.88
242.83	74.88
243.064	72.88
243.298	84.88
243.531	78.88
243.765	74.88
243.998	71.88
244.232	80.88
244.465	90.88
244.699	91.88
244.932	75.88
245.166	85.88
245.399	81.88
245.633	87.88
245.866	78.88
246.099	74.88
246.333	77.88
246.566	75.88
246.8	81.88
247.033	79.88
247.266	85.88
247.5	101.88
247.733	83.88
247.966	88.88
248.2	90.88
248.433	76.88
248.666	67.88
248.899	90.88
249.133	91.88
249.366	111.88
249.599	115.88
249.832	78.88
250.066	84.88
250.299	80.88
250.532	89.88
250.765	80.88
250.998	60.88
251.231	70.88
251.465	85.88
251.698	90.88
251.931	73.88
252.164	79.88
252.397	71.88
252.63	79.88
252.863	78.88
253.096	84.88
253.329	89.88
253.562	75.88
253.795	76.88
254.028	84.88
254.261	97.88
254.494	78.88
254.727	91.88
254.96	78.88
255.193	86.88
255.426	90.88
255.659	86.88
255.892	95.88
256.124	99.88
256.357	94.88
256.59	99.88
256.823	84.88
257.056	110.88
257.289	90.88
257.521	86.88
257.754	90.88
257.987	95.88
258.22	88.88
258.452	102.88
258.685	93.88
258.918	94.88
259.151	90.88
259.383	85.88
259.616	89.88
259.849	93.88
260.081	85.88
260.314	99.88
260.547	83.88
260.779	100.88
261.012	108.88
261.244	124.88
261.477	100.88
261.71	106.88
261.942	140.88
262.175	156.88
262.407	89.88
262.64	89.88
262.872	98.88
263.105	88.88
263.337	95.88
263.57	86.88
263.802	68.88
264.035	87.88
264.267	82.88
264.499	82.88
264.732	110.88
264.964	90.88
265.197	91.88
265.429	98.88
265.661	94.88
265.894	84.88
266.126	82.88
266.358	85.88
266.591	80.88
266.823	76.88
267.055	81.88
267.287	85.88
267.52	91.88
267.752	99.88
267.984	79.88
268.216	88.88
268.448	90.88
268.681	91.88
268.913	96.88
269.145	95.88
269.377	82.88
269.609	67.88
269.841	102.88
270.073	88.88
270.306	90.88
270.538	84.88
270.77	75.88
271.002	92.88
271.234	74.88
271.466	106.88
271.698	100.88
271.93	88.88
272.162	100.88
272.394	85.88
272.626	95.88
272.858	97.88
273.09	97.88
273.322	83.88
273.553	94.88
273.785	108.88
274.017	89.88
274.249	92.88
274.481	91.88
274.713	86.88
274.945	82.88
275.176	92.88
275.408	112.88
275.64	106.88
275.872	134.88
276.104	126.88
276.335	118.88
276.567	124.88
276.799	139.88
277.031	181.88
277.262	222.88
277.494	175.88
277.726	112.88
277.957	104.88
278.189	102.88
278.421	91.88
278.652	85.88
278.884	92.88
279.115	86.88
279.347	103.88
279.579	111.88
279.81	147.88
280.042	234.88
280.273	338.88
280.505	216.88
280.736	119.88
280.968	98.88
281.199	78.88
281.431	90.88
281.662	99.88
281.894	92.88
282.125	104.88
282.356	152.88
282.588	202.88
282.819	127.88
283.051	94.88
283.282	90.88
283.513	95.88
283.745	102.88
283.976	101.88
284.207	98.88
284.439	88.88
284.67	95.88
284.901	88.88
285.132	79.88
285.364	93.88
285.595	96.88
285.826	88.88
286.057	89.88
286.288	90.88
286.52	88.88
286.751	83.88
286.982	95.88
287.213	79.88
287.444	86.88
287.675	109.88
287.906	103.88
288.138	79.88
288.369	92.88
288.6	106.88
288.831	82.88
289.062	99.88
289.293	90.88
289.524	85.88
289.755	86.88
289.986	97.88
290.217	104.88
290.448	83.88
290.679	91.88
290.91	98.88
291.141	92.88
291.371	84.88
291.602	84.88
291.833	79.88
292.064	94.88
292.295	96.88
292.526	95.88
292.757	92.88
292.987	91.88
293.218	94.88
293.449	91.88
293.68	101.88
293.91	101.88
294.141	105.88
294.372	99.88
294.603	90.88
294.833	87.88
295.064	79.88
295.295	100.88
295.525	89.88
295.756	109.88
295.987	134.88
296.217	167.88
296.448	139.88
296.679	104.88
296.909	102.88
297.14	78.88
297.37	90.88
297.601	83.88
297.831	86.88
298.062	114.88
298.292	96.88
298.523	89.88
298.753	92.88
298.984	87.88
299.214	95.88
299.445	99.88
299.675	102.88
299.905	85.88
300.136	90.88
300.366	102.88
300.597	87.88
300.827	99.88
301.057	112.88
301.288	134.88
301.518	103.88
301.748	112.88
301.979	119.88
302.209	113.88
302.439	86.88
302.669	94.88
302.9	95.88
303.13	106.88
303.36	108.88
303.59	139.88
303.82	159.88
304.051	114.88
304.281	102.88
304.511	96.88
304.741	82.88
304.971	83.88
305.201	86.88
305.431	94.88
305.661	106.88
305.891	85.88
306.121	105.88
306.352	121.88
306.582	122.88
306.812	109.88
307.042	134.88
307.272	189.88
307.502	230.88
307.731	200.88
307.961	144.88
308.191	93.88
308.421	102.88
308.651	83.88
308.881	104.88
309.111	85.88
309.341	102.88
309.571	108.88
309.8	104.88
310.03	95.88
310.26	104.88
310.49	108.88
310.72	98.88
310.949	134.88
311.179	101.88
311.409	108.88
311.639	106.88
311.868	107.88
312.098	115.88
312.328	95.88
312.557	106.88
312.787	120.88
313.017	126.88
313.246	106.88
313.476	109.88
313.706	95.88
313.935	94.88
314.165	98.88
314.394	121.88
314.624	128.88
314.853	112.88
315.083	105.88
315.312	96.88
315.542	94.88
315.771	103.88
316.001	106.88
316.23	100.88
316.46	99.88
316.689	93.88
316.919	110.88
317.148	96.88
317.377	106.88
317.607	103.88
317.836	106.88
318.065	91.88
318.295	106.88
318.524	99.88
318.753	92.88
318.983	97.88
319.212	114.88
319.441	128.88
319.67	124.88
319.9	100.88
320.129	104.88
320.358	89.88
320.587	97.88
320.816	103.88
321.046	109.88
321.275	110.88
321.504	109.88
321.733	94.88
321.962	109.88
322.191	109.88
322.42	123.88
322.649	126.88
322.878	119.88
323.108	128.88
323.337	156.88
323.566	170.88
323.795	188.88
324.024	269.88
324.253	571.88
324.482	1268.88
324.71	2613.88
324.939	3512.88
325.168	1246.88
325.397	345.88
325.626	196.88
325.855	139.88
326.084	148.88
326.313	163.88
326.542	193.88
326.77	289.88
326.999	621.88
327.228	1358.88
327.457	2561.88
327.686	2003.88
327.914	688.88
328.143	670.88
328.372	876.88
328.6	472.88
328.829	215.88
329.058	210.88
329.287	235.88
329.515	225.88
329.744	300.88
329.972	648.88
330.201	1327.88
330.43	1948.88
330.658	820.88
330.887	350.88
331.115	231.88
331.344	144.88
331.572	143.88
331.801	127.88
332.03	124.88
332.258	122.88
332.486	111.88
332.715	111.88
332.943	126.88
333.172	150.88
333.4	137.88
333.629	175.88
333.857	282.88
334.085	573.88
334.314	1251.88
334.542	2438.88
334.771	2270.88
334.999	564.88
335.227	206.88
335.455	128.88
335.684	129.88
335.912	109.88
336.14	99.88
336.369	117.88
336.597	114.88
336.825	119.88
337.053	110.88
337.281	99.88
337.51	89.88
337.738	114.88
337.966	102.88
338.194	104.88
338.422	130.88
338.65	111.88
338.878	111.88
339.106	102.88
339.334	106.88
339.562	93.88
339.79	90.88
340.018	98.88
340.246	107.88
340.474	92.88
340.702	101.88
340.93	107.88
341.158	91.88
341.386	105.88
341.614	99.88
341.842	104.88
342.07	94.88
342.298	101.88
342.526	98.88
342.754	84.88
342.981	100.88
343.209	99.88
343.437	108.88
343.665	99.88
343.893	105.88
344.12	81.88
344.348	96.88
344.576	99.88
344.804	99.88
345.031	111.88
345.259	104.88
345.487	102.88
345.714	100.88
345.942	105.88
346.17	88.88
346.397	100.88
346.625	106.88
346.853	95.88
347.08	86.88
347.308	108.88
347.535	124.88
347.763	105.88
347.99	105.88
348.218	112.88
348.445	110.88
348.673	110.88
348.9	94.88
349.128	82.88
349.355	89.88
349.583	94.88
349.81	93.88
350.037	88.88
350.265	104.88
350.492	107.88
350.72	99.88
350.947	100.88
351.174	105.88
351.402	127.88
351.629	110.88
351.856	110.88
352.083	119.88
352.311	119.88
352.538	127.88
352.765	131.88
352.992	123.88
353.22	127.88
353.447	117.88
353.674	113.88
353.901	115.88
354.128	100.88
354.355	95.88
354.583	106.88
354.81	106.88
355.037	109.88
355.264	96.88
355.491	99.88
355.718	92.88
355.945	104.88
356.172	91.88
356.399	89.88
356.626	90.88
356.853	100.88
357.08	83.88
357.307	82.88
357.534	88.88
357.761	100.88
357.988	100.88
358.215	98.88
358.441	103.88
358.668	99.88
358.895	98.88
359.122	96.88
359.349	90.88
359.576	100.88
359.802	128.88
360.029	156.88
360.256	154.88
360.483	106.88
360.709	78.88
360.936	90.88
361.163	110.88
361.39	100.88
361.616	111.88
361.843	103.88
362.07	110.88
362.296	113.88
362.523	100.88
362.749	86.88
362.976	93.88
363.203	83.88
363.429	90.88
363.656	100.88
363.882	99.88
364.109	91.88
364.335	93.88
364.562	99.88
364.788	84.88
365.015	106.88
365.241	118.88
365.468	106.88
365.694	134.88
365.92	98.88
366.147	95.88
366.373	91.88
366.599	103.88
366.826	89.88
367.052	98.88
367.278	111.88
367.505	98.88
367.731	116.88
367.957	90.88
368.184	94.88
368.41	94.88
368.636	140.88
368.862	142.88
369.089	143.88
369.315	112.88
369.541	95.88
369.767	100.88
369.993	104.88
370.219	103.88
370.445	92.88
370.672	85.88
370.898	95.88
371.124	94.88
371.35	79.88
371.576	95.88
371.802	94.88
372.028	89.88
372.254	96.88
372.48	93.88
372.706	85.88
372.932	74.88
373.158	88.88
373.384	86.88
373.61	91.88
373.835	88.88
374.061	92.88
374.287	97.88
374.513	93.88
374.739	99.88
374.965	79.88
375.191	80.88
375.416	98.88
375.642	92.88
375.868	103.88
376.094	102.88
376.319	87.88
376.545	92.88
376.771	91.88
376.997	101.88
377.222	84.88
377.448	108.88
377.674	97.88
377.899	94.88
378.125	99.88
378.35	94.88
378.576	96.88
378.802	97.88
379.027	94.88
379.253	100.88
379.478	100.88
379.704	101.88
379.929	96.88
380.155	106.88
380.38	91.88
380.606	95.88
380.831	111.88
381.057	107.88
381.282	89.88
381.507	97.88
381.733	107.88
381.958	110.88
382.184	109.88
382.409	114.88
382.634	110.88
382.86	103.88
383.085	102.88
383.31	108.88
383.535	98.88
383.761	104.88
383.986	99.88
384.211	106.88
384.436	103.88
384.662	90.88
384.887	100.88
385.112	117.88
385.337	110.88
385.562	117.88
385.787	120.88
386.013	127.88
386.238	121.88
386.463	133.88
386.688	104.88
386.913	119.88
387.138	122.88
387.363	128.88
387.588	107.88
387.813	111.88
388.038	125.88
388.263	110.88
388.488	105.88
388.713	97.88
388.938	95.88
389.163	98.88
389.387	96.88
389.612	95.88
389.837	92.88
390.062	96.88
390.287	86.88
390.512	85.88
390.736	85.88
390.961	89.88
391.186	91.88
391.411	89.88
391.636	87.88
391.86	100.88
392.085	94.88
392.31	90.88
392.534	86.88
392.759	78.88
392.984	89.88
393.208	97.88
393.433	94.88
393.658	102.88
393.882	92.88
394.107	87.88
394.331	88.88
394.556	88.88
394.78	84.88
395.005	88.88
395.229	89.88
395.454	103.88
395.678	90.88
395.903	92.88
396.127	94.88
396.352	98.88
396.576	88.88
396.801	106.88
397.025	84.88
397.249	92.88
397.474	100.88
397.698	92.88
397.922	97.88
398.147	83.88
398.371	59.88
398.595	81.88
398.82	88.88
399.044	79.88
399.268	91.88
399.492	90.88
399.717	91.88
399.941	100.88
400.165	100.88
400.389	95.88
400.613	102.88
400.837	93.88
401.062	87.88
401.286	96.88
401.51	114.88
401.734	102.88
401.958	102.88
402.182	160.88
402.406	230.88
402.63	160.88
402.854	110.88
403.078	102.88
403.302	88.88
403.526	76.88
403.75	92.88
403.974	92.88
404.198	91.88
404.422	87.88
404.645	89.88
404.869	115.88
405.093	148.88
405.317	146.88
405.541	147.88
405.765	130.88
405.988	138.88
406.212	254.88
406.436	339.88
406.66	235.88
406.883	138.88
407.107	112.88
407.331	119.88
407.555	127.88
407.778	104.88
408.002	88.88
408.226	99.88
408.449	104.88
408.673	86.88
408.896	109.88
409.12	106.88
409.344	85.88
409.567	89.88
409.791	96.88
410.014	78.88
410.238	93.88
410.461	101.88
410.685	88.88
410.908	99.88
411.132	117.88
411.355	113.88
411.578	99.88
411.802	102.88
412.025	104.88
412.249	115.88
412.472	128.88
412.695	151.88
412.919	130.88
413.142	107.88
413.365	95.88
413.589	96.88
413.812	85.88
414.035	99.88
414.258	98.88
414.482	98.88
414.705	108.88
414.928	86.88
415.151	94.88
415.374	100.88
415.597	97.88
415.821	103.88
416.044	86.88
416.267	103.88
416.49	91.88
416.713	103.88
416.936	100.88
417.159	97.88
417.382	101.88
417.605	116.88
417.828	118.88
418.051	107.88
418.274	97.88
418.497	100.88
418.72	74.88
418.943	93.88
419.166	91.88
419.389	88.88
419.611	110.88
419.834	90.88
420.057	99.88
420.28	96.88
420.503	98.88
420.726	94.88
420.948	94.88
421.171	109.88
421.394	94.88
421.617	100.88
421.839	90.88
422.062	91.88
422.285	78.88
422.507	105.88
422.73	111.88
422.953	103.88
423.175	101.88
423.398	90.88
423.621	81.88
423.843	96.88
424.066	110.88
424.288	100.88
424.511	108.88
424.733	110.88
424.956	139.88
425.178	114.88
425.401	128.88
425.623	114.88
425.846	107.88
426.068	106.88
426.291	84.88
426.513	101.88
426.735	93.88
426.958	100.88
427.18	123.88
427.402	190.88
427.625	304.88
427.847	298.88
428.069	280.88
428.292	139.88
428.514	113.88
428.736	88.88
428.958	100.88
429.181	100.88
429.403	89.88
429.625	91.88
429.847	106.88
430.069	123.88
430.292	102.88
430.514	69.88
430.736	91.88
430.958	83.88
431.18	100.88
431.402	80.88
431.624	101.88
431.846	83.88
432.068	83.88
432.29	88.88
432.512	84.88
432.734	82.88
432.956	108.88
433.178	100.88
433.4	116.88
433.622	100.88
433.844	90.88
434.066	100.88
434.287	101.88
434.509	91.88
434.731	88.88
434.953	84.88
435.175	101.88
435.397	109.88
435.618	92.88
435.84	113.88
436.062	167.88
436.284	141.88
436.505	107.88
436.727	116.88
436.949	98.88
437.17	90.88
437.392	98.88
437.614	111.88
437.835	136.88
438.057	152.88
438.278	152.88
438.5	120.88
438.721	147.88
438.943	110.88
439.165	74.88
439.386	86.88
439.608	99.88
439.829	112.88
440.05	179.88
440.272	202.88
440.493	119.88
440.715	102.88
440.936	81.88
441.158	84.88
441.379	103.88
441.6	100.88
441.822	107.88
442.043	99.88
442.264	130.88
442.486	107.88
442.707	98.88
442.928	131.88
443.149	199.88
443.371	194.88
443.592	138.88
443.813	146.88
444.034	141.88
444.255	102.88
444.476	83.88
444.698	94.88
444.919	81.88
445.14	137.88
445.361	139.88
445.582	170.88
445.803	218.88
446.024	207.88
446.245	194.88
446.466	153.88
446.687	91.88
446.908	96.88
447.129	86.88
447.35	99.88
447.571	104.88
447.792	95.88
448.013	106.88
448.234	129.88
448.455	115.88
448.675	138.88
448.896	147.88
449.117	120.88
449.338	109.88
449.559	156.88
449.779	169.88
450	107.88
450.221	91.88
450.442	104.88
450.662	109.88
450.883	141.88
451.104	137.88
451.324	104.88
451.545	98.88
451.766	91.88
451.986	94.88
452.207	95.88
452.428	92.88
452.648	109.88
452.869	131.88
453.089	147.88
453.31	173.88
453.53	116.88
453.751	104.88
453.971	126.88
454.192	155.88
454.412	113.88
454.633	89.88
454.853	103.88
455.073	86.88
455.294	106.88
455.514	117.88
455.734	84.88
455.955	98.88
456.175	89.88
456.395	93.88
456.616	83.88
456.836	86.88
457.056	98.88
457.276	80.88
457.497	89.88
457.717	98.88
457.937	89.88
458.157	94.88
458.377	116.88
458.598	135.88
458.818	225.88
459.038	252.88
459.258	163.88
459.478	105.88
459.698	87.88
459.918	82.88
460.138	89.88
460.358	82.88
460.578	95.88
460.798	104.88
461.018	99.88
461.238	97.88
461.458	90.88
461.678	89.88
461.898	94.88
462.118	93.88
462.338	86.88
462.558	104.88
462.777	95.88
462.997	100.88
463.217	130.88
463.437	111.88
463.657	100.88
463.876	99.88
464.096	98.88
464.316	100.88
464.536	112.88
464.755	113.88
464.975	134.88
465.195	255.88
465.414	267.88
465.634	124.88
465.854	104.88
466.073	90.88
466.293	97.88
466.512	84.88
466.732	98.88
466.951	101.88
467.171	104.88
467.391	113.88
467.61	161.88
467.829	263.88
468.049	780.88
468.268	1139.88
468.488	274.88
468.707	108.88
468.927	86.88
469.146	109.88
469.365	94.88
469.585	104.88
469.804	105.88
470.023	111.88
470.243	112.88
470.462	137.88
470.681	167.88
470.901	113.88
471.12	108.88
471.339	100.88
471.558	129.88
471.777	168.88
471.997	370.88
472.216	1529.88
472.435	3490.88
472.654	749.88
472.873	190.88
473.092	115.88
473.311	90.88
473.53	98.88
473.749	105.88
473.968	105.88
474.187	137.88
474.406	108.88
474.625	100.88
474.844	82.88
475.063	99.88
475.282	93.88
475.501	102.88
475.72	91.88
475.939	96.88
476.158	87.88
476.377	86.88
476.596	105.88
476.814	110.88
477.033	110.88
477.252	102.88
477.471	95.88
477.69	96.88
477.908	113.88
478.127	103.88
478.346	95.88
478.564	111.88
478.783	131.88
479.002	107.88
479.22	124.88
479.439	118.88
479.658	155.88
479.876	146.88
480.095	139.88
480.313	150.88
480.532	210.88
480.751	358.88
480.969	1354.88
481.188	6104.88
481.406	3362.88
481.624	450.88
481.843	158.88
482.061	119.88
482.28	104.88
482.498	104.88
482.717	95.88
482.935	104.88
483.153	106.88
483.372	104.88
483.59	97.88
483.808	84.88
484.027	99.88
484.245	90.88
484.463	94.88
484.681	98.88
484.9	82.88
485.118	95.88
485.336	91.88
485.554	105.88
485.772	95.88
485.99	121.88
486.209	124.88
486.427	134.88
486.645	142.88
486.863	135.88
487.081	107.88
487.299	90.88
487.517	102.88
487.735	77.88
487.953	102.88
488.171	109.88
488.389	92.88
488.607	105.88
488.825	93.88
489.043	100.88
489.261	93.88
489.479	95.88
489.696	87.88
489.914	100.88
490.132	94.88
490.35	88.88
490.568	89.88
490.786	91.88
491.003	90.88
491.221	118.88
491.439	104.88
491.657	106.88
491.874	92.88
492.092	103.88
492.31	103.88
492.527	95.88
492.745	90.88
492.963	88.88
493.18	92.88
493.398	88.88
493.615	94.88
493.833	96.88
494.05	87.88
494.268	94.88
494.485	98.88
494.703	80.88
494.92	97.88
495.138	97.88
495.355	95.88
495.573	95.88
495.79	89.88
496.008	91.88
496.225	94.88
496.442	84.88
496.66	90.88
496.877	98.88
497.094	93.88
497.312	104.88
497.529	106.88
497.746	98.88
497.963	93.88
498.181	73.88
498.398	104.88
498.615	123.88
498.832	106.88
499.049	91.88
499.267	91.88
499.484	89.88
499.701	87.88
499.918	90.88
500.135	88.88
500.352	97.88
500.569	106.88
500.786	99.88
501.003	90.88
501.22	100.88
501.437	103.88
501.654	104.88
501.871	136.88
502.088	112.88
502.305	95.88
502.522	102.88
502.739	91.88
502.956	100.88
503.172	83.88
503.389	105.88
503.606	126.88
503.823	112.88
504.04	90.88
504.256	106.88
504.473	93.88
504.69	94.88
504.907	106.88
505.123	98.88
505.34	105.88
505.557	111.88
505.773	89.88
505.99	87.88
506.207	95.88
506.423	85.88
506.64	90.88
506.856	90.88
507.073	91.88
507.289	98.88
507.506	102.88
507.722	148.88
507.939	152.88
508.155	103.88
508.372	92.88
508.588	94.88
508.805	83.88
509.021	104.88
509.238	118.88
509.454	108.88
509.67	105.88
509.887	109.88
510.103	144.88
510.319	282.88
510.536	1023.88
510.752	3754.88
510.968	1020.88
511.184	200.88
