Data from Circ_1998_H10_HRD10591_00014.txt Node
Date: Wed Jan 03 11:26:51 EST 2024
User: Yrep
Spectrometer: HR+D1059
Trigger mode: 1
Integration Time (sec): 1.000000E-1
Scans to average: 1
Electric dark correction enabled: true
Nonlinearity correction enabled: false
Boxcar width: 0
XAxis mode: Wavelengths
Number of Pixels in Spectrum: 2048
>>>>>Begin Spectral Data<<<<<
223.165	-19.56
223.4	-19.56
223.635	-19.56
223.869	-15.56
224.104	-17.56
224.338	-7.56
224.573	-6.56
224.808	-20.56
225.042	-16.56
225.277	-6.56
225.511	-8.56
225.746	8.44
225.98	5.44
226.215	8.44
226.449	23.44
226.683	19.44
226.918	28.44
227.152	25.44
227.387	31.44
227.621	55.44
227.856	28.44
228.09	51.44
228.324	47.44
228.559	58.44
228.793	57.44
229.027	51.44
229.262	78.44
229.496	77.44
229.73	96.44
229.964	98.44
230.199	73.44
230.433	72.44
230.667	81.44
230.901	66.44
231.136	83.44
231.37	93.44
231.604	79.44
231.838	62.44
232.072	70.44
232.306	84.44
232.541	78.44
232.775	81.44
233.009	91.44
233.243	69.44
233.477	79.44
233.711	73.44
233.945	87.44
234.179	64.44
234.413	77.44
234.647	56.44
234.881	74.44
235.115	76.44
235.349	71.44
235.583	88.44
235.817	72.44
236.051	85.44
236.285	69.44
236.519	81.44
236.753	77.44
236.987	89.44
237.221	89.44
237.455	88.44
237.689	76.44
237.922	76.44
238.156	88.44
238.39	78.44
238.624	77.44
238.858	88.44
239.091	88.44
239.325	76.44
239.559	88.44
239.793	73.44
240.027	80.44
240.26	74.44
240.494	66.44
240.728	87.44
240.961	70.44
241.195	85.44
241.429	86.44
241.662	73.44
241.896	74.44
242.13	80.44
242.363	62.44
242.597	82.44
242.83	86.44
243.064	69.44
243.298	97.44
243.531	83.44
243.765	81.44
243.998	85.44
244.232	68.44
244.465	75.44
244.699	90.44
244.932	71.44
245.166	80.44
245.399	70.44
245.633	75.44
245.866	89.44
246.099	80.44
246.333	62.44
246.566	75.44
246.8	77.44
247.033	82.44
247.266	69.44
247.5	81.44
247.733	84.44
247.966	90.44
248.2	91.44
248.433	90.44
248.666	87.44
248.899	72.44
249.133	108.44
249.366	105.44
249.599	109.44
249.832	96.44
250.066	89.44
250.299	87.44
250.532	87.44
250.765	86.44
250.998	75.44
251.231	79.44
251.465	79.44
251.698	106.44
251.931	78.44
252.164	83.44
252.397	88.44
252.63	81.44
252.863	91.44
253.096	80.44
253.329	87.44
253.562	77.44
253.795	77.44
254.028	77.44
254.261	78.44
254.494	85.44
254.727	88.44
254.96	69.44
255.193	76.44
255.426	94.44
255.659	93.44
255.892	91.44
256.124	94.44
256.357	80.44
256.59	96.44
256.823	88.44
257.056	98.44
257.289	88.44
257.521	86.44
257.754	78.44
257.987	88.44
258.22	81.44
258.452	93.44
258.685	99.44
258.918	84.44
259.151	82.44
259.383	98.44
259.616	87.44
259.849	85.44
260.081	96.44
260.314	85.44
260.547	89.44
260.779	108.44
261.012	113.44
261.244	104.44
261.477	93.44
261.71	108.44
261.942	117.44
262.175	138.44
262.407	99.44
262.64	76.44
262.872	88.44
263.105	86.44
263.337	84.44
263.57	91.44
263.802	87.44
264.035	94.44
264.267	79.44
264.499	77.44
264.732	84.44
264.964	85.44
265.197	76.44
265.429	80.44
265.661	81.44
265.894	90.44
266.126	95.44
266.358	80.44
266.591	99.44
266.823	91.44
267.055	84.44
267.287	75.44
267.52	73.44
267.752	81.44
267.984	85.44
268.216	87.44
268.448	79.44
268.681	84.44
268.913	81.44
269.145	97.44
269.377	89.44
269.609	90.44
269.841	100.44
270.073	90.44
270.306	90.44
270.538	94.44
270.77	94.44
271.002	97.44
271.234	83.44
271.466	106.44
271.698	93.44
271.93	85.44
272.162	78.44
272.394	90.44
272.626	89.44
272.858	86.44
273.09	83.44
273.322	91.44
273.553	90.44
273.785	104.44
274.017	78.44
274.249	94.44
274.481	89.44
274.713	83.44
274.945	97.44
275.176	91.44
275.408	107.44
275.64	109.44
275.872	125.44
276.104	112.44
276.335	101.44
276.567	111.44
276.799	166.44
277.031	174.44
277.262	201.44
277.494	154.44
277.726	99.44
277.957	87.44
278.189	94.44
278.421	87.44
278.652	89.44
278.884	88.44
279.115	96.44
279.347	97.44
279.579	98.44
279.81	134.44
280.042	171.44
280.273	250.44
280.505	173.44
280.736	108.44
280.968	106.44
281.199	99.44
281.431	90.44
281.662	101.44
281.894	98.44
282.125	113.44
282.356	136.44
282.588	161.44
282.819	133.44
283.051	102.44
283.282	84.44
283.513	86.44
283.745	95.44
283.976	81.44
284.207	88.44
284.439	93.44
284.67	91.44
284.901	100.44
285.132	80.44
285.364	91.44
285.595	90.44
285.826	100.44
286.057	78.44
286.288	99.44
286.52	83.44
286.751	92.44
286.982	100.44
287.213	89.44
287.444	94.44
287.675	103.44
287.906	92.44
288.138	96.44
288.369	106.44
288.6	87.44
288.831	84.44
289.062	92.44
289.293	86.44
289.524	89.44
289.755	95.44
289.986	80.44
290.217	73.44
290.448	92.44
290.679	75.44
290.91	97.44
291.141	88.44
291.371	87.44
291.602	91.44
291.833	78.44
292.064	85.44
292.295	76.44
292.526	91.44
292.757	101.44
292.987	71.44
293.218	88.44
293.449	96.44
293.68	92.44
293.91	87.44
294.141	89.44
294.372	82.44
294.603	80.44
294.833	93.44
295.064	75.44
295.295	81.44
295.525	93.44
295.756	112.44
295.987	135.44
296.217	161.44
296.448	149.44
296.679	96.44
296.909	101.44
297.14	93.44
297.37	84.44
297.601	89.44
297.831	96.44
298.062	93.44
298.292	88.44
298.523	81.44
298.753	90.44
298.984	89.44
299.214	104.44
299.445	92.44
299.675	87.44
299.905	105.44
300.136	86.44
300.366	101.44
300.597	103.44
300.827	91.44
301.057	119.44
301.288	120.44
301.518	97.44
301.748	97.44
301.979	94.44
302.209	93.44
302.439	88.44
302.669	94.44
302.9	82.44
303.13	99.44
303.36	105.44
303.59	130.44
303.82	150.44
304.051	117.44
304.281	101.44
304.511	101.44
304.741	89.44
304.971	93.44
305.201	105.44
305.431	99.44
305.661	87.44
305.891	85.44
306.121	98.44
306.352	108.44
306.582	122.44
306.812	106.44
307.042	101.44
307.272	152.44
307.502	180.44
307.731	169.44
307.961	133.44
308.191	95.44
308.421	77.44
308.651	96.44
308.881	96.44
309.111	105.44
309.341	113.44
309.571	106.44
309.8	97.44
310.03	122.44
310.26	98.44
310.49	117.44
310.72	114.44
310.949	115.44
311.179	121.44
311.409	109.44
311.639	94.44
311.868	102.44
312.098	110.44
312.328	110.44
312.557	107.44
312.787	108.44
313.017	105.44
313.246	92.44
313.476	92.44
313.706	92.44
313.935	81.44
314.165	96.44
314.394	125.44
314.624	122.44
314.853	89.44
315.083	106.44
315.312	88.44
315.542	95.44
315.771	93.44
316.001	90.44
316.23	82.44
316.46	87.44
316.689	99.44
316.919	106.44
317.148	106.44
317.377	94.44
317.607	100.44
317.836	98.44
318.065	101.44
318.295	90.44
318.524	97.44
318.753	92.44
318.983	95.44
319.212	112.44
319.441	140.44
319.67	124.44
319.9	102.44
320.129	111.44
320.358	116.44
320.587	86.44
320.816	97.44
321.046	117.44
321.275	108.44
321.504	93.44
321.733	90.44
321.962	110.44
322.191	113.44
322.42	118.44
322.649	134.44
322.878	136.44
323.108	134.44
323.337	157.44
323.566	179.44
323.795	197.44
324.024	277.44
324.253	562.44
324.482	1294.44
324.71	2797.44
324.939	3798.44
325.168	1333.44
325.397	355.44
325.626	183.44
325.855	165.44
326.084	156.44
326.313	155.44
326.542	210.44
326.77	329.44
326.999	665.44
327.228	1434.44
327.457	2748.44
327.686	2234.44
327.914	689.44
328.143	561.44
328.372	678.44
328.6	377.44
328.829	187.44
329.058	205.44
329.287	206.44
329.515	189.44
329.744	254.44
329.972	514.44
330.201	1023.44
330.43	1500.44
330.658	689.44
330.887	301.44
331.115	184.44
331.344	129.44
331.572	128.44
331.801	138.44
332.03	117.44
332.258	133.44
332.486	126.44
332.715	125.44
332.943	134.44
333.172	135.44
333.4	139.44
333.629	174.44
333.857	249.44
334.085	447.44
334.314	954.44
334.542	1955.44
334.771	1839.44
334.999	441.44
335.227	187.44
335.455	107.44
335.684	111.44
335.912	103.44
336.14	127.44
336.369	98.44
336.597	121.44
336.825	108.44
337.053	95.44
337.281	94.44
337.51	92.44
337.738	102.44
337.966	101.44
338.194	95.44
338.422	108.44
338.65	103.44
338.878	97.44
339.106	91.44
339.334	96.44
339.562	105.44
339.79	86.44
340.018	89.44
340.246	107.44
340.474	99.44
340.702	107.44
340.93	84.44
341.158	81.44
341.386	105.44
341.614	110.44
341.842	113.44
342.07	90.44
342.298	106.44
342.526	86.44
342.754	86.44
342.981	82.44
343.209	89.44
343.437	96.44
343.665	101.44
343.893	97.44
344.12	102.44
344.348	104.44
344.576	104.44
344.804	90.44
345.031	110.44
345.259	118.44
345.487	96.44
345.714	98.44
345.942	100.44
346.17	97.44
346.397	103.44
346.625	101.44
346.853	102.44
347.08	101.44
347.308	95.44
347.535	115.44
347.763	118.44
347.99	103.44
348.218	113.44
348.445	118.44
348.673	96.44
348.9	110.44
349.128	91.44
349.355	95.44
349.583	76.44
349.81	91.44
350.037	96.44
350.265	90.44
350.492	97.44
350.72	97.44
350.947	114.44
351.174	104.44
351.402	119.44
351.629	98.44
351.856	109.44
352.083	118.44
352.311	116.44
352.538	141.44
352.765	139.44
352.992	109.44
353.22	117.44
353.447	119.44
353.674	94.44
353.901	98.44
354.128	93.44
354.355	103.44
354.583	103.44
354.81	97.44
355.037	75.44
355.264	89.44
355.491	99.44
355.718	79.44
355.945	95.44
356.172	92.44
356.399	87.44
356.626	104.44
356.853	101.44
357.08	92.44
357.307	85.44
357.534	95.44
357.761	94.44
357.988	101.44
358.215	97.44
358.441	107.44
358.668	98.44
358.895	101.44
359.122	88.44
359.349	95.44
359.576	104.44
359.802	119.44
360.029	147.44
360.256	153.44
360.483	122.44
360.709	77.44
360.936	103.44
361.163	96.44
361.39	111.44
361.616	97.44
361.843	93.44
362.07	98.44
362.296	100.44
362.523	101.44
362.749	108.44
362.976	100.44
363.203	97.44
363.429	83.44
363.656	93.44
363.882	85.44
364.109	108.44
364.335	95.44
364.562	81.44
364.788	101.44
365.015	94.44
365.241	103.44
365.468	117.44
365.694	118.44
365.92	102.44
366.147	107.44
366.373	100.44
366.599	98.44
366.826	71.44
367.052	94.44
367.278	72.44
367.505	87.44
367.731	106.44
367.957	91.44
368.184	84.44
368.41	113.44
368.636	143.44
368.862	123.44
369.089	130.44
369.315	114.44
369.541	94.44
369.767	94.44
369.993	98.44
370.219	111.44
370.445	92.44
370.672	93.44
370.898	94.44
371.124	88.44
371.35	80.44
371.576	93.44
371.802	100.44
372.028	94.44
372.254	97.44
372.48	93.44
372.706	92.44
372.932	69.44
373.158	93.44
373.384	91.44
373.61	98.44
373.835	88.44
374.061	87.44
374.287	102.44
374.513	90.44
374.739	95.44
374.965	81.44
375.191	78.44
375.416	94.44
375.642	86.44
375.868	91.44
376.094	84.44
376.319	96.44
376.545	95.44
376.771	91.44
376.997	93.44
377.222	97.44
377.448	90.44
377.674	88.44
377.899	74.44
378.125	92.44
378.35	96.44
378.576	101.44
378.802	97.44
379.027	88.44
379.253	106.44
379.478	96.44
379.704	102.44
379.929	113.44
380.155	105.44
380.38	87.44
380.606	105.44
380.831	105.44
381.057	98.44
381.282	99.44
381.507	105.44
381.733	118.44
381.958	99.44
382.184	105.44
382.409	102.44
382.634	98.44
382.86	104.44
383.085	112.44
383.31	113.44
383.535	112.44
383.761	108.44
383.986	111.44
384.211	100.44
384.436	117.44
384.662	98.44
384.887	124.44
385.112	119.44
385.337	101.44
385.562	119.44
385.787	120.44
386.013	118.44
386.238	157.44
386.463	125.44
386.688	121.44
386.913	111.44
387.138	131.44
387.363	118.44
387.588	98.44
387.813	87.44
388.038	116.44
388.263	136.44
388.488	113.44
388.713	95.44
388.938	97.44
389.163	90.44
389.387	99.44
389.612	87.44
389.837	104.44
390.062	87.44
390.287	88.44
390.512	80.44
390.736	94.44
390.961	75.44
391.186	90.44
391.411	88.44
391.636	80.44
391.86	94.44
392.085	93.44
392.31	88.44
392.534	95.44
392.759	97.44
392.984	89.44
393.208	103.44
393.433	121.44
393.658	95.44
393.882	77.44
394.107	85.44
394.331	90.44
394.556	81.44
394.78	81.44
395.005	84.44
395.229	90.44
395.454	87.44
395.678	73.44
395.903	94.44
396.127	88.44
396.352	88.44
396.576	89.44
396.801	98.44
397.025	99.44
397.249	83.44
397.474	95.44
397.698	89.44
397.922	85.44
398.147	95.44
398.371	93.44
398.595	77.44
398.82	85.44
399.044	91.44
399.268	88.44
399.492	95.44
399.717	89.44
399.941	93.44
400.165	95.44
400.389	88.44
400.613	75.44
400.837	78.44
401.062	86.44
401.286	108.44
401.51	95.44
401.734	88.44
401.958	110.44
402.182	157.44
402.406	199.44
402.63	175.44
402.854	114.44
403.078	94.44
403.302	88.44
403.526	84.44
403.75	88.44
403.974	94.44
404.198	99.44
404.422	93.44
404.645	99.44
404.869	95.44
405.093	119.44
405.317	155.44
405.541	153.44
405.765	120.44
405.988	143.44
406.212	213.44
406.436	330.44
406.66	217.44
406.883	122.44
407.107	115.44
407.331	112.44
407.555	106.44
407.778	102.44
408.002	97.44
408.226	103.44
408.449	81.44
408.673	104.44
408.896	100.44
409.12	111.44
409.344	83.44
409.567	92.44
409.791	89.44
410.014	103.44
410.238	95.44
410.461	83.44
410.685	91.44
410.908	112.44
411.132	113.44
411.355	101.44
411.578	92.44
411.802	90.44
412.025	85.44
412.249	100.44
412.472	123.44
412.695	146.44
412.919	96.44
413.142	87.44
413.365	75.44
413.589	97.44
413.812	96.44
414.035	103.44
414.258	100.44
414.482	111.44
414.705	82.44
414.928	87.44
415.151	83.44
415.374	92.44
415.597	85.44
415.821	97.44
416.044	99.44
416.267	87.44
416.49	74.44
416.713	97.44
416.936	95.44
417.159	98.44
417.382	99.44
417.605	109.44
417.828	114.44
418.051	108.44
418.274	86.44
418.497	97.44
418.72	71.44
418.943	103.44
419.166	89.44
419.389	100.44
419.611	96.44
419.834	87.44
420.057	89.44
420.28	95.44
420.503	82.44
420.726	89.44
420.948	76.44
421.171	110.44
421.394	113.44
421.617	102.44
421.839	89.44
422.062	98.44
422.285	99.44
422.507	96.44
422.73	117.44
422.953	102.44
423.175	75.44
423.398	100.44
423.621	104.44
423.843	94.44
424.066	109.44
424.288	76.44
424.511	83.44
424.733	114.44
424.956	117.44
425.178	112.44
425.401	97.44
425.623	103.44
425.846	102.44
426.068	97.44
426.291	99.44
426.513	91.44
426.735	90.44
426.958	106.44
427.18	136.44
427.402	187.44
427.625	279.44
427.847	267.44
428.069	244.44
428.292	141.44
428.514	104.44
428.736	101.44
428.958	98.44
429.181	87.44
429.403	87.44
429.625	80.44
429.847	101.44
430.069	110.44
430.292	92.44
430.514	93.44
430.736	80.44
430.958	82.44
431.18	81.44
431.402	93.44
431.624	80.44
431.846	96.44
432.068	91.44
432.29	92.44
432.512	95.44
432.734	98.44
432.956	97.44
433.178	95.44
433.4	106.44
433.622	96.44
433.844	90.44
434.066	92.44
434.287	94.44
434.509	76.44
434.731	98.44
434.953	73.44
435.175	90.44
435.397	96.44
435.618	98.44
435.84	114.44
436.062	180.44
436.284	128.44
436.505	110.44
436.727	106.44
436.949	94.44
437.17	82.44
437.392	77.44
437.614	98.44
437.835	131.44
438.057	164.44
438.278	149.44
438.5	119.44
438.721	165.44
438.943	111.44
439.165	86.44
439.386	86.44
439.608	95.44
439.829	123.44
440.05	159.44
440.272	206.44
440.493	105.44
440.715	99.44
440.936	92.44
441.158	97.44
441.379	82.44
441.6	115.44
441.822	112.44
442.043	110.44
442.264	125.44
442.486	118.44
442.707	107.44
442.928	130.44
443.149	176.44
443.371	176.44
443.592	130.44
443.813	135.44
444.034	138.44
444.255	112.44
444.476	92.44
444.698	97.44
444.919	80.44
445.14	132.44
445.361	158.44
445.582	154.44
445.803	205.44
446.024	197.44
446.245	189.44
446.466	158.44
446.687	98.44
446.908	91.44
447.129	107.44
447.35	90.44
447.571	79.44
447.792	102.44
448.013	111.44
448.234	122.44
448.455	123.44
448.675	139.44
448.896	150.44
449.117	110.44
449.338	123.44
449.559	156.44
449.779	175.44
450	111.44
450.221	98.44
450.442	94.44
450.662	107.44
450.883	121.44
451.104	135.44
451.324	103.44
451.545	96.44
451.766	88.44
451.986	102.44
452.207	96.44
452.428	97.44
452.648	101.44
452.869	128.44
453.089	127.44
453.31	150.44
453.53	91.44
453.751	94.44
453.971	115.44
454.192	123.44
454.412	98.44
454.633	89.44
454.853	93.44
455.073	82.44
455.294	122.44
455.514	120.44
455.734	109.44
455.955	97.44
456.175	78.44
456.395	102.44
456.616	86.44
456.836	84.44
457.056	87.44
457.276	83.44
457.497	87.44
457.717	86.44
457.937	92.44
458.157	87.44
458.377	99.44
458.598	117.44
458.818	239.44
459.038	235.44
459.258	141.44
459.478	92.44
459.698	84.44
459.918	89.44
460.138	85.44
460.358	81.44
460.578	88.44
460.798	97.44
461.018	79.44
461.238	96.44
461.458	84.44
461.678	83.44
461.898	78.44
462.118	89.44
462.338	88.44
462.558	98.44
462.777	91.44
462.997	102.44
463.217	110.44
463.437	102.44
463.657	79.44
463.876	91.44
464.096	99.44
464.316	111.44
464.536	109.44
464.755	104.44
464.975	128.44
465.195	230.44
465.414	249.44
465.634	112.44
465.854	92.44
466.073	90.44
466.293	97.44
466.512	94.44
466.732	83.44
466.951	99.44
467.171	102.44
467.391	118.44
467.61	145.44
467.829	220.44
468.049	589.44
468.268	866.44
468.488	221.44
468.707	101.44
468.927	102.44
469.146	75.44
469.365	103.44
469.585	91.44
469.804	114.44
470.023	100.44
470.243	105.44
470.462	120.44
470.681	141.44
470.901	109.44
471.12	113.44
471.339	117.44
471.558	129.44
471.777	140.44
471.997	341.44
472.216	1177.44
472.435	2720.44
472.654	625.44
472.873	169.44
473.092	112.44
473.311	103.44
473.53	111.44
473.749	103.44
473.968	97.44
474.187	130.44
474.406	103.44
474.625	90.44
474.844	97.44
475.063	91.44
475.282	90.44
475.501	95.44
475.72	95.44
475.939	90.44
476.158	104.44
476.377	75.44
476.596	93.44
476.814	99.44
477.033	92.44
477.252	93.44
477.471	84.44
477.69	100.44
477.908	105.44
478.127	97.44
478.346	103.44
478.564	97.44
478.783	107.44
479.002	102.44
479.22	105.44
479.439	115.44
479.658	155.44
479.876	127.44
480.095	122.44
480.313	147.44
480.532	180.44
480.751	317.44
480.969	1113.44
481.188	4729.44
481.406	2681.44
481.624	389.44
481.843	144.44
482.061	103.44
482.28	99.44
482.498	106.44
482.717	82.44
482.935	105.44
483.153	95.44
483.372	86.44
483.59	101.44
483.808	102.44
484.027	107.44
484.245	90.44
484.463	93.44
484.681	108.44
484.9	96.44
485.118	96.44
485.336	92.44
485.554	100.44
485.772	101.44
485.99	111.44
486.209	118.44
486.427	114.44
486.645	143.44
486.863	122.44
487.081	102.44
487.299	104.44
487.517	97.44
487.735	91.44
487.953	104.44
488.171	92.44
488.389	88.44
488.607	101.44
488.825	104.44
489.043	94.44
489.261	94.44
489.479	90.44
489.696	89.44
489.914	94.44
490.132	101.44
490.35	95.44
490.568	77.44
490.786	77.44
491.003	86.44
491.221	89.44
491.439	107.44
491.657	93.44
491.874	79.44
492.092	95.44
492.31	98.44
492.527	102.44
492.745	85.44
492.963	98.44
493.18	91.44
493.398	105.44
493.615	103.44
493.833	85.44
494.05	92.44
494.268	95.44
494.485	105.44
494.703	108.44
494.92	90.44
495.138	94.44
495.355	85.44
495.573	106.44
495.79	103.44
496.008	105.44
496.225	91.44
496.442	94.44
496.66	93.44
496.877	88.44
497.094	89.44
497.312	86.44
497.529	91.44
497.746	93.44
497.963	103.44
498.181	87.44
498.398	96.44
498.615	118.44
498.832	115.44
499.049	116.44
499.267	88.44
499.484	85.44
499.701	94.44
499.918	101.44
500.135	85.44
500.352	86.44
500.569	74.44
500.786	91.44
501.003	88.44
501.22	82.44
501.437	95.44
501.654	93.44
501.871	111.44
502.088	93.44
502.305	104.44
502.522	89.44
502.739	92.44
502.956	108.44
503.172	99.44
503.389	98.44
503.606	126.44
503.823	110.44
504.04	97.44
504.256	93.44
504.473	96.44
504.69	88.44
504.907	103.44
505.123	94.44
505.34	88.44
505.557	89.44
505.773	79.44
505.99	83.44
506.207	89.44
506.423	70.44
506.64	95.44
506.856	105.44
507.073	97.44
507.289	110.44
507.506	108.44
507.722	138.44
507.939	130.44
508.155	103.44
508.372	90.44
508.588	95.44
508.805	101.44
509.021	110.44
509.238	110.44
509.454	111.44
509.67	102.44
509.887	119.44
510.103	146.44
510.319	267.44
510.536	1004.44
510.752	3601.44
510.968	921.44
511.184	170.44
511.401	140.44
511.617	112.44
511.833	109.44
512.049	104.44
512.265	98.44
512.481	99.44
