Data from Circ_1998_H10_HRD10591_00049.txt Node
Date: Wed Jan 03 11:26:58 EST 2024
User: Yrep
Spectrometer: HR+D1059
Trigger mode: 1
Integration Time (sec): 1.000000E-1
Scans to average: 1
Electric dark correction enabled: true
Nonlinearity correction enabled: false
Boxcar width: 0
XAxis mode: Wavelengths
Number of Pixels in Spectrum: 2048
>>>>>Begin Spectral Data<<<<<
223.165	-20.38
223.4	-20.38
223.635	-20.38
223.869	-16.38
224.104	-13.38
224.338	-5.38
224.573	-22.38
224.808	-25.38
225.042	-15.38
225.277	-10.38
225.511	0.62
225.746	17.62
225.98	15.62
226.215	4.62
226.449	27.62
226.683	12.62
226.918	17.62
227.152	32.62
227.387	40.62
227.621	54.62
227.856	49.62
228.09	48.62
228.324	49.62
228.559	64.62
228.793	58.62
229.027	79.62
229.262	72.62
229.496	78.62
229.73	94.62
229.964	97.62
230.199	82.62
230.433	79.62
230.667	77.62
230.901	77.62
231.136	79.62
231.37	86.62
231.604	83.62
231.838	87.62
232.072	91.62
232.306	98.62
232.541	87.62
232.775	77.62
233.009	80.62
233.243	84.62
233.477	75.62
233.711	78.62
233.945	79.62
234.179	87.62
234.413	82.62
234.647	74.62
234.881	88.62
235.115	80.62
235.349	78.62
235.583	77.62
235.817	74.62
236.051	81.62
236.285	82.62
236.519	64.62
236.753	88.62
236.987	89.62
237.221	83.62
237.455	93.62
237.689	86.62
237.922	81.62
238.156	84.62
238.39	91.62
238.624	96.62
238.858	76.62
239.091	78.62
239.325	108.62
239.559	79.62
239.793	80.62
240.027	78.62
240.26	85.62
240.494	75.62
240.728	73.62
240.961	78.62
241.195	74.62
241.429	64.62
241.662	79.62
241.896	82.62
242.13	84.62
242.363	78.62
242.597	94.62
242.83	80.62
243.064	83.62
243.298	87.62
243.531	92.62
243.765	77.62
243.998	80.62
244.232	96.62
244.465	93.62
244.699	95.62
244.932	91.62
245.166	81.62
245.399	72.62
245.633	78.62
245.866	84.62
246.099	89.62
246.333	81.62
246.566	91.62
246.8	70.62
247.033	82.62
247.266	80.62
247.5	63.62
247.733	77.62
247.966	82.62
248.2	79.62
248.433	85.62
248.666	86.62
248.899	74.62
249.133	89.62
249.366	113.62
249.599	111.62
249.832	92.62
250.066	75.62
250.299	87.62
250.532	95.62
250.765	100.62
250.998	88.62
251.231	84.62
251.465	82.62
251.698	77.62
251.931	93.62
252.164	83.62
252.397	83.62
252.63	69.62
252.863	90.62
253.096	97.62
253.329	89.62
253.562	98.62
253.795	92.62
254.028	79.62
254.261	89.62
254.494	84.62
254.727	88.62
254.96	82.62
255.193	82.62
255.426	81.62
255.659	103.62
255.892	106.62
256.124	92.62
256.357	78.62
256.59	77.62
256.823	82.62
257.056	95.62
257.289	91.62
257.521	101.62
257.754	87.62
257.987	85.62
258.22	98.62
258.452	108.62
258.685	109.62
258.918	112.62
259.151	79.62
259.383	89.62
259.616	92.62
259.849	74.62
260.081	95.62
260.314	96.62
260.547	90.62
260.779	84.62
261.012	123.62
261.244	120.62
261.477	105.62
261.71	96.62
261.942	150.62
262.175	140.62
262.407	83.62
262.64	89.62
262.872	92.62
263.105	91.62
263.337	94.62
263.57	78.62
263.802	83.62
264.035	80.62
264.267	90.62
264.499	96.62
264.732	82.62
264.964	95.62
265.197	95.62
265.429	90.62
265.661	101.62
265.894	82.62
266.126	91.62
266.358	81.62
266.591	67.62
266.823	74.62
267.055	81.62
267.287	88.62
267.52	88.62
267.752	98.62
267.984	74.62
268.216	86.62
268.448	86.62
268.681	94.62
268.913	96.62
269.145	71.62
269.377	85.62
269.609	74.62
269.841	94.62
270.073	82.62
270.306	95.62
270.538	72.62
270.77	96.62
271.002	97.62
271.234	87.62
271.466	85.62
271.698	92.62
271.93	86.62
272.162	103.62
272.394	103.62
272.626	98.62
272.858	89.62
273.09	86.62
273.322	83.62
273.553	90.62
273.785	83.62
274.017	88.62
274.249	79.62
274.481	95.62
274.713	95.62
274.945	96.62
275.176	94.62
275.408	102.62
275.64	123.62
275.872	134.62
276.104	103.62
276.335	111.62
276.567	111.62
276.799	160.62
277.031	196.62
277.262	219.62
277.494	174.62
277.726	102.62
277.957	102.62
278.189	97.62
278.421	95.62
278.652	100.62
278.884	85.62
279.115	117.62
279.347	91.62
279.579	91.62
279.81	161.62
280.042	236.62
280.273	318.62
280.505	214.62
280.736	115.62
280.968	84.62
281.199	91.62
281.431	95.62
281.662	90.62
281.894	93.62
282.125	105.62
282.356	129.62
282.588	178.62
282.819	150.62
283.051	93.62
283.282	104.62
283.513	97.62
283.745	75.62
283.976	85.62
284.207	91.62
284.439	95.62
284.67	93.62
284.901	88.62
285.132	91.62
285.364	95.62
285.595	92.62
285.826	79.62
286.057	101.62
286.288	98.62
286.52	103.62
286.751	86.62
286.982	90.62
287.213	87.62
287.444	92.62
287.675	88.62
287.906	91.62
288.138	105.62
288.369	97.62
288.6	92.62
288.831	76.62
289.062	79.62
289.293	106.62
289.524	82.62
289.755	82.62
289.986	86.62
290.217	83.62
290.448	80.62
290.679	93.62
290.91	83.62
291.141	91.62
291.371	82.62
291.602	103.62
291.833	85.62
292.064	90.62
292.295	96.62
292.526	90.62
292.757	86.62
292.987	83.62
293.218	95.62
293.449	92.62
293.68	91.62
293.91	87.62
294.141	92.62
294.372	90.62
294.603	93.62
294.833	104.62
295.064	97.62
295.295	92.62
295.525	100.62
295.756	104.62
295.987	114.62
296.217	170.62
296.448	142.62
296.679	105.62
296.909	88.62
297.14	97.62
297.37	90.62
297.601	99.62
297.831	96.62
298.062	108.62
298.292	100.62
298.523	96.62
298.753	108.62
298.984	95.62
299.214	87.62
299.445	95.62
299.675	95.62
299.905	102.62
300.136	95.62
300.366	85.62
300.597	81.62
300.827	108.62
301.057	119.62
301.288	114.62
301.518	109.62
301.748	108.62
301.979	111.62
302.209	90.62
302.439	94.62
302.669	81.62
302.9	82.62
303.13	104.62
303.36	113.62
303.59	150.62
303.82	181.62
304.051	116.62
304.281	110.62
304.511	91.62
304.741	94.62
304.971	87.62
305.201	103.62
305.431	99.62
305.661	91.62
305.891	90.62
306.121	89.62
306.352	124.62
306.582	127.62
306.812	109.62
307.042	140.62
307.272	173.62
307.502	229.62
307.731	214.62
307.961	129.62
308.191	98.62
308.421	98.62
308.651	101.62
308.881	98.62
309.111	93.62
309.341	101.62
309.571	117.62
309.8	97.62
310.03	107.62
310.26	94.62
310.49	104.62
310.72	110.62
310.949	127.62
311.179	126.62
311.409	104.62
311.639	101.62
311.868	92.62
312.098	105.62
312.328	114.62
312.557	123.62
312.787	129.62
313.017	114.62
313.246	85.62
313.476	98.62
313.706	95.62
313.935	104.62
314.165	113.62
314.394	112.62
314.624	102.62
314.853	109.62
315.083	94.62
315.312	99.62
315.542	98.62
315.771	103.62
316.001	87.62
316.23	93.62
316.46	97.62
316.689	100.62
316.919	108.62
317.148	106.62
317.377	97.62
317.607	111.62
317.836	106.62
318.065	89.62
318.295	95.62
318.524	105.62
318.753	84.62
318.983	116.62
319.212	123.62
319.441	129.62
319.67	119.62
319.9	97.62
320.129	91.62
320.358	106.62
320.587	113.62
320.816	110.62
321.046	116.62
321.275	113.62
321.504	94.62
321.733	104.62
321.962	110.62
322.191	100.62
322.42	108.62
322.649	125.62
322.878	130.62
323.108	124.62
323.337	172.62
323.566	179.62
323.795	199.62
324.024	270.62
324.253	547.62
324.482	1166.62
324.71	2414.62
324.939	3190.62
325.168	1150.62
325.397	318.62
325.626	191.62
325.855	158.62
326.084	158.62
326.313	139.62
326.542	173.62
326.77	296.62
326.999	610.62
327.228	1242.62
327.457	2333.62
327.686	1850.62
327.914	654.62
328.143	666.62
328.372	860.62
328.6	471.62
328.829	212.62
329.058	203.62
329.287	233.62
329.515	201.62
329.744	332.62
329.972	635.62
330.201	1339.62
330.43	1953.62
330.658	838.62
330.887	332.62
331.115	190.62
331.344	140.62
331.572	136.62
331.801	124.62
332.03	148.62
332.258	127.62
332.486	107.62
332.715	98.62
332.943	137.62
333.172	134.62
333.4	155.62
333.629	179.62
333.857	273.62
334.085	559.62
334.314	1251.62
334.542	2453.62
334.771	2275.62
334.999	563.62
335.227	222.62
335.455	149.62
335.684	127.62
335.912	111.62
336.14	98.62
336.369	109.62
336.597	133.62
336.825	135.62
337.053	99.62
337.281	115.62
337.51	103.62
337.738	104.62
337.966	95.62
338.194	106.62
338.422	103.62
338.65	108.62
338.878	92.62
339.106	102.62
339.334	105.62
339.562	111.62
339.79	98.62
340.018	106.62
340.246	108.62
340.474	97.62
340.702	97.62
340.93	107.62
341.158	95.62
341.386	100.62
341.614	110.62
341.842	100.62
342.07	100.62
342.298	102.62
342.526	102.62
342.754	97.62
342.981	87.62
343.209	86.62
343.437	109.62
343.665	90.62
343.893	82.62
344.12	95.62
344.348	83.62
344.576	91.62
344.804	93.62
345.031	97.62
345.259	110.62
345.487	118.62
345.714	89.62
345.942	87.62
346.17	105.62
346.397	107.62
346.625	102.62
346.853	97.62
347.08	84.62
347.308	99.62
347.535	109.62
347.763	111.62
347.99	101.62
348.218	110.62
348.445	114.62
348.673	107.62
348.9	98.62
349.128	92.62
349.355	86.62
349.583	99.62
349.81	98.62
350.037	94.62
350.265	84.62
350.492	96.62
350.72	107.62
350.947	116.62
351.174	119.62
351.402	135.62
351.629	103.62
351.856	115.62
352.083	112.62
352.311	109.62
352.538	112.62
352.765	134.62
352.992	133.62
353.22	127.62
353.447	107.62
353.674	113.62
353.901	113.62
354.128	112.62
354.355	109.62
354.583	101.62
354.81	108.62
355.037	95.62
355.264	92.62
355.491	106.62
355.718	103.62
355.945	99.62
356.172	86.62
356.399	104.62
356.626	89.62
356.853	92.62
357.08	95.62
357.307	105.62
357.534	98.62
357.761	98.62
357.988	97.62
358.215	94.62
358.441	93.62
358.668	81.62
358.895	96.62
359.122	93.62
359.349	93.62
359.576	110.62
359.802	114.62
360.029	161.62
360.256	160.62
360.483	126.62
360.709	91.62
360.936	100.62
361.163	117.62
361.39	106.62
361.616	119.62
361.843	96.62
362.07	108.62
362.296	106.62
362.523	104.62
362.749	91.62
362.976	96.62
363.203	115.62
363.429	100.62
363.656	99.62
363.882	89.62
364.109	86.62
364.335	92.62
364.562	94.62
364.788	99.62
365.015	117.62
365.241	120.62
365.468	122.62
365.694	125.62
365.92	102.62
366.147	100.62
366.373	106.62
366.599	102.62
366.826	104.62
367.052	108.62
367.278	96.62
367.505	99.62
367.731	101.62
367.957	86.62
368.184	91.62
368.41	121.62
368.636	126.62
368.862	138.62
369.089	117.62
369.315	110.62
369.541	88.62
369.767	112.62
369.993	92.62
370.219	102.62
370.445	101.62
370.672	91.62
370.898	96.62
371.124	106.62
371.35	80.62
371.576	96.62
371.802	93.62
372.028	89.62
372.254	88.62
372.48	90.62
372.706	80.62
372.932	101.62
373.158	108.62
373.384	96.62
373.61	84.62
373.835	84.62
374.061	94.62
374.287	84.62
374.513	74.62
374.739	93.62
374.965	95.62
375.191	75.62
375.416	97.62
375.642	102.62
375.868	100.62
376.094	91.62
376.319	94.62
376.545	82.62
376.771	83.62
376.997	86.62
377.222	83.62
377.448	84.62
377.674	95.62
377.899	98.62
378.125	87.62
378.35	101.62
378.576	93.62
378.802	82.62
379.027	96.62
379.253	95.62
379.478	86.62
379.704	83.62
379.929	91.62
380.155	90.62
380.38	97.62
380.606	106.62
380.831	108.62
381.057	96.62
381.282	91.62
381.507	86.62
381.733	83.62
381.958	78.62
382.184	96.62
382.409	98.62
382.634	97.62
382.86	112.62
383.085	112.62
383.31	100.62
383.535	101.62
383.761	98.62
383.986	101.62
384.211	99.62
384.436	109.62
384.662	110.62
384.887	107.62
385.112	111.62
385.337	95.62
385.562	103.62
385.787	108.62
386.013	103.62
386.238	127.62
386.463	126.62
386.688	104.62
386.913	111.62
387.138	103.62
387.363	92.62
387.588	106.62
387.813	102.62
388.038	99.62
388.263	110.62
388.488	101.62
388.713	95.62
388.938	101.62
389.163	98.62
389.387	94.62
389.612	86.62
389.837	80.62
390.062	101.62
390.287	83.62
390.512	98.62
390.736	84.62
390.961	99.62
391.186	94.62
391.411	88.62
391.636	86.62
391.86	86.62
392.085	81.62
392.31	75.62
392.534	98.62
392.759	96.62
392.984	89.62
393.208	92.62
393.433	106.62
393.658	102.62
393.882	79.62
394.107	89.62
394.331	95.62
394.556	78.62
394.78	88.62
395.005	84.62
395.229	90.62
395.454	95.62
395.678	78.62
395.903	97.62
396.127	91.62
396.352	99.62
396.576	93.62
396.801	84.62
397.025	87.62
397.249	103.62
397.474	81.62
397.698	97.62
397.922	99.62
398.147	89.62
398.371	91.62
398.595	83.62
398.82	78.62
399.044	98.62
399.268	95.62
399.492	92.62
399.717	89.62
399.941	86.62
400.165	105.62
400.389	110.62
400.613	95.62
400.837	91.62
401.062	98.62
401.286	88.62
401.51	90.62
401.734	96.62
401.958	109.62
402.182	158.62
402.406	206.62
402.63	165.62
402.854	99.62
403.078	99.62
403.302	99.62
403.526	79.62
403.75	99.62
403.974	106.62
404.198	100.62
404.422	88.62
404.645	97.62
404.869	110.62
405.093	113.62
405.317	161.62
405.541	142.62
405.765	111.62
405.988	148.62
406.212	242.62
406.436	340.62
406.66	230.62
406.883	117.62
407.107	99.62
407.331	103.62
407.555	109.62
407.778	112.62
408.002	116.62
408.226	92.62
408.449	95.62
408.673	115.62
408.896	105.62
409.12	81.62
409.344	90.62
409.567	91.62
409.791	95.62
410.014	107.62
410.238	83.62
410.461	94.62
410.685	103.62
410.908	103.62
411.132	119.62
411.355	101.62
411.578	98.62
411.802	75.62
412.025	86.62
412.249	114.62
412.472	118.62
412.695	140.62
412.919	118.62
413.142	90.62
413.365	91.62
413.589	100.62
413.812	87.62
414.035	99.62
414.258	105.62
414.482	100.62
414.705	86.62
414.928	96.62
415.151	94.62
415.374	84.62
415.597	91.62
415.821	90.62
416.044	94.62
416.267	88.62
416.49	95.62
416.713	91.62
416.936	99.62
417.159	103.62
417.382	105.62
417.605	113.62
417.828	121.62
418.051	107.62
418.274	89.62
418.497	74.62
418.72	82.62
418.943	92.62
419.166	76.62
419.389	86.62
419.611	95.62
419.834	93.62
420.057	102.62
420.28	103.62
420.503	77.62
420.726	94.62
420.948	90.62
421.171	115.62
421.394	109.62
421.617	87.62
421.839	95.62
422.062	86.62
422.285	100.62
422.507	117.62
422.73	111.62
422.953	113.62
423.175	103.62
423.398	94.62
423.621	95.62
423.843	96.62
424.066	104.62
424.288	99.62
424.511	99.62
424.733	109.62
424.956	124.62
425.178	123.62
425.401	121.62
425.623	126.62
425.846	106.62
426.068	102.62
426.291	106.62
426.513	113.62
426.735	98.62
426.958	105.62
427.18	126.62
427.402	189.62
427.625	280.62
427.847	267.62
428.069	250.62
428.292	146.62
428.514	106.62
428.736	84.62
428.958	79.62
429.181	80.62
429.403	97.62
429.625	99.62
429.847	103.62
430.069	104.62
430.292	97.62
430.514	88.62
430.736	85.62
430.958	83.62
431.18	87.62
431.402	92.62
431.624	94.62
431.846	87.62
432.068	96.62
432.29	79.62
432.512	97.62
432.734	90.62
432.956	110.62
433.178	121.62
433.4	111.62
433.622	74.62
433.844	99.62
434.066	91.62
434.287	97.62
434.509	80.62
434.731	80.62
434.953	89.62
435.175	95.62
435.397	84.62
435.618	106.62
435.84	124.62
436.062	132.62
436.284	150.62
436.505	113.62
436.727	100.62
436.949	99.62
437.17	87.62
437.392	82.62
437.614	91.62
437.835	120.62
438.057	149.62
438.278	129.62
438.5	110.62
438.721	137.62
438.943	119.62
439.165	84.62
439.386	92.62
439.608	85.62
439.829	105.62
440.05	170.62
440.272	194.62
440.493	115.62
440.715	97.62
440.936	95.62
441.158	97.62
441.379	99.62
441.6	97.62
441.822	112.62
442.043	106.62
442.264	133.62
442.486	117.62
442.707	106.62
442.928	127.62
443.149	190.62
443.371	189.62
443.592	131.62
443.813	126.62
444.034	118.62
444.255	98.62
444.476	96.62
444.698	94.62
444.919	94.62
445.14	128.62
445.361	154.62
445.582	134.62
445.803	189.62
446.024	198.62
446.245	164.62
446.466	134.62
446.687	91.62
446.908	83.62
447.129	87.62
447.35	101.62
447.571	104.62
447.792	99.62
448.013	112.62
448.234	125.62
448.455	118.62
448.675	139.62
448.896	132.62
449.117	111.62
449.338	115.62
449.559	162.62
449.779	169.62
450	110.62
450.221	94.62
450.442	113.62
450.662	100.62
450.883	126.62
451.104	140.62
451.324	112.62
451.545	98.62
451.766	83.62
451.986	88.62
452.207	91.62
452.428	102.62
452.648	108.62
452.869	128.62
453.089	149.62
453.31	161.62
453.53	92.62
453.751	100.62
453.971	123.62
454.192	152.62
454.412	110.62
454.633	102.62
454.853	93.62
455.073	96.62
455.294	89.62
455.514	123.62
455.734	95.62
455.955	95.62
456.175	95.62
456.395	89.62
456.616	83.62
456.836	90.62
457.056	97.62
457.276	89.62
457.497	92.62
457.717	91.62
457.937	101.62
458.157	92.62
458.377	99.62
458.598	129.62
458.818	232.62
459.038	242.62
459.258	152.62
459.478	112.62
459.698	88.62
459.918	89.62
460.138	74.62
460.358	83.62
460.578	99.62
460.798	97.62
461.018	93.62
461.238	98.62
461.458	98.62
461.678	81.62
461.898	95.62
462.118	89.62
462.338	85.62
462.558	88.62
462.777	74.62
462.997	112.62
463.217	117.62
463.437	98.62
463.657	81.62
463.876	100.62
464.096	116.62
464.316	114.62
464.536	96.62
464.755	119.62
464.975	134.62
465.195	266.62
465.414	255.62
465.634	115.62
465.854	96.62
466.073	96.62
466.293	104.62
466.512	94.62
466.732	95.62
466.951	90.62
467.171	119.62
467.391	132.62
467.61	159.62
467.829	273.62
468.049	784.62
468.268	1229.62
468.488	282.62
468.707	131.62
468.927	99.62
469.146	102.62
469.365	99.62
469.585	102.62
469.804	119.62
470.023	117.62
470.243	117.62
470.462	127.62
470.681	146.62
470.901	116.62
471.12	105.62
471.339	109.62
471.558	120.62
471.777	185.62
471.997	384.62
472.216	1568.62
472.435	3595.62
472.654	779.62
472.873	190.62
473.092	107.62
473.311	102.62
473.53	101.62
473.749	87.62
473.968	104.62
474.187	127.62
474.406	123.62
474.625	84.62
474.844	94.62
475.063	83.62
475.282	90.62
475.501	88.62
475.72	96.62
475.939	95.62
476.158	105.62
476.377	98.62
476.596	114.62
476.814	104.62
477.033	105.62
477.252	103.62
477.471	87.62
477.69	108.62
477.908	101.62
478.127	102.62
478.346	94.62
478.564	99.62
478.783	121.62
479.002	116.62
479.22	116.62
479.439	142.62
479.658	136.62
479.876	140.62
480.095	132.62
480.313	158.62
480.532	191.62
480.751	371.62
480.969	1419.62
481.188	6233.62
481.406	3407.62
481.624	459.62
481.843	137.62
482.061	119.62
482.28	96.62
482.498	98.62
482.717	94.62
482.935	91.62
483.153	92.62
483.372	101.62
483.59	94.62
483.808	92.62
484.027	95.62
484.245	106.62
484.463	107.62
484.681	107.62
484.9	98.62
485.118	101.62
485.336	105.62
485.554	107.62
485.772	107.62
485.99	101.62
486.209	116.62
486.427	105.62
486.645	127.62
486.863	142.62
487.081	114.62
487.299	121.62
487.517	94.62
487.735	103.62
487.953	99.62
488.171	111.62
488.389	112.62
488.607	111.62
488.825	96.62
489.043	107.62
489.261	101.62
489.479	92.62
489.696	91.62
489.914	99.62
490.132	101.62
490.35	101.62
490.568	97.62
490.786	89.62
491.003	94.62
491.221	111.62
491.439	114.62
491.657	98.62
491.874	102.62
492.092	99.62
492.31	98.62
492.527	119.62
492.745	103.62
492.963	73.62
493.18	93.62
493.398	94.62
493.615	105.62
493.833	87.62
494.05	96.62
494.268	87.62
494.485	94.62
494.703	90.62
494.92	93.62
495.138	99.62
495.355	101.62
495.573	99.62
495.79	93.62
496.008	100.62
496.225	86.62
496.442	95.62
496.66	99.62
496.877	90.62
497.094	88.62
497.312	99.62
497.529	104.62
497.746	94.62
497.963	94.62
498.181	95.62
498.398	104.62
498.615	114.62
498.832	135.62
499.049	97.62
499.267	96.62
499.484	94.62
499.701	73.62
499.918	92.62
500.135	104.62
500.352	98.62
500.569	98.62
500.786	92.62
501.003	93.62
501.22	101.62
501.437	88.62
501.654	84.62
501.871	134.62
502.088	109.62
502.305	91.62
502.522	92.62
502.739	103.62
502.956	93.62
503.172	106.62
503.389	114.62
503.606	126.62
503.823	116.62
504.04	94.62
504.256	97.62
504.473	86.62
504.69	99.62
504.907	97.62
505.123	96.62
505.34	97.62
505.557	96.62
505.773	98.62
505.99	89.62
506.207	98.62
506.423	78.62
506.64	86.62
506.856	84.62
507.073	97.62
507.289	86.62
507.506	106.62
507.722	152.62
507.939	127.62
508.155	103.62
508.372	89.62
508.588	98.62
508.805	102.62
509.021	123.62
509.238	105.62
509.454	111.62
509.67	109.62
509.887	125.62
510.103	157.62
510.319	267.62
510.536	1074.62
510.752	3816.62
510.968	1006.62
511.184	222.62
511.401	147.62
511.617	106.62
