Data from Uncirc_1995_H10_HRD10591_00021.txt Node
Date: Wed Jan 03 11:35:38 EST 2024
User: Yrep
Spectrometer: HR+D1059
Trigger mode: 1
Integration Time (sec): 1.000000E-1
Scans to average: 1
Electric dark correction enabled: true
Nonlinearity correction enabled: false
Boxcar width: 0
XAxis mode: Wavelengths
Number of Pixels in Spectrum: 2048
>>>>>Begin Spectral Data<<<<<
223.165	-23.5
223.4	-23.5
223.635	-23.5
223.869	-9.5
224.104	-15.5
224.338	-14.5
224.573	-11.5
224.808	-11.5
225.042	-12.5
225.277	-15.5
225.511	-5.5
225.746	6.5
225.98	0.5
226.215	14.5
226.449	29.5
226.683	25.5
226.918	14.5
227.152	28.5
227.387	20.5
227.621	51.5
227.856	49.5
228.09	44.5
228.324	41.5
228.559	45.5
228.793	61.5
229.027	56.5
229.262	47.5
229.496	64.5
229.73	76.5
229.964	74.5
230.199	57.5
230.433	70.5
230.667	71.5
230.901	73.5
231.136	69.5
231.37	64.5
231.604	70.5
231.838	76.5
232.072	81.5
232.306	86.5
232.541	78.5
232.775	79.5
233.009	84.5
233.243	71.5
233.477	77.5
233.711	85.5
233.945	79.5
234.179	81.5
234.413	72.5
234.647	66.5
234.881	81.5
235.115	80.5
235.349	68.5
235.583	78.5
235.817	82.5
236.051	68.5
236.285	80.5
236.519	86.5
236.753	65.5
236.987	73.5
237.221	78.5
237.455	66.5
237.689	86.5
237.922	76.5
238.156	65.5
238.39	80.5
238.624	71.5
238.858	72.5
239.091	83.5
239.325	73.5
239.559	72.5
239.793	66.5
240.027	70.5
240.26	78.5
240.494	80.5
240.728	79.5
240.961	61.5
241.195	88.5
241.429	78.5
241.662	81.5
241.896	72.5
242.13	80.5
242.363	88.5
242.597	76.5
242.83	75.5
243.064	79.5
243.298	75.5
243.531	79.5
243.765	58.5
243.998	82.5
244.232	76.5
244.465	80.5
244.699	62.5
244.932	84.5
245.166	77.5
245.399	78.5
245.633	85.5
245.866	88.5
246.099	71.5
246.333	82.5
246.566	86.5
246.8	88.5
247.033	79.5
247.266	68.5
247.5	82.5
247.733	76.5
247.966	70.5
248.2	72.5
248.433	80.5
248.666	97.5
248.899	80.5
249.133	84.5
249.366	100.5
249.599	93.5
249.832	88.5
250.066	71.5
250.299	82.5
250.532	74.5
250.765	81.5
250.998	65.5
251.231	96.5
251.465	84.5
251.698	61.5
251.931	79.5
252.164	73.5
252.397	86.5
252.63	86.5
252.863	73.5
253.096	77.5
253.329	91.5
253.562	87.5
253.795	87.5
254.028	104.5
254.261	70.5
254.494	76.5
254.727	65.5
254.96	78.5
255.193	76.5
255.426	79.5
255.659	93.5
255.892	77.5
256.124	76.5
256.357	79.5
256.59	79.5
256.823	72.5
257.056	90.5
257.289	69.5
257.521	78.5
257.754	76.5
257.987	77.5
258.22	84.5
258.452	67.5
258.685	81.5
258.918	70.5
259.151	93.5
259.383	91.5
259.616	87.5
259.849	74.5
260.081	84.5
260.314	78.5
260.547	79.5
260.779	74.5
261.012	77.5
261.244	85.5
261.477	99.5
261.71	88.5
261.942	106.5
262.175	113.5
262.407	88.5
262.64	82.5
262.872	79.5
263.105	85.5
263.337	81.5
263.57	73.5
263.802	78.5
264.035	83.5
264.267	70.5
264.499	87.5
264.732	91.5
264.964	82.5
265.197	84.5
265.429	74.5
265.661	79.5
265.894	83.5
266.126	80.5
266.358	73.5
266.591	86.5
266.823	76.5
267.055	74.5
267.287	91.5
267.52	85.5
267.752	60.5
267.984	76.5
268.216	90.5
268.448	83.5
268.681	85.5
268.913	84.5
269.145	98.5
269.377	83.5
269.609	70.5
269.841	88.5
270.073	78.5
270.306	86.5
270.538	83.5
270.77	87.5
271.002	91.5
271.234	83.5
271.466	84.5
271.698	82.5
271.93	92.5
272.162	77.5
272.394	74.5
272.626	87.5
272.858	84.5
273.09	87.5
273.322	81.5
273.553	88.5
273.785	83.5
274.017	69.5
274.249	85.5
274.481	88.5
274.713	88.5
274.945	81.5
275.176	95.5
275.408	84.5
275.64	88.5
275.872	78.5
276.104	78.5
276.335	85.5
276.567	76.5
276.799	94.5
277.031	96.5
277.262	90.5
277.494	93.5
277.726	93.5
277.957	88.5
278.189	78.5
278.421	83.5
278.652	86.5
278.884	83.5
279.115	78.5
279.347	74.5
279.579	96.5
279.81	80.5
280.042	90.5
280.273	91.5
280.505	74.5
280.736	83.5
280.968	89.5
281.199	81.5
281.431	75.5
281.662	84.5
281.894	94.5
282.125	85.5
282.356	101.5
282.588	152.5
282.819	124.5
283.051	84.5
283.282	89.5
283.513	88.5
283.745	85.5
283.976	78.5
284.207	77.5
284.439	83.5
284.67	86.5
284.901	89.5
285.132	90.5
285.364	69.5
285.595	73.5
285.826	84.5
286.057	79.5
286.288	75.5
286.52	77.5
286.751	82.5
286.982	93.5
287.213	93.5
287.444	93.5
287.675	85.5
287.906	92.5
288.138	86.5
288.369	91.5
288.6	92.5
288.831	88.5
289.062	85.5
289.293	86.5
289.524	89.5
289.755	82.5
289.986	73.5
290.217	85.5
290.448	79.5
290.679	106.5
290.91	72.5
291.141	89.5
291.371	84.5
291.602	86.5
291.833	78.5
292.064	90.5
292.295	91.5
292.526	78.5
292.757	88.5
292.987	82.5
293.218	90.5
293.449	68.5
293.68	89.5
293.91	76.5
294.141	96.5
294.372	88.5
294.603	88.5
294.833	93.5
295.064	88.5
295.295	87.5
295.525	85.5
295.756	87.5
295.987	102.5
296.217	124.5
296.448	117.5
296.679	93.5
296.909	88.5
297.14	93.5
297.37	84.5
297.601	83.5
297.831	96.5
298.062	85.5
298.292	73.5
298.523	94.5
298.753	81.5
298.984	83.5
299.214	84.5
299.445	88.5
299.675	83.5
299.905	100.5
300.136	86.5
300.366	76.5
300.597	85.5
300.827	80.5
301.057	92.5
301.288	106.5
301.518	100.5
301.748	81.5
301.979	103.5
302.209	81.5
302.439	88.5
302.669	95.5
302.9	79.5
303.13	102.5
303.36	82.5
303.59	108.5
303.82	96.5
304.051	77.5
304.281	86.5
304.511	75.5
304.741	74.5
304.971	65.5
305.201	90.5
305.431	93.5
305.661	76.5
305.891	74.5
306.121	90.5
306.352	98.5
306.582	92.5
306.812	72.5
307.042	84.5
307.272	90.5
307.502	105.5
307.731	83.5
307.961	88.5
308.191	86.5
308.421	97.5
308.651	88.5
308.881	74.5
309.111	92.5
309.341	93.5
309.571	92.5
309.8	108.5
310.03	91.5
310.26	94.5
310.49	92.5
310.72	91.5
310.949	85.5
311.179	95.5
311.409	101.5
311.639	91.5
311.868	101.5
312.098	96.5
312.328	82.5
312.557	87.5
312.787	95.5
313.017	100.5
313.246	89.5
313.476	81.5
313.706	87.5
313.935	103.5
314.165	89.5
314.394	91.5
314.624	102.5
314.853	97.5
315.083	103.5
315.312	84.5
315.542	78.5
315.771	78.5
316.001	88.5
316.23	83.5
316.46	81.5
316.689	94.5
316.919	87.5
317.148	101.5
317.377	91.5
317.607	87.5
317.836	81.5
318.065	92.5
318.295	86.5
318.524	76.5
318.753	93.5
318.983	79.5
319.212	103.5
319.441	104.5
319.67	94.5
319.9	97.5
320.129	94.5
320.358	67.5
320.587	92.5
320.816	93.5
321.046	93.5
321.275	101.5
321.504	91.5
321.733	94.5
321.962	96.5
322.191	97.5
322.42	112.5
322.649	97.5
322.878	121.5
323.108	104.5
323.337	102.5
323.566	126.5
323.795	153.5
324.024	199.5
324.253	377.5
324.482	814.5
324.71	1656.5
324.939	2170.5
325.168	790.5
325.397	239.5
325.626	152.5
325.855	124.5
326.084	129.5
326.313	130.5
326.542	168.5
326.77	225.5
326.999	479.5
327.228	950.5
327.457	1729.5
327.686	1320.5
327.914	376.5
328.143	191.5
328.372	149.5
328.6	121.5
328.829	103.5
329.058	113.5
329.287	117.5
329.515	112.5
329.744	110.5
329.972	93.5
330.201	102.5
330.43	104.5
330.658	105.5
330.887	106.5
331.115	112.5
331.344	91.5
331.572	81.5
331.801	102.5
332.03	100.5
332.258	84.5
332.486	93.5
332.715	87.5
332.943	95.5
333.172	94.5
333.4	88.5
333.629	96.5
333.857	123.5
334.085	108.5
334.314	93.5
334.542	89.5
334.771	97.5
334.999	104.5
335.227	93.5
335.455	90.5
335.684	100.5
335.912	96.5
336.14	97.5
336.369	81.5
336.597	94.5
336.825	80.5
337.053	80.5
337.281	93.5
337.51	90.5
337.738	92.5
337.966	92.5
338.194	106.5
338.422	101.5
338.65	95.5
338.878	100.5
339.106	84.5
339.334	74.5
339.562	87.5
339.79	80.5
340.018	98.5
340.246	83.5
340.474	91.5
340.702	95.5
340.93	97.5
341.158	92.5
341.386	97.5
341.614	81.5
341.842	93.5
342.07	93.5
342.298	94.5
342.526	93.5
342.754	86.5
342.981	90.5
343.209	93.5
343.437	105.5
343.665	80.5
343.893	81.5
344.12	90.5
344.348	89.5
344.576	96.5
344.804	88.5
345.031	81.5
345.259	100.5
345.487	97.5
345.714	103.5
345.942	92.5
346.17	87.5
346.397	80.5
346.625	75.5
346.853	102.5
347.08	74.5
347.308	105.5
347.535	92.5
347.763	91.5
347.99	84.5
348.218	102.5
348.445	98.5
348.673	86.5
348.9	101.5
349.128	77.5
349.355	106.5
349.583	93.5
349.81	94.5
350.037	94.5
350.265	96.5
350.492	87.5
350.72	98.5
350.947	94.5
351.174	94.5
351.402	107.5
351.629	114.5
351.856	98.5
352.083	95.5
352.311	104.5
352.538	110.5
352.765	109.5
352.992	114.5
353.22	112.5
353.447	102.5
353.674	96.5
353.901	93.5
354.128	95.5
354.355	88.5
354.583	88.5
354.81	89.5
355.037	102.5
355.264	84.5
355.491	103.5
355.718	87.5
355.945	74.5
356.172	89.5
356.399	99.5
356.626	78.5
356.853	88.5
357.08	90.5
357.307	94.5
357.534	92.5
357.761	92.5
357.988	97.5
358.215	94.5
358.441	95.5
358.668	71.5
358.895	95.5
359.122	84.5
359.349	88.5
359.576	90.5
359.802	95.5
360.029	102.5
360.256	96.5
360.483	113.5
360.709	91.5
360.936	82.5
361.163	77.5
361.39	103.5
361.616	89.5
361.843	87.5
362.07	89.5
362.296	81.5
362.523	89.5
362.749	88.5
362.976	96.5
363.203	97.5
363.429	87.5
363.656	86.5
363.882	85.5
364.109	103.5
364.335	63.5
364.562	87.5
364.788	81.5
365.015	92.5
365.241	107.5
365.468	97.5
365.694	104.5
365.92	100.5
366.147	92.5
366.373	81.5
366.599	81.5
366.826	79.5
367.052	102.5
367.278	103.5
367.505	82.5
367.731	97.5
367.957	79.5
368.184	72.5
368.41	87.5
368.636	103.5
368.862	100.5
369.089	102.5
369.315	92.5
369.541	69.5
369.767	69.5
369.993	90.5
370.219	98.5
370.445	87.5
370.672	77.5
370.898	93.5
371.124	81.5
371.35	88.5
371.576	98.5
371.802	90.5
372.028	86.5
372.254	86.5
372.48	77.5
372.706	72.5
372.932	84.5
373.158	92.5
373.384	95.5
373.61	90.5
373.835	70.5
374.061	82.5
374.287	94.5
374.513	82.5
374.739	83.5
374.965	83.5
375.191	79.5
375.416	92.5
375.642	92.5
375.868	85.5
376.094	96.5
376.319	76.5
376.545	88.5
376.771	81.5
376.997	81.5
377.222	91.5
377.448	95.5
377.674	101.5
377.899	84.5
378.125	94.5
378.35	88.5
378.576	85.5
378.802	83.5
379.027	81.5
379.253	89.5
379.478	96.5
379.704	83.5
379.929	92.5
380.155	83.5
380.38	97.5
380.606	83.5
380.831	92.5
381.057	97.5
381.282	94.5
381.507	108.5
381.733	91.5
381.958	96.5
382.184	90.5
382.409	100.5
382.634	98.5
382.86	96.5
383.085	109.5
383.31	113.5
383.535	94.5
383.761	93.5
383.986	111.5
384.211	92.5
384.436	115.5
384.662	98.5
384.887	89.5
385.112	105.5
385.337	100.5
385.562	110.5
385.787	106.5
386.013	110.5
386.238	111.5
386.463	121.5
386.688	103.5
386.913	98.5
387.138	97.5
387.363	97.5
387.588	90.5
387.813	89.5
388.038	105.5
388.263	121.5
388.488	109.5
388.713	88.5
388.938	109.5
389.163	81.5
389.387	104.5
389.612	113.5
389.837	86.5
390.062	95.5
390.287	103.5
390.512	90.5
390.736	86.5
390.961	93.5
391.186	83.5
391.411	94.5
391.636	91.5
391.86	82.5
392.085	77.5
392.31	75.5
392.534	78.5
392.759	92.5
392.984	92.5
393.208	86.5
393.433	94.5
393.658	82.5
393.882	85.5
394.107	81.5
394.331	97.5
394.556	86.5
394.78	101.5
395.005	97.5
395.229	84.5
395.454	96.5
395.678	98.5
395.903	77.5
396.127	78.5
396.352	75.5
396.576	93.5
396.801	86.5
397.025	94.5
397.249	84.5
397.474	98.5
397.698	91.5
397.922	80.5
398.147	93.5
398.371	83.5
398.595	91.5
398.82	85.5
399.044	77.5
399.268	85.5
399.492	71.5
399.717	89.5
399.941	87.5
400.165	81.5
400.389	74.5
400.613	87.5
400.837	90.5
401.062	87.5
401.286	91.5
401.51	85.5
401.734	87.5
401.958	90.5
402.182	117.5
402.406	135.5
402.63	112.5
402.854	86.5
403.078	81.5
403.302	80.5
403.526	74.5
403.75	84.5
403.974	69.5
404.198	83.5
404.422	76.5
404.645	79.5
404.869	87.5
405.093	82.5
405.317	84.5
405.541	89.5
405.765	83.5
405.988	97.5
406.212	165.5
406.436	196.5
406.66	139.5
406.883	88.5
407.107	84.5
407.331	92.5
407.555	79.5
407.778	89.5
408.002	100.5
408.226	86.5
408.449	80.5
408.673	85.5
408.896	91.5
409.12	96.5
409.344	97.5
409.567	66.5
409.791	81.5
410.014	88.5
410.238	96.5
410.461	95.5
410.685	82.5
410.908	95.5
411.132	105.5
411.355	88.5
411.578	94.5
411.802	82.5
412.025	86.5
412.249	82.5
412.472	81.5
412.695	85.5
412.919	84.5
413.142	89.5
413.365	77.5
413.589	78.5
413.812	80.5
414.035	72.5
414.258	88.5
414.482	93.5
414.705	87.5
414.928	85.5
415.151	99.5
415.374	93.5
415.597	80.5
415.821	78.5
416.044	82.5
416.267	98.5
416.49	81.5
416.713	90.5
416.936	86.5
417.159	87.5
417.382	81.5
417.605	78.5
417.828	100.5
418.051	91.5
418.274	88.5
418.497	78.5
418.72	83.5
418.943	74.5
419.166	82.5
419.389	92.5
419.611	84.5
419.834	90.5
420.057	93.5
420.28	87.5
420.503	81.5
420.726	79.5
420.948	80.5
421.171	90.5
421.394	91.5
421.617	82.5
421.839	84.5
422.062	74.5
422.285	87.5
422.507	102.5
422.73	92.5
422.953	86.5
423.175	85.5
423.398	81.5
423.621	73.5
423.843	70.5
424.066	80.5
424.288	94.5
424.511	87.5
424.733	96.5
424.956	92.5
425.178	95.5
425.401	91.5
425.623	92.5
425.846	87.5
426.068	106.5
426.291	77.5
426.513	92.5
426.735	86.5
426.958	92.5
427.18	94.5
427.402	108.5
427.625	138.5
427.847	123.5
428.069	92.5
428.292	84.5
428.514	89.5
428.736	93.5
428.958	81.5
429.181	79.5
429.403	79.5
429.625	87.5
429.847	91.5
430.069	87.5
430.292	82.5
430.514	95.5
430.736	92.5
430.958	98.5
431.18	60.5
431.402	86.5
431.624	88.5
431.846	80.5
432.068	76.5
432.29	65.5
432.512	76.5
432.734	75.5
432.956	86.5
433.178	88.5
433.4	100.5
433.622	90.5
433.844	86.5
434.066	103.5
434.287	95.5
434.509	81.5
434.731	93.5
434.953	89.5
435.175	85.5
435.397	84.5
435.618	82.5
435.84	93.5
436.062	101.5
436.284	108.5
436.505	82.5
436.727	88.5
436.949	87.5
437.17	94.5
437.392	101.5
437.614	96.5
437.835	99.5
438.057	108.5
438.278	97.5
438.5	104.5
438.721	97.5
438.943	96.5
439.165	84.5
439.386	72.5
439.608	88.5
439.829	96.5
440.05	114.5
440.272	126.5
440.493	107.5
440.715	70.5
440.936	89.5
441.158	89.5
441.379	79.5
441.6	77.5
441.822	81.5
442.043	81.5
442.264	96.5
442.486	92.5
442.707	84.5
442.928	97.5
443.149	124.5
443.371	116.5
443.592	113.5
443.813	108.5
444.034	82.5
444.255	85.5
444.476	103.5
444.698	69.5
444.919	73.5
445.14	137.5
445.361	123.5
445.582	100.5
445.803	119.5
446.024	124.5
446.245	131.5
446.466	84.5
446.687	89.5
446.908	95.5
447.129	85.5
447.35	113.5
447.571	82.5
447.792	97.5
448.013	107.5
448.234	104.5
448.455	92.5
448.675	105.5
448.896	110.5
449.117	98.5
449.338	85.5
449.559	120.5
449.779	115.5
450	87.5
450.221	86.5
450.442	87.5
450.662	79.5
450.883	78.5
451.104	112.5
451.324	96.5
451.545	92.5
451.766	79.5
451.986	88.5
452.207	86.5
452.428	84.5
452.648	91.5
452.869	102.5
453.089	97.5
453.31	113.5
453.53	79.5
453.751	92.5
453.971	104.5
454.192	103.5
454.412	97.5
454.633	80.5
454.853	92.5
455.073	81.5
455.294	74.5
455.514	82.5
455.734	93.5
455.955	88.5
456.175	103.5
456.395	91.5
456.616	82.5
456.836	89.5
457.056	94.5
457.276	84.5
457.497	92.5
457.717	81.5
457.937	89.5
458.157	86.5
458.377	87.5
458.598	104.5
458.818	116.5
459.038	140.5
459.258	109.5
459.478	91.5
459.698	85.5
459.918	89.5
460.138	87.5
460.358	88.5
460.578	91.5
460.798	87.5
461.018	78.5
461.238	99.5
461.458	76.5
461.678	76.5
461.898	92.5
462.118	72.5
462.338	72.5
462.558	104.5
462.777	89.5
462.997	84.5
463.217	85.5
463.437	86.5
463.657	83.5
463.876	96.5
464.096	89.5
464.316	91.5
464.536	93.5
464.755	83.5
464.975	94.5
465.195	159.5
465.414	142.5
465.634	101.5
465.854	93.5
466.073	88.5
466.293	86.5
466.512	73.5
466.732	92.5
466.951	96.5
467.171	81.5
467.391	83.5
467.61	93.5
467.829	84.5
468.049	89.5
468.268	88.5
468.488	81.5
468.707	83.5
468.927	81.5
469.146	77.5
469.365	93.5
469.585	93.5
469.804	85.5
470.023	95.5
470.243	87.5
470.462	85.5
470.681	110.5
470.901	83.5
471.12	89.5
471.339	77.5
471.558	72.5
471.777	72.5
471.997	89.5
472.216	77.5
472.435	76.5
472.654	87.5
472.873	70.5
473.092	94.5
473.311	93.5
473.53	87.5
473.749	92.5
473.968	113.5
474.187	90.5
474.406	106.5
474.625	82.5
474.844	91.5
475.063	84.5
475.282	80.5
475.501	65.5
475.72	88.5
475.939	76.5
476.158	86.5
476.377	91.5
476.596	96.5
476.814	86.5
477.033	87.5
477.252	88.5
477.471	91.5
477.69	88.5
477.908	92.5
478.127	93.5
478.346	80.5
478.564	83.5
478.783	86.5
479.002	88.5
479.22	102.5
479.439	106.5
479.658	109.5
479.876	84.5
480.095	78.5
480.313	86.5
480.532	99.5
480.751	92.5
480.969	92.5
481.188	96.5
481.406	78.5
481.624	94.5
481.843	81.5
482.061	95.5
482.28	76.5
482.498	113.5
482.717	87.5
482.935	87.5
483.153	75.5
483.372	83.5
483.59	92.5
483.808	78.5
484.027	84.5
484.245	96.5
484.463	84.5
484.681	97.5
484.9	75.5
485.118	92.5
485.336	80.5
485.554	94.5
485.772	105.5
485.99	101.5
486.209	84.5
486.427	93.5
486.645	102.5
486.863	101.5
487.081	103.5
487.299	103.5
487.517	96.5
487.735	89.5
487.953	100.5
488.171	86.5
488.389	95.5
488.607	101.5
488.825	85.5
489.043	95.5
489.261	90.5
489.479	97.5
489.696	78.5
489.914	91.5
490.132	79.5
490.35	96.5
490.568	98.5
490.786	98.5
491.003	79.5
491.221	90.5
491.439	80.5
491.657	92.5
491.874	86.5
492.092	98.5
492.31	98.5
492.527	102.5
492.745	90.5
492.963	91.5
493.18	79.5
493.398	84.5
493.615	108.5
493.833	93.5
494.05	98.5
494.268	82.5
494.485	97.5
494.703	89.5
494.92	104.5
495.138	85.5
495.355	93.5
495.573	104.5
495.79	91.5
496.008	98.5
496.225	85.5
496.442	76.5
496.66	97.5
496.877	99.5
497.094	100.5
497.312	103.5
497.529	97.5
497.746	91.5
497.963	75.5
498.181	97.5
498.398	98.5
498.615	121.5
498.832	80.5
499.049	88.5
499.267	83.5
499.484	88.5
499.701	88.5
499.918	93.5
500.135	89.5
500.352	95.5
500.569	92.5
500.786	84.5
501.003	86.5
501.22	72.5
501.437	90.5
501.654	92.5
501.871	95.5
502.088	93.5
502.305	95.5
502.522	95.5
502.739	99.5
502.956	90.5
503.172	93.5
503.389	100.5
503.606	95.5
503.823	103.5
504.04	106.5
504.256	96.5
504.473	75.5
504.69	93.5
504.907	104.5
505.123	86.5
505.34	97.5
505.557	101.5
505.773	88.5
505.99	72.5
506.207	95.5
506.423	86.5
506.64	98.5
506.856	94.5
507.073	92.5
507.289	100.5
507.506	102.5
507.722	105.5
507.939	98.5
508.155	83.5
508.372	100.5
508.588	99.5
508.805	88.5
509.021	90.5
509.238	98.5
509.454	101.5
509.67	93.5
509.887	119.5
510.103	124.5
510.319	212.5
510.536	753.5
510.752	2280.5
510.968	648.5
511.184	152.5
511.401	96.5
511.617	86.5
511.833	86.5
512.049	84.5
512.265	92.5
512.481	90.5
512.698	86.5
512.914	93.5
513.13	102.5
513.346	92.5
513.562	100.5
513.778	90.5
513.994	98.5
514.21	89.5
514.426	121.5
514.642	124.5
514.858	109.5
515.074	146.5
515.29	416.5
515.506	1324.5
515.721	479.5
515.937	129.5
516.153	110.5
516.369	88.5
516.585	99.5
516.801	92.5
517.016	89.5
517.232	88.5
517.448	86.5
517.664	93.5
517.879	89.5
518.095	99.5
518.311	90.5
518.527	82.5
518.742	94.5
518.958	92.5
519.173	86.5
519.389	85.5
519.605	90.5
519.82	80.5
520.036	105.5
520.251	102.5
520.467	96.5
520.682	95.5
520.898	111.5
521.113	112.5
521.329	134.5
521.544	187.5
521.76	487.5
521.975	2152.5
522.19	1292.5
522.406	286.5
522.621	120.5
522.836	90.5
523.052	82.5
523.267	85.5
523.482	104.5
523.698	109.5
523.913	116.5
524.128	104.5
524.343	89.5
524.559	80.5
524.774	86.5
524.989	88.5
525.204	111.5
525.419	88.5
525.634	83.5
525.849	85.5
526.064	77.5
526.28	88.5
526.495	90.5
526.71	92.5
526.925	97.5
527.14	79.5
527.355	78.5
527.57	94.5
527.785	84.5
527.999	94.5
528.214	99.5
528.429	81.5
528.644	87.5
528.859	94.5
529.074	88.5
529.289	112.5
529.503	161.5
529.718	106.5
529.933	92.5
530.148	92.5
530.363	90.5
530.577	92.5
530.792	96.5
531.007	98.5
531.221	96.5
531.436	89.5
531.651	88.5
531.865	98.5
532.08	84.5
532.295	105.5
532.509	97.5
532.724	88.5
532.938	103.5
533.153	92.5
533.367	93.5
533.582	98.5
533.796	95.5
534.011	88.5
534.225	83.5
534.44	86.5
534.654	89.5
534.868	81.5
535.083	101.5
535.297	100.5
535.511	106.5
535.726	102.5
535.94	96.5
536.154	92.5
536.369	99.5
