Data from Uncirc_1995_H10_HRD10591_00092.txt Node
Date: Wed Jan 03 11:35:52 EST 2024
User: Yrep
Spectrometer: HR+D1059
Trigger mode: 1
Integration Time (sec): 1.000000E-1
Scans to average: 1
Electric dark correction enabled: true
Nonlinearity correction enabled: false
Boxcar width: 0
XAxis mode: Wavelengths
Number of Pixels in Spectrum: 2048
>>>>>Begin Spectral Data<<<<<
223.165	-12.44
223.4	-12.44
223.635	-12.44
223.869	-29.44
224.104	-23.44
224.338	-20.44
224.573	-6.44
224.808	-18.44
225.042	-4.44
225.277	7.56
225.511	-0.44
225.746	7.56
225.98	4.56
226.215	11.56
226.449	12.56
226.683	30.56
226.918	19.56
227.152	21.56
227.387	48.56
227.621	36.56
227.856	33.56
228.09	37.56
228.324	38.56
228.559	49.56
228.793	45.56
229.027	51.56
229.262	61.56
229.496	68.56
229.73	84.56
229.964	60.56
230.199	74.56
230.433	71.56
230.667	91.56
230.901	96.56
231.136	75.56
231.37	81.56
231.604	83.56
231.838	73.56
232.072	85.56
232.306	85.56
232.541	101.56
232.775	71.56
233.009	90.56
233.243	76.56
233.477	91.56
233.711	96.56
233.945	73.56
234.179	78.56
234.413	79.56
234.647	81.56
234.881	84.56
235.115	75.56
235.349	76.56
235.583	76.56
235.817	80.56
236.051	73.56
236.285	68.56
236.519	87.56
236.753	76.56
236.987	91.56
237.221	97.56
237.455	69.56
237.689	83.56
237.922	70.56
238.156	69.56
238.39	73.56
238.624	90.56
238.858	75.56
239.091	92.56
239.325	77.56
239.559	67.56
239.793	65.56
240.027	77.56
240.26	65.56
240.494	75.56
240.728	66.56
240.961	77.56
241.195	82.56
241.429	93.56
241.662	82.56
241.896	72.56
242.13	72.56
242.363	69.56
242.597	73.56
242.83	85.56
243.064	66.56
243.298	75.56
243.531	65.56
243.765	74.56
243.998	81.56
244.232	77.56
244.465	78.56
244.699	91.56
244.932	81.56
245.166	78.56
245.399	89.56
245.633	74.56
245.866	79.56
246.099	80.56
246.333	79.56
246.566	75.56
246.8	62.56
247.033	65.56
247.266	81.56
247.5	72.56
247.733	76.56
247.966	77.56
248.2	78.56
248.433	74.56
248.666	80.56
248.899	82.56
249.133	73.56
249.366	91.56
249.599	99.56
249.832	92.56
250.066	81.56
250.299	66.56
250.532	75.56
250.765	89.56
250.998	72.56
251.231	92.56
251.465	78.56
251.698	83.56
251.931	83.56
252.164	88.56
252.397	84.56
252.63	80.56
252.863	80.56
253.096	86.56
253.329	89.56
253.562	79.56
253.795	87.56
254.028	80.56
254.261	88.56
254.494	83.56
254.727	82.56
254.96	75.56
255.193	79.56
255.426	88.56
255.659	77.56
255.892	89.56
256.124	77.56
256.357	82.56
256.59	73.56
256.823	78.56
257.056	81.56
257.289	80.56
257.521	63.56
257.754	69.56
257.987	88.56
258.22	93.56
258.452	78.56
258.685	67.56
258.918	95.56
259.151	91.56
259.383	77.56
259.616	82.56
259.849	90.56
260.081	74.56
260.314	74.56
260.547	77.56
260.779	79.56
261.012	82.56
261.244	92.56
261.477	85.56
261.71	101.56
261.942	104.56
262.175	114.56
262.407	81.56
262.64	88.56
262.872	90.56
263.105	97.56
263.337	93.56
263.57	92.56
263.802	77.56
264.035	103.56
264.267	89.56
264.499	65.56
264.732	90.56
264.964	83.56
265.197	79.56
265.429	88.56
265.661	79.56
265.894	77.56
266.126	84.56
266.358	88.56
266.591	73.56
266.823	84.56
267.055	83.56
267.287	95.56
267.52	88.56
267.752	57.56
267.984	94.56
268.216	87.56
268.448	86.56
268.681	77.56
268.913	82.56
269.145	63.56
269.377	82.56
269.609	93.56
269.841	89.56
270.073	79.56
270.306	83.56
270.538	80.56
270.77	91.56
271.002	85.56
271.234	101.56
271.466	80.56
271.698	84.56
271.93	80.56
272.162	97.56
272.394	73.56
272.626	86.56
272.858	91.56
273.09	90.56
273.322	101.56
273.553	89.56
273.785	92.56
274.017	82.56
274.249	79.56
274.481	95.56
274.713	94.56
274.945	89.56
275.176	96.56
275.408	86.56
275.64	88.56
275.872	83.56
276.104	92.56
276.335	93.56
276.567	74.56
276.799	98.56
277.031	91.56
277.262	89.56
277.494	82.56
277.726	78.56
277.957	77.56
278.189	79.56
278.421	76.56
278.652	75.56
278.884	80.56
279.115	82.56
279.347	88.56
279.579	87.56
279.81	92.56
280.042	101.56
280.273	71.56
280.505	84.56
280.736	92.56
280.968	82.56
281.199	87.56
281.431	82.56
281.662	87.56
281.894	77.56
282.125	95.56
282.356	102.56
282.588	127.56
282.819	111.56
283.051	89.56
283.282	89.56
283.513	87.56
283.745	100.56
283.976	90.56
284.207	89.56
284.439	83.56
284.67	75.56
284.901	94.56
285.132	89.56
285.364	92.56
285.595	80.56
285.826	91.56
286.057	99.56
286.288	76.56
286.52	95.56
286.751	75.56
286.982	80.56
287.213	81.56
287.444	79.56
287.675	82.56
287.906	94.56
288.138	94.56
288.369	94.56
288.6	81.56
288.831	84.56
289.062	83.56
289.293	80.56
289.524	79.56
289.755	74.56
289.986	76.56
290.217	87.56
290.448	80.56
290.679	77.56
290.91	87.56
291.141	85.56
291.371	85.56
291.602	92.56
291.833	68.56
292.064	81.56
292.295	88.56
292.526	95.56
292.757	78.56
292.987	83.56
293.218	87.56
293.449	83.56
293.68	82.56
293.91	84.56
294.141	83.56
294.372	90.56
294.603	85.56
294.833	87.56
295.064	91.56
295.295	93.56
295.525	89.56
295.756	95.56
295.987	119.56
296.217	131.56
296.448	132.56
296.679	93.56
296.909	85.56
297.14	90.56
297.37	93.56
297.601	91.56
297.831	100.56
298.062	85.56
298.292	88.56
298.523	91.56
298.753	93.56
298.984	94.56
299.214	83.56
299.445	71.56
299.675	87.56
299.905	93.56
300.136	93.56
300.366	103.56
300.597	95.56
300.827	96.56
301.057	89.56
301.288	102.56
301.518	92.56
301.748	88.56
301.979	92.56
302.209	90.56
302.439	96.56
302.669	96.56
302.9	88.56
303.13	95.56
303.36	88.56
303.59	88.56
303.82	105.56
304.051	93.56
304.281	87.56
304.511	95.56
304.741	88.56
304.971	92.56
305.201	91.56
305.431	84.56
305.661	84.56
305.891	76.56
306.121	92.56
306.352	99.56
306.582	105.56
306.812	84.56
307.042	87.56
307.272	83.56
307.502	81.56
307.731	83.56
307.961	92.56
308.191	68.56
308.421	98.56
308.651	104.56
308.881	90.56
309.111	92.56
309.341	96.56
309.571	95.56
309.8	82.56
310.03	99.56
310.26	108.56
310.49	109.56
310.72	92.56
310.949	100.56
311.179	104.56
311.409	91.56
311.639	72.56
311.868	109.56
312.098	89.56
312.328	94.56
312.557	98.56
312.787	99.56
313.017	92.56
313.246	104.56
313.476	98.56
313.706	89.56
313.935	110.56
314.165	87.56
314.394	103.56
314.624	100.56
314.853	85.56
315.083	87.56
315.312	92.56
315.542	103.56
315.771	105.56
316.001	71.56
316.23	87.56
316.46	90.56
316.689	92.56
316.919	97.56
317.148	86.56
317.377	92.56
317.607	99.56
317.836	100.56
318.065	100.56
318.295	88.56
318.524	91.56
318.753	87.56
318.983	106.56
319.212	107.56
319.441	99.56
319.67	112.56
319.9	90.56
320.129	84.56
320.358	90.56
320.587	105.56
320.816	106.56
321.046	95.56
321.275	95.56
321.504	90.56
321.733	101.56
321.962	98.56
322.191	100.56
322.42	104.56
322.649	105.56
322.878	101.56
323.108	112.56
323.337	113.56
323.566	126.56
323.795	153.56
324.024	220.56
324.253	418.56
324.482	868.56
324.71	1837.56
324.939	2412.56
325.168	854.56
325.397	250.56
325.626	151.56
325.855	143.56
326.084	109.56
326.313	131.56
326.542	155.56
326.77	249.56
326.999	493.56
327.228	1016.56
327.457	1867.56
327.686	1486.56
327.914	376.56
328.143	201.56
328.372	155.56
328.6	117.56
328.829	116.56
329.058	125.56
329.287	116.56
329.515	94.56
329.744	89.56
329.972	103.56
330.201	112.56
330.43	106.56
330.658	124.56
330.887	137.56
331.115	113.56
331.344	94.56
331.572	108.56
331.801	101.56
332.03	94.56
332.258	84.56
332.486	80.56
332.715	107.56
332.943	85.56
333.172	84.56
333.4	106.56
333.629	111.56
333.857	121.56
334.085	111.56
334.314	93.56
334.542	101.56
334.771	100.56
334.999	83.56
335.227	97.56
335.455	98.56
335.684	99.56
335.912	100.56
336.14	94.56
336.369	114.56
336.597	90.56
336.825	90.56
337.053	83.56
337.281	97.56
337.51	99.56
337.738	88.56
337.966	88.56
338.194	88.56
338.422	104.56
338.65	106.56
338.878	85.56
339.106	75.56
339.334	80.56
339.562	88.56
339.79	97.56
340.018	89.56
340.246	81.56
340.474	102.56
340.702	94.56
340.93	88.56
341.158	99.56
341.386	87.56
341.614	82.56
341.842	93.56
342.07	96.56
342.298	95.56
342.526	80.56
342.754	78.56
342.981	87.56
343.209	93.56
343.437	104.56
343.665	97.56
343.893	95.56
344.12	86.56
344.348	87.56
344.576	87.56
344.804	83.56
345.031	94.56
345.259	97.56
345.487	98.56
345.714	94.56
345.942	95.56
346.17	95.56
346.397	95.56
346.625	100.56
346.853	91.56
347.08	74.56
347.308	85.56
347.535	93.56
347.763	94.56
347.99	110.56
348.218	101.56
348.445	89.56
348.673	88.56
348.9	101.56
349.128	99.56
349.355	97.56
349.583	96.56
349.81	97.56
350.037	92.56
350.265	98.56
350.492	101.56
350.72	102.56
350.947	110.56
351.174	99.56
351.402	100.56
351.629	100.56
351.856	98.56
352.083	111.56
352.311	108.56
352.538	101.56
352.765	96.56
352.992	106.56
353.22	111.56
353.447	108.56
353.674	97.56
353.901	88.56
354.128	91.56
354.355	85.56
354.583	96.56
354.81	103.56
355.037	98.56
355.264	94.56
355.491	95.56
355.718	91.56
355.945	100.56
356.172	102.56
356.399	100.56
356.626	88.56
356.853	99.56
357.08	103.56
357.307	77.56
357.534	96.56
357.761	100.56
357.988	108.56
358.215	82.56
358.441	85.56
358.668	93.56
358.895	100.56
359.122	88.56
359.349	86.56
359.576	90.56
359.802	103.56
360.029	103.56
360.256	119.56
360.483	95.56
360.709	100.56
360.936	83.56
361.163	94.56
361.39	81.56
361.616	115.56
361.843	92.56
362.07	113.56
362.296	87.56
362.523	96.56
362.749	98.56
362.976	95.56
363.203	94.56
363.429	91.56
363.656	89.56
363.882	94.56
364.109	84.56
364.335	90.56
364.562	93.56
364.788	83.56
365.015	71.56
365.241	109.56
365.468	111.56
365.694	109.56
365.92	87.56
366.147	93.56
366.373	84.56
366.599	79.56
366.826	96.56
367.052	81.56
367.278	90.56
367.505	96.56
367.731	115.56
367.957	91.56
368.184	95.56
368.41	97.56
368.636	100.56
368.862	111.56
369.089	107.56
369.315	86.56
369.541	105.56
369.767	89.56
369.993	81.56
370.219	88.56
370.445	73.56
370.672	87.56
370.898	84.56
371.124	91.56
371.35	97.56
371.576	88.56
371.802	81.56
372.028	87.56
372.254	92.56
372.48	97.56
372.706	80.56
372.932	91.56
373.158	91.56
373.384	85.56
373.61	89.56
373.835	91.56
374.061	106.56
374.287	79.56
374.513	94.56
374.739	102.56
374.965	96.56
375.191	76.56
375.416	92.56
375.642	96.56
375.868	90.56
376.094	105.56
376.319	81.56
376.545	86.56
376.771	98.56
376.997	97.56
377.222	88.56
377.448	86.56
377.674	91.56
377.899	89.56
378.125	96.56
378.35	103.56
378.576	89.56
378.802	83.56
379.027	86.56
379.253	98.56
379.478	84.56
379.704	91.56
379.929	101.56
380.155	79.56
380.38	88.56
380.606	97.56
380.831	93.56
381.057	77.56
381.282	89.56
381.507	95.56
381.733	98.56
381.958	105.56
382.184	89.56
382.409	91.56
382.634	106.56
382.86	85.56
383.085	97.56
383.31	104.56
383.535	91.56
383.761	96.56
383.986	97.56
384.211	100.56
384.436	95.56
384.662	106.56
384.887	84.56
385.112	108.56
385.337	97.56
385.562	99.56
385.787	95.56
386.013	104.56
386.238	117.56
386.463	89.56
386.688	109.56
386.913	90.56
387.138	97.56
387.363	103.56
387.588	101.56
387.813	103.56
388.038	102.56
388.263	105.56
388.488	90.56
388.713	93.56
388.938	93.56
389.163	112.56
389.387	93.56
389.612	84.56
389.837	79.56
390.062	102.56
390.287	97.56
390.512	100.56
390.736	87.56
390.961	84.56
391.186	95.56
391.411	98.56
391.636	105.56
391.86	87.56
392.085	90.56
392.31	92.56
392.534	87.56
392.759	77.56
392.984	89.56
393.208	87.56
393.433	74.56
393.658	77.56
393.882	82.56
394.107	91.56
394.331	99.56
394.556	88.56
394.78	90.56
395.005	85.56
395.229	95.56
395.454	84.56
395.678	85.56
395.903	82.56
396.127	99.56
396.352	79.56
396.576	73.56
396.801	79.56
397.025	80.56
397.249	83.56
397.474	86.56
397.698	93.56
397.922	95.56
398.147	87.56
398.371	89.56
398.595	88.56
398.82	76.56
399.044	83.56
399.268	83.56
399.492	88.56
399.717	103.56
399.941	84.56
400.165	91.56
400.389	103.56
400.613	95.56
400.837	95.56
401.062	89.56
401.286	83.56
401.51	83.56
401.734	87.56
401.958	101.56
402.182	104.56
402.406	159.56
402.63	117.56
402.854	102.56
403.078	97.56
403.302	105.56
403.526	92.56
403.75	92.56
403.974	93.56
404.198	93.56
404.422	82.56
404.645	82.56
404.869	88.56
405.093	85.56
405.317	77.56
405.541	101.56
405.765	113.56
405.988	111.56
406.212	161.56
406.436	228.56
406.66	145.56
406.883	101.56
407.107	103.56
407.331	106.56
407.555	96.56
407.778	90.56
408.002	95.56
408.226	93.56
408.449	99.56
408.673	113.56
408.896	91.56
409.12	89.56
409.344	99.56
409.567	89.56
409.791	90.56
410.014	106.56
410.238	95.56
410.461	80.56
410.685	99.56
410.908	101.56
411.132	105.56
411.355	98.56
411.578	106.56
411.802	92.56
412.025	96.56
412.249	88.56
412.472	78.56
412.695	90.56
412.919	90.56
413.142	88.56
413.365	95.56
413.589	87.56
413.812	73.56
414.035	85.56
414.258	90.56
414.482	95.56
414.705	90.56
414.928	107.56
415.151	106.56
415.374	106.56
415.597	91.56
415.821	95.56
416.044	73.56
416.267	83.56
416.49	87.56
416.713	98.56
416.936	90.56
417.159	86.56
417.382	98.56
417.605	83.56
417.828	100.56
418.051	85.56
418.274	82.56
418.497	80.56
418.72	93.56
418.943	104.56
419.166	99.56
419.389	106.56
419.611	93.56
419.834	93.56
420.057	108.56
420.28	90.56
420.503	91.56
420.726	84.56
420.948	84.56
421.171	87.56
421.394	105.56
421.617	90.56
421.839	88.56
422.062	100.56
422.285	99.56
422.507	100.56
422.73	100.56
422.953	102.56
423.175	83.56
423.398	91.56
423.621	78.56
423.843	64.56
424.066	80.56
424.288	100.56
424.511	87.56
424.733	101.56
424.956	114.56
425.178	100.56
425.401	108.56
425.623	86.56
425.846	102.56
426.068	96.56
426.291	104.56
426.513	98.56
426.735	104.56
426.958	91.56
427.18	109.56
427.402	135.56
427.625	161.56
427.847	128.56
428.069	92.56
428.292	93.56
428.514	90.56
428.736	91.56
428.958	86.56
429.181	99.56
429.403	80.56
429.625	93.56
429.847	88.56
430.069	113.56
430.292	101.56
430.514	89.56
430.736	78.56
430.958	91.56
431.18	96.56
431.402	85.56
431.624	89.56
431.846	73.56
432.068	81.56
432.29	79.56
432.512	88.56
432.734	83.56
432.956	90.56
433.178	100.56
433.4	94.56
433.622	95.56
433.844	97.56
434.066	91.56
434.287	86.56
434.509	92.56
434.731	95.56
434.953	97.56
435.175	86.56
435.397	98.56
435.618	111.56
435.84	84.56
436.062	129.56
436.284	128.56
436.505	113.56
436.727	96.56
436.949	104.56
437.17	87.56
437.392	89.56
437.614	99.56
437.835	107.56
438.057	118.56
438.278	101.56
438.5	105.56
438.721	115.56
438.943	97.56
439.165	90.56
439.386	89.56
439.608	90.56
439.829	103.56
440.05	106.56
440.272	131.56
440.493	112.56
440.715	101.56
440.936	86.56
441.158	75.56
441.379	87.56
441.6	100.56
441.822	95.56
442.043	105.56
442.264	105.56
442.486	103.56
442.707	91.56
442.928	101.56
443.149	133.56
443.371	116.56
443.592	108.56
443.813	111.56
444.034	110.56
444.255	89.56
444.476	77.56
444.698	87.56
444.919	86.56
445.14	126.56
445.361	117.56
445.582	114.56
445.803	130.56
446.024	129.56
446.245	131.56
446.466	108.56
446.687	94.56
446.908	89.56
447.129	95.56
447.35	95.56
447.571	82.56
447.792	87.56
448.013	106.56
448.234	117.56
448.455	103.56
448.675	113.56
448.896	105.56
449.117	109.56
449.338	107.56
449.559	144.56
449.779	132.56
450	90.56
450.221	89.56
450.442	94.56
450.662	97.56
450.883	97.56
451.104	112.56
451.324	99.56
451.545	89.56
451.766	86.56
451.986	83.56
452.207	93.56
452.428	96.56
452.648	95.56
452.869	106.56
453.089	108.56
453.31	117.56
453.53	92.56
453.751	97.56
453.971	99.56
454.192	109.56
454.412	95.56
454.633	78.56
454.853	76.56
455.073	96.56
455.294	87.56
455.514	104.56
455.734	97.56
455.955	103.56
456.175	87.56
456.395	81.56
456.616	94.56
456.836	87.56
457.056	87.56
457.276	85.56
457.497	90.56
457.717	96.56
457.937	79.56
458.157	89.56
458.377	96.56
458.598	109.56
458.818	132.56
459.038	156.56
459.258	126.56
459.478	83.56
459.698	79.56
459.918	92.56
460.138	91.56
460.358	80.56
460.578	89.56
460.798	82.56
461.018	90.56
461.238	92.56
461.458	87.56
461.678	81.56
461.898	88.56
462.118	76.56
462.338	85.56
462.558	89.56
462.777	91.56
462.997	79.56
463.217	83.56
463.437	90.56
463.657	99.56
463.876	95.56
464.096	94.56
464.316	100.56
464.536	86.56
464.755	102.56
464.975	108.56
465.195	148.56
465.414	164.56
465.634	106.56
465.854	82.56
466.073	81.56
466.293	93.56
466.512	96.56
466.732	86.56
466.951	101.56
467.171	96.56
467.391	92.56
467.61	100.56
467.829	95.56
468.049	97.56
468.268	94.56
468.488	89.56
468.707	91.56
468.927	84.56
469.146	87.56
469.365	85.56
469.585	92.56
469.804	109.56
470.023	98.56
470.243	99.56
470.462	106.56
470.681	95.56
470.901	98.56
471.12	79.56
471.339	85.56
471.558	85.56
471.777	95.56
471.997	93.56
472.216	80.56
472.435	92.56
472.654	81.56
472.873	79.56
473.092	84.56
473.311	80.56
473.53	73.56
473.749	105.56
473.968	93.56
474.187	98.56
474.406	100.56
474.625	94.56
474.844	87.56
475.063	91.56
475.282	91.56
475.501	92.56
475.72	92.56
475.939	95.56
476.158	76.56
476.377	79.56
476.596	90.56
476.814	87.56
477.033	79.56
477.252	100.56
477.471	83.56
477.69	80.56
477.908	97.56
478.127	90.56
478.346	81.56
478.564	92.56
478.783	89.56
479.002	101.56
479.22	104.56
479.439	89.56
479.658	105.56
479.876	101.56
480.095	95.56
480.313	90.56
480.532	96.56
480.751	104.56
480.969	103.56
481.188	99.56
481.406	100.56
481.624	84.56
481.843	91.56
482.061	73.56
482.28	83.56
482.498	89.56
482.717	76.56
482.935	89.56
483.153	87.56
483.372	88.56
483.59	102.56
483.808	90.56
484.027	91.56
484.245	88.56
484.463	89.56
484.681	106.56
484.9	97.56
485.118	98.56
485.336	104.56
485.554	83.56
485.772	93.56
485.99	106.56
486.209	89.56
486.427	110.56
486.645	113.56
486.863	114.56
487.081	101.56
487.299	89.56
487.517	91.56
487.735	81.56
487.953	107.56
488.171	102.56
488.389	92.56
488.607	95.56
488.825	108.56
489.043	92.56
489.261	94.56
489.479	88.56
489.696	98.56
489.914	86.56
490.132	100.56
490.35	99.56
490.568	85.56
490.786	82.56
491.003	87.56
491.221	90.56
491.439	87.56
491.657	97.56
491.874	105.56
492.092	99.56
492.31	89.56
492.527	88.56
492.745	94.56
492.963	88.56
493.18	97.56
493.398	97.56
493.615	105.56
493.833	105.56
494.05	80.56
494.268	94.56
494.485	97.56
494.703	81.56
494.92	90.56
495.138	87.56
495.355	90.56
495.573	82.56
495.79	91.56
496.008	84.56
496.225	90.56
496.442	97.56
496.66	86.56
496.877	95.56
497.094	88.56
497.312	97.56
497.529	88.56
497.746	102.56
497.963	94.56
498.181	82.56
498.398	96.56
498.615	111.56
498.832	92.56
499.049	87.56
499.267	100.56
499.484	93.56
499.701	86.56
499.918	94.56
500.135	90.56
500.352	92.56
500.569	90.56
500.786	96.56
501.003	99.56
501.22	79.56
501.437	82.56
501.654	104.56
501.871	111.56
502.088	104.56
502.305	96.56
502.522	97.56
502.739	93.56
502.956	94.56
503.172	101.56
503.389	98.56
503.606	120.56
503.823	110.56
504.04	103.56
504.256	78.56
504.473	87.56
504.69	103.56
504.907	91.56
505.123	91.56
505.34	103.56
505.557	79.56
505.773	99.56
505.99	95.56
506.207	96.56
506.423	96.56
506.64	82.56
506.856	88.56
507.073	99.56
507.289	101.56
507.506	91.56
507.722	107.56
507.939	115.56
508.155	98.56
508.372	98.56
508.588	104.56
508.805	108.56
509.021	92.56
509.238	92.56
509.454	91.56
509.67	91.56
509.887	100.56
510.103	132.56
510.319	220.56
510.536	806.56
510.752	2471.56
510.968	675.56
511.184	163.56
511.401	122.56
511.617	116.56
511.833	97.56
512.049	98.56
512.265	84.56
512.481	94.56
512.698	82.56
512.914	109.56
513.13	98.56
513.346	98.56
513.562	96.56
513.778	99.56
513.994	98.56
514.21	104.56
514.426	128.56
514.642	123.56
514.858	130.56
515.074	166.56
515.29	474.56
515.506	1452.56
