Data from Uncirc_1995_H10_HRD10591_00052.txt Node
Date: Wed Jan 03 11:35:44 EST 2024
User: Yrep
Spectrometer: HR+D1059
Trigger mode: 1
Integration Time (sec): 1.000000E-1
Scans to average: 1
Electric dark correction enabled: true
Nonlinearity correction enabled: false
Boxcar width: 0
XAxis mode: Wavelengths
Number of Pixels in Spectrum: 2048
>>>>>Begin Spectral Data<<<<<
223.165	-21.88
223.4	-21.88
223.635	-21.88
223.869	-27.88
224.104	-29.88
224.338	-20.88
224.573	-3.88
224.808	-25.88
225.042	15.12
225.277	0.12
225.511	4.12
225.746	6.12
225.98	18.12
226.215	12.12
226.449	12.12
226.683	16.12
226.918	20.12
227.152	26.12
227.387	14.12
227.621	44.12
227.856	46.12
228.09	46.12
228.324	48.12
228.559	68.12
228.793	71.12
229.027	64.12
229.262	58.12
229.496	75.12
229.73	82.12
229.964	86.12
230.199	64.12
230.433	103.12
230.667	82.12
230.901	96.12
231.136	84.12
231.37	79.12
231.604	94.12
231.838	72.12
232.072	92.12
232.306	65.12
232.541	62.12
232.775	76.12
233.009	72.12
233.243	78.12
233.477	86.12
233.711	88.12
233.945	74.12
234.179	74.12
234.413	74.12
234.647	66.12
234.881	80.12
235.115	75.12
235.349	71.12
235.583	74.12
235.817	76.12
236.051	83.12
236.285	87.12
236.519	78.12
236.753	88.12
236.987	85.12
237.221	82.12
237.455	80.12
237.689	74.12
237.922	54.12
238.156	88.12
238.39	81.12
238.624	81.12
238.858	88.12
239.091	78.12
239.325	79.12
239.559	79.12
239.793	93.12
240.027	86.12
240.26	88.12
240.494	78.12
240.728	64.12
240.961	72.12
241.195	71.12
241.429	70.12
241.662	64.12
241.896	68.12
242.13	62.12
242.363	70.12
242.597	78.12
242.83	66.12
243.064	59.12
243.298	75.12
243.531	65.12
243.765	88.12
243.998	82.12
244.232	86.12
244.465	65.12
244.699	82.12
244.932	83.12
245.166	78.12
245.399	61.12
245.633	66.12
245.866	83.12
246.099	80.12
246.333	75.12
246.566	76.12
246.8	72.12
247.033	75.12
247.266	70.12
247.5	70.12
247.733	75.12
247.966	91.12
248.2	75.12
248.433	72.12
248.666	74.12
248.899	64.12
249.133	98.12
249.366	102.12
249.599	88.12
249.832	87.12
250.066	63.12
250.299	74.12
250.532	78.12
250.765	73.12
250.998	90.12
251.231	88.12
251.465	71.12
251.698	94.12
251.931	86.12
252.164	83.12
252.397	64.12
252.63	60.12
252.863	92.12
253.096	80.12
253.329	82.12
253.562	89.12
253.795	72.12
254.028	76.12
254.261	85.12
254.494	72.12
254.727	97.12
254.96	78.12
255.193	84.12
255.426	74.12
255.659	85.12
255.892	82.12
256.124	90.12
256.357	84.12
256.59	83.12
256.823	82.12
257.056	91.12
257.289	86.12
257.521	99.12
257.754	83.12
257.987	75.12
258.22	77.12
258.452	87.12
258.685	80.12
258.918	98.12
259.151	80.12
259.383	72.12
259.616	83.12
259.849	80.12
260.081	86.12
260.314	89.12
260.547	65.12
260.779	87.12
261.012	84.12
261.244	64.12
261.477	82.12
261.71	91.12
261.942	97.12
262.175	106.12
262.407	96.12
262.64	97.12
262.872	70.12
263.105	64.12
263.337	81.12
263.57	81.12
263.802	77.12
264.035	77.12
264.267	76.12
264.499	71.12
264.732	83.12
264.964	85.12
265.197	91.12
265.429	68.12
265.661	75.12
265.894	88.12
266.126	88.12
266.358	80.12
266.591	73.12
266.823	82.12
267.055	94.12
267.287	89.12
267.52	79.12
267.752	103.12
267.984	74.12
268.216	83.12
268.448	90.12
268.681	80.12
268.913	85.12
269.145	76.12
269.377	78.12
269.609	76.12
269.841	78.12
270.073	95.12
270.306	88.12
270.538	86.12
270.77	99.12
271.002	89.12
271.234	86.12
271.466	76.12
271.698	78.12
271.93	76.12
272.162	80.12
272.394	75.12
272.626	94.12
272.858	79.12
273.09	86.12
273.322	80.12
273.553	83.12
273.785	87.12
274.017	75.12
274.249	74.12
274.481	92.12
274.713	72.12
274.945	80.12
275.176	66.12
275.408	89.12
275.64	74.12
275.872	87.12
276.104	86.12
276.335	81.12
276.567	104.12
276.799	113.12
277.031	91.12
277.262	84.12
277.494	96.12
277.726	83.12
277.957	83.12
278.189	75.12
278.421	82.12
278.652	76.12
278.884	72.12
279.115	72.12
279.347	74.12
279.579	82.12
279.81	89.12
280.042	98.12
280.273	81.12
280.505	82.12
280.736	99.12
280.968	83.12
281.199	79.12
281.431	83.12
281.662	87.12
281.894	89.12
282.125	98.12
282.356	92.12
282.588	127.12
282.819	100.12
283.051	95.12
283.282	91.12
283.513	86.12
283.745	93.12
283.976	87.12
284.207	87.12
284.439	81.12
284.67	83.12
284.901	82.12
285.132	94.12
285.364	90.12
285.595	84.12
285.826	89.12
286.057	99.12
286.288	84.12
286.52	91.12
286.751	80.12
286.982	80.12
287.213	98.12
287.444	93.12
287.675	84.12
287.906	98.12
288.138	85.12
288.369	83.12
288.6	84.12
288.831	67.12
289.062	90.12
289.293	74.12
289.524	87.12
289.755	81.12
289.986	88.12
290.217	89.12
290.448	80.12
290.679	88.12
290.91	97.12
291.141	78.12
291.371	87.12
291.602	94.12
291.833	82.12
292.064	86.12
292.295	86.12
292.526	76.12
292.757	92.12
292.987	97.12
293.218	87.12
293.449	89.12
293.68	77.12
293.91	92.12
294.141	86.12
294.372	89.12
294.603	83.12
294.833	80.12
295.064	84.12
295.295	79.12
295.525	85.12
295.756	96.12
295.987	99.12
296.217	124.12
296.448	104.12
296.679	98.12
296.909	89.12
297.14	86.12
297.37	82.12
297.601	89.12
297.831	97.12
298.062	95.12
298.292	77.12
298.523	87.12
298.753	82.12
298.984	71.12
299.214	81.12
299.445	108.12
299.675	98.12
299.905	91.12
300.136	88.12
300.366	102.12
300.597	88.12
300.827	97.12
301.057	104.12
301.288	97.12
301.518	110.12
301.748	86.12
301.979	103.12
302.209	86.12
302.439	80.12
302.669	83.12
302.9	88.12
303.13	90.12
303.36	93.12
303.59	93.12
303.82	96.12
304.051	99.12
304.281	87.12
304.511	87.12
304.741	105.12
304.971	96.12
305.201	93.12
305.431	99.12
305.661	89.12
305.891	100.12
306.121	81.12
306.352	100.12
306.582	93.12
306.812	94.12
307.042	94.12
307.272	100.12
307.502	88.12
307.731	82.12
307.961	93.12
308.191	92.12
308.421	85.12
308.651	86.12
308.881	87.12
309.111	90.12
309.341	91.12
309.571	86.12
309.8	87.12
310.03	103.12
310.26	94.12
310.49	96.12
310.72	107.12
310.949	88.12
311.179	99.12
311.409	98.12
311.639	103.12
311.868	101.12
312.098	98.12
312.328	97.12
312.557	91.12
312.787	95.12
313.017	95.12
313.246	96.12
313.476	95.12
313.706	90.12
313.935	103.12
314.165	96.12
314.394	94.12
314.624	90.12
314.853	93.12
315.083	89.12
315.312	92.12
315.542	95.12
315.771	91.12
316.001	89.12
316.23	98.12
316.46	79.12
316.689	85.12
316.919	83.12
317.148	87.12
317.377	81.12
317.607	82.12
317.836	85.12
318.065	84.12
318.295	88.12
318.524	86.12
318.753	92.12
318.983	88.12
319.212	107.12
319.441	108.12
319.67	108.12
319.9	90.12
320.129	91.12
320.358	88.12
320.587	75.12
320.816	89.12
321.046	86.12
321.275	97.12
321.504	90.12
321.733	106.12
321.962	91.12
322.191	98.12
322.42	93.12
322.649	104.12
322.878	104.12
323.108	116.12
323.337	122.12
323.566	124.12
323.795	148.12
324.024	203.12
324.253	390.12
324.482	846.12
324.71	1674.12
324.939	2272.12
325.168	834.12
325.397	252.12
325.626	146.12
325.855	139.12
326.084	124.12
326.313	128.12
326.542	144.12
326.77	230.12
326.999	478.12
327.228	980.12
327.457	1742.12
327.686	1374.12
327.914	378.12
328.143	187.12
328.372	144.12
328.6	111.12
328.829	107.12
329.058	117.12
329.287	98.12
329.515	108.12
329.744	107.12
329.972	107.12
330.201	90.12
330.43	104.12
330.658	112.12
330.887	136.12
331.115	127.12
331.344	91.12
331.572	86.12
331.801	99.12
332.03	109.12
332.258	88.12
332.486	81.12
332.715	96.12
332.943	97.12
333.172	89.12
333.4	88.12
333.629	95.12
333.857	99.12
334.085	109.12
334.314	92.12
334.542	102.12
334.771	98.12
334.999	94.12
335.227	103.12
335.455	89.12
335.684	96.12
335.912	100.12
336.14	83.12
336.369	84.12
336.597	87.12
336.825	90.12
337.053	92.12
337.281	100.12
337.51	88.12
337.738	95.12
337.966	107.12
338.194	97.12
338.422	101.12
338.65	86.12
338.878	83.12
339.106	93.12
339.334	91.12
339.562	90.12
339.79	89.12
340.018	99.12
340.246	87.12
340.474	95.12
340.702	85.12
340.93	89.12
341.158	108.12
341.386	91.12
341.614	98.12
341.842	98.12
342.07	82.12
342.298	85.12
342.526	98.12
342.754	92.12
342.981	88.12
343.209	95.12
343.437	119.12
343.665	98.12
343.893	77.12
344.12	79.12
344.348	85.12
344.576	90.12
344.804	89.12
345.031	95.12
345.259	97.12
345.487	88.12
345.714	90.12
345.942	91.12
346.17	85.12
346.397	100.12
346.625	93.12
346.853	90.12
347.08	95.12
347.308	97.12
347.535	113.12
347.763	122.12
347.99	87.12
348.218	97.12
348.445	99.12
348.673	96.12
348.9	96.12
349.128	84.12
349.355	82.12
349.583	83.12
349.81	86.12
350.037	97.12
350.265	100.12
350.492	92.12
350.72	90.12
350.947	104.12
351.174	109.12
351.402	105.12
351.629	99.12
351.856	108.12
352.083	114.12
352.311	106.12
352.538	99.12
352.765	120.12
352.992	107.12
353.22	114.12
353.447	89.12
353.674	96.12
353.901	82.12
354.128	98.12
354.355	80.12
354.583	89.12
354.81	88.12
355.037	93.12
355.264	98.12
355.491	81.12
355.718	102.12
355.945	96.12
356.172	96.12
356.399	99.12
356.626	99.12
356.853	98.12
357.08	91.12
357.307	95.12
357.534	91.12
357.761	90.12
357.988	90.12
358.215	90.12
358.441	87.12
358.668	91.12
358.895	87.12
359.122	91.12
359.349	97.12
359.576	80.12
359.802	108.12
360.029	96.12
360.256	102.12
360.483	96.12
360.709	88.12
360.936	84.12
361.163	82.12
361.39	93.12
361.616	94.12
361.843	82.12
362.07	93.12
362.296	91.12
362.523	99.12
362.749	85.12
362.976	88.12
363.203	95.12
363.429	86.12
363.656	94.12
363.882	90.12
364.109	110.12
364.335	93.12
364.562	90.12
364.788	89.12
365.015	95.12
365.241	102.12
365.468	104.12
365.694	102.12
365.92	89.12
366.147	88.12
366.373	73.12
366.599	78.12
366.826	65.12
367.052	89.12
367.278	89.12
367.505	79.12
367.731	82.12
367.957	86.12
368.184	88.12
368.41	90.12
368.636	105.12
368.862	113.12
369.089	96.12
369.315	88.12
369.541	107.12
369.767	95.12
369.993	94.12
370.219	91.12
370.445	84.12
370.672	72.12
370.898	83.12
371.124	86.12
371.35	81.12
371.576	84.12
371.802	70.12
372.028	89.12
372.254	91.12
372.48	82.12
372.706	74.12
372.932	90.12
373.158	81.12
373.384	94.12
373.61	103.12
373.835	93.12
374.061	95.12
374.287	101.12
374.513	91.12
374.739	92.12
374.965	89.12
375.191	80.12
375.416	86.12
375.642	81.12
375.868	84.12
376.094	87.12
376.319	88.12
376.545	82.12
376.771	82.12
376.997	97.12
377.222	91.12
377.448	102.12
377.674	91.12
377.899	86.12
378.125	91.12
378.35	96.12
378.576	95.12
378.802	108.12
379.027	94.12
379.253	99.12
379.478	94.12
379.704	97.12
379.929	97.12
380.155	99.12
380.38	93.12
380.606	106.12
380.831	94.12
381.057	94.12
381.282	94.12
381.507	80.12
381.733	101.12
381.958	90.12
382.184	93.12
382.409	91.12
382.634	98.12
382.86	100.12
383.085	113.12
383.31	102.12
383.535	107.12
383.761	82.12
383.986	96.12
384.211	86.12
384.436	100.12
384.662	99.12
384.887	104.12
385.112	103.12
385.337	92.12
385.562	97.12
385.787	106.12
386.013	120.12
386.238	104.12
386.463	116.12
386.688	102.12
386.913	100.12
387.138	93.12
387.363	106.12
387.588	106.12
387.813	102.12
388.038	108.12
388.263	114.12
388.488	107.12
388.713	90.12
388.938	89.12
389.163	85.12
389.387	90.12
389.612	95.12
389.837	101.12
390.062	108.12
390.287	106.12
390.512	81.12
390.736	102.12
390.961	92.12
391.186	86.12
391.411	95.12
391.636	101.12
391.86	84.12
392.085	75.12
392.31	76.12
392.534	81.12
392.759	77.12
392.984	77.12
393.208	87.12
393.433	94.12
393.658	86.12
393.882	79.12
394.107	87.12
394.331	86.12
394.556	89.12
394.78	95.12
395.005	82.12
395.229	74.12
395.454	80.12
395.678	86.12
395.903	88.12
396.127	80.12
396.352	84.12
396.576	84.12
396.801	92.12
397.025	82.12
397.249	82.12
397.474	78.12
397.698	91.12
397.922	86.12
398.147	84.12
398.371	88.12
398.595	91.12
398.82	74.12
399.044	79.12
399.268	94.12
399.492	82.12
399.717	87.12
399.941	86.12
400.165	79.12
400.389	99.12
400.613	93.12
400.837	74.12
401.062	99.12
401.286	95.12
401.51	100.12
401.734	90.12
401.958	97.12
402.182	134.12
402.406	154.12
402.63	113.12
402.854	90.12
403.078	94.12
403.302	96.12
403.526	105.12
403.75	86.12
403.974	78.12
404.198	93.12
404.422	102.12
404.645	108.12
404.869	90.12
405.093	94.12
405.317	79.12
405.541	76.12
405.765	100.12
405.988	102.12
406.212	171.12
406.436	217.12
406.66	148.12
406.883	104.12
407.107	96.12
407.331	80.12
407.555	93.12
407.778	89.12
408.002	90.12
408.226	92.12
408.449	105.12
408.673	87.12
408.896	91.12
409.12	111.12
409.344	83.12
409.567	79.12
409.791	80.12
410.014	92.12
410.238	98.12
410.461	100.12
410.685	103.12
410.908	97.12
411.132	97.12
411.355	104.12
411.578	86.12
411.802	92.12
412.025	92.12
412.249	89.12
412.472	84.12
412.695	90.12
412.919	94.12
413.142	94.12
413.365	93.12
413.589	82.12
413.812	96.12
414.035	94.12
414.258	86.12
414.482	84.12
414.705	88.12
414.928	92.12
415.151	90.12
415.374	94.12
415.597	100.12
415.821	96.12
416.044	94.12
416.267	96.12
416.49	90.12
416.713	90.12
416.936	98.12
417.159	98.12
417.382	94.12
417.605	87.12
417.828	82.12
418.051	87.12
418.274	90.12
418.497	84.12
418.72	106.12
418.943	93.12
419.166	102.12
419.389	89.12
419.611	90.12
419.834	105.12
420.057	80.12
420.28	92.12
420.503	100.12
420.726	95.12
420.948	84.12
421.171	83.12
421.394	86.12
421.617	89.12
421.839	88.12
422.062	83.12
422.285	94.12
422.507	99.12
422.73	96.12
422.953	84.12
423.175	93.12
423.398	76.12
423.621	96.12
423.843	86.12
424.066	80.12
424.288	87.12
424.511	91.12
424.733	94.12
424.956	95.12
425.178	79.12
425.401	109.12
425.623	94.12
425.846	83.12
426.068	101.12
426.291	90.12
426.513	85.12
426.735	85.12
426.958	82.12
427.18	98.12
427.402	129.12
427.625	166.12
427.847	117.12
428.069	84.12
428.292	93.12
428.514	87.12
428.736	78.12
428.958	82.12
429.181	83.12
429.403	89.12
429.625	83.12
429.847	88.12
430.069	80.12
430.292	91.12
430.514	73.12
430.736	70.12
430.958	90.12
431.18	95.12
431.402	91.12
431.624	90.12
431.846	90.12
432.068	89.12
432.29	75.12
432.512	94.12
432.734	95.12
432.956	90.12
433.178	95.12
433.4	102.12
433.622	94.12
433.844	92.12
434.066	93.12
434.287	99.12
434.509	82.12
434.731	97.12
434.953	91.12
435.175	82.12
435.397	84.12
435.618	91.12
435.84	99.12
436.062	119.12
436.284	102.12
436.505	100.12
436.727	99.12
436.949	85.12
437.17	82.12
437.392	94.12
437.614	97.12
437.835	109.12
438.057	111.12
438.278	120.12
438.5	103.12
438.721	105.12
438.943	91.12
439.165	94.12
439.386	94.12
439.608	91.12
439.829	97.12
440.05	101.12
440.272	119.12
440.493	108.12
440.715	89.12
440.936	99.12
441.158	101.12
441.379	91.12
441.6	87.12
441.822	94.12
442.043	93.12
442.264	87.12
442.486	98.12
442.707	82.12
442.928	99.12
443.149	112.12
443.371	124.12
443.592	102.12
443.813	109.12
444.034	102.12
444.255	101.12
444.476	70.12
444.698	90.12
444.919	68.12
445.14	120.12
445.361	114.12
445.582	103.12
445.803	127.12
446.024	118.12
446.245	118.12
446.466	103.12
446.687	88.12
446.908	82.12
447.129	98.12
447.35	75.12
447.571	86.12
447.792	98.12
448.013	100.12
448.234	103.12
448.455	100.12
448.675	109.12
448.896	112.12
449.117	108.12
449.338	83.12
449.559	118.12
449.779	119.12
450	91.12
450.221	99.12
450.442	100.12
450.662	92.12
450.883	94.12
451.104	110.12
451.324	87.12
451.545	74.12
451.766	72.12
451.986	91.12
452.207	87.12
452.428	82.12
452.648	97.12
452.869	113.12
453.089	109.12
453.31	119.12
453.53	92.12
453.751	99.12
453.971	96.12
454.192	105.12
454.412	84.12
454.633	90.12
454.853	86.12
455.073	94.12
455.294	74.12
455.514	98.12
455.734	84.12
455.955	83.12
456.175	94.12
456.395	90.12
456.616	82.12
456.836	84.12
457.056	81.12
457.276	87.12
457.497	90.12
457.717	73.12
457.937	86.12
458.157	79.12
458.377	99.12
458.598	103.12
458.818	126.12
459.038	122.12
459.258	117.12
459.478	96.12
459.698	86.12
459.918	88.12
460.138	76.12
460.358	79.12
460.578	87.12
460.798	91.12
461.018	95.12
461.238	94.12
461.458	75.12
461.678	97.12
461.898	88.12
462.118	86.12
462.338	77.12
462.558	88.12
462.777	96.12
462.997	89.12
463.217	78.12
463.437	81.12
463.657	83.12
463.876	91.12
464.096	94.12
464.316	102.12
464.536	84.12
464.755	112.12
464.975	104.12
465.195	162.12
465.414	137.12
465.634	95.12
465.854	86.12
466.073	86.12
466.293	93.12
466.512	75.12
466.732	92.12
466.951	71.12
467.171	85.12
467.391	101.12
467.61	87.12
467.829	86.12
468.049	88.12
468.268	92.12
468.488	80.12
468.707	85.12
468.927	80.12
469.146	86.12
469.365	80.12
469.585	84.12
469.804	100.12
470.023	98.12
470.243	85.12
470.462	95.12
470.681	98.12
470.901	97.12
471.12	84.12
471.339	94.12
471.558	94.12
471.777	80.12
471.997	82.12
472.216	91.12
472.435	92.12
472.654	97.12
472.873	91.12
473.092	95.12
473.311	74.12
473.53	65.12
473.749	72.12
473.968	89.12
474.187	103.12
474.406	105.12
474.625	103.12
474.844	92.12
475.063	82.12
475.282	60.12
475.501	87.12
475.72	81.12
475.939	89.12
476.158	86.12
476.377	77.12
476.596	92.12
476.814	102.12
477.033	92.12
477.252	87.12
477.471	86.12
477.69	88.12
477.908	82.12
478.127	80.12
478.346	88.12
478.564	80.12
478.783	99.12
479.002	105.12
479.22	93.12
479.439	101.12
479.658	103.12
479.876	91.12
480.095	93.12
480.313	89.12
480.532	87.12
480.751	91.12
480.969	95.12
481.188	87.12
481.406	92.12
481.624	92.12
481.843	78.12
482.061	79.12
482.28	76.12
482.498	92.12
482.717	92.12
482.935	87.12
483.153	95.12
483.372	99.12
483.59	84.12
483.808	89.12
484.027	94.12
484.245	82.12
484.463	92.12
484.681	96.12
484.9	90.12
485.118	83.12
485.336	81.12
485.554	95.12
485.772	89.12
485.99	93.12
486.209	108.12
486.427	99.12
486.645	120.12
486.863	94.12
487.081	82.12
487.299	105.12
487.517	109.12
487.735	92.12
487.953	84.12
488.171	106.12
488.389	86.12
488.607	82.12
488.825	79.12
489.043	98.12
489.261	86.12
489.479	86.12
489.696	88.12
489.914	88.12
490.132	95.12
490.35	88.12
490.568	84.12
490.786	91.12
491.003	84.12
491.221	89.12
491.439	88.12
491.657	100.12
491.874	86.12
492.092	86.12
492.31	95.12
492.527	71.12
492.745	93.12
492.963	89.12
493.18	97.12
493.398	107.12
493.615	100.12
493.833	87.12
494.05	88.12
494.268	82.12
494.485	94.12
494.703	85.12
494.92	91.12
495.138	89.12
495.355	91.12
495.573	94.12
495.79	107.12
496.008	92.12
496.225	86.12
496.442	96.12
496.66	96.12
496.877	84.12
497.094	75.12
497.312	90.12
497.529	78.12
497.746	105.12
497.963	85.12
498.181	99.12
498.398	92.12
498.615	95.12
498.832	99.12
499.049	92.12
499.267	80.12
499.484	80.12
499.701	103.12
499.918	84.12
500.135	87.12
500.352	72.12
500.569	94.12
500.786	101.12
501.003	99.12
501.22	91.12
501.437	81.12
501.654	102.12
501.871	103.12
502.088	87.12
502.305	85.12
502.522	87.12
502.739	98.12
502.956	90.12
503.172	95.12
503.389	107.12
503.606	100.12
503.823	83.12
504.04	97.12
504.256	98.12
504.473	89.12
504.69	89.12
504.907	87.12
505.123	86.12
505.34	96.12
505.557	85.12
505.773	87.12
505.99	89.12
506.207	78.12
506.423	84.12
506.64	94.12
506.856	100.12
507.073	110.12
507.289	105.12
507.506	81.12
507.722	112.12
507.939	112.12
508.155	99.12
508.372	94.12
508.588	99.12
508.805	112.12
509.021	102.12
509.238	102.12
509.454	90.12
509.67	88.12
509.887	117.12
510.103	146.12
510.319	226.12
510.536	785.12
510.752	2449.12
510.968	651.12
511.184	154.12
511.401	120.12
511.617	104.12
511.833	75.12
512.049	84.12
512.265	99.12
512.481	100.12
512.698	82.12
512.914	93.12
513.13	88.12
513.346	103.12
513.562	100.12
513.778	86.12
513.994	90.12
514.21	117.12
514.426	123.12
514.642	136.12
514.858	129.12
515.074	150.12
515.29	443.12
515.506	1453.12
515.721	513.12
515.937	147.12
516.153	116.12
516.369	112.12
