Data from Uncirc_1995_H10_HRD10591_00064.txt Node
Date: Wed Jan 03 11:35:46 EST 2024
User: Yrep
Spectrometer: HR+D1059
Trigger mode: 1
Integration Time (sec): 1.000000E-1
Scans to average: 1
Electric dark correction enabled: true
Nonlinearity correction enabled: false
Boxcar width: 0
XAxis mode: Wavelengths
Number of Pixels in Spectrum: 2048
>>>>>Begin Spectral Data<<<<<
223.165	-4.56
223.4	-4.56
223.635	-4.56
223.869	-31.56
224.104	-24.56
224.338	-16.56
224.573	-14.56
224.808	-15.56
225.042	-4.56
225.277	-3.56
225.511	-5.56
225.746	3.44
225.98	10.44
226.215	9.44
226.449	17.44
226.683	29.44
226.918	17.44
227.152	33.44
227.387	17.44
227.621	35.44
227.856	43.44
228.09	30.44
228.324	52.44
228.559	55.44
228.793	78.44
229.027	57.44
229.262	75.44
229.496	71.44
229.73	81.44
229.964	76.44
230.199	70.44
230.433	69.44
230.667	77.44
230.901	84.44
231.136	71.44
231.37	77.44
231.604	89.44
231.838	81.44
232.072	84.44
232.306	88.44
232.541	96.44
232.775	89.44
233.009	80.44
233.243	83.44
233.477	76.44
233.711	82.44
233.945	74.44
234.179	87.44
234.413	82.44
234.647	86.44
234.881	82.44
235.115	83.44
235.349	61.44
235.583	83.44
235.817	83.44
236.051	68.44
236.285	69.44
236.519	78.44
236.753	73.44
236.987	90.44
237.221	86.44
237.455	73.44
237.689	76.44
237.922	80.44
238.156	63.44
238.39	75.44
238.624	73.44
238.858	70.44
239.091	82.44
239.325	75.44
239.559	87.44
239.793	74.44
240.027	86.44
240.26	81.44
240.494	82.44
240.728	73.44
240.961	69.44
241.195	80.44
241.429	86.44
241.662	78.44
241.896	83.44
242.13	86.44
242.363	75.44
242.597	73.44
242.83	85.44
243.064	69.44
243.298	70.44
243.531	83.44
243.765	75.44
243.998	78.44
244.232	79.44
244.465	79.44
244.699	74.44
244.932	71.44
245.166	80.44
245.399	86.44
245.633	73.44
245.866	74.44
246.099	77.44
246.333	79.44
246.566	77.44
246.8	78.44
247.033	79.44
247.266	88.44
247.5	88.44
247.733	77.44
247.966	77.44
248.2	80.44
248.433	95.44
248.666	62.44
248.899	65.44
249.133	85.44
249.366	96.44
249.599	108.44
249.832	89.44
250.066	85.44
250.299	90.44
250.532	84.44
250.765	79.44
250.998	98.44
251.231	82.44
251.465	69.44
251.698	87.44
251.931	72.44
252.164	81.44
252.397	75.44
252.63	80.44
252.863	90.44
253.096	76.44
253.329	77.44
253.562	79.44
253.795	80.44
254.028	81.44
254.261	82.44
254.494	90.44
254.727	79.44
254.96	75.44
255.193	76.44
255.426	81.44
255.659	74.44
255.892	70.44
256.124	78.44
256.357	74.44
256.59	75.44
256.823	78.44
257.056	82.44
257.289	83.44
257.521	66.44
257.754	75.44
257.987	71.44
258.22	80.44
258.452	87.44
258.685	77.44
258.918	78.44
259.151	66.44
259.383	85.44
259.616	69.44
259.849	76.44
260.081	59.44
260.314	81.44
260.547	79.44
260.779	81.44
261.012	87.44
261.244	65.44
261.477	103.44
261.71	100.44
261.942	122.44
262.175	110.44
262.407	86.44
262.64	76.44
262.872	78.44
263.105	77.44
263.337	98.44
263.57	79.44
263.802	79.44
264.035	92.44
264.267	77.44
264.499	85.44
264.732	71.44
264.964	81.44
265.197	85.44
265.429	94.44
265.661	85.44
265.894	77.44
266.126	75.44
266.358	76.44
266.591	81.44
266.823	72.44
267.055	86.44
267.287	81.44
267.52	83.44
267.752	87.44
267.984	93.44
268.216	78.44
268.448	83.44
268.681	84.44
268.913	98.44
269.145	86.44
269.377	70.44
269.609	86.44
269.841	81.44
270.073	91.44
270.306	88.44
270.538	87.44
270.77	69.44
271.002	95.44
271.234	83.44
271.466	76.44
271.698	83.44
271.93	87.44
272.162	88.44
272.394	81.44
272.626	85.44
272.858	72.44
273.09	65.44
273.322	85.44
273.553	87.44
273.785	80.44
274.017	85.44
274.249	80.44
274.481	97.44
274.713	86.44
274.945	81.44
275.176	90.44
275.408	91.44
275.64	86.44
275.872	103.44
276.104	98.44
276.335	85.44
276.567	104.44
276.799	118.44
277.031	97.44
277.262	91.44
277.494	75.44
277.726	81.44
277.957	94.44
278.189	90.44
278.421	75.44
278.652	85.44
278.884	94.44
279.115	82.44
279.347	82.44
279.579	86.44
279.81	83.44
280.042	89.44
280.273	95.44
280.505	73.44
280.736	72.44
280.968	78.44
281.199	80.44
281.431	79.44
281.662	81.44
281.894	98.44
282.125	88.44
282.356	128.44
282.588	126.44
282.819	110.44
283.051	84.44
283.282	91.44
283.513	87.44
283.745	93.44
283.976	95.44
284.207	85.44
284.439	78.44
284.67	82.44
284.901	86.44
285.132	80.44
285.364	84.44
285.595	98.44
285.826	91.44
286.057	95.44
286.288	82.44
286.52	73.44
286.751	81.44
286.982	91.44
287.213	82.44
287.444	74.44
287.675	83.44
287.906	75.44
288.138	85.44
288.369	88.44
288.6	96.44
288.831	78.44
289.062	71.44
289.293	92.44
289.524	87.44
289.755	92.44
289.986	74.44
290.217	80.44
290.448	82.44
290.679	98.44
290.91	89.44
291.141	103.44
291.371	80.44
291.602	91.44
291.833	88.44
292.064	93.44
292.295	90.44
292.526	96.44
292.757	78.44
292.987	84.44
293.218	78.44
293.449	92.44
293.68	80.44
293.91	73.44
294.141	99.44
294.372	90.44
294.603	88.44
294.833	90.44
295.064	75.44
295.295	82.44
295.525	83.44
295.756	89.44
295.987	106.44
296.217	137.44
296.448	108.44
296.679	75.44
296.909	79.44
297.14	96.44
297.37	83.44
297.601	81.44
297.831	87.44
298.062	83.44
298.292	90.44
298.523	88.44
298.753	71.44
298.984	90.44
299.214	86.44
299.445	87.44
299.675	86.44
299.905	82.44
300.136	96.44
300.366	107.44
300.597	85.44
300.827	82.44
301.057	81.44
301.288	85.44
301.518	87.44
301.748	97.44
301.979	95.44
302.209	93.44
302.439	78.44
302.669	82.44
302.9	80.44
303.13	75.44
303.36	89.44
303.59	92.44
303.82	98.44
304.051	79.44
304.281	91.44
304.511	79.44
304.741	76.44
304.971	97.44
305.201	79.44
305.431	87.44
305.661	95.44
305.891	93.44
306.121	97.44
306.352	91.44
306.582	112.44
306.812	79.44
307.042	89.44
307.272	82.44
307.502	87.44
307.731	93.44
307.961	81.44
308.191	108.44
308.421	102.44
308.651	95.44
308.881	91.44
309.111	88.44
309.341	80.44
309.571	90.44
309.8	89.44
310.03	85.44
310.26	96.44
310.49	83.44
310.72	99.44
310.949	107.44
311.179	103.44
311.409	100.44
311.639	82.44
311.868	85.44
312.098	105.44
312.328	103.44
312.557	94.44
312.787	97.44
313.017	97.44
313.246	81.44
313.476	96.44
313.706	95.44
313.935	84.44
314.165	94.44
314.394	99.44
314.624	86.44
314.853	92.44
315.083	96.44
315.312	97.44
315.542	107.44
315.771	98.44
316.001	103.44
316.23	93.44
316.46	90.44
316.689	76.44
316.919	101.44
317.148	75.44
317.377	94.44
317.607	86.44
317.836	98.44
318.065	89.44
318.295	105.44
318.524	74.44
318.753	99.44
318.983	87.44
319.212	86.44
319.441	107.44
319.67	99.44
319.9	91.44
320.129	93.44
320.358	82.44
320.587	102.44
320.816	92.44
321.046	98.44
321.275	87.44
321.504	87.44
321.733	82.44
321.962	118.44
322.191	93.44
322.42	111.44
322.649	108.44
322.878	111.44
323.108	103.44
323.337	106.44
323.566	119.44
323.795	156.44
324.024	198.44
324.253	395.44
324.482	818.44
324.71	1736.44
324.939	2303.44
325.168	838.44
325.397	231.44
325.626	140.44
325.855	120.44
326.084	121.44
326.313	126.44
326.542	163.44
326.77	212.44
326.999	467.44
327.228	945.44
327.457	1752.44
327.686	1367.44
327.914	396.44
328.143	192.44
328.372	139.44
328.6	125.44
328.829	112.44
329.058	112.44
329.287	112.44
329.515	110.44
329.744	109.44
329.972	96.44
330.201	95.44
330.43	101.44
330.658	117.44
330.887	133.44
331.115	106.44
331.344	94.44
331.572	87.44
331.801	110.44
332.03	97.44
332.258	89.44
332.486	89.44
332.715	96.44
332.943	79.44
333.172	101.44
333.4	90.44
333.629	101.44
333.857	103.44
334.085	99.44
334.314	101.44
334.542	102.44
334.771	101.44
334.999	98.44
335.227	85.44
335.455	103.44
335.684	100.44
335.912	97.44
336.14	94.44
336.369	87.44
336.597	82.44
336.825	98.44
337.053	91.44
337.281	95.44
337.51	96.44
337.738	92.44
337.966	98.44
338.194	99.44
338.422	99.44
338.65	92.44
338.878	87.44
339.106	88.44
339.334	90.44
339.562	87.44
339.79	87.44
340.018	77.44
340.246	80.44
340.474	90.44
340.702	99.44
340.93	85.44
341.158	87.44
341.386	89.44
341.614	96.44
341.842	94.44
342.07	107.44
342.298	87.44
342.526	94.44
342.754	104.44
342.981	95.44
343.209	89.44
343.437	98.44
343.665	79.44
343.893	85.44
344.12	87.44
344.348	87.44
344.576	90.44
344.804	93.44
345.031	97.44
345.259	102.44
345.487	81.44
345.714	96.44
345.942	98.44
346.17	86.44
346.397	82.44
346.625	92.44
346.853	82.44
347.08	81.44
347.308	96.44
347.535	94.44
347.763	90.44
347.99	98.44
348.218	99.44
348.445	112.44
348.673	88.44
348.9	90.44
349.128	74.44
349.355	85.44
349.583	82.44
349.81	90.44
350.037	87.44
350.265	86.44
350.492	96.44
350.72	99.44
350.947	99.44
351.174	103.44
351.402	118.44
351.629	96.44
351.856	96.44
352.083	112.44
352.311	103.44
352.538	92.44
352.765	102.44
352.992	106.44
353.22	102.44
353.447	103.44
353.674	109.44
353.901	93.44
354.128	104.44
354.355	90.44
354.583	102.44
354.81	91.44
355.037	98.44
355.264	105.44
355.491	97.44
355.718	99.44
355.945	95.44
356.172	88.44
356.399	97.44
356.626	93.44
356.853	97.44
357.08	84.44
357.307	87.44
357.534	83.44
357.761	94.44
357.988	98.44
358.215	99.44
358.441	91.44
358.668	81.44
358.895	81.44
359.122	95.44
359.349	99.44
359.576	98.44
359.802	89.44
360.029	111.44
360.256	107.44
360.483	76.44
360.709	95.44
360.936	92.44
361.163	102.44
361.39	114.44
361.616	79.44
361.843	71.44
362.07	94.44
362.296	79.44
362.523	94.44
362.749	95.44
362.976	92.44
363.203	90.44
363.429	93.44
363.656	95.44
363.882	83.44
364.109	108.44
364.335	97.44
364.562	84.44
364.788	88.44
365.015	84.44
365.241	97.44
365.468	101.44
365.694	104.44
365.92	91.44
366.147	86.44
366.373	79.44
366.599	89.44
366.826	101.44
367.052	89.44
367.278	82.44
367.505	78.44
367.731	84.44
367.957	92.44
368.184	74.44
368.41	94.44
368.636	106.44
368.862	116.44
369.089	102.44
369.315	84.44
369.541	87.44
369.767	78.44
369.993	81.44
370.219	87.44
370.445	91.44
370.672	97.44
370.898	75.44
371.124	85.44
371.35	95.44
371.576	77.44
371.802	85.44
372.028	88.44
372.254	91.44
372.48	88.44
372.706	94.44
372.932	102.44
373.158	79.44
373.384	91.44
373.61	86.44
373.835	99.44
374.061	92.44
374.287	91.44
374.513	74.44
374.739	84.44
374.965	83.44
375.191	85.44
375.416	86.44
375.642	104.44
375.868	97.44
376.094	107.44
376.319	91.44
376.545	82.44
376.771	89.44
376.997	81.44
377.222	89.44
377.448	84.44
377.674	97.44
377.899	92.44
378.125	96.44
378.35	97.44
378.576	98.44
378.802	99.44
379.027	98.44
379.253	107.44
379.478	103.44
379.704	97.44
379.929	96.44
380.155	91.44
380.38	81.44
380.606	83.44
380.831	66.44
381.057	91.44
381.282	103.44
381.507	93.44
381.733	88.44
381.958	92.44
382.184	86.44
382.409	89.44
382.634	110.44
382.86	96.44
383.085	93.44
383.31	109.44
383.535	110.44
383.761	111.44
383.986	83.44
384.211	84.44
384.436	71.44
384.662	79.44
384.887	91.44
385.112	99.44
385.337	111.44
385.562	106.44
385.787	97.44
386.013	123.44
386.238	100.44
386.463	97.44
386.688	108.44
386.913	92.44
387.138	94.44
387.363	100.44
387.588	98.44
387.813	106.44
388.038	105.44
388.263	91.44
388.488	98.44
388.713	96.44
388.938	84.44
389.163	95.44
389.387	93.44
389.612	96.44
389.837	101.44
390.062	84.44
390.287	90.44
390.512	78.44
390.736	83.44
390.961	88.44
391.186	94.44
391.411	94.44
391.636	89.44
391.86	85.44
392.085	77.44
392.31	75.44
392.534	87.44
392.759	97.44
392.984	91.44
393.208	90.44
393.433	81.44
393.658	83.44
393.882	92.44
394.107	89.44
394.331	73.44
394.556	72.44
394.78	73.44
395.005	99.44
395.229	82.44
395.454	91.44
395.678	75.44
395.903	79.44
396.127	88.44
396.352	87.44
396.576	76.44
396.801	96.44
397.025	94.44
397.249	80.44
397.474	77.44
397.698	78.44
397.922	89.44
398.147	89.44
398.371	94.44
398.595	87.44
398.82	80.44
399.044	93.44
399.268	81.44
399.492	91.44
399.717	93.44
399.941	79.44
400.165	94.44
400.389	96.44
400.613	85.44
400.837	90.44
401.062	97.44
401.286	94.44
401.51	82.44
401.734	98.44
401.958	91.44
402.182	138.44
402.406	160.44
402.63	112.44
402.854	97.44
403.078	78.44
403.302	85.44
403.526	94.44
403.75	89.44
403.974	79.44
404.198	87.44
404.422	81.44
404.645	83.44
404.869	71.44
405.093	98.44
405.317	87.44
405.541	69.44
405.765	87.44
405.988	113.44
406.212	160.44
406.436	214.44
406.66	143.44
406.883	101.44
407.107	101.44
407.331	102.44
407.555	94.44
407.778	99.44
408.002	103.44
408.226	95.44
408.449	86.44
408.673	95.44
408.896	95.44
409.12	100.44
409.344	90.44
409.567	84.44
409.791	72.44
410.014	106.44
410.238	82.44
410.461	90.44
410.685	86.44
410.908	102.44
411.132	99.44
411.355	118.44
411.578	97.44
411.802	107.44
412.025	85.44
412.249	74.44
412.472	90.44
412.695	84.44
412.919	89.44
413.142	96.44
413.365	82.44
413.589	81.44
413.812	94.44
414.035	97.44
414.258	81.44
414.482	96.44
414.705	89.44
414.928	89.44
415.151	109.44
415.374	103.44
415.597	95.44
415.821	91.44
416.044	90.44
416.267	83.44
416.49	87.44
416.713	91.44
416.936	95.44
417.159	84.44
417.382	94.44
417.605	85.44
417.828	81.44
418.051	97.44
418.274	78.44
418.497	85.44
418.72	89.44
418.943	74.44
419.166	98.44
419.389	99.44
419.611	93.44
419.834	83.44
420.057	83.44
420.28	83.44
420.503	95.44
420.726	95.44
420.948	92.44
421.171	98.44
421.394	96.44
421.617	79.44
421.839	78.44
422.062	88.44
422.285	90.44
422.507	107.44
422.73	108.44
422.953	89.44
423.175	89.44
423.398	84.44
423.621	73.44
423.843	83.44
424.066	101.44
424.288	89.44
424.511	92.44
424.733	97.44
424.956	103.44
425.178	101.44
425.401	96.44
425.623	99.44
425.846	90.44
426.068	87.44
426.291	91.44
426.513	89.44
426.735	93.44
426.958	87.44
427.18	86.44
427.402	135.44
427.625	152.44
427.847	114.44
428.069	98.44
428.292	87.44
428.514	85.44
428.736	79.44
428.958	88.44
429.181	82.44
429.403	81.44
429.625	73.44
429.847	90.44
430.069	98.44
430.292	91.44
430.514	83.44
430.736	91.44
430.958	83.44
431.18	81.44
431.402	89.44
431.624	95.44
431.846	90.44
432.068	85.44
432.29	73.44
432.512	81.44
432.734	82.44
432.956	96.44
433.178	90.44
433.4	99.44
433.622	97.44
433.844	67.44
434.066	81.44
434.287	80.44
434.509	89.44
434.731	96.44
434.953	76.44
435.175	91.44
435.397	79.44
435.618	81.44
435.84	106.44
436.062	125.44
436.284	112.44
436.505	120.44
436.727	86.44
436.949	94.44
437.17	88.44
437.392	93.44
437.614	93.44
437.835	109.44
438.057	107.44
438.278	107.44
438.5	99.44
438.721	111.44
438.943	94.44
439.165	91.44
439.386	87.44
439.608	93.44
439.829	86.44
440.05	120.44
440.272	122.44
440.493	98.44
440.715	81.44
440.936	90.44
441.158	80.44
441.379	88.44
441.6	110.44
441.822	87.44
442.043	93.44
442.264	101.44
442.486	108.44
442.707	94.44
442.928	102.44
443.149	123.44
443.371	107.44
443.592	105.44
443.813	126.44
444.034	90.44
444.255	86.44
444.476	86.44
444.698	77.44
444.919	90.44
445.14	137.44
445.361	119.44
445.582	106.44
445.803	150.44
446.024	126.44
446.245	123.44
446.466	94.44
446.687	79.44
446.908	96.44
447.129	89.44
447.35	90.44
447.571	92.44
447.792	86.44
448.013	90.44
448.234	102.44
448.455	105.44
448.675	104.44
448.896	118.44
449.117	98.44
449.338	110.44
449.559	127.44
449.779	132.44
450	93.44
450.221	79.44
450.442	97.44
450.662	90.44
450.883	96.44
451.104	114.44
451.324	94.44
451.545	92.44
451.766	92.44
451.986	98.44
452.207	90.44
452.428	94.44
452.648	86.44
452.869	92.44
453.089	100.44
453.31	112.44
453.53	89.44
453.751	92.44
453.971	97.44
454.192	115.44
454.412	88.44
454.633	88.44
454.853	71.44
455.073	83.44
455.294	87.44
455.514	95.44
455.734	86.44
455.955	83.44
456.175	77.44
456.395	74.44
456.616	79.44
456.836	79.44
457.056	74.44
457.276	95.44
457.497	90.44
457.717	95.44
457.937	83.44
458.157	74.44
458.377	80.44
458.598	95.44
458.818	125.44
459.038	138.44
459.258	94.44
459.478	80.44
459.698	85.44
459.918	84.44
460.138	86.44
460.358	88.44
460.578	80.44
460.798	75.44
461.018	86.44
461.238	76.44
461.458	80.44
461.678	88.44
461.898	97.44
462.118	96.44
462.338	73.44
462.558	91.44
462.777	90.44
462.997	83.44
463.217	81.44
463.437	86.44
463.657	92.44
463.876	85.44
464.096	90.44
464.316	81.44
464.536	88.44
464.755	86.44
464.975	95.44
465.195	152.44
465.414	146.44
465.634	95.44
465.854	87.44
466.073	89.44
466.293	91.44
466.512	89.44
466.732	87.44
466.951	82.44
467.171	104.44
467.391	90.44
467.61	97.44
467.829	93.44
468.049	93.44
468.268	90.44
468.488	85.44
468.707	81.44
468.927	76.44
469.146	90.44
469.365	91.44
469.585	82.44
469.804	97.44
470.023	83.44
470.243	78.44
470.462	95.44
470.681	98.44
470.901	82.44
471.12	93.44
471.339	95.44
471.558	81.44
471.777	84.44
471.997	94.44
472.216	87.44
472.435	101.44
472.654	92.44
472.873	87.44
473.092	88.44
473.311	81.44
473.53	82.44
473.749	94.44
473.968	90.44
474.187	74.44
474.406	87.44
474.625	99.44
474.844	80.44
475.063	75.44
475.282	85.44
475.501	80.44
475.72	78.44
475.939	86.44
476.158	80.44
476.377	83.44
476.596	88.44
476.814	86.44
477.033	90.44
477.252	86.44
477.471	78.44
477.69	78.44
477.908	88.44
478.127	98.44
478.346	83.44
478.564	97.44
478.783	93.44
479.002	86.44
479.22	96.44
479.439	101.44
479.658	103.44
479.876	95.44
480.095	93.44
480.313	88.44
480.532	96.44
480.751	96.44
480.969	81.44
481.188	104.44
481.406	89.44
481.624	90.44
481.843	79.44
482.061	88.44
482.28	73.44
482.498	106.44
482.717	101.44
482.935	98.44
483.153	80.44
483.372	100.44
483.59	71.44
483.808	96.44
484.027	103.44
484.245	96.44
484.463	98.44
484.681	98.44
484.9	99.44
485.118	87.44
485.336	91.44
485.554	83.44
485.772	90.44
485.99	108.44
486.209	102.44
486.427	95.44
486.645	112.44
486.863	112.44
487.081	98.44
487.299	106.44
487.517	91.44
487.735	99.44
487.953	98.44
488.171	100.44
488.389	92.44
488.607	104.44
488.825	99.44
489.043	82.44
489.261	86.44
489.479	90.44
489.696	101.44
489.914	98.44
490.132	83.44
490.35	78.44
490.568	86.44
490.786	87.44
491.003	84.44
491.221	102.44
491.439	95.44
491.657	95.44
491.874	91.44
492.092	93.44
492.31	86.44
492.527	98.44
492.745	79.44
492.963	89.44
493.18	100.44
493.398	89.44
493.615	94.44
493.833	92.44
494.05	77.44
494.268	95.44
494.485	98.44
494.703	93.44
494.92	89.44
495.138	89.44
495.355	97.44
495.573	96.44
495.79	94.44
496.008	98.44
496.225	89.44
496.442	80.44
496.66	94.44
496.877	96.44
497.094	95.44
497.312	84.44
497.529	94.44
497.746	106.44
497.963	77.44
498.181	83.44
498.398	99.44
498.615	110.44
498.832	102.44
499.049	96.44
499.267	87.44
499.484	85.44
499.701	87.44
499.918	97.44
500.135	85.44
500.352	83.44
500.569	85.44
500.786	86.44
501.003	86.44
501.22	90.44
501.437	99.44
501.654	91.44
501.871	109.44
502.088	84.44
502.305	81.44
502.522	84.44
502.739	89.44
502.956	87.44
503.172	95.44
503.389	96.44
503.606	105.44
503.823	106.44
504.04	97.44
504.256	83.44
504.473	85.44
504.69	90.44
504.907	95.44
505.123	93.44
505.34	81.44
505.557	97.44
505.773	102.44
505.99	93.44
506.207	86.44
506.423	82.44
506.64	97.44
506.856	80.44
507.073	89.44
507.289	90.44
507.506	101.44
507.722	98.44
507.939	98.44
508.155	108.44
508.372	96.44
508.588	95.44
508.805	81.44
509.021	102.44
509.238	93.44
509.454	98.44
509.67	108.44
509.887	95.44
510.103	127.44
510.319	225.44
510.536	771.44
510.752	2485.44
510.968	670.44
511.184	161.44
511.401	105.44
511.617	100.44
511.833	87.44
512.049	95.44
512.265	95.44
512.481	93.44
512.698	90.44
512.914	94.44
513.13	91.44
513.346	104.44
513.562	93.44
513.778	99.44
513.994	76.44
514.21	98.44
514.426	96.44
514.642	141.44
514.858	118.44
515.074	159.44
515.29	429.44
515.506	1448.44
515.721	516.44
515.937	142.44
516.153	111.44
516.369	106.44
516.585	97.44
516.801	88.44
