Data from Uncirc_1995_H10_HRD10591_00090.txt Node
Date: Wed Jan 03 11:35:51 EST 2024
User: Yrep
Spectrometer: HR+D1059
Trigger mode: 1
Integration Time (sec): 1.000000E-1
Scans to average: 1
Electric dark correction enabled: true
Nonlinearity correction enabled: false
Boxcar width: 0
XAxis mode: Wavelengths
Number of Pixels in Spectrum: 2048
>>>>>Begin Spectral Data<<<<<
223.165	-13.31
223.4	-13.31
223.635	-13.31
223.869	-18.31
224.104	-19.31
224.338	-24.31
224.573	-14.31
224.808	-15.31
225.042	2.69
225.277	-10.31
225.511	0.69
225.746	3.69
225.98	6.69
226.215	18.69
226.449	28.69
226.683	18.69
226.918	9.69
227.152	25.69
227.387	43.69
227.621	45.69
227.856	52.69
228.09	48.69
228.324	54.69
228.559	68.69
228.793	71.69
229.027	58.69
229.262	81.69
229.496	71.69
229.73	93.69
229.964	84.69
230.199	85.69
230.433	66.69
230.667	78.69
230.901	80.69
231.136	75.69
231.37	90.69
231.604	92.69
231.838	100.69
232.072	76.69
232.306	91.69
232.541	78.69
232.775	80.69
233.009	92.69
233.243	85.69
233.477	87.69
233.711	76.69
233.945	92.69
234.179	94.69
234.413	81.69
234.647	71.69
234.881	88.69
235.115	87.69
235.349	93.69
235.583	78.69
235.817	75.69
236.051	78.69
236.285	84.69
236.519	80.69
236.753	77.69
236.987	87.69
237.221	68.69
237.455	80.69
237.689	86.69
237.922	85.69
238.156	77.69
238.39	81.69
238.624	66.69
238.858	82.69
239.091	62.69
239.325	77.69
239.559	88.69
239.793	87.69
240.027	64.69
240.26	78.69
240.494	96.69
240.728	69.69
240.961	78.69
241.195	86.69
241.429	86.69
241.662	81.69
241.896	70.69
242.13	76.69
242.363	93.69
242.597	78.69
242.83	81.69
243.064	85.69
243.298	83.69
243.531	71.69
243.765	90.69
243.998	87.69
244.232	92.69
244.465	95.69
244.699	85.69
244.932	79.69
245.166	102.69
245.399	71.69
245.633	74.69
245.866	86.69
246.099	85.69
246.333	84.69
246.566	87.69
246.8	78.69
247.033	90.69
247.266	77.69
247.5	72.69
247.733	96.69
247.966	75.69
248.2	91.69
248.433	84.69
248.666	83.69
248.899	88.69
249.133	80.69
249.366	91.69
249.599	86.69
249.832	91.69
250.066	95.69
250.299	90.69
250.532	96.69
250.765	92.69
250.998	82.69
251.231	74.69
251.465	88.69
251.698	83.69
251.931	76.69
252.164	85.69
252.397	74.69
252.63	79.69
252.863	85.69
253.096	68.69
253.329	78.69
253.562	72.69
253.795	87.69
254.028	82.69
254.261	84.69
254.494	71.69
254.727	81.69
254.96	91.69
255.193	87.69
255.426	77.69
255.659	79.69
255.892	87.69
256.124	91.69
256.357	85.69
256.59	80.69
256.823	79.69
257.056	71.69
257.289	88.69
257.521	87.69
257.754	74.69
257.987	78.69
258.22	78.69
258.452	98.69
258.685	81.69
258.918	86.69
259.151	74.69
259.383	80.69
259.616	81.69
259.849	89.69
260.081	90.69
260.314	72.69
260.547	81.69
260.779	74.69
261.012	90.69
261.244	90.69
261.477	95.69
261.71	97.69
261.942	125.69
262.175	107.69
262.407	91.69
262.64	66.69
262.872	87.69
263.105	77.69
263.337	90.69
263.57	83.69
263.802	78.69
264.035	95.69
264.267	95.69
264.499	84.69
264.732	80.69
264.964	80.69
265.197	74.69
265.429	81.69
265.661	86.69
265.894	78.69
266.126	78.69
266.358	85.69
266.591	86.69
266.823	76.69
267.055	90.69
267.287	84.69
267.52	82.69
267.752	74.69
267.984	101.69
268.216	101.69
268.448	87.69
268.681	69.69
268.913	93.69
269.145	88.69
269.377	90.69
269.609	83.69
269.841	86.69
270.073	86.69
270.306	86.69
270.538	90.69
270.77	94.69
271.002	77.69
271.234	95.69
271.466	76.69
271.698	82.69
271.93	102.69
272.162	77.69
272.394	107.69
272.626	97.69
272.858	93.69
273.09	72.69
273.322	85.69
273.553	87.69
273.785	99.69
274.017	86.69
274.249	88.69
274.481	87.69
274.713	89.69
274.945	90.69
275.176	87.69
275.408	87.69
275.64	81.69
275.872	73.69
276.104	86.69
276.335	82.69
276.567	99.69
276.799	113.69
277.031	108.69
277.262	87.69
277.494	75.69
277.726	80.69
277.957	87.69
278.189	78.69
278.421	91.69
278.652	77.69
278.884	96.69
279.115	78.69
279.347	82.69
279.579	86.69
279.81	91.69
280.042	89.69
280.273	94.69
280.505	62.69
280.736	91.69
280.968	78.69
281.199	86.69
281.431	79.69
281.662	96.69
281.894	88.69
282.125	101.69
282.356	120.69
282.588	136.69
282.819	118.69
283.051	99.69
283.282	92.69
283.513	97.69
283.745	94.69
283.976	80.69
284.207	93.69
284.439	94.69
284.67	82.69
284.901	78.69
285.132	92.69
285.364	87.69
285.595	92.69
285.826	106.69
286.057	78.69
286.288	94.69
286.52	87.69
286.751	102.69
286.982	90.69
287.213	103.69
287.444	90.69
287.675	107.69
287.906	107.69
288.138	96.69
288.369	92.69
288.6	78.69
288.831	86.69
289.062	91.69
289.293	76.69
289.524	77.69
289.755	82.69
289.986	92.69
290.217	91.69
290.448	100.69
290.679	90.69
290.91	93.69
291.141	79.69
291.371	100.69
291.602	88.69
291.833	87.69
292.064	87.69
292.295	104.69
292.526	101.69
292.757	87.69
292.987	79.69
293.218	94.69
293.449	76.69
293.68	97.69
293.91	84.69
294.141	108.69
294.372	89.69
294.603	79.69
294.833	109.69
295.064	92.69
295.295	96.69
295.525	98.69
295.756	98.69
295.987	119.69
296.217	140.69
296.448	114.69
296.679	86.69
296.909	83.69
297.14	98.69
297.37	107.69
297.601	91.69
297.831	88.69
298.062	109.69
298.292	85.69
298.523	94.69
298.753	99.69
298.984	98.69
299.214	76.69
299.445	95.69
299.675	87.69
299.905	104.69
300.136	91.69
300.366	89.69
300.597	97.69
300.827	106.69
301.057	99.69
301.288	94.69
301.518	97.69
301.748	93.69
301.979	108.69
302.209	99.69
302.439	98.69
302.669	94.69
302.9	92.69
303.13	111.69
303.36	102.69
303.59	99.69
303.82	102.69
304.051	102.69
304.281	94.69
304.511	97.69
304.741	105.69
304.971	104.69
305.201	89.69
305.431	100.69
305.661	94.69
305.891	110.69
306.121	97.69
306.352	95.69
306.582	101.69
306.812	105.69
307.042	95.69
307.272	95.69
307.502	83.69
307.731	90.69
307.961	81.69
308.191	91.69
308.421	85.69
308.651	99.69
308.881	97.69
309.111	108.69
309.341	103.69
309.571	112.69
309.8	93.69
310.03	92.69
310.26	111.69
310.49	108.69
310.72	97.69
310.949	90.69
311.179	86.69
311.409	95.69
311.639	84.69
311.868	95.69
312.098	109.69
312.328	100.69
312.557	117.69
312.787	106.69
313.017	102.69
313.246	102.69
313.476	86.69
313.706	84.69
313.935	97.69
314.165	96.69
314.394	99.69
314.624	84.69
314.853	101.69
315.083	99.69
315.312	88.69
315.542	96.69
315.771	101.69
316.001	94.69
316.23	85.69
316.46	90.69
316.689	89.69
316.919	99.69
317.148	97.69
317.377	99.69
317.607	94.69
317.836	91.69
318.065	89.69
318.295	92.69
318.524	93.69
318.753	103.69
318.983	105.69
319.212	99.69
319.441	113.69
319.67	115.69
319.9	97.69
320.129	99.69
320.358	95.69
320.587	94.69
320.816	98.69
321.046	91.69
321.275	98.69
321.504	111.69
321.733	97.69
321.962	94.69
322.191	102.69
322.42	111.69
322.649	111.69
322.878	106.69
323.108	139.69
323.337	115.69
323.566	124.69
323.795	151.69
324.024	195.69
324.253	385.69
324.482	831.69
324.71	1705.69
324.939	2284.69
325.168	830.69
325.397	251.69
325.626	174.69
325.855	135.69
326.084	120.69
326.313	129.69
326.542	152.69
326.77	225.69
326.999	470.69
327.228	950.69
327.457	1742.69
327.686	1408.69
327.914	371.69
328.143	190.69
328.372	142.69
328.6	138.69
328.829	120.69
329.058	115.69
329.287	125.69
329.515	108.69
329.744	116.69
329.972	116.69
330.201	107.69
330.43	107.69
330.658	108.69
330.887	135.69
331.115	119.69
331.344	105.69
331.572	115.69
331.801	112.69
332.03	99.69
332.258	104.69
332.486	90.69
332.715	91.69
332.943	101.69
333.172	91.69
333.4	95.69
333.629	123.69
333.857	113.69
334.085	114.69
334.314	108.69
334.542	107.69
334.771	87.69
334.999	94.69
335.227	97.69
335.455	104.69
335.684	95.69
335.912	102.69
336.14	100.69
336.369	103.69
336.597	98.69
336.825	105.69
337.053	84.69
337.281	91.69
337.51	99.69
337.738	84.69
337.966	85.69
338.194	101.69
338.422	97.69
338.65	94.69
338.878	105.69
339.106	84.69
339.334	106.69
339.562	98.69
339.79	102.69
340.018	95.69
340.246	98.69
340.474	110.69
340.702	95.69
340.93	98.69
341.158	96.69
341.386	95.69
341.614	91.69
341.842	103.69
342.07	89.69
342.298	100.69
342.526	105.69
342.754	95.69
342.981	104.69
343.209	85.69
343.437	101.69
343.665	111.69
343.893	90.69
344.12	94.69
344.348	104.69
344.576	94.69
344.804	101.69
345.031	95.69
345.259	112.69
345.487	92.69
345.714	70.69
345.942	94.69
346.17	108.69
346.397	94.69
346.625	76.69
346.853	97.69
347.08	103.69
347.308	95.69
347.535	99.69
347.763	86.69
347.99	98.69
348.218	108.69
348.445	110.69
348.673	98.69
348.9	105.69
349.128	78.69
349.355	89.69
349.583	100.69
349.81	91.69
350.037	104.69
350.265	98.69
350.492	109.69
350.72	101.69
350.947	116.69
351.174	119.69
351.402	99.69
351.629	98.69
351.856	108.69
352.083	107.69
352.311	107.69
352.538	113.69
352.765	114.69
352.992	113.69
353.22	107.69
353.447	118.69
353.674	113.69
353.901	109.69
354.128	106.69
354.355	104.69
354.583	108.69
354.81	116.69
355.037	93.69
355.264	89.69
355.491	87.69
355.718	97.69
355.945	94.69
356.172	101.69
356.399	107.69
356.626	94.69
356.853	101.69
357.08	104.69
357.307	88.69
357.534	91.69
357.761	102.69
357.988	94.69
358.215	104.69
358.441	112.69
358.668	86.69
358.895	95.69
359.122	90.69
359.349	85.69
359.576	83.69
359.802	100.69
360.029	92.69
360.256	126.69
360.483	94.69
360.709	88.69
360.936	94.69
361.163	86.69
361.39	104.69
361.616	96.69
361.843	83.69
362.07	98.69
362.296	88.69
362.523	84.69
362.749	101.69
362.976	82.69
363.203	92.69
363.429	108.69
363.656	80.69
363.882	88.69
364.109	92.69
364.335	87.69
364.562	89.69
364.788	94.69
365.015	93.69
365.241	102.69
365.468	99.69
365.694	118.69
365.92	114.69
366.147	89.69
366.373	100.69
366.599	88.69
366.826	87.69
367.052	94.69
367.278	92.69
367.505	104.69
367.731	99.69
367.957	95.69
368.184	95.69
368.41	95.69
368.636	122.69
368.862	129.69
369.089	111.69
369.315	100.69
369.541	101.69
369.767	89.69
369.993	89.69
370.219	109.69
370.445	102.69
370.672	101.69
370.898	100.69
371.124	90.69
371.35	100.69
371.576	99.69
371.802	93.69
372.028	98.69
372.254	98.69
372.48	99.69
372.706	83.69
372.932	98.69
373.158	99.69
373.384	92.69
373.61	103.69
373.835	94.69
374.061	86.69
374.287	104.69
374.513	97.69
374.739	98.69
374.965	83.69
375.191	94.69
375.416	90.69
375.642	101.69
375.868	116.69
376.094	90.69
376.319	83.69
376.545	101.69
376.771	105.69
376.997	95.69
377.222	87.69
377.448	94.69
377.674	77.69
377.899	84.69
378.125	96.69
378.35	91.69
378.576	98.69
378.802	85.69
379.027	84.69
379.253	102.69
379.478	104.69
379.704	95.69
379.929	91.69
380.155	100.69
380.38	101.69
380.606	93.69
380.831	108.69
381.057	102.69
381.282	94.69
381.507	94.69
381.733	107.69
381.958	99.69
382.184	92.69
382.409	101.69
382.634	98.69
382.86	87.69
383.085	106.69
383.31	103.69
383.535	96.69
383.761	95.69
383.986	103.69
384.211	100.69
384.436	83.69
384.662	103.69
384.887	107.69
385.112	108.69
385.337	103.69
385.562	110.69
385.787	98.69
386.013	112.69
386.238	120.69
386.463	99.69
386.688	111.69
386.913	106.69
387.138	100.69
387.363	107.69
387.588	104.69
387.813	109.69
388.038	97.69
388.263	122.69
388.488	104.69
388.713	112.69
388.938	98.69
389.163	107.69
389.387	99.69
389.612	109.69
389.837	108.69
390.062	110.69
390.287	92.69
390.512	89.69
390.736	102.69
390.961	84.69
391.186	89.69
391.411	96.69
391.636	90.69
391.86	93.69
392.085	95.69
392.31	99.69
392.534	85.69
392.759	91.69
392.984	100.69
393.208	87.69
393.433	95.69
393.658	91.69
393.882	92.69
394.107	95.69
394.331	84.69
394.556	70.69
394.78	94.69
395.005	110.69
395.229	104.69
395.454	90.69
395.678	78.69
395.903	96.69
396.127	97.69
396.352	89.69
396.576	85.69
396.801	91.69
397.025	82.69
397.249	78.69
397.474	86.69
397.698	87.69
397.922	88.69
398.147	81.69
398.371	100.69
398.595	99.69
398.82	87.69
399.044	83.69
399.268	90.69
399.492	92.69
399.717	82.69
399.941	89.69
400.165	101.69
400.389	103.69
400.613	101.69
400.837	97.69
401.062	66.69
401.286	85.69
401.51	93.69
401.734	95.69
401.958	92.69
402.182	134.69
402.406	160.69
402.63	112.69
402.854	109.69
403.078	97.69
403.302	90.69
403.526	98.69
403.75	112.69
403.974	82.69
404.198	88.69
404.422	83.69
404.645	80.69
404.869	84.69
405.093	95.69
405.317	108.69
405.541	102.69
405.765	98.69
405.988	118.69
406.212	175.69
406.436	228.69
406.66	146.69
406.883	94.69
407.107	103.69
407.331	98.69
407.555	101.69
407.778	106.69
408.002	92.69
408.226	87.69
408.449	90.69
408.673	98.69
408.896	102.69
409.12	93.69
409.344	94.69
409.567	98.69
409.791	101.69
410.014	97.69
410.238	100.69
410.461	94.69
410.685	110.69
410.908	91.69
411.132	115.69
411.355	101.69
411.578	98.69
411.802	85.69
412.025	92.69
412.249	74.69
412.472	87.69
412.695	116.69
412.919	102.69
413.142	92.69
413.365	92.69
413.589	89.69
413.812	97.69
414.035	95.69
414.258	81.69
414.482	104.69
414.705	93.69
414.928	92.69
415.151	94.69
415.374	96.69
415.597	80.69
415.821	87.69
416.044	105.69
416.267	85.69
416.49	94.69
416.713	92.69
416.936	84.69
417.159	78.69
417.382	88.69
417.605	87.69
417.828	93.69
418.051	87.69
418.274	71.69
418.497	83.69
418.72	80.69
418.943	90.69
419.166	93.69
419.389	88.69
419.611	96.69
419.834	93.69
420.057	83.69
420.28	88.69
420.503	95.69
420.726	96.69
420.948	83.69
421.171	96.69
421.394	98.69
421.617	102.69
421.839	95.69
422.062	96.69
422.285	99.69
422.507	96.69
422.73	94.69
422.953	92.69
423.175	93.69
423.398	94.69
423.621	99.69
423.843	95.69
424.066	78.69
424.288	88.69
424.511	87.69
424.733	109.69
424.956	104.69
425.178	104.69
425.401	90.69
425.623	89.69
425.846	99.69
426.068	91.69
426.291	110.69
426.513	104.69
426.735	97.69
426.958	94.69
427.18	114.69
427.402	143.69
427.625	148.69
427.847	104.69
428.069	104.69
428.292	93.69
428.514	88.69
428.736	91.69
428.958	98.69
429.181	88.69
429.403	83.69
429.625	90.69
429.847	97.69
430.069	93.69
430.292	109.69
430.514	97.69
430.736	88.69
430.958	76.69
431.18	93.69
431.402	96.69
431.624	99.69
431.846	90.69
432.068	86.69
432.29	103.69
432.512	81.69
432.734	90.69
432.956	103.69
433.178	106.69
433.4	101.69
433.622	101.69
433.844	84.69
434.066	104.69
434.287	100.69
434.509	89.69
434.731	96.69
434.953	90.69
435.175	90.69
435.397	87.69
435.618	100.69
435.84	126.69
436.062	119.69
436.284	116.69
436.505	113.69
436.727	109.69
436.949	95.69
437.17	102.69
437.392	75.69
437.614	91.69
437.835	105.69
438.057	101.69
438.278	100.69
438.5	105.69
438.721	134.69
438.943	112.69
439.165	95.69
439.386	95.69
439.608	86.69
439.829	98.69
440.05	113.69
440.272	140.69
440.493	93.69
440.715	96.69
440.936	89.69
441.158	98.69
441.379	101.69
441.6	105.69
441.822	108.69
442.043	96.69
442.264	90.69
442.486	103.69
442.707	108.69
442.928	109.69
443.149	124.69
443.371	138.69
443.592	118.69
443.813	108.69
444.034	97.69
444.255	86.69
444.476	100.69
444.698	88.69
444.919	81.69
445.14	117.69
445.361	122.69
445.582	115.69
445.803	128.69
446.024	140.69
446.245	138.69
446.466	96.69
446.687	101.69
446.908	91.69
447.129	93.69
447.35	97.69
447.571	92.69
447.792	92.69
448.013	88.69
448.234	105.69
448.455	101.69
448.675	107.69
448.896	119.69
449.117	112.69
449.338	99.69
449.559	120.69
449.779	131.69
450	94.69
450.221	92.69
450.442	92.69
450.662	102.69
450.883	95.69
451.104	119.69
451.324	95.69
451.545	93.69
451.766	100.69
451.986	84.69
452.207	92.69
452.428	91.69
452.648	110.69
452.869	114.69
453.089	116.69
453.31	112.69
453.53	83.69
453.751	88.69
453.971	106.69
454.192	109.69
454.412	106.69
454.633	85.69
454.853	92.69
455.073	101.69
455.294	98.69
455.514	91.69
455.734	83.69
455.955	84.69
456.175	102.69
456.395	91.69
456.616	82.69
456.836	83.69
457.056	94.69
457.276	98.69
457.497	93.69
457.717	84.69
457.937	107.69
458.157	98.69
458.377	102.69
458.598	110.69
458.818	151.69
459.038	154.69
459.258	104.69
459.478	86.69
459.698	104.69
459.918	87.69
460.138	77.69
460.358	92.69
460.578	87.69
460.798	83.69
461.018	86.69
461.238	95.69
461.458	82.69
461.678	81.69
461.898	89.69
462.118	86.69
462.338	93.69
462.558	103.69
462.777	88.69
462.997	93.69
463.217	85.69
463.437	91.69
463.657	93.69
463.876	98.69
464.096	106.69
464.316	89.69
464.536	80.69
464.755	107.69
464.975	108.69
465.195	142.69
465.414	134.69
465.634	110.69
465.854	93.69
466.073	94.69
466.293	106.69
466.512	88.69
466.732	96.69
466.951	77.69
467.171	108.69
467.391	94.69
467.61	91.69
467.829	111.69
468.049	90.69
468.268	82.69
468.488	92.69
468.707	94.69
468.927	92.69
469.146	97.69
469.365	85.69
469.585	90.69
469.804	98.69
470.023	96.69
470.243	95.69
470.462	106.69
470.681	92.69
470.901	80.69
471.12	100.69
471.339	92.69
471.558	91.69
471.777	102.69
471.997	91.69
472.216	93.69
472.435	102.69
472.654	86.69
472.873	94.69
473.092	87.69
473.311	87.69
473.53	81.69
473.749	101.69
473.968	94.69
474.187	106.69
474.406	84.69
474.625	98.69
474.844	98.69
475.063	86.69
475.282	91.69
475.501	94.69
475.72	96.69
475.939	85.69
476.158	82.69
476.377	92.69
476.596	82.69
476.814	87.69
477.033	92.69
477.252	97.69
477.471	88.69
477.69	98.69
477.908	97.69
478.127	83.69
478.346	81.69
478.564	91.69
478.783	89.69
479.002	88.69
479.22	94.69
479.439	106.69
479.658	110.69
479.876	89.69
480.095	107.69
480.313	80.69
480.532	90.69
480.751	88.69
480.969	80.69
481.188	109.69
481.406	106.69
481.624	88.69
481.843	103.69
482.061	88.69
482.28	83.69
482.498	89.69
482.717	86.69
482.935	98.69
483.153	84.69
483.372	77.69
483.59	83.69
483.808	90.69
484.027	98.69
484.245	81.69
484.463	84.69
484.681	102.69
484.9	97.69
485.118	111.69
485.336	101.69
485.554	104.69
485.772	100.69
485.99	111.69
486.209	114.69
486.427	104.69
486.645	112.69
486.863	118.69
487.081	97.69
487.299	96.69
487.517	90.69
487.735	93.69
487.953	100.69
488.171	92.69
488.389	102.69
488.607	105.69
488.825	103.69
489.043	97.69
489.261	104.69
489.479	100.69
489.696	87.69
489.914	95.69
490.132	95.69
490.35	100.69
490.568	96.69
490.786	94.69
491.003	95.69
491.221	80.69
491.439	103.69
491.657	96.69
491.874	85.69
492.092	87.69
492.31	105.69
492.527	91.69
492.745	92.69
492.963	84.69
493.18	95.69
493.398	104.69
493.615	95.69
493.833	90.69
494.05	88.69
494.268	99.69
494.485	89.69
494.703	94.69
494.92	107.69
495.138	88.69
495.355	94.69
495.573	79.69
495.79	101.69
496.008	98.69
496.225	98.69
496.442	94.69
496.66	102.69
496.877	100.69
497.094	92.69
497.312	103.69
497.529	89.69
497.746	94.69
497.963	94.69
498.181	103.69
498.398	102.69
498.615	104.69
498.832	104.69
499.049	94.69
499.267	101.69
499.484	90.69
499.701	83.69
499.918	95.69
500.135	96.69
500.352	95.69
500.569	110.69
500.786	99.69
501.003	103.69
501.22	90.69
501.437	82.69
501.654	86.69
501.871	107.69
502.088	92.69
502.305	86.69
502.522	91.69
502.739	86.69
502.956	86.69
503.172	88.69
503.389	98.69
503.606	99.69
503.823	118.69
504.04	93.69
504.256	98.69
504.473	98.69
504.69	94.69
504.907	93.69
505.123	102.69
505.34	91.69
505.557	100.69
505.773	85.69
505.99	75.69
506.207	83.69
506.423	98.69
506.64	99.69
506.856	79.69
507.073	104.69
507.289	102.69
507.506	93.69
507.722	102.69
507.939	116.69
508.155	106.69
508.372	97.69
508.588	98.69
508.805	114.69
509.021	93.69
509.238	98.69
509.454	106.69
509.67	117.69
509.887	116.69
510.103	110.69
510.319	224.69
510.536	759.69
510.752	2375.69
510.968	649.69
511.184	152.69
511.401	122.69
511.617	108.69
511.833	92.69
512.049	87.69
512.265	98.69
512.481	82.69
512.698	101.69
512.914	84.69
513.13	92.69
513.346	96.69
513.562	100.69
513.778	108.69
513.994	103.69
514.21	112.69
