Data from Uncirc_1995_H10_HRD10591_00088.txt Node
Date: Wed Jan 03 11:35:51 EST 2024
User: Yrep
Spectrometer: HR+D1059
Trigger mode: 1
Integration Time (sec): 1.000000E-1
Scans to average: 1
Electric dark correction enabled: true
Nonlinearity correction enabled: false
Boxcar width: 0
XAxis mode: Wavelengths
Number of Pixels in Spectrum: 2048
>>>>>Begin Spectral Data<<<<<
223.165	-22
223.4	-22
223.635	-22
223.869	-18
224.104	-26
224.338	-12
224.573	-20
224.808	-9
225.042	-16
225.277	12
225.511	0
225.746	16
225.98	0
226.215	-1
226.449	21
226.683	33
226.918	12
227.152	30
227.387	38
227.621	39
227.856	45
228.09	45
228.324	54
228.559	35
228.793	63
229.027	71
229.262	63
229.496	77
229.73	83
229.964	76
230.199	71
230.433	79
230.667	71
230.901	77
231.136	72
231.37	70
231.604	63
231.838	76
232.072	71
232.306	83
232.541	63
232.775	68
233.009	80
233.243	83
233.477	77
233.711	90
233.945	81
234.179	74
234.413	69
234.647	89
234.881	83
235.115	95
235.349	71
235.583	59
235.817	72
236.051	75
236.285	56
236.519	65
236.753	73
236.987	65
237.221	77
237.455	82
237.689	79
237.922	82
238.156	66
238.39	69
238.624	66
238.858	65
239.091	75
239.325	70
239.559	81
239.793	73
240.027	69
240.26	72
240.494	73
240.728	76
240.961	89
241.195	85
241.429	72
241.662	66
241.896	75
242.13	70
242.363	53
242.597	69
242.83	89
243.064	79
243.298	78
243.531	75
243.765	77
243.998	64
244.232	75
244.465	74
244.699	80
244.932	85
245.166	65
245.399	91
245.633	82
245.866	56
246.099	86
246.333	73
246.566	64
246.8	61
247.033	71
247.266	83
247.5	79
247.733	71
247.966	75
248.2	64
248.433	91
248.666	76
248.899	73
249.133	64
249.366	77
249.599	78
249.832	79
250.066	78
250.299	94
250.532	66
250.765	69
250.998	69
251.231	92
251.465	79
251.698	70
251.931	75
252.164	71
252.397	86
252.63	76
252.863	85
253.096	68
253.329	78
253.562	84
253.795	81
254.028	84
254.261	62
254.494	74
254.727	89
254.96	65
255.193	77
255.426	70
255.659	77
255.892	74
256.124	79
256.357	57
256.59	86
256.823	66
257.056	87
257.289	89
257.521	83
257.754	78
257.987	75
258.22	101
258.452	75
258.685	92
258.918	90
259.151	71
259.383	82
259.616	83
259.849	84
260.081	91
260.314	80
260.547	73
260.779	68
261.012	77
261.244	83
261.477	85
261.71	106
261.942	110
262.175	118
262.407	76
262.64	78
262.872	94
263.105	89
263.337	79
263.57	97
263.802	77
264.035	82
264.267	77
264.499	75
264.732	78
264.964	89
265.197	76
265.429	89
265.661	84
265.894	78
266.126	82
266.358	72
266.591	81
266.823	78
267.055	73
267.287	74
267.52	70
267.752	91
267.984	77
268.216	88
268.448	82
268.681	93
268.913	69
269.145	79
269.377	83
269.609	88
269.841	83
270.073	91
270.306	79
270.538	93
270.77	84
271.002	79
271.234	79
271.466	80
271.698	92
271.93	81
272.162	93
272.394	87
272.626	88
272.858	89
273.09	93
273.322	79
273.553	83
273.785	90
274.017	74
274.249	71
274.481	70
274.713	94
274.945	91
275.176	82
275.408	91
275.64	87
275.872	80
276.104	94
276.335	82
276.567	88
276.799	109
277.031	90
277.262	89
277.494	85
277.726	87
277.957	87
278.189	74
278.421	93
278.652	89
278.884	86
279.115	88
279.347	89
279.579	83
279.81	84
280.042	73
280.273	81
280.505	92
280.736	87
280.968	79
281.199	80
281.431	79
281.662	95
281.894	86
282.125	110
282.356	123
282.588	145
282.819	100
283.051	89
283.282	85
283.513	81
283.745	86
283.976	94
284.207	91
284.439	98
284.67	81
284.901	77
285.132	85
285.364	73
285.595	85
285.826	78
286.057	91
286.288	87
286.52	81
286.751	96
286.982	95
287.213	83
287.444	88
287.675	89
287.906	82
288.138	88
288.369	97
288.6	83
288.831	83
289.062	93
289.293	89
289.524	82
289.755	79
289.986	75
290.217	86
290.448	90
290.679	77
290.91	89
291.141	96
291.371	90
291.602	82
291.833	75
292.064	65
292.295	92
292.526	90
292.757	86
292.987	89
293.218	81
293.449	76
293.68	86
293.91	93
294.141	96
294.372	95
294.603	98
294.833	74
295.064	96
295.295	89
295.525	94
295.756	99
295.987	98
296.217	129
296.448	118
296.679	95
296.909	73
297.14	84
297.37	80
297.601	74
297.831	71
298.062	91
298.292	81
298.523	76
298.753	90
298.984	95
299.214	90
299.445	96
299.675	113
299.905	86
300.136	85
300.366	99
300.597	84
300.827	87
301.057	104
301.288	90
301.518	97
301.748	85
301.979	104
302.209	89
302.439	103
302.669	81
302.9	98
303.13	101
303.36	86
303.59	83
303.82	96
304.051	95
304.281	94
304.511	89
304.741	96
304.971	85
305.201	89
305.431	90
305.661	92
305.891	96
306.121	91
306.352	106
306.582	97
306.812	92
307.042	78
307.272	97
307.502	87
307.731	89
307.961	97
308.191	81
308.421	82
308.651	91
308.881	90
309.111	80
309.341	80
309.571	86
309.8	87
310.03	90
310.26	90
310.49	79
310.72	92
310.949	93
311.179	93
311.409	87
311.639	81
311.868	96
312.098	96
312.328	93
312.557	99
312.787	86
313.017	104
313.246	93
313.476	96
313.706	87
313.935	102
314.165	95
314.394	103
314.624	98
314.853	77
315.083	100
315.312	82
315.542	94
315.771	82
316.001	93
316.23	96
316.46	82
316.689	73
316.919	88
317.148	110
317.377	67
317.607	103
317.836	80
318.065	72
318.295	98
318.524	77
318.753	78
318.983	103
319.212	93
319.441	91
319.67	100
319.9	83
320.129	85
320.358	101
320.587	82
320.816	99
321.046	93
321.275	89
321.504	77
321.733	98
321.962	90
322.191	95
322.42	103
322.649	103
322.878	110
323.108	102
323.337	136
323.566	132
323.795	138
324.024	185
324.253	378
324.482	795
324.71	1629
324.939	2198
325.168	792
325.397	245
325.626	169
325.855	130
326.084	117
326.313	117
326.542	152
326.77	230
326.999	439
327.228	912
327.457	1675
327.686	1352
327.914	363
328.143	189
328.372	124
328.6	123
328.829	94
329.058	122
329.287	107
329.515	123
329.744	99
329.972	105
330.201	101
330.43	95
330.658	97
330.887	114
331.115	92
331.344	87
331.572	109
331.801	100
332.03	81
332.258	79
332.486	101
332.715	81
332.943	89
333.172	89
333.4	98
333.629	97
333.857	108
334.085	81
334.314	102
334.542	105
334.771	90
334.999	101
335.227	87
335.455	88
335.684	96
335.912	86
336.14	96
336.369	102
336.597	89
336.825	107
337.053	85
337.281	82
337.51	91
337.738	91
337.966	96
338.194	103
338.422	91
338.65	104
338.878	92
339.106	85
339.334	93
339.562	86
339.79	93
340.018	89
340.246	90
340.474	97
340.702	87
340.93	80
341.158	91
341.386	96
341.614	86
341.842	107
342.07	99
342.298	102
342.526	95
342.754	98
342.981	84
343.209	80
343.437	105
343.665	69
343.893	105
344.12	75
344.348	94
344.576	83
344.804	84
345.031	85
345.259	95
345.487	85
345.714	91
345.942	87
346.17	93
346.397	89
346.625	88
346.853	80
347.08	79
347.308	87
347.535	103
347.763	103
347.99	87
348.218	99
348.445	105
348.673	104
348.9	110
349.128	97
349.355	76
349.583	92
349.81	105
350.037	95
350.265	113
350.492	89
350.72	100
350.947	93
351.174	113
351.402	99
351.629	101
351.856	106
352.083	106
352.311	99
352.538	107
352.765	92
352.992	111
353.22	108
353.447	85
353.674	81
353.901	86
354.128	86
354.355	96
354.583	93
354.81	97
355.037	111
355.264	93
355.491	102
355.718	81
355.945	88
356.172	106
356.399	105
356.626	96
356.853	87
357.08	88
357.307	93
357.534	106
357.761	70
357.988	90
358.215	93
358.441	83
358.668	79
358.895	93
359.122	86
359.349	73
359.576	95
359.802	97
360.029	109
360.256	96
360.483	88
360.709	95
360.936	98
361.163	85
361.39	91
361.616	96
361.843	88
362.07	92
362.296	83
362.523	93
362.749	88
362.976	89
363.203	90
363.429	90
363.656	94
363.882	82
364.109	87
364.335	95
364.562	85
364.788	75
365.015	97
365.241	86
365.468	96
365.694	110
365.92	96
366.147	90
366.373	93
366.599	89
366.826	87
367.052	87
367.278	95
367.505	87
367.731	90
367.957	84
368.184	92
368.41	92
368.636	104
368.862	109
369.089	102
369.315	77
369.541	91
369.767	75
369.993	87
370.219	95
370.445	95
370.672	85
370.898	83
371.124	94
371.35	78
371.576	87
371.802	83
372.028	85
372.254	75
372.48	86
372.706	72
372.932	77
373.158	97
373.384	91
373.61	89
373.835	85
374.061	88
374.287	79
374.513	103
374.739	91
374.965	94
375.191	85
375.416	95
375.642	91
375.868	91
376.094	98
376.319	81
376.545	99
376.771	85
376.997	85
377.222	76
377.448	91
377.674	97
377.899	86
378.125	92
378.35	96
378.576	90
378.802	95
379.027	84
379.253	93
379.478	79
379.704	84
379.929	96
380.155	105
380.38	97
380.606	82
380.831	94
381.057	82
381.282	81
381.507	75
381.733	96
381.958	84
382.184	92
382.409	89
382.634	86
382.86	97
383.085	89
383.31	93
383.535	107
383.761	87
383.986	99
384.211	89
384.436	95
384.662	89
384.887	109
385.112	88
385.337	90
385.562	91
385.787	109
386.013	98
386.238	110
386.463	102
386.688	115
386.913	98
387.138	103
387.363	105
387.588	96
387.813	106
388.038	96
388.263	117
388.488	92
388.713	77
388.938	101
389.163	99
389.387	89
389.612	90
389.837	98
390.062	100
390.287	80
390.512	79
390.736	81
390.961	99
391.186	85
391.411	104
391.636	98
391.86	101
392.085	84
392.31	66
392.534	89
392.759	78
392.984	91
393.208	78
393.433	79
393.658	89
393.882	86
394.107	75
394.331	85
394.556	86
394.78	93
395.005	76
395.229	79
395.454	69
395.678	88
395.903	96
396.127	97
396.352	71
396.576	89
396.801	82
397.025	81
397.249	106
397.474	88
397.698	90
397.922	102
398.147	82
398.371	83
398.595	75
398.82	83
399.044	93
399.268	91
399.492	97
399.717	98
399.941	84
400.165	91
400.389	81
400.613	83
400.837	73
401.062	85
401.286	91
401.51	103
401.734	101
401.958	110
402.182	124
402.406	148
402.63	112
402.854	94
403.078	82
403.302	96
403.526	88
403.75	86
403.974	84
404.198	87
404.422	78
404.645	83
404.869	83
405.093	77
405.317	99
405.541	93
405.765	93
405.988	118
406.212	159
406.436	187
406.66	137
406.883	85
407.107	85
407.331	91
407.555	99
407.778	87
408.002	93
408.226	81
408.449	98
408.673	83
408.896	91
409.12	83
409.344	91
409.567	98
409.791	86
410.014	103
410.238	100
410.461	94
410.685	83
410.908	109
411.132	110
411.355	99
411.578	106
411.802	94
412.025	91
412.249	88
412.472	79
412.695	86
412.919	77
413.142	95
413.365	88
413.589	86
413.812	98
414.035	92
414.258	82
414.482	73
414.705	80
414.928	88
415.151	86
415.374	95
415.597	89
415.821	79
416.044	84
416.267	77
416.49	74
416.713	79
416.936	78
417.159	96
417.382	78
417.605	89
417.828	93
418.051	103
418.274	94
418.497	87
418.72	75
418.943	81
419.166	76
419.389	80
419.611	77
419.834	95
420.057	83
420.28	76
420.503	90
420.726	88
420.948	99
421.171	88
421.394	92
421.617	90
421.839	98
422.062	91
422.285	98
422.507	88
422.73	97
422.953	100
423.175	91
423.398	77
423.621	85
423.843	93
424.066	83
424.288	83
424.511	83
424.733	96
424.956	93
425.178	94
425.401	95
425.623	92
425.846	94
426.068	85
426.291	96
426.513	91
426.735	85
426.958	83
427.18	93
427.402	124
427.625	139
427.847	125
428.069	112
428.292	93
428.514	95
428.736	86
428.958	90
429.181	73
429.403	88
429.625	79
429.847	97
430.069	90
430.292	80
430.514	80
430.736	99
430.958	79
431.18	89
431.402	90
431.624	89
431.846	88
432.068	98
432.29	83
432.512	67
432.734	87
432.956	91
433.178	91
433.4	101
433.622	93
433.844	81
434.066	99
434.287	102
434.509	105
434.731	90
434.953	88
435.175	73
435.397	89
435.618	93
435.84	85
436.062	115
436.284	106
436.505	111
436.727	100
436.949	98
437.17	71
437.392	78
437.614	89
437.835	93
438.057	114
438.278	106
438.5	95
438.721	103
438.943	97
439.165	102
439.386	75
439.608	91
439.829	90
440.05	105
440.272	126
440.493	93
440.715	104
440.936	87
441.158	90
441.379	86
441.6	81
441.822	97
442.043	78
442.264	109
442.486	94
442.707	79
442.928	103
443.149	122
443.371	112
443.592	101
443.813	100
444.034	99
444.255	90
444.476	98
444.698	98
444.919	89
445.14	128
445.361	110
445.582	106
445.803	113
446.024	122
446.245	126
446.466	88
446.687	87
446.908	89
447.129	83
447.35	78
447.571	85
447.792	79
448.013	99
448.234	108
448.455	97
448.675	106
448.896	111
449.117	93
449.338	89
449.559	107
449.779	105
450	89
450.221	75
450.442	89
450.662	85
450.883	104
451.104	97
451.324	78
451.545	89
451.766	86
451.986	74
452.207	87
452.428	97
452.648	91
452.869	93
453.089	111
453.31	94
453.53	85
453.751	98
453.971	92
454.192	102
454.412	83
454.633	83
454.853	85
455.073	63
455.294	86
455.514	94
455.734	93
455.955	87
456.175	87
456.395	84
456.616	88
456.836	96
457.056	97
457.276	84
457.497	71
457.717	85
457.937	77
458.157	80
458.377	89
458.598	94
458.818	140
459.038	148
459.258	115
459.478	93
459.698	82
459.918	81
460.138	83
460.358	80
460.578	88
460.798	104
461.018	99
461.238	84
461.458	97
461.678	87
461.898	84
462.118	79
462.338	93
462.558	87
462.777	90
462.997	87
463.217	75
463.437	88
463.657	80
463.876	93
464.096	104
464.316	98
464.536	104
464.755	99
464.975	98
465.195	155
465.414	160
465.634	85
465.854	94
466.073	91
466.293	90
466.512	82
466.732	74
466.951	83
467.171	66
467.391	95
467.61	80
467.829	105
468.049	91
468.268	84
468.488	87
468.707	79
468.927	86
469.146	80
469.365	87
469.585	82
469.804	90
470.023	92
470.243	87
470.462	83
470.681	93
470.901	95
471.12	85
471.339	70
471.558	85
471.777	80
471.997	73
472.216	82
472.435	78
472.654	76
472.873	79
473.092	93
473.311	88
473.53	83
473.749	87
473.968	86
474.187	96
474.406	93
474.625	83
474.844	79
475.063	95
475.282	82
475.501	97
475.72	88
475.939	86
476.158	86
476.377	82
476.596	92
476.814	82
477.033	103
477.252	97
477.471	78
477.69	71
477.908	94
478.127	77
478.346	85
478.564	83
478.783	95
479.002	88
479.22	83
479.439	99
479.658	97
479.876	99
480.095	97
480.313	88
480.532	88
480.751	84
480.969	93
481.188	103
481.406	92
481.624	103
481.843	88
482.061	96
482.28	89
482.498	87
482.717	94
482.935	88
483.153	86
483.372	80
483.59	93
483.808	80
484.027	97
484.245	94
484.463	90
484.681	91
484.9	95
485.118	107
485.336	105
485.554	105
485.772	82
485.99	94
486.209	104
486.427	88
486.645	107
486.863	104
487.081	113
487.299	102
487.517	93
487.735	93
487.953	73
488.171	95
488.389	99
488.607	101
488.825	111
489.043	101
489.261	95
489.479	89
489.696	91
489.914	86
490.132	76
490.35	93
490.568	88
490.786	90
491.003	87
491.221	86
491.439	81
491.657	96
491.874	85
492.092	84
492.31	89
492.527	79
492.745	92
492.963	103
493.18	95
493.398	87
493.615	93
493.833	91
494.05	86
494.268	74
494.485	99
494.703	85
494.92	87
495.138	86
495.355	91
495.573	89
495.79	90
496.008	88
496.225	83
496.442	89
496.66	96
496.877	90
497.094	90
497.312	74
497.529	82
497.746	92
497.963	86
498.181	101
498.398	97
498.615	101
498.832	103
499.049	79
499.267	92
499.484	80
499.701	95
499.918	85
500.135	86
500.352	81
500.569	92
500.786	98
501.003	93
501.22	86
501.437	83
501.654	98
501.871	97
502.088	97
502.305	98
502.522	59
502.739	91
502.956	90
503.172	95
503.389	83
503.606	108
503.823	95
504.04	82
504.256	90
504.473	98
504.69	85
504.907	76
505.123	84
505.34	78
505.557	99
505.773	82
505.99	97
506.207	86
506.423	88
506.64	79
506.856	81
507.073	71
507.289	85
507.506	89
507.722	108
507.939	110
508.155	94
508.372	102
508.588	94
508.805	83
509.021	90
509.238	90
509.454	93
509.67	86
509.887	102
510.103	132
510.319	211
510.536	754
510.752	2397
510.968	640
511.184	153
511.401	111
511.617	105
511.833	99
512.049	101
512.265	91
512.481	86
512.698	87
512.914	79
513.13	94
513.346	87
513.562	93
513.778	86
513.994	89
514.21	93
514.426	135
514.642	120
514.858	115
515.074	157
515.29	421
515.506	1431
515.721	505
515.937	133
516.153	101
516.369	109
516.585	93
516.801	90
517.016	99
517.232	92
517.448	94
517.664	87
517.879	105
518.095	96
518.311	94
518.527	93
518.742	83
518.958	105
519.173	112
519.389	90
519.605	95
519.82	94
520.036	100
520.251	111
520.467	121
520.682	91
520.898	111
521.113	105
521.329	121
521.544	209
521.76	541
521.975	2335
522.19	1379
522.406	301
522.621	127
522.836	99
523.052	96
523.267	103
523.482	98
523.698	90
523.913	123
524.128	102
524.343	111
524.559	103
524.774	84
524.989	98
525.204	106
525.419	93
525.634	86
525.849	102
526.064	95
526.28	95
526.495	88
526.71	90
526.925	86
527.14	84
527.355	79
527.57	87
527.785	91
527.999	88
528.214	105
528.429	93
528.644	70
528.859	78
529.074	85
529.289	121
529.503	157
529.718	99
529.933	81
530.148	90
530.363	97
530.577	84
530.792	90
531.007	87
531.221	102
531.436	95
531.651	96
531.865	92
532.08	90
532.295	81
532.509	89
532.724	102
532.938	83
533.153	86
533.367	97
533.582	79
533.796	85
534.011	86
534.225	93
534.44	82
534.654	95
534.868	86
535.083	97
535.297	85
535.511	104
535.726	89
535.94	101
536.154	102
536.369	80
536.583	96
536.797	88
537.011	94
537.225	84
537.44	87
537.654	84
537.868	96
538.082	84
538.296	86
538.51	79
538.724	87
538.938	93
539.153	98
539.367	104
539.581	93
539.795	95
540.009	95
540.222	99
540.436	102
540.65	86
540.864	98
541.078	101
541.292	97
541.506	91
541.72	83
541.934	72
542.147	90
542.361	80
542.575	89
542.789	94
543.002	89
543.216	113
543.43	83
543.644	92
543.857	71
544.071	97
544.285	96
544.498	103
544.712	87
544.925	77
545.139	85
545.352	99
545.566	82
545.779	72
545.993	90
546.206	87
546.42	94
546.633	82
546.847	92
547.06	90
547.274	95
547.487	85
547.7	77
547.914	83
548.127	78
548.34	77
548.554	79
548.767	82
548.98	92
549.193	87
549.407	86
549.62	81
549.833	76
550.046	98
550.259	82
550.473	99
550.686	87
550.899	79
551.112	82
551.325	65
551.538	99
551.751	87
551.964	80
552.177	92
552.39	82
552.603	86
552.816	85
553.029	87
553.242	80
553.455	97
553.667	99
553.88	92
554.093	93
554.306	93
554.519	88
554.732	89
554.944	89
555.157	102
555.37	100
555.583	94
555.795	85
556.008	95
556.221	88
556.433	95
556.646	89
556.859	100
557.071	91
557.284	89
557.496	104
557.709	89
557.921	89
558.134	89
558.346	84
558.559	78
558.771	75
558.984	75
559.196	87
559.409	98
559.621	81
559.833	90
560.046	90
560.258	80
560.47	83
560.683	80
560.895	75
561.107	94
561.32	74
561.532	78
561.744	90
561.956	82
562.168	87
562.381	96
562.593	81
562.805	100
563.017	74
563.229	83
563.441	96
563.653	93
563.865	79
564.077	90
564.289	73
564.501	84
564.713	92
564.925	88
565.137	106
565.349	81
565.561	94
565.773	98
565.985	85
566.197	97
566.408	88
566.62	88
566.832	95
567.044	87
567.255	89
567.467	83
567.679	98
567.891	99
568.102	75
568.314	84
568.526	77
568.737	95
568.949	86
569.161	101
569.372	77
569.584	88
569.795	87
570.007	110
570.218	267
570.43	136
570.641	73
570.853	96
571.064	95
571.276	95
571.487	99
571.698	88
571.91	76
572.121	89
572.333	77
572.544	83
572.755	76
572.966	78
573.178	81
573.389	84
573.6	97
573.811	106
574.023	91
574.234	78
574.445	97
574.656	94
574.867	92
575.078	95
575.289	87
575.501	89
575.712	88
575.923	87
576.134	89
576.345	80
576.556	72
576.767	93
576.978	97
577.188	85
577.399	90
577.61	99
577.821	92
578.032	115
578.243	286
578.454	786
578.665	190
578.875	98
579.086	95
579.297	91
579.508	94
579.718	76
579.929	100
580.14	83
580.35	98
580.561	98
580.772	88
580.982	97
581.193	81
581.403	81
581.614	94
581.825	92
582.035	85
582.246	91
582.456	88
582.667	91
582.877	73
583.087	85
583.298	92
583.508	80
583.719	93
583.929	84
584.139	75
584.35	73
584.56	92
584.77	78
584.981	88
585.191	88
585.401	86
585.611	87
585.821	91
586.032	88
