Data from Uncirc_1995_H10_HRD10591_00074.txt Node
Date: Wed Jan 03 11:35:48 EST 2024
User: Yrep
Spectrometer: HR+D1059
Trigger mode: 1
Integration Time (sec): 1.000000E-1
Scans to average: 1
Electric dark correction enabled: true
Nonlinearity correction enabled: false
Boxcar width: 0
XAxis mode: Wavelengths
Number of Pixels in Spectrum: 2048
>>>>>Begin Spectral Data<<<<<
223.165	-9.56
223.4	-9.56
223.635	-9.56
223.869	-20.56
224.104	-22.56
224.338	-21.56
224.573	-11.56
224.808	-18.56
225.042	-12.56
225.277	-5.56
225.511	0.44
225.746	-5.56
225.98	22.44
226.215	3.44
226.449	15.44
226.683	28.44
226.918	26.44
227.152	31.44
227.387	43.44
227.621	34.44
227.856	43.44
228.09	49.44
228.324	53.44
228.559	42.44
228.793	59.44
229.027	67.44
229.262	71.44
229.496	54.44
229.73	75.44
229.964	77.44
230.199	74.44
230.433	76.44
230.667	66.44
230.901	79.44
231.136	78.44
231.37	74.44
231.604	76.44
231.838	91.44
232.072	94.44
232.306	81.44
232.541	89.44
232.775	64.44
233.009	71.44
233.243	67.44
233.477	101.44
233.711	81.44
233.945	81.44
234.179	78.44
234.413	87.44
234.647	94.44
234.881	69.44
235.115	77.44
235.349	87.44
235.583	82.44
235.817	92.44
236.051	79.44
236.285	95.44
236.519	76.44
236.753	75.44
236.987	89.44
237.221	79.44
237.455	76.44
237.689	81.44
237.922	73.44
238.156	90.44
238.39	79.44
238.624	84.44
238.858	78.44
239.091	91.44
239.325	75.44
239.559	68.44
239.793	90.44
240.027	88.44
240.26	84.44
240.494	82.44
240.728	83.44
240.961	76.44
241.195	90.44
241.429	71.44
241.662	83.44
241.896	74.44
242.13	73.44
242.363	73.44
242.597	92.44
242.83	71.44
243.064	77.44
243.298	73.44
243.531	85.44
243.765	77.44
243.998	89.44
244.232	79.44
244.465	79.44
244.699	78.44
244.932	66.44
245.166	78.44
245.399	82.44
245.633	83.44
245.866	79.44
246.099	82.44
246.333	100.44
246.566	81.44
246.8	85.44
247.033	77.44
247.266	72.44
247.5	69.44
247.733	83.44
247.966	66.44
248.2	84.44
248.433	71.44
248.666	92.44
248.899	87.44
249.133	91.44
249.366	97.44
249.599	90.44
249.832	83.44
250.066	96.44
250.299	91.44
250.532	74.44
250.765	76.44
250.998	81.44
251.231	76.44
251.465	74.44
251.698	92.44
251.931	92.44
252.164	77.44
252.397	72.44
252.63	86.44
252.863	80.44
253.096	81.44
253.329	82.44
253.562	66.44
253.795	80.44
254.028	97.44
254.261	94.44
254.494	85.44
254.727	88.44
254.96	77.44
255.193	78.44
255.426	95.44
255.659	67.44
255.892	85.44
256.124	77.44
256.357	80.44
256.59	88.44
256.823	89.44
257.056	84.44
257.289	83.44
257.521	96.44
257.754	89.44
257.987	95.44
258.22	79.44
258.452	65.44
258.685	84.44
258.918	90.44
259.151	65.44
259.383	83.44
259.616	73.44
259.849	85.44
260.081	89.44
260.314	77.44
260.547	80.44
260.779	81.44
261.012	81.44
261.244	83.44
261.477	98.44
261.71	95.44
261.942	98.44
262.175	116.44
262.407	89.44
262.64	94.44
262.872	92.44
263.105	82.44
263.337	77.44
263.57	81.44
263.802	95.44
264.035	96.44
264.267	87.44
264.499	71.44
264.732	75.44
264.964	81.44
265.197	90.44
265.429	80.44
265.661	90.44
265.894	74.44
266.126	85.44
266.358	82.44
266.591	79.44
266.823	73.44
267.055	78.44
267.287	74.44
267.52	85.44
267.752	96.44
267.984	77.44
268.216	83.44
268.448	94.44
268.681	92.44
268.913	87.44
269.145	93.44
269.377	88.44
269.609	85.44
269.841	98.44
270.073	83.44
270.306	80.44
270.538	82.44
270.77	86.44
271.002	93.44
271.234	94.44
271.466	92.44
271.698	100.44
271.93	84.44
272.162	85.44
272.394	93.44
272.626	84.44
272.858	94.44
273.09	88.44
273.322	81.44
273.553	87.44
273.785	89.44
274.017	77.44
274.249	92.44
274.481	98.44
274.713	64.44
274.945	93.44
275.176	87.44
275.408	78.44
275.64	84.44
275.872	88.44
276.104	92.44
276.335	92.44
276.567	98.44
276.799	103.44
277.031	93.44
277.262	96.44
277.494	80.44
277.726	94.44
277.957	85.44
278.189	78.44
278.421	84.44
278.652	93.44
278.884	90.44
279.115	86.44
279.347	95.44
279.579	96.44
279.81	94.44
280.042	88.44
280.273	91.44
280.505	78.44
280.736	92.44
280.968	81.44
281.199	82.44
281.431	92.44
281.662	85.44
281.894	90.44
282.125	93.44
282.356	119.44
282.588	144.44
282.819	127.44
283.051	102.44
283.282	97.44
283.513	91.44
283.745	95.44
283.976	81.44
284.207	97.44
284.439	91.44
284.67	94.44
284.901	94.44
285.132	94.44
285.364	78.44
285.595	92.44
285.826	87.44
286.057	91.44
286.288	81.44
286.52	81.44
286.751	96.44
286.982	92.44
287.213	98.44
287.444	79.44
287.675	95.44
287.906	91.44
288.138	89.44
288.369	93.44
288.6	96.44
288.831	84.44
289.062	82.44
289.293	80.44
289.524	96.44
289.755	79.44
289.986	74.44
290.217	98.44
290.448	100.44
290.679	97.44
290.91	96.44
291.141	93.44
291.371	88.44
291.602	73.44
291.833	75.44
292.064	93.44
292.295	84.44
292.526	92.44
292.757	96.44
292.987	79.44
293.218	92.44
293.449	84.44
293.68	97.44
293.91	92.44
294.141	96.44
294.372	74.44
294.603	84.44
294.833	93.44
295.064	92.44
295.295	81.44
295.525	87.44
295.756	101.44
295.987	112.44
296.217	139.44
296.448	108.44
296.679	102.44
296.909	90.44
297.14	89.44
297.37	92.44
297.601	99.44
297.831	87.44
298.062	99.44
298.292	96.44
298.523	91.44
298.753	96.44
298.984	91.44
299.214	97.44
299.445	89.44
299.675	75.44
299.905	93.44
300.136	95.44
300.366	94.44
300.597	86.44
300.827	90.44
301.057	99.44
301.288	112.44
301.518	97.44
301.748	81.44
301.979	90.44
302.209	87.44
302.439	80.44
302.669	84.44
302.9	99.44
303.13	94.44
303.36	86.44
303.59	88.44
303.82	90.44
304.051	95.44
304.281	98.44
304.511	105.44
304.741	87.44
304.971	89.44
305.201	106.44
305.431	90.44
305.661	85.44
305.891	108.44
306.121	93.44
306.352	97.44
306.582	112.44
306.812	106.44
307.042	73.44
307.272	90.44
307.502	91.44
307.731	93.44
307.961	95.44
308.191	100.44
308.421	87.44
308.651	94.44
308.881	87.44
309.111	86.44
309.341	96.44
309.571	96.44
309.8	68.44
310.03	98.44
310.26	103.44
310.49	93.44
310.72	100.44
310.949	108.44
311.179	102.44
311.409	112.44
311.639	104.44
311.868	106.44
312.098	95.44
312.328	93.44
312.557	95.44
312.787	109.44
313.017	103.44
313.246	100.44
313.476	96.44
313.706	98.44
313.935	87.44
314.165	94.44
314.394	96.44
314.624	100.44
314.853	97.44
315.083	85.44
315.312	98.44
315.542	100.44
315.771	86.44
316.001	97.44
316.23	96.44
316.46	101.44
316.689	94.44
316.919	96.44
317.148	98.44
317.377	94.44
317.607	101.44
317.836	95.44
318.065	91.44
318.295	85.44
318.524	98.44
318.753	85.44
318.983	98.44
319.212	104.44
319.441	101.44
319.67	112.44
319.9	79.44
320.129	97.44
320.358	91.44
320.587	92.44
320.816	97.44
321.046	122.44
321.275	92.44
321.504	84.44
321.733	105.44
321.962	114.44
322.191	104.44
322.42	113.44
322.649	116.44
322.878	108.44
323.108	112.44
323.337	128.44
323.566	126.44
323.795	145.44
324.024	209.44
324.253	416.44
324.482	879.44
324.71	1775.44
324.939	2341.44
325.168	861.44
325.397	258.44
325.626	154.44
325.855	121.44
326.084	132.44
326.313	119.44
326.542	151.44
326.77	233.44
326.999	456.44
327.228	996.44
327.457	1833.44
327.686	1455.44
327.914	370.44
328.143	182.44
328.372	134.44
328.6	120.44
328.829	125.44
329.058	131.44
329.287	119.44
329.515	107.44
329.744	89.44
329.972	110.44
330.201	100.44
330.43	95.44
330.658	116.44
330.887	123.44
331.115	106.44
331.344	116.44
331.572	109.44
331.801	101.44
332.03	109.44
332.258	90.44
332.486	104.44
332.715	95.44
332.943	84.44
333.172	98.44
333.4	104.44
333.629	100.44
333.857	108.44
334.085	100.44
334.314	92.44
334.542	88.44
334.771	91.44
334.999	95.44
335.227	89.44
335.455	103.44
335.684	99.44
335.912	105.44
336.14	112.44
336.369	105.44
336.597	107.44
336.825	91.44
337.053	82.44
337.281	97.44
337.51	107.44
337.738	89.44
337.966	109.44
338.194	95.44
338.422	89.44
338.65	90.44
338.878	93.44
339.106	85.44
339.334	101.44
339.562	104.44
339.79	101.44
340.018	83.44
340.246	86.44
340.474	97.44
340.702	94.44
340.93	86.44
341.158	81.44
341.386	88.44
341.614	94.44
341.842	93.44
342.07	106.44
342.298	87.44
342.526	99.44
342.754	101.44
342.981	92.44
343.209	85.44
343.437	99.44
343.665	93.44
343.893	88.44
344.12	97.44
344.348	88.44
344.576	89.44
344.804	71.44
345.031	97.44
345.259	105.44
345.487	91.44
345.714	109.44
345.942	93.44
346.17	91.44
346.397	100.44
346.625	86.44
346.853	105.44
347.08	93.44
347.308	101.44
347.535	83.44
347.763	87.44
347.99	98.44
348.218	97.44
348.445	99.44
348.673	90.44
348.9	112.44
349.128	109.44
349.355	100.44
349.583	99.44
349.81	98.44
350.037	95.44
350.265	99.44
350.492	109.44
350.72	102.44
350.947	103.44
351.174	124.44
351.402	110.44
351.629	81.44
351.856	111.44
352.083	100.44
352.311	106.44
352.538	109.44
352.765	97.44
352.992	105.44
353.22	119.44
353.447	107.44
353.674	95.44
353.901	108.44
354.128	100.44
354.355	94.44
354.583	107.44
354.81	101.44
355.037	100.44
355.264	102.44
355.491	98.44
355.718	99.44
355.945	101.44
356.172	94.44
356.399	105.44
356.626	93.44
356.853	105.44
357.08	95.44
357.307	94.44
357.534	93.44
357.761	87.44
357.988	105.44
358.215	92.44
358.441	91.44
358.668	97.44
358.895	105.44
359.122	96.44
359.349	81.44
359.576	90.44
359.802	94.44
360.029	111.44
360.256	110.44
360.483	111.44
360.709	91.44
360.936	97.44
361.163	106.44
361.39	93.44
361.616	90.44
361.843	93.44
362.07	89.44
362.296	93.44
362.523	83.44
362.749	105.44
362.976	89.44
363.203	92.44
363.429	87.44
363.656	105.44
363.882	85.44
364.109	79.44
364.335	89.44
364.562	94.44
364.788	93.44
365.015	89.44
365.241	100.44
365.468	99.44
365.694	103.44
365.92	105.44
366.147	91.44
366.373	101.44
366.599	84.44
366.826	89.44
367.052	101.44
367.278	102.44
367.505	105.44
367.731	93.44
367.957	83.44
368.184	99.44
368.41	103.44
368.636	110.44
368.862	120.44
369.089	98.44
369.315	88.44
369.541	78.44
369.767	90.44
369.993	87.44
370.219	103.44
370.445	94.44
370.672	103.44
370.898	90.44
371.124	86.44
371.35	97.44
371.576	79.44
371.802	102.44
372.028	96.44
372.254	92.44
372.48	95.44
372.706	87.44
372.932	95.44
373.158	87.44
373.384	99.44
373.61	90.44
373.835	89.44
374.061	96.44
374.287	81.44
374.513	99.44
374.739	93.44
374.965	87.44
375.191	81.44
375.416	93.44
375.642	87.44
375.868	100.44
376.094	98.44
376.319	91.44
376.545	84.44
376.771	72.44
376.997	88.44
377.222	85.44
377.448	92.44
377.674	94.44
377.899	80.44
378.125	96.44
378.35	91.44
378.576	91.44
378.802	84.44
379.027	107.44
379.253	92.44
379.478	102.44
379.704	98.44
379.929	88.44
380.155	88.44
380.38	91.44
380.606	89.44
380.831	100.44
381.057	99.44
381.282	89.44
381.507	101.44
381.733	97.44
381.958	93.44
382.184	101.44
382.409	102.44
382.634	96.44
382.86	101.44
383.085	95.44
383.31	100.44
383.535	92.44
383.761	93.44
383.986	102.44
384.211	91.44
384.436	94.44
384.662	97.44
384.887	100.44
385.112	104.44
385.337	92.44
385.562	96.44
385.787	110.44
386.013	115.44
386.238	106.44
386.463	105.44
386.688	107.44
386.913	108.44
387.138	101.44
387.363	94.44
387.588	94.44
387.813	97.44
388.038	87.44
388.263	101.44
388.488	108.44
388.713	97.44
388.938	101.44
389.163	102.44
389.387	95.44
389.612	100.44
389.837	91.44
390.062	97.44
390.287	105.44
390.512	86.44
390.736	85.44
390.961	90.44
391.186	88.44
391.411	92.44
391.636	95.44
391.86	84.44
392.085	83.44
392.31	84.44
392.534	107.44
392.759	88.44
392.984	88.44
393.208	80.44
393.433	82.44
393.658	79.44
393.882	99.44
394.107	82.44
394.331	87.44
394.556	104.44
394.78	96.44
395.005	98.44
395.229	81.44
395.454	87.44
395.678	73.44
395.903	95.44
396.127	98.44
396.352	91.44
396.576	90.44
396.801	88.44
397.025	104.44
397.249	83.44
397.474	96.44
397.698	81.44
397.922	83.44
398.147	93.44
398.371	86.44
398.595	78.44
398.82	91.44
399.044	77.44
399.268	95.44
399.492	78.44
399.717	97.44
399.941	107.44
400.165	87.44
400.389	88.44
400.613	81.44
400.837	86.44
401.062	84.44
401.286	89.44
401.51	84.44
401.734	100.44
401.958	112.44
402.182	138.44
402.406	141.44
402.63	116.44
402.854	91.44
403.078	83.44
403.302	89.44
403.526	89.44
403.75	75.44
403.974	103.44
404.198	92.44
404.422	82.44
404.645	77.44
404.869	81.44
405.093	80.44
405.317	80.44
405.541	100.44
405.765	121.44
405.988	113.44
406.212	169.44
406.436	196.44
406.66	127.44
406.883	102.44
407.107	80.44
407.331	107.44
407.555	97.44
407.778	89.44
408.002	91.44
408.226	97.44
408.449	98.44
408.673	89.44
408.896	94.44
409.12	93.44
409.344	84.44
409.567	100.44
409.791	91.44
410.014	101.44
410.238	94.44
410.461	86.44
410.685	94.44
410.908	88.44
411.132	97.44
411.355	113.44
411.578	108.44
411.802	98.44
412.025	107.44
412.249	106.44
412.472	84.44
412.695	91.44
412.919	83.44
413.142	88.44
413.365	98.44
413.589	100.44
413.812	79.44
414.035	92.44
414.258	104.44
414.482	89.44
414.705	106.44
414.928	85.44
415.151	89.44
415.374	83.44
415.597	84.44
415.821	103.44
416.044	92.44
416.267	91.44
416.49	102.44
416.713	88.44
416.936	90.44
417.159	96.44
417.382	82.44
417.605	97.44
417.828	100.44
418.051	100.44
418.274	90.44
418.497	83.44
418.72	88.44
418.943	100.44
419.166	90.44
419.389	81.44
419.611	91.44
419.834	93.44
420.057	91.44
420.28	87.44
420.503	85.44
420.726	91.44
420.948	91.44
421.171	99.44
421.394	76.44
421.617	99.44
421.839	93.44
422.062	82.44
422.285	89.44
422.507	95.44
422.73	109.44
422.953	98.44
423.175	88.44
423.398	84.44
423.621	92.44
423.843	80.44
424.066	88.44
424.288	88.44
424.511	85.44
424.733	94.44
424.956	95.44
425.178	107.44
425.401	91.44
425.623	107.44
425.846	86.44
426.068	100.44
426.291	85.44
426.513	96.44
426.735	97.44
426.958	99.44
427.18	82.44
427.402	127.44
427.625	162.44
427.847	117.44
428.069	99.44
428.292	87.44
428.514	78.44
428.736	75.44
428.958	105.44
429.181	95.44
429.403	89.44
429.625	93.44
429.847	88.44
430.069	96.44
430.292	90.44
430.514	87.44
430.736	92.44
430.958	90.44
431.18	81.44
431.402	79.44
431.624	86.44
431.846	94.44
432.068	97.44
432.29	89.44
432.512	95.44
432.734	92.44
432.956	96.44
433.178	96.44
433.4	99.44
433.622	80.44
433.844	69.44
434.066	91.44
434.287	106.44
434.509	90.44
434.731	83.44
434.953	96.44
435.175	96.44
435.397	92.44
435.618	103.44
435.84	108.44
436.062	129.44
436.284	111.44
436.505	100.44
436.727	90.44
436.949	90.44
437.17	82.44
437.392	88.44
437.614	90.44
437.835	109.44
438.057	119.44
438.278	107.44
438.5	114.44
438.721	113.44
438.943	109.44
439.165	83.44
439.386	103.44
439.608	91.44
439.829	94.44
440.05	135.44
440.272	130.44
440.493	108.44
440.715	92.44
440.936	79.44
441.158	97.44
441.379	87.44
441.6	103.44
441.822	92.44
442.043	99.44
442.264	115.44
442.486	106.44
442.707	104.44
442.928	112.44
443.149	122.44
443.371	127.44
443.592	112.44
443.813	101.44
444.034	110.44
444.255	101.44
444.476	85.44
444.698	100.44
444.919	91.44
445.14	127.44
445.361	131.44
445.582	123.44
445.803	143.44
446.024	143.44
446.245	129.44
446.466	101.44
446.687	95.44
446.908	81.44
447.129	97.44
447.35	93.44
447.571	104.44
447.792	84.44
448.013	103.44
448.234	109.44
448.455	93.44
448.675	112.44
448.896	119.44
449.117	87.44
449.338	107.44
449.559	130.44
449.779	117.44
450	89.44
450.221	91.44
450.442	114.44
450.662	97.44
450.883	97.44
451.104	100.44
451.324	109.44
451.545	90.44
451.766	97.44
451.986	99.44
452.207	87.44
452.428	90.44
452.648	92.44
452.869	118.44
453.089	116.44
453.31	120.44
453.53	97.44
453.751	95.44
453.971	97.44
454.192	101.44
454.412	86.44
454.633	85.44
454.853	89.44
455.073	85.44
455.294	92.44
455.514	109.44
455.734	93.44
455.955	84.44
456.175	84.44
456.395	88.44
456.616	86.44
456.836	87.44
457.056	99.44
457.276	79.44
457.497	84.44
457.717	92.44
457.937	88.44
458.157	86.44
458.377	103.44
458.598	98.44
458.818	135.44
459.038	133.44
459.258	121.44
459.478	96.44
459.698	84.44
459.918	88.44
460.138	92.44
460.358	83.44
460.578	85.44
460.798	97.44
461.018	99.44
461.238	73.44
461.458	83.44
461.678	96.44
461.898	88.44
462.118	90.44
462.338	92.44
462.558	84.44
462.777	93.44
462.997	79.44
463.217	64.44
463.437	87.44
463.657	93.44
463.876	114.44
464.096	97.44
464.316	90.44
464.536	101.44
464.755	93.44
464.975	107.44
465.195	161.44
465.414	126.44
465.634	96.44
465.854	104.44
466.073	88.44
466.293	100.44
466.512	81.44
466.732	91.44
466.951	94.44
467.171	81.44
467.391	82.44
467.61	79.44
467.829	107.44
468.049	111.44
468.268	95.44
468.488	82.44
468.707	84.44
468.927	70.44
469.146	82.44
469.365	95.44
469.585	88.44
469.804	95.44
470.023	93.44
470.243	91.44
470.462	105.44
470.681	110.44
470.901	84.44
471.12	84.44
471.339	92.44
471.558	94.44
471.777	84.44
471.997	91.44
472.216	105.44
472.435	80.44
472.654	84.44
472.873	104.44
473.092	101.44
473.311	86.44
473.53	83.44
473.749	84.44
473.968	88.44
474.187	96.44
474.406	91.44
474.625	84.44
474.844	80.44
475.063	98.44
475.282	91.44
475.501	90.44
475.72	94.44
475.939	73.44
476.158	96.44
476.377	99.44
476.596	81.44
476.814	91.44
477.033	95.44
477.252	87.44
477.471	89.44
477.69	95.44
477.908	81.44
478.127	108.44
478.346	90.44
478.564	78.44
478.783	85.44
479.002	90.44
479.22	104.44
479.439	101.44
479.658	114.44
479.876	104.44
480.095	98.44
480.313	82.44
480.532	80.44
480.751	103.44
480.969	84.44
481.188	95.44
481.406	91.44
481.624	93.44
481.843	84.44
482.061	87.44
482.28	86.44
482.498	76.44
482.717	89.44
482.935	109.44
483.153	96.44
483.372	93.44
483.59	96.44
483.808	83.44
484.027	106.44
484.245	90.44
484.463	84.44
484.681	91.44
484.9	99.44
485.118	117.44
485.336	86.44
485.554	98.44
485.772	97.44
485.99	109.44
486.209	113.44
486.427	104.44
486.645	111.44
486.863	107.44
487.081	97.44
487.299	99.44
487.517	102.44
487.735	92.44
487.953	93.44
488.171	82.44
488.389	114.44
488.607	103.44
488.825	91.44
489.043	91.44
489.261	82.44
489.479	101.44
489.696	101.44
489.914	92.44
490.132	101.44
490.35	101.44
490.568	88.44
490.786	96.44
491.003	106.44
491.221	91.44
491.439	106.44
491.657	89.44
491.874	91.44
492.092	101.44
492.31	98.44
492.527	100.44
492.745	96.44
492.963	99.44
493.18	88.44
493.398	101.44
493.615	91.44
493.833	83.44
494.05	91.44
494.268	95.44
494.485	91.44
494.703	91.44
494.92	76.44
495.138	97.44
495.355	99.44
495.573	100.44
495.79	87.44
496.008	87.44
496.225	99.44
496.442	93.44
496.66	94.44
496.877	87.44
497.094	103.44
497.312	105.44
497.529	77.44
497.746	79.44
497.963	84.44
498.181	97.44
498.398	92.44
498.615	107.44
498.832	100.44
499.049	90.44
499.267	83.44
499.484	89.44
499.701	88.44
499.918	86.44
500.135	108.44
500.352	90.44
500.569	88.44
500.786	90.44
501.003	94.44
501.22	89.44
501.437	92.44
501.654	96.44
501.871	99.44
502.088	87.44
502.305	107.44
502.522	90.44
502.739	94.44
502.956	83.44
503.172	87.44
503.389	93.44
503.606	110.44
503.823	105.44
504.04	93.44
504.256	96.44
504.473	93.44
504.69	90.44
504.907	96.44
505.123	100.44
505.34	115.44
505.557	80.44
505.773	88.44
505.99	95.44
506.207	90.44
506.423	90.44
506.64	106.44
506.856	91.44
507.073	95.44
507.289	97.44
507.506	99.44
507.722	100.44
507.939	113.44
508.155	99.44
508.372	86.44
508.588	100.44
508.805	101.44
509.021	104.44
509.238	109.44
509.454	93.44
509.67	82.44
509.887	105.44
510.103	125.44
510.319	225.44
510.536	823.44
510.752	2475.44
510.968	661.44
511.184	167.44
511.401	107.44
511.617	116.44
511.833	107.44
512.049	105.44
512.265	91.44
512.481	98.44
512.698	101.44
512.914	113.44
513.13	99.44
513.346	95.44
513.562	88.44
513.778	107.44
513.994	99.44
514.21	95.44
514.426	107.44
514.642	117.44
514.858	119.44
515.074	171.44
