Data from Uncirc_1995_H10_HRD10591_00022.txt Node
Date: Wed Jan 03 11:35:38 EST 2024
User: Yrep
Spectrometer: HR+D1059
Trigger mode: 1
Integration Time (sec): 1.000000E-1
Scans to average: 1
Electric dark correction enabled: true
Nonlinearity correction enabled: false
Boxcar width: 0
XAxis mode: Wavelengths
Number of Pixels in Spectrum: 2048
>>>>>Begin Spectral Data<<<<<
223.165	-20.06
223.4	-20.06
223.635	-20.06
223.869	-19.06
224.104	-22.06
224.338	-32.06
224.573	-17.06
224.808	-7.06
225.042	-7.06
225.277	0.94
225.511	-17.06
225.746	-2.06
225.98	13.94
226.215	26.94
226.449	19.94
226.683	20.94
226.918	28.94
227.152	31.94
227.387	38.94
227.621	40.94
227.856	56.94
228.09	39.94
228.324	41.94
228.559	61.94
228.793	53.94
229.027	58.94
229.262	68.94
229.496	73.94
229.73	77.94
229.964	61.94
230.199	66.94
230.433	58.94
230.667	68.94
230.901	72.94
231.136	74.94
231.37	80.94
231.604	63.94
231.838	68.94
232.072	80.94
232.306	76.94
232.541	84.94
232.775	76.94
233.009	78.94
233.243	71.94
233.477	88.94
233.711	70.94
233.945	85.94
234.179	90.94
234.413	80.94
234.647	77.94
234.881	87.94
235.115	70.94
235.349	76.94
235.583	78.94
235.817	71.94
236.051	74.94
236.285	93.94
236.519	74.94
236.753	82.94
236.987	72.94
237.221	82.94
237.455	92.94
237.689	78.94
237.922	81.94
238.156	71.94
238.39	71.94
238.624	70.94
238.858	78.94
239.091	64.94
239.325	72.94
239.559	81.94
239.793	81.94
240.027	77.94
240.26	72.94
240.494	80.94
240.728	76.94
240.961	74.94
241.195	65.94
241.429	76.94
241.662	86.94
241.896	71.94
242.13	74.94
242.363	72.94
242.597	66.94
242.83	78.94
243.064	71.94
243.298	68.94
243.531	80.94
243.765	75.94
243.998	65.94
244.232	78.94
244.465	80.94
244.699	61.94
244.932	90.94
245.166	76.94
245.399	72.94
245.633	63.94
245.866	91.94
246.099	79.94
246.333	76.94
246.566	69.94
246.8	64.94
247.033	80.94
247.266	78.94
247.5	77.94
247.733	84.94
247.966	76.94
248.2	74.94
248.433	88.94
248.666	73.94
248.899	74.94
249.133	82.94
249.366	105.94
249.599	83.94
249.832	78.94
250.066	81.94
250.299	81.94
250.532	64.94
250.765	74.94
250.998	58.94
251.231	68.94
251.465	70.94
251.698	96.94
251.931	73.94
252.164	78.94
252.397	70.94
252.63	82.94
252.863	80.94
253.096	74.94
253.329	78.94
253.562	73.94
253.795	84.94
254.028	86.94
254.261	71.94
254.494	83.94
254.727	79.94
254.96	79.94
255.193	79.94
255.426	76.94
255.659	64.94
255.892	90.94
256.124	94.94
256.357	77.94
256.59	76.94
256.823	70.94
257.056	80.94
257.289	74.94
257.521	75.94
257.754	74.94
257.987	73.94
258.22	86.94
258.452	72.94
258.685	91.94
258.918	83.94
259.151	74.94
259.383	81.94
259.616	85.94
259.849	79.94
260.081	91.94
260.314	96.94
260.547	76.94
260.779	87.94
261.012	82.94
261.244	69.94
261.477	103.94
261.71	80.94
261.942	102.94
262.175	108.94
262.407	91.94
262.64	68.94
262.872	88.94
263.105	86.94
263.337	78.94
263.57	76.94
263.802	70.94
264.035	80.94
264.267	74.94
264.499	79.94
264.732	90.94
264.964	82.94
265.197	85.94
265.429	84.94
265.661	82.94
265.894	85.94
266.126	81.94
266.358	88.94
266.591	91.94
266.823	81.94
267.055	72.94
267.287	79.94
267.52	62.94
267.752	94.94
267.984	93.94
268.216	63.94
268.448	76.94
268.681	75.94
268.913	79.94
269.145	92.94
269.377	89.94
269.609	80.94
269.841	95.94
270.073	78.94
270.306	80.94
270.538	93.94
270.77	82.94
271.002	76.94
271.234	99.94
271.466	100.94
271.698	74.94
271.93	77.94
272.162	86.94
272.394	91.94
272.626	78.94
272.858	81.94
273.09	88.94
273.322	82.94
273.553	80.94
273.785	89.94
274.017	89.94
274.249	69.94
274.481	74.94
274.713	80.94
274.945	78.94
275.176	72.94
275.408	91.94
275.64	88.94
275.872	94.94
276.104	79.94
276.335	76.94
276.567	91.94
276.799	96.94
277.031	95.94
277.262	97.94
277.494	102.94
277.726	90.94
277.957	90.94
278.189	88.94
278.421	81.94
278.652	75.94
278.884	80.94
279.115	53.94
279.347	56.94
279.579	97.94
279.81	81.94
280.042	85.94
280.273	85.94
280.505	84.94
280.736	81.94
280.968	87.94
281.199	72.94
281.431	89.94
281.662	68.94
281.894	80.94
282.125	93.94
282.356	104.94
282.588	114.94
282.819	109.94
283.051	101.94
283.282	73.94
283.513	78.94
283.745	79.94
283.976	84.94
284.207	79.94
284.439	74.94
284.67	92.94
284.901	65.94
285.132	87.94
285.364	73.94
285.595	81.94
285.826	89.94
286.057	88.94
286.288	86.94
286.52	94.94
286.751	84.94
286.982	85.94
287.213	89.94
287.444	90.94
287.675	82.94
287.906	103.94
288.138	83.94
288.369	84.94
288.6	91.94
288.831	87.94
289.062	82.94
289.293	82.94
289.524	77.94
289.755	83.94
289.986	79.94
290.217	101.94
290.448	97.94
290.679	84.94
290.91	88.94
291.141	92.94
291.371	94.94
291.602	77.94
291.833	70.94
292.064	87.94
292.295	82.94
292.526	79.94
292.757	86.94
292.987	94.94
293.218	98.94
293.449	82.94
293.68	82.94
293.91	74.94
294.141	94.94
294.372	72.94
294.603	68.94
294.833	89.94
295.064	106.94
295.295	88.94
295.525	87.94
295.756	93.94
295.987	98.94
296.217	109.94
296.448	105.94
296.679	80.94
296.909	80.94
297.14	90.94
297.37	74.94
297.601	92.94
297.831	83.94
298.062	105.94
298.292	98.94
298.523	72.94
298.753	80.94
298.984	70.94
299.214	101.94
299.445	100.94
299.675	96.94
299.905	96.94
300.136	72.94
300.366	85.94
300.597	81.94
300.827	87.94
301.057	86.94
301.288	86.94
301.518	101.94
301.748	79.94
301.979	93.94
302.209	90.94
302.439	88.94
302.669	79.94
302.9	79.94
303.13	79.94
303.36	91.94
303.59	100.94
303.82	106.94
304.051	85.94
304.281	87.94
304.511	87.94
304.741	89.94
304.971	89.94
305.201	91.94
305.431	95.94
305.661	81.94
305.891	90.94
306.121	90.94
306.352	89.94
306.582	92.94
306.812	97.94
307.042	97.94
307.272	79.94
307.502	69.94
307.731	85.94
307.961	90.94
308.191	88.94
308.421	78.94
308.651	89.94
308.881	84.94
309.111	88.94
309.341	98.94
309.571	86.94
309.8	92.94
310.03	96.94
310.26	92.94
310.49	98.94
310.72	96.94
310.949	86.94
311.179	86.94
311.409	72.94
311.639	88.94
311.868	77.94
312.098	106.94
312.328	82.94
312.557	100.94
312.787	86.94
313.017	109.94
313.246	86.94
313.476	78.94
313.706	80.94
313.935	78.94
314.165	92.94
314.394	84.94
314.624	81.94
314.853	86.94
315.083	95.94
315.312	82.94
315.542	72.94
315.771	84.94
316.001	87.94
316.23	95.94
316.46	80.94
316.689	81.94
316.919	80.94
317.148	84.94
317.377	93.94
317.607	90.94
317.836	88.94
318.065	87.94
318.295	100.94
318.524	75.94
318.753	90.94
318.983	89.94
319.212	83.94
319.441	102.94
319.67	94.94
319.9	85.94
320.129	79.94
320.358	88.94
320.587	90.94
320.816	96.94
321.046	93.94
321.275	105.94
321.504	81.94
321.733	86.94
321.962	83.94
322.191	96.94
322.42	93.94
322.649	90.94
322.878	110.94
323.108	118.94
323.337	116.94
323.566	128.94
323.795	138.94
324.024	180.94
324.253	342.94
324.482	700.94
324.71	1474.94
324.939	1936.94
325.168	712.94
325.397	215.94
325.626	136.94
325.855	116.94
326.084	117.94
326.313	125.94
326.542	129.94
326.77	191.94
326.999	383.94
327.228	830.94
327.457	1490.94
327.686	1179.94
327.914	340.94
328.143	182.94
328.372	135.94
328.6	107.94
328.829	104.94
329.058	118.94
329.287	117.94
329.515	87.94
329.744	99.94
329.972	100.94
330.201	96.94
330.43	110.94
330.658	99.94
330.887	126.94
331.115	109.94
331.344	78.94
331.572	87.94
331.801	97.94
332.03	90.94
332.258	97.94
332.486	77.94
332.715	86.94
332.943	85.94
333.172	98.94
333.4	84.94
333.629	93.94
333.857	103.94
334.085	96.94
334.314	108.94
334.542	92.94
334.771	96.94
334.999	85.94
335.227	83.94
335.455	102.94
335.684	107.94
335.912	89.94
336.14	80.94
336.369	98.94
336.597	92.94
336.825	88.94
337.053	95.94
337.281	94.94
337.51	82.94
337.738	104.94
337.966	78.94
338.194	97.94
338.422	101.94
338.65	96.94
338.878	88.94
339.106	75.94
339.334	75.94
339.562	82.94
339.79	67.94
340.018	89.94
340.246	97.94
340.474	104.94
340.702	92.94
340.93	89.94
341.158	92.94
341.386	100.94
341.614	81.94
341.842	88.94
342.07	90.94
342.298	87.94
342.526	94.94
342.754	89.94
342.981	82.94
343.209	76.94
343.437	88.94
343.665	83.94
343.893	97.94
344.12	78.94
344.348	86.94
344.576	78.94
344.804	81.94
345.031	89.94
345.259	90.94
345.487	68.94
345.714	85.94
345.942	79.94
346.17	86.94
346.397	74.94
346.625	90.94
346.853	71.94
347.08	82.94
347.308	77.94
347.535	91.94
347.763	90.94
347.99	93.94
348.218	93.94
348.445	121.94
348.673	104.94
348.9	108.94
349.128	83.94
349.355	85.94
349.583	91.94
349.81	91.94
350.037	92.94
350.265	102.94
350.492	100.94
350.72	93.94
350.947	90.94
351.174	99.94
351.402	112.94
351.629	104.94
351.856	97.94
352.083	120.94
352.311	96.94
352.538	96.94
352.765	108.94
352.992	110.94
353.22	96.94
353.447	92.94
353.674	92.94
353.901	81.94
354.128	69.94
354.355	97.94
354.583	112.94
354.81	98.94
355.037	93.94
355.264	90.94
355.491	93.94
355.718	89.94
355.945	104.94
356.172	97.94
356.399	101.94
356.626	96.94
356.853	96.94
357.08	82.94
357.307	93.94
357.534	97.94
357.761	93.94
357.988	84.94
358.215	89.94
358.441	90.94
358.668	86.94
358.895	91.94
359.122	87.94
359.349	85.94
359.576	85.94
359.802	87.94
360.029	96.94
360.256	90.94
360.483	91.94
360.709	74.94
360.936	88.94
361.163	93.94
361.39	73.94
361.616	84.94
361.843	90.94
362.07	85.94
362.296	84.94
362.523	93.94
362.749	80.94
362.976	77.94
363.203	80.94
363.429	80.94
363.656	88.94
363.882	82.94
364.109	92.94
364.335	86.94
364.562	95.94
364.788	102.94
365.015	77.94
365.241	84.94
365.468	104.94
365.694	97.94
365.92	82.94
366.147	92.94
366.373	77.94
366.599	99.94
366.826	88.94
367.052	94.94
367.278	80.94
367.505	81.94
367.731	96.94
367.957	79.94
368.184	74.94
368.41	97.94
368.636	100.94
368.862	109.94
369.089	103.94
369.315	86.94
369.541	82.94
369.767	80.94
369.993	98.94
370.219	86.94
370.445	77.94
370.672	76.94
370.898	85.94
371.124	77.94
371.35	85.94
371.576	82.94
371.802	95.94
372.028	73.94
372.254	89.94
372.48	76.94
372.706	95.94
372.932	89.94
373.158	86.94
373.384	88.94
373.61	98.94
373.835	75.94
374.061	81.94
374.287	92.94
374.513	83.94
374.739	101.94
374.965	91.94
375.191	68.94
375.416	87.94
375.642	93.94
375.868	104.94
376.094	100.94
376.319	89.94
376.545	88.94
376.771	94.94
376.997	81.94
377.222	93.94
377.448	96.94
377.674	102.94
377.899	88.94
378.125	93.94
378.35	79.94
378.576	92.94
378.802	88.94
379.027	93.94
379.253	94.94
379.478	88.94
379.704	84.94
379.929	88.94
380.155	89.94
380.38	100.94
380.606	87.94
380.831	98.94
381.057	100.94
381.282	93.94
381.507	94.94
381.733	90.94
381.958	111.94
382.184	101.94
382.409	117.94
382.634	79.94
382.86	84.94
383.085	90.94
383.31	99.94
383.535	96.94
383.761	112.94
383.986	114.94
384.211	102.94
384.436	107.94
384.662	94.94
384.887	90.94
385.112	103.94
385.337	101.94
385.562	108.94
385.787	116.94
386.013	110.94
386.238	114.94
386.463	103.94
386.688	115.94
386.913	104.94
387.138	109.94
387.363	102.94
387.588	88.94
387.813	108.94
388.038	108.94
388.263	111.94
388.488	112.94
388.713	89.94
388.938	89.94
389.163	97.94
389.387	109.94
389.612	94.94
389.837	99.94
390.062	89.94
390.287	96.94
390.512	77.94
390.736	84.94
390.961	94.94
391.186	95.94
391.411	84.94
391.636	87.94
391.86	82.94
392.085	84.94
392.31	86.94
392.534	80.94
392.759	86.94
392.984	74.94
393.208	94.94
393.433	89.94
393.658	91.94
393.882	98.94
394.107	84.94
394.331	88.94
394.556	87.94
394.78	95.94
395.005	89.94
395.229	98.94
395.454	74.94
395.678	78.94
395.903	74.94
396.127	92.94
396.352	88.94
396.576	87.94
396.801	79.94
397.025	88.94
397.249	87.94
397.474	78.94
397.698	110.94
397.922	83.94
398.147	81.94
398.371	83.94
398.595	71.94
398.82	86.94
399.044	86.94
399.268	82.94
399.492	84.94
399.717	87.94
399.941	103.94
400.165	94.94
400.389	88.94
400.613	85.94
400.837	95.94
401.062	89.94
401.286	96.94
401.51	82.94
401.734	84.94
401.958	95.94
402.182	111.94
402.406	141.94
402.63	108.94
402.854	109.94
403.078	97.94
403.302	78.94
403.526	75.94
403.75	79.94
403.974	85.94
404.198	100.94
404.422	97.94
404.645	81.94
404.869	90.94
405.093	95.94
405.317	81.94
405.541	99.94
405.765	104.94
405.988	90.94
406.212	150.94
406.436	182.94
406.66	105.94
406.883	89.94
407.107	97.94
407.331	93.94
407.555	81.94
407.778	102.94
408.002	89.94
408.226	83.94
408.449	87.94
408.673	90.94
408.896	95.94
409.12	90.94
409.344	84.94
409.567	89.94
409.791	106.94
410.014	97.94
410.238	85.94
410.461	87.94
410.685	90.94
410.908	88.94
411.132	93.94
411.355	89.94
411.578	98.94
411.802	89.94
412.025	94.94
412.249	74.94
412.472	90.94
412.695	82.94
412.919	68.94
413.142	90.94
413.365	87.94
413.589	78.94
413.812	72.94
414.035	87.94
414.258	79.94
414.482	77.94
414.705	91.94
414.928	94.94
415.151	81.94
415.374	93.94
415.597	82.94
415.821	89.94
416.044	87.94
416.267	94.94
416.49	87.94
416.713	93.94
416.936	89.94
417.159	86.94
417.382	92.94
417.605	87.94
417.828	105.94
418.051	112.94
418.274	83.94
418.497	88.94
418.72	84.94
418.943	80.94
419.166	88.94
419.389	76.94
419.611	92.94
419.834	96.94
420.057	89.94
420.28	93.94
420.503	94.94
420.726	94.94
420.948	79.94
421.171	73.94
421.394	85.94
421.617	90.94
421.839	93.94
422.062	89.94
422.285	80.94
422.507	97.94
422.73	96.94
422.953	92.94
423.175	90.94
423.398	83.94
423.621	102.94
423.843	90.94
424.066	84.94
424.288	78.94
424.511	79.94
424.733	91.94
424.956	96.94
425.178	99.94
425.401	90.94
425.623	92.94
425.846	87.94
426.068	92.94
426.291	85.94
426.513	96.94
426.735	92.94
426.958	96.94
427.18	97.94
427.402	107.94
427.625	125.94
427.847	108.94
428.069	92.94
428.292	90.94
428.514	82.94
428.736	85.94
428.958	104.94
429.181	90.94
429.403	81.94
429.625	87.94
429.847	86.94
430.069	94.94
430.292	92.94
430.514	93.94
430.736	64.94
430.958	93.94
431.18	86.94
431.402	81.94
431.624	88.94
431.846	89.94
432.068	78.94
432.29	71.94
432.512	98.94
432.734	102.94
432.956	98.94
433.178	100.94
433.4	96.94
433.622	88.94
433.844	70.94
434.066	90.94
434.287	92.94
434.509	79.94
434.731	91.94
434.953	83.94
435.175	78.94
435.397	88.94
435.618	90.94
435.84	103.94
436.062	108.94
436.284	111.94
436.505	93.94
436.727	115.94
436.949	93.94
437.17	96.94
437.392	93.94
437.614	79.94
437.835	87.94
438.057	116.94
438.278	81.94
438.5	92.94
438.721	111.94
438.943	98.94
439.165	92.94
439.386	73.94
439.608	72.94
439.829	100.94
440.05	97.94
440.272	126.94
440.493	80.94
440.715	79.94
440.936	78.94
441.158	76.94
441.379	93.94
441.6	99.94
441.822	85.94
442.043	84.94
442.264	98.94
442.486	92.94
442.707	93.94
442.928	99.94
443.149	108.94
443.371	108.94
443.592	100.94
443.813	118.94
444.034	93.94
444.255	68.94
444.476	82.94
444.698	86.94
444.919	87.94
445.14	134.94
445.361	113.94
445.582	105.94
445.803	110.94
446.024	111.94
446.245	128.94
446.466	108.94
446.687	87.94
446.908	82.94
447.129	78.94
447.35	99.94
447.571	91.94
447.792	103.94
448.013	102.94
448.234	102.94
448.455	85.94
448.675	101.94
448.896	100.94
449.117	98.94
449.338	92.94
449.559	117.94
449.779	110.94
450	86.94
450.221	84.94
450.442	80.94
450.662	90.94
450.883	85.94
451.104	92.94
451.324	86.94
451.545	84.94
451.766	55.94
451.986	76.94
452.207	80.94
452.428	94.94
452.648	82.94
452.869	111.94
453.089	97.94
453.31	116.94
453.53	87.94
453.751	75.94
453.971	100.94
454.192	102.94
454.412	87.94
454.633	87.94
454.853	81.94
455.073	87.94
455.294	78.94
455.514	86.94
455.734	87.94
455.955	85.94
456.175	93.94
456.395	92.94
456.616	75.94
456.836	69.94
457.056	75.94
457.276	84.94
457.497	78.94
457.717	89.94
457.937	84.94
458.157	93.94
458.377	93.94
458.598	109.94
458.818	113.94
459.038	122.94
459.258	111.94
459.478	87.94
459.698	88.94
459.918	92.94
460.138	88.94
460.358	77.94
460.578	73.94
460.798	78.94
461.018	96.94
461.238	86.94
461.458	86.94
461.678	87.94
461.898	79.94
462.118	85.94
462.338	92.94
462.558	80.94
462.777	74.94
462.997	87.94
463.217	81.94
463.437	76.94
463.657	96.94
463.876	84.94
464.096	91.94
464.316	87.94
464.536	84.94
464.755	83.94
464.975	104.94
465.195	136.94
465.414	123.94
465.634	90.94
465.854	94.94
466.073	92.94
466.293	90.94
466.512	82.94
466.732	80.94
466.951	92.94
467.171	101.94
467.391	97.94
467.61	86.94
467.829	91.94
468.049	82.94
468.268	90.94
468.488	79.94
468.707	72.94
468.927	82.94
469.146	88.94
469.365	86.94
469.585	84.94
469.804	88.94
470.023	77.94
470.243	76.94
470.462	89.94
470.681	87.94
470.901	94.94
471.12	102.94
471.339	84.94
471.558	82.94
471.777	74.94
471.997	86.94
472.216	89.94
472.435	92.94
472.654	79.94
472.873	93.94
473.092	93.94
473.311	89.94
473.53	80.94
473.749	82.94
473.968	94.94
474.187	85.94
474.406	97.94
474.625	100.94
474.844	86.94
475.063	99.94
475.282	80.94
475.501	77.94
475.72	84.94
475.939	92.94
476.158	82.94
476.377	82.94
476.596	94.94
476.814	87.94
477.033	96.94
477.252	90.94
477.471	80.94
477.69	72.94
477.908	93.94
478.127	69.94
478.346	90.94
478.564	89.94
478.783	88.94
479.002	94.94
479.22	82.94
479.439	94.94
479.658	103.94
479.876	86.94
480.095	86.94
480.313	78.94
480.532	100.94
480.751	76.94
480.969	90.94
481.188	91.94
481.406	88.94
481.624	83.94
481.843	91.94
482.061	83.94
482.28	96.94
482.498	91.94
482.717	90.94
482.935	86.94
483.153	85.94
483.372	79.94
483.59	101.94
483.808	92.94
484.027	79.94
484.245	91.94
484.463	90.94
484.681	81.94
484.9	88.94
485.118	86.94
485.336	94.94
485.554	111.94
485.772	100.94
485.99	98.94
486.209	100.94
486.427	111.94
486.645	110.94
486.863	103.94
487.081	106.94
487.299	93.94
487.517	81.94
487.735	89.94
487.953	84.94
488.171	96.94
488.389	88.94
488.607	91.94
488.825	87.94
489.043	86.94
489.261	103.94
489.479	106.94
489.696	95.94
489.914	86.94
490.132	87.94
490.35	95.94
490.568	84.94
490.786	86.94
491.003	85.94
491.221	80.94
491.439	82.94
491.657	88.94
491.874	104.94
492.092	84.94
492.31	80.94
492.527	92.94
492.745	94.94
492.963	96.94
493.18	77.94
493.398	79.94
493.615	97.94
493.833	98.94
494.05	89.94
494.268	94.94
494.485	95.94
494.703	78.94
494.92	89.94
495.138	82.94
495.355	81.94
495.573	91.94
495.79	84.94
496.008	89.94
496.225	92.94
496.442	82.94
496.66	92.94
496.877	84.94
497.094	92.94
497.312	70.94
497.529	87.94
497.746	94.94
497.963	93.94
498.181	90.94
498.398	94.94
498.615	97.94
498.832	111.94
499.049	101.94
499.267	92.94
499.484	102.94
499.701	105.94
499.918	79.94
500.135	95.94
500.352	95.94
500.569	82.94
500.786	88.94
501.003	78.94
501.22	81.94
501.437	98.94
501.654	91.94
501.871	95.94
502.088	104.94
502.305	82.94
502.522	91.94
502.739	67.94
502.956	81.94
503.172	89.94
503.389	98.94
503.606	97.94
503.823	88.94
504.04	77.94
504.256	93.94
504.473	79.94
504.69	80.94
504.907	104.94
505.123	83.94
505.34	87.94
505.557	105.94
505.773	97.94
505.99	91.94
506.207	102.94
506.423	100.94
506.64	87.94
506.856	88.94
507.073	85.94
507.289	91.94
507.506	93.94
507.722	105.94
507.939	108.94
508.155	97.94
508.372	88.94
508.588	84.94
508.805	92.94
509.021	78.94
509.238	81.94
509.454	104.94
509.67	90.94
509.887	106.94
510.103	110.94
510.319	184.94
510.536	610.94
510.752	1878.94
510.968	534.94
511.184	131.94
511.401	97.94
511.617	97.94
511.833	76.94
512.049	95.94
512.265	84.94
512.481	83.94
512.698	108.94
512.914	82.94
513.13	78.94
513.346	84.94
513.562	87.94
513.778	86.94
513.994	87.94
514.21	82.94
514.426	107.94
514.642	109.94
514.858	111.94
515.074	149.94
515.29	329.94
515.506	1092.94
515.721	411.94
515.937	132.94
516.153	108.94
516.369	89.94
516.585	97.94
516.801	65.94
517.016	92.94
