Data from Uncirc_1995_H10_HRD10591_00060.txt Node
Date: Wed Jan 03 11:35:45 EST 2024
User: Yrep
Spectrometer: HR+D1059
Trigger mode: 1
Integration Time (sec): 1.000000E-1
Scans to average: 1
Electric dark correction enabled: true
Nonlinearity correction enabled: false
Boxcar width: 0
XAxis mode: Wavelengths
Number of Pixels in Spectrum: 2048
>>>>>Begin Spectral Data<<<<<
223.165	-13.75
223.4	-13.75
223.635	-13.75
223.869	-9.75
224.104	-0.75
224.338	-8.75
224.573	-13.75
224.808	-15.75
225.042	-0.75
225.277	-8.75
225.511	-5.75
225.746	-0.75
225.98	0.25
226.215	15.25
226.449	3.25
226.683	4.25
226.918	20.25
227.152	35.25
227.387	34.25
227.621	26.25
227.856	50.25
228.09	35.25
228.324	42.25
228.559	67.25
228.793	61.25
229.027	69.25
229.262	67.25
229.496	72.25
229.73	80.25
229.964	74.25
230.199	79.25
230.433	65.25
230.667	76.25
230.901	70.25
231.136	82.25
231.37	85.25
231.604	97.25
231.838	95.25
232.072	78.25
232.306	78.25
232.541	82.25
232.775	83.25
233.009	70.25
233.243	95.25
233.477	79.25
233.711	84.25
233.945	85.25
234.179	87.25
234.413	63.25
234.647	70.25
234.881	84.25
235.115	76.25
235.349	76.25
235.583	67.25
235.817	84.25
236.051	74.25
236.285	74.25
236.519	80.25
236.753	66.25
236.987	97.25
237.221	89.25
237.455	84.25
237.689	74.25
237.922	82.25
238.156	77.25
238.39	79.25
238.624	74.25
238.858	75.25
239.091	77.25
239.325	90.25
239.559	84.25
239.793	79.25
240.027	86.25
240.26	87.25
240.494	74.25
240.728	80.25
240.961	67.25
241.195	70.25
241.429	75.25
241.662	83.25
241.896	71.25
242.13	80.25
242.363	71.25
242.597	79.25
242.83	56.25
243.064	83.25
243.298	83.25
243.531	70.25
243.765	83.25
243.998	90.25
244.232	76.25
244.465	79.25
244.699	72.25
244.932	73.25
245.166	64.25
245.399	67.25
245.633	83.25
245.866	71.25
246.099	73.25
246.333	82.25
246.566	73.25
246.8	75.25
247.033	71.25
247.266	92.25
247.5	79.25
247.733	82.25
247.966	72.25
248.2	68.25
248.433	74.25
248.666	76.25
248.899	80.25
249.133	81.25
249.366	95.25
249.599	92.25
249.832	91.25
250.066	82.25
250.299	78.25
250.532	59.25
250.765	99.25
250.998	74.25
251.231	68.25
251.465	80.25
251.698	70.25
251.931	67.25
252.164	82.25
252.397	90.25
252.63	86.25
252.863	77.25
253.096	64.25
253.329	66.25
253.562	91.25
253.795	75.25
254.028	87.25
254.261	79.25
254.494	73.25
254.727	82.25
254.96	74.25
255.193	76.25
255.426	88.25
255.659	74.25
255.892	98.25
256.124	78.25
256.357	81.25
256.59	84.25
256.823	81.25
257.056	89.25
257.289	93.25
257.521	91.25
257.754	76.25
257.987	78.25
258.22	86.25
258.452	84.25
258.685	77.25
258.918	78.25
259.151	87.25
259.383	99.25
259.616	80.25
259.849	72.25
260.081	89.25
260.314	72.25
260.547	81.25
260.779	77.25
261.012	75.25
261.244	80.25
261.477	87.25
261.71	98.25
261.942	93.25
262.175	99.25
262.407	80.25
262.64	83.25
262.872	72.25
263.105	86.25
263.337	81.25
263.57	92.25
263.802	82.25
264.035	85.25
264.267	74.25
264.499	60.25
264.732	82.25
264.964	77.25
265.197	87.25
265.429	83.25
265.661	95.25
265.894	88.25
266.126	88.25
266.358	75.25
266.591	89.25
266.823	76.25
267.055	90.25
267.287	85.25
267.52	74.25
267.752	83.25
267.984	87.25
268.216	74.25
268.448	99.25
268.681	86.25
268.913	92.25
269.145	94.25
269.377	90.25
269.609	85.25
269.841	82.25
270.073	78.25
270.306	78.25
270.538	80.25
270.77	92.25
271.002	89.25
271.234	91.25
271.466	76.25
271.698	78.25
271.93	88.25
272.162	75.25
272.394	90.25
272.626	84.25
272.858	71.25
273.09	79.25
273.322	83.25
273.553	87.25
273.785	92.25
274.017	80.25
274.249	88.25
274.481	82.25
274.713	92.25
274.945	82.25
275.176	75.25
275.408	87.25
275.64	96.25
275.872	96.25
276.104	94.25
276.335	88.25
276.567	90.25
276.799	91.25
277.031	98.25
277.262	77.25
277.494	87.25
277.726	75.25
277.957	84.25
278.189	88.25
278.421	88.25
278.652	80.25
278.884	80.25
279.115	91.25
279.347	90.25
279.579	87.25
279.81	86.25
280.042	98.25
280.273	99.25
280.505	83.25
280.736	87.25
280.968	95.25
281.199	83.25
281.431	81.25
281.662	88.25
281.894	96.25
282.125	98.25
282.356	119.25
282.588	135.25
282.819	103.25
283.051	78.25
283.282	88.25
283.513	80.25
283.745	86.25
283.976	100.25
284.207	83.25
284.439	75.25
284.67	82.25
284.901	93.25
285.132	90.25
285.364	91.25
285.595	86.25
285.826	83.25
286.057	85.25
286.288	95.25
286.52	78.25
286.751	87.25
286.982	94.25
287.213	79.25
287.444	86.25
287.675	79.25
287.906	97.25
288.138	92.25
288.369	99.25
288.6	89.25
288.831	97.25
289.062	102.25
289.293	89.25
289.524	90.25
289.755	91.25
289.986	82.25
290.217	94.25
290.448	86.25
290.679	89.25
290.91	90.25
291.141	87.25
291.371	78.25
291.602	82.25
291.833	90.25
292.064	87.25
292.295	89.25
292.526	97.25
292.757	75.25
292.987	73.25
293.218	90.25
293.449	82.25
293.68	88.25
293.91	91.25
294.141	86.25
294.372	68.25
294.603	80.25
294.833	74.25
295.064	74.25
295.295	88.25
295.525	92.25
295.756	90.25
295.987	99.25
296.217	113.25
296.448	99.25
296.679	92.25
296.909	84.25
297.14	104.25
297.37	78.25
297.601	85.25
297.831	81.25
298.062	91.25
298.292	83.25
298.523	94.25
298.753	74.25
298.984	76.25
299.214	80.25
299.445	97.25
299.675	82.25
299.905	98.25
300.136	100.25
300.366	87.25
300.597	98.25
300.827	96.25
301.057	107.25
301.288	107.25
301.518	84.25
301.748	80.25
301.979	88.25
302.209	86.25
302.439	85.25
302.669	96.25
302.9	100.25
303.13	99.25
303.36	99.25
303.59	89.25
303.82	102.25
304.051	108.25
304.281	90.25
304.511	98.25
304.741	81.25
304.971	87.25
305.201	86.25
305.431	83.25
305.661	85.25
305.891	93.25
306.121	88.25
306.352	113.25
306.582	93.25
306.812	96.25
307.042	81.25
307.272	90.25
307.502	86.25
307.731	88.25
307.961	88.25
308.191	83.25
308.421	98.25
308.651	94.25
308.881	99.25
309.111	84.25
309.341	88.25
309.571	96.25
309.8	86.25
310.03	97.25
310.26	82.25
310.49	84.25
310.72	114.25
310.949	93.25
311.179	104.25
311.409	103.25
311.639	115.25
311.868	103.25
312.098	108.25
312.328	92.25
312.557	97.25
312.787	98.25
313.017	100.25
313.246	87.25
313.476	88.25
313.706	95.25
313.935	95.25
314.165	97.25
314.394	108.25
314.624	80.25
314.853	104.25
315.083	95.25
315.312	89.25
315.542	84.25
315.771	93.25
316.001	101.25
316.23	93.25
316.46	95.25
316.689	85.25
316.919	102.25
317.148	84.25
317.377	98.25
317.607	92.25
317.836	99.25
318.065	89.25
318.295	103.25
318.524	86.25
318.753	87.25
318.983	112.25
319.212	94.25
319.441	96.25
319.67	106.25
319.9	83.25
320.129	99.25
320.358	96.25
320.587	97.25
320.816	97.25
321.046	81.25
321.275	89.25
321.504	95.25
321.733	108.25
321.962	106.25
322.191	106.25
322.42	103.25
322.649	113.25
322.878	115.25
323.108	111.25
323.337	124.25
323.566	119.25
323.795	147.25
324.024	190.25
324.253	376.25
324.482	800.25
324.71	1664.25
324.939	2175.25
325.168	812.25
325.397	253.25
325.626	141.25
325.855	135.25
326.084	142.25
326.313	134.25
326.542	159.25
326.77	223.25
326.999	431.25
327.228	955.25
327.457	1733.25
327.686	1352.25
327.914	374.25
328.143	195.25
328.372	146.25
328.6	124.25
328.829	117.25
329.058	122.25
329.287	134.25
329.515	110.25
329.744	105.25
329.972	97.25
330.201	107.25
330.43	118.25
330.658	112.25
330.887	128.25
331.115	103.25
331.344	99.25
331.572	91.25
331.801	102.25
332.03	98.25
332.258	79.25
332.486	97.25
332.715	105.25
332.943	111.25
333.172	98.25
333.4	99.25
333.629	105.25
333.857	94.25
334.085	95.25
334.314	97.25
334.542	82.25
334.771	105.25
334.999	105.25
335.227	82.25
335.455	92.25
335.684	86.25
335.912	93.25
336.14	93.25
336.369	104.25
336.597	94.25
336.825	108.25
337.053	92.25
337.281	95.25
337.51	86.25
337.738	93.25
337.966	88.25
338.194	96.25
338.422	95.25
338.65	79.25
338.878	81.25
339.106	83.25
339.334	100.25
339.562	77.25
339.79	91.25
340.018	92.25
340.246	89.25
340.474	83.25
340.702	93.25
340.93	92.25
341.158	89.25
341.386	102.25
341.614	112.25
341.842	95.25
342.07	83.25
342.298	87.25
342.526	83.25
342.754	87.25
342.981	77.25
343.209	82.25
343.437	101.25
343.665	99.25
343.893	81.25
344.12	114.25
344.348	96.25
344.576	97.25
344.804	83.25
345.031	87.25
345.259	95.25
345.487	67.25
345.714	77.25
345.942	91.25
346.17	93.25
346.397	86.25
346.625	98.25
346.853	90.25
347.08	87.25
347.308	90.25
347.535	98.25
347.763	111.25
347.99	105.25
348.218	97.25
348.445	103.25
348.673	90.25
348.9	98.25
349.128	97.25
349.355	87.25
349.583	104.25
349.81	92.25
350.037	93.25
350.265	104.25
350.492	87.25
350.72	95.25
350.947	113.25
351.174	108.25
351.402	121.25
351.629	110.25
351.856	97.25
352.083	90.25
352.311	99.25
352.538	99.25
352.765	107.25
352.992	109.25
353.22	120.25
353.447	106.25
353.674	106.25
353.901	97.25
354.128	94.25
354.355	79.25
354.583	110.25
354.81	99.25
355.037	93.25
355.264	89.25
355.491	91.25
355.718	94.25
355.945	96.25
356.172	93.25
356.399	101.25
356.626	93.25
356.853	103.25
357.08	89.25
357.307	100.25
357.534	75.25
357.761	95.25
357.988	98.25
358.215	94.25
358.441	101.25
358.668	92.25
358.895	110.25
359.122	86.25
359.349	85.25
359.576	95.25
359.802	94.25
360.029	103.25
360.256	105.25
360.483	87.25
360.709	93.25
360.936	81.25
361.163	90.25
361.39	81.25
361.616	94.25
361.843	90.25
362.07	88.25
362.296	98.25
362.523	94.25
362.749	92.25
362.976	82.25
363.203	91.25
363.429	84.25
363.656	93.25
363.882	96.25
364.109	87.25
364.335	96.25
364.562	80.25
364.788	99.25
365.015	106.25
365.241	80.25
365.468	99.25
365.694	94.25
365.92	82.25
366.147	95.25
366.373	93.25
366.599	75.25
366.826	90.25
367.052	98.25
367.278	91.25
367.505	91.25
367.731	91.25
367.957	95.25
368.184	103.25
368.41	95.25
368.636	110.25
368.862	103.25
369.089	105.25
369.315	98.25
369.541	98.25
369.767	78.25
369.993	90.25
370.219	97.25
370.445	91.25
370.672	71.25
370.898	90.25
371.124	81.25
371.35	83.25
371.576	94.25
371.802	91.25
372.028	100.25
372.254	97.25
372.48	93.25
372.706	91.25
372.932	75.25
373.158	87.25
373.384	82.25
373.61	83.25
373.835	86.25
374.061	80.25
374.287	93.25
374.513	83.25
374.739	88.25
374.965	87.25
375.191	97.25
375.416	84.25
375.642	101.25
375.868	92.25
376.094	94.25
376.319	87.25
376.545	86.25
376.771	93.25
376.997	100.25
377.222	93.25
377.448	74.25
377.674	92.25
377.899	95.25
378.125	71.25
378.35	83.25
378.576	81.25
378.802	95.25
379.027	81.25
379.253	89.25
379.478	77.25
379.704	98.25
379.929	94.25
380.155	75.25
380.38	86.25
380.606	88.25
380.831	98.25
381.057	89.25
381.282	103.25
381.507	98.25
381.733	110.25
381.958	98.25
382.184	97.25
382.409	102.25
382.634	109.25
382.86	110.25
383.085	102.25
383.31	96.25
383.535	106.25
383.761	90.25
383.986	99.25
384.211	82.25
384.436	91.25
384.662	88.25
384.887	96.25
385.112	98.25
385.337	109.25
385.562	112.25
385.787	111.25
386.013	103.25
386.238	106.25
386.463	100.25
386.688	110.25
386.913	104.25
387.138	97.25
387.363	102.25
387.588	99.25
387.813	104.25
388.038	98.25
388.263	111.25
388.488	110.25
388.713	98.25
388.938	90.25
389.163	96.25
389.387	100.25
389.612	103.25
389.837	93.25
390.062	89.25
390.287	83.25
390.512	83.25
390.736	83.25
390.961	69.25
391.186	87.25
391.411	97.25
391.636	95.25
391.86	80.25
392.085	90.25
392.31	94.25
392.534	105.25
392.759	90.25
392.984	90.25
393.208	97.25
393.433	80.25
393.658	102.25
393.882	86.25
394.107	90.25
394.331	103.25
394.556	99.25
394.78	92.25
395.005	83.25
395.229	95.25
395.454	97.25
395.678	97.25
395.903	96.25
396.127	86.25
396.352	68.25
396.576	92.25
396.801	79.25
397.025	95.25
397.249	89.25
397.474	89.25
397.698	94.25
397.922	91.25
398.147	90.25
398.371	89.25
398.595	95.25
398.82	89.25
399.044	88.25
399.268	80.25
399.492	91.25
399.717	84.25
399.941	79.25
400.165	101.25
400.389	97.25
400.613	82.25
400.837	75.25
401.062	86.25
401.286	80.25
401.51	88.25
401.734	90.25
401.958	99.25
402.182	117.25
402.406	143.25
402.63	125.25
402.854	106.25
403.078	94.25
403.302	88.25
403.526	93.25
403.75	95.25
403.974	88.25
404.198	97.25
404.422	90.25
404.645	82.25
404.869	105.25
405.093	79.25
405.317	95.25
405.541	107.25
405.765	91.25
405.988	107.25
406.212	161.25
406.436	214.25
406.66	142.25
406.883	75.25
407.107	90.25
407.331	85.25
407.555	91.25
407.778	89.25
408.002	88.25
408.226	105.25
408.449	93.25
408.673	96.25
408.896	93.25
409.12	91.25
409.344	76.25
409.567	88.25
409.791	94.25
410.014	103.25
410.238	89.25
410.461	106.25
410.685	95.25
410.908	94.25
411.132	100.25
411.355	99.25
411.578	91.25
411.802	93.25
412.025	82.25
412.249	101.25
412.472	96.25
412.695	82.25
412.919	95.25
413.142	81.25
413.365	88.25
413.589	96.25
413.812	91.25
414.035	98.25
414.258	92.25
414.482	90.25
414.705	90.25
414.928	88.25
415.151	94.25
415.374	90.25
415.597	80.25
415.821	79.25
416.044	96.25
416.267	87.25
416.49	79.25
416.713	79.25
416.936	86.25
417.159	95.25
417.382	98.25
417.605	86.25
417.828	94.25
418.051	95.25
418.274	82.25
418.497	70.25
418.72	82.25
418.943	94.25
419.166	76.25
419.389	92.25
419.611	99.25
419.834	97.25
420.057	101.25
420.28	84.25
420.503	81.25
420.726	84.25
420.948	103.25
421.171	81.25
421.394	86.25
421.617	95.25
421.839	94.25
422.062	92.25
422.285	87.25
422.507	107.25
422.73	99.25
422.953	93.25
423.175	98.25
423.398	87.25
423.621	83.25
423.843	98.25
424.066	93.25
424.288	96.25
424.511	101.25
424.733	94.25
424.956	95.25
425.178	88.25
425.401	95.25
425.623	100.25
425.846	82.25
426.068	96.25
426.291	88.25
426.513	91.25
426.735	87.25
426.958	97.25
427.18	96.25
427.402	123.25
427.625	152.25
427.847	121.25
428.069	92.25
428.292	89.25
428.514	98.25
428.736	77.25
428.958	89.25
429.181	100.25
429.403	87.25
429.625	80.25
429.847	96.25
430.069	77.25
430.292	93.25
430.514	95.25
430.736	87.25
430.958	80.25
431.18	73.25
431.402	95.25
431.624	92.25
431.846	92.25
432.068	82.25
432.29	90.25
432.512	88.25
432.734	78.25
432.956	91.25
433.178	91.25
433.4	99.25
433.622	94.25
433.844	91.25
434.066	93.25
434.287	100.25
434.509	107.25
434.731	94.25
434.953	91.25
435.175	86.25
435.397	98.25
435.618	72.25
435.84	109.25
436.062	118.25
436.284	118.25
436.505	97.25
436.727	99.25
436.949	100.25
437.17	86.25
437.392	90.25
437.614	85.25
437.835	112.25
438.057	110.25
438.278	108.25
438.5	98.25
438.721	106.25
438.943	92.25
439.165	83.25
439.386	92.25
439.608	97.25
439.829	92.25
440.05	105.25
440.272	125.25
440.493	99.25
440.715	100.25
440.936	88.25
441.158	84.25
441.379	73.25
441.6	76.25
441.822	97.25
442.043	79.25
442.264	102.25
442.486	96.25
442.707	94.25
442.928	112.25
443.149	132.25
443.371	117.25
443.592	101.25
443.813	106.25
444.034	105.25
444.255	80.25
444.476	98.25
444.698	85.25
444.919	90.25
445.14	125.25
445.361	120.25
445.582	106.25
445.803	120.25
446.024	113.25
446.245	126.25
446.466	110.25
446.687	89.25
446.908	89.25
447.129	87.25
447.35	84.25
447.571	94.25
447.792	97.25
448.013	94.25
448.234	84.25
448.455	89.25
448.675	114.25
448.896	128.25
449.117	96.25
449.338	95.25
449.559	126.25
449.779	125.25
450	83.25
450.221	97.25
450.442	77.25
450.662	100.25
450.883	112.25
451.104	104.25
451.324	74.25
451.545	82.25
451.766	93.25
451.986	99.25
452.207	92.25
452.428	95.25
452.648	95.25
452.869	102.25
453.089	107.25
453.31	130.25
453.53	92.25
453.751	87.25
453.971	90.25
454.192	109.25
454.412	91.25
454.633	85.25
454.853	82.25
455.073	88.25
455.294	92.25
455.514	75.25
455.734	89.25
455.955	103.25
456.175	82.25
456.395	77.25
456.616	87.25
456.836	84.25
457.056	90.25
457.276	77.25
457.497	79.25
457.717	92.25
457.937	80.25
458.157	96.25
458.377	89.25
458.598	104.25
458.818	134.25
459.038	154.25
459.258	112.25
459.478	78.25
459.698	77.25
459.918	89.25
460.138	87.25
460.358	81.25
460.578	93.25
460.798	87.25
461.018	96.25
461.238	94.25
461.458	82.25
461.678	92.25
461.898	89.25
462.118	98.25
462.338	107.25
462.558	87.25
462.777	84.25
462.997	74.25
463.217	87.25
463.437	84.25
463.657	99.25
463.876	87.25
464.096	97.25
464.316	93.25
464.536	93.25
464.755	83.25
464.975	93.25
465.195	147.25
465.414	146.25
465.634	90.25
465.854	87.25
466.073	86.25
466.293	97.25
466.512	89.25
466.732	76.25
466.951	79.25
467.171	84.25
467.391	90.25
467.61	94.25
467.829	100.25
468.049	95.25
468.268	90.25
468.488	82.25
468.707	94.25
468.927	84.25
469.146	86.25
469.365	91.25
469.585	96.25
469.804	75.25
470.023	80.25
470.243	94.25
470.462	104.25
470.681	121.25
470.901	85.25
471.12	87.25
471.339	81.25
471.558	74.25
471.777	82.25
471.997	92.25
472.216	93.25
472.435	88.25
472.654	95.25
472.873	95.25
473.092	96.25
473.311	87.25
473.53	82.25
473.749	97.25
473.968	105.25
474.187	100.25
474.406	105.25
474.625	79.25
474.844	86.25
475.063	75.25
475.282	95.25
475.501	92.25
475.72	102.25
475.939	101.25
476.158	89.25
476.377	74.25
476.596	94.25
476.814	80.25
477.033	91.25
477.252	81.25
477.471	78.25
477.69	80.25
477.908	93.25
478.127	92.25
478.346	89.25
478.564	82.25
478.783	81.25
479.002	100.25
479.22	104.25
479.439	98.25
479.658	98.25
479.876	99.25
480.095	98.25
480.313	91.25
480.532	87.25
480.751	103.25
480.969	89.25
481.188	106.25
481.406	86.25
481.624	82.25
481.843	88.25
482.061	86.25
482.28	84.25
482.498	73.25
482.717	79.25
482.935	85.25
483.153	86.25
483.372	89.25
483.59	99.25
483.808	86.25
484.027	100.25
484.245	91.25
484.463	74.25
484.681	96.25
484.9	92.25
485.118	95.25
485.336	93.25
485.554	99.25
485.772	106.25
485.99	98.25
486.209	111.25
486.427	103.25
486.645	106.25
486.863	95.25
487.081	91.25
487.299	103.25
487.517	91.25
487.735	92.25
487.953	104.25
488.171	101.25
488.389	103.25
488.607	123.25
488.825	92.25
489.043	98.25
489.261	89.25
489.479	88.25
489.696	83.25
489.914	94.25
490.132	97.25
490.35	100.25
490.568	87.25
490.786	93.25
491.003	90.25
491.221	91.25
491.439	88.25
491.657	94.25
491.874	94.25
492.092	92.25
492.31	87.25
492.527	88.25
492.745	81.25
492.963	95.25
493.18	90.25
493.398	86.25
493.615	86.25
493.833	103.25
494.05	90.25
494.268	91.25
494.485	82.25
494.703	74.25
494.92	82.25
495.138	96.25
495.355	89.25
495.573	87.25
495.79	91.25
496.008	89.25
496.225	82.25
496.442	81.25
496.66	110.25
496.877	80.25
497.094	97.25
497.312	90.25
497.529	91.25
497.746	79.25
497.963	81.25
498.181	97.25
498.398	107.25
498.615	113.25
498.832	97.25
499.049	100.25
499.267	111.25
499.484	100.25
499.701	87.25
499.918	89.25
500.135	94.25
500.352	87.25
500.569	96.25
500.786	92.25
501.003	83.25
501.22	96.25
501.437	103.25
501.654	75.25
501.871	108.25
502.088	97.25
502.305	91.25
502.522	99.25
502.739	95.25
502.956	80.25
503.172	98.25
503.389	110.25
503.606	99.25
503.823	108.25
504.04	87.25
504.256	80.25
504.473	93.25
504.69	103.25
504.907	97.25
505.123	91.25
505.34	83.25
505.557	87.25
505.773	96.25
505.99	88.25
506.207	86.25
506.423	79.25
506.64	95.25
506.856	78.25
507.073	86.25
507.289	92.25
507.506	90.25
507.722	116.25
507.939	96.25
508.155	106.25
508.372	91.25
508.588	86.25
508.805	92.25
509.021	97.25
509.238	90.25
509.454	103.25
509.67	107.25
509.887	115.25
510.103	132.25
510.319	216.25
510.536	742.25
510.752	2290.25
510.968	620.25
511.184	142.25
511.401	113.25
511.617	91.25
511.833	91.25
512.049	82.25
512.265	96.25
512.481	94.25
512.698	90.25
512.914	95.25
513.13	78.25
513.346	86.25
513.562	84.25
513.778	105.25
513.994	96.25
514.21	92.25
514.426	116.25
514.642	134.25
514.858	128.25
515.074	155.25
515.29	426.25
515.506	1354.25
515.721	481.25
515.937	142.25
516.153	112.25
516.369	98.25
