Data from Uncirc_1995_H10_HRD10591_00042.txt Node
Date: Wed Jan 03 11:35:42 EST 2024
User: Yrep
Spectrometer: HR+D1059
Trigger mode: 1
Integration Time (sec): 1.000000E-1
Scans to average: 1
Electric dark correction enabled: true
Nonlinearity correction enabled: false
Boxcar width: 0
XAxis mode: Wavelengths
Number of Pixels in Spectrum: 2048
>>>>>Begin Spectral Data<<<<<
223.165	-18.62
223.4	-18.62
223.635	-18.62
223.869	-15.62
224.104	-16.62
224.338	-18.62
224.573	-27.62
224.808	-3.62
225.042	-14.62
225.277	1.38
225.511	-4.62
225.746	7.38
225.98	15.38
226.215	6.38
226.449	8.38
226.683	13.38
226.918	30.38
227.152	37.38
227.387	35.38
227.621	30.38
227.856	43.38
228.09	35.38
228.324	38.38
228.559	56.38
228.793	60.38
229.027	58.38
229.262	50.38
229.496	70.38
229.73	73.38
229.964	76.38
230.199	67.38
230.433	71.38
230.667	65.38
230.901	88.38
231.136	80.38
231.37	80.38
231.604	70.38
231.838	79.38
232.072	70.38
232.306	72.38
232.541	75.38
232.775	70.38
233.009	74.38
233.243	71.38
233.477	80.38
233.711	88.38
233.945	75.38
234.179	85.38
234.413	78.38
234.647	76.38
234.881	74.38
235.115	83.38
235.349	64.38
235.583	62.38
235.817	91.38
236.051	76.38
236.285	94.38
236.519	83.38
236.753	86.38
236.987	62.38
237.221	71.38
237.455	89.38
237.689	79.38
237.922	83.38
238.156	61.38
238.39	71.38
238.624	75.38
238.858	77.38
239.091	64.38
239.325	79.38
239.559	79.38
239.793	95.38
240.027	57.38
240.26	81.38
240.494	57.38
240.728	78.38
240.961	73.38
241.195	73.38
241.429	76.38
241.662	68.38
241.896	81.38
242.13	73.38
242.363	84.38
242.597	81.38
242.83	83.38
243.064	76.38
243.298	84.38
243.531	70.38
243.765	72.38
243.998	71.38
244.232	70.38
244.465	64.38
244.699	68.38
244.932	51.38
245.166	81.38
245.399	71.38
245.633	80.38
245.866	79.38
246.099	85.38
246.333	71.38
246.566	76.38
246.8	77.38
247.033	77.38
247.266	64.38
247.5	68.38
247.733	75.38
247.966	82.38
248.2	76.38
248.433	71.38
248.666	64.38
248.899	83.38
249.133	85.38
249.366	94.38
249.599	92.38
249.832	76.38
250.066	87.38
250.299	82.38
250.532	91.38
250.765	73.38
250.998	85.38
251.231	70.38
251.465	84.38
251.698	70.38
251.931	84.38
252.164	88.38
252.397	73.38
252.63	90.38
252.863	84.38
253.096	83.38
253.329	66.38
253.562	64.38
253.795	67.38
254.028	81.38
254.261	79.38
254.494	77.38
254.727	73.38
254.96	79.38
255.193	80.38
255.426	70.38
255.659	68.38
255.892	80.38
256.124	70.38
256.357	81.38
256.59	72.38
256.823	95.38
257.056	89.38
257.289	78.38
257.521	90.38
257.754	80.38
257.987	78.38
258.22	71.38
258.452	76.38
258.685	75.38
258.918	85.38
259.151	94.38
259.383	69.38
259.616	78.38
259.849	82.38
260.081	89.38
260.314	78.38
260.547	72.38
260.779	79.38
261.012	77.38
261.244	55.38
261.477	103.38
261.71	93.38
261.942	107.38
262.175	110.38
262.407	89.38
262.64	77.38
262.872	77.38
263.105	86.38
263.337	90.38
263.57	96.38
263.802	73.38
264.035	78.38
264.267	64.38
264.499	76.38
264.732	79.38
264.964	81.38
265.197	87.38
265.429	92.38
265.661	82.38
265.894	76.38
266.126	88.38
266.358	79.38
266.591	87.38
266.823	79.38
267.055	82.38
267.287	61.38
267.52	69.38
267.752	78.38
267.984	83.38
268.216	71.38
268.448	76.38
268.681	79.38
268.913	62.38
269.145	77.38
269.377	78.38
269.609	81.38
269.841	73.38
270.073	92.38
270.306	94.38
270.538	83.38
270.77	75.38
271.002	83.38
271.234	78.38
271.466	85.38
271.698	80.38
271.93	88.38
272.162	87.38
272.394	85.38
272.626	71.38
272.858	65.38
273.09	81.38
273.322	88.38
273.553	83.38
273.785	82.38
274.017	72.38
274.249	73.38
274.481	96.38
274.713	78.38
274.945	86.38
275.176	83.38
275.408	79.38
275.64	81.38
275.872	91.38
276.104	83.38
276.335	83.38
276.567	93.38
276.799	96.38
277.031	80.38
277.262	92.38
277.494	94.38
277.726	85.38
277.957	90.38
278.189	77.38
278.421	83.38
278.652	86.38
278.884	88.38
279.115	83.38
279.347	91.38
279.579	76.38
279.81	69.38
280.042	80.38
280.273	75.38
280.505	90.38
280.736	79.38
280.968	75.38
281.199	70.38
281.431	91.38
281.662	87.38
281.894	88.38
282.125	105.38
282.356	123.38
282.588	130.38
282.819	96.38
283.051	79.38
283.282	84.38
283.513	91.38
283.745	91.38
283.976	78.38
284.207	86.38
284.439	83.38
284.67	75.38
284.901	85.38
285.132	74.38
285.364	87.38
285.595	87.38
285.826	99.38
286.057	80.38
286.288	89.38
286.52	77.38
286.751	79.38
286.982	78.38
287.213	81.38
287.444	81.38
287.675	84.38
287.906	102.38
288.138	76.38
288.369	94.38
288.6	95.38
288.831	80.38
289.062	96.38
289.293	82.38
289.524	88.38
289.755	83.38
289.986	93.38
290.217	88.38
290.448	89.38
290.679	77.38
290.91	87.38
291.141	80.38
291.371	95.38
291.602	65.38
291.833	80.38
292.064	71.38
292.295	81.38
292.526	77.38
292.757	75.38
292.987	67.38
293.218	80.38
293.449	85.38
293.68	77.38
293.91	81.38
294.141	89.38
294.372	91.38
294.603	83.38
294.833	93.38
295.064	94.38
295.295	71.38
295.525	81.38
295.756	93.38
295.987	105.38
296.217	125.38
296.448	120.38
296.679	75.38
296.909	92.38
297.14	81.38
297.37	89.38
297.601	86.38
297.831	93.38
298.062	88.38
298.292	92.38
298.523	92.38
298.753	87.38
298.984	89.38
299.214	73.38
299.445	90.38
299.675	91.38
299.905	97.38
300.136	80.38
300.366	91.38
300.597	93.38
300.827	95.38
301.057	108.38
301.288	97.38
301.518	82.38
301.748	81.38
301.979	97.38
302.209	72.38
302.439	79.38
302.669	85.38
302.9	74.38
303.13	91.38
303.36	91.38
303.59	96.38
303.82	96.38
304.051	103.38
304.281	89.38
304.511	89.38
304.741	98.38
304.971	90.38
305.201	81.38
305.431	88.38
305.661	94.38
305.891	88.38
306.121	87.38
306.352	92.38
306.582	105.38
306.812	85.38
307.042	100.38
307.272	87.38
307.502	91.38
307.731	96.38
307.961	92.38
308.191	96.38
308.421	90.38
308.651	86.38
308.881	97.38
309.111	87.38
309.341	92.38
309.571	96.38
309.8	93.38
310.03	102.38
310.26	83.38
310.49	73.38
310.72	102.38
310.949	81.38
311.179	98.38
311.409	100.38
311.639	99.38
311.868	105.38
312.098	88.38
312.328	88.38
312.557	103.38
312.787	89.38
313.017	87.38
313.246	87.38
313.476	85.38
313.706	102.38
313.935	103.38
314.165	88.38
314.394	103.38
314.624	99.38
314.853	90.38
315.083	92.38
315.312	77.38
315.542	86.38
315.771	81.38
316.001	93.38
316.23	87.38
316.46	74.38
316.689	96.38
316.919	92.38
317.148	80.38
317.377	96.38
317.607	83.38
317.836	93.38
318.065	86.38
318.295	97.38
318.524	90.38
318.753	86.38
318.983	87.38
319.212	94.38
319.441	97.38
319.67	93.38
319.9	112.38
320.129	111.38
320.358	84.38
320.587	89.38
320.816	87.38
321.046	103.38
321.275	85.38
321.504	93.38
321.733	99.38
321.962	96.38
322.191	113.38
322.42	97.38
322.649	104.38
322.878	99.38
323.108	109.38
323.337	132.38
323.566	121.38
323.795	148.38
324.024	196.38
324.253	392.38
324.482	819.38
324.71	1678.38
324.939	2217.38
325.168	809.38
325.397	231.38
325.626	151.38
325.855	136.38
326.084	126.38
326.313	124.38
326.542	149.38
326.77	213.38
326.999	461.38
327.228	933.38
327.457	1722.38
327.686	1361.38
327.914	342.38
328.143	187.38
328.372	147.38
328.6	123.38
328.829	107.38
329.058	112.38
329.287	121.38
329.515	113.38
329.744	101.38
329.972	119.38
330.201	94.38
330.43	110.38
330.658	107.38
330.887	124.38
331.115	117.38
331.344	105.38
331.572	112.38
331.801	100.38
332.03	104.38
332.258	105.38
332.486	80.38
332.715	91.38
332.943	103.38
333.172	83.38
333.4	94.38
333.629	105.38
333.857	112.38
334.085	95.38
334.314	89.38
334.542	101.38
334.771	99.38
334.999	78.38
335.227	90.38
335.455	82.38
335.684	81.38
335.912	67.38
336.14	88.38
336.369	99.38
336.597	103.38
336.825	86.38
337.053	116.38
337.281	97.38
337.51	88.38
337.738	92.38
337.966	89.38
338.194	106.38
338.422	98.38
338.65	94.38
338.878	93.38
339.106	83.38
339.334	82.38
339.562	95.38
339.79	97.38
340.018	85.38
340.246	90.38
340.474	86.38
340.702	96.38
340.93	94.38
341.158	87.38
341.386	79.38
341.614	95.38
341.842	84.38
342.07	93.38
342.298	93.38
342.526	86.38
342.754	83.38
342.981	88.38
343.209	88.38
343.437	93.38
343.665	93.38
343.893	77.38
344.12	92.38
344.348	100.38
344.576	79.38
344.804	88.38
345.031	80.38
345.259	86.38
345.487	96.38
345.714	86.38
345.942	95.38
346.17	86.38
346.397	90.38
346.625	93.38
346.853	89.38
347.08	92.38
347.308	99.38
347.535	95.38
347.763	95.38
347.99	104.38
348.218	105.38
348.445	102.38
348.673	96.38
348.9	87.38
349.128	86.38
349.355	88.38
349.583	106.38
349.81	97.38
350.037	101.38
350.265	84.38
350.492	94.38
350.72	96.38
350.947	99.38
351.174	102.38
351.402	101.38
351.629	111.38
351.856	90.38
352.083	92.38
352.311	100.38
352.538	101.38
352.765	103.38
352.992	104.38
353.22	112.38
353.447	113.38
353.674	114.38
353.901	89.38
354.128	106.38
354.355	93.38
354.583	105.38
354.81	91.38
355.037	81.38
355.264	85.38
355.491	89.38
355.718	90.38
355.945	89.38
356.172	93.38
356.399	97.38
356.626	81.38
356.853	70.38
357.08	79.38
357.307	95.38
357.534	88.38
357.761	83.38
357.988	73.38
358.215	87.38
358.441	87.38
358.668	105.38
358.895	94.38
359.122	91.38
359.349	88.38
359.576	82.38
359.802	101.38
360.029	99.38
360.256	89.38
360.483	87.38
360.709	85.38
360.936	86.38
361.163	93.38
361.39	103.38
361.616	87.38
361.843	83.38
362.07	88.38
362.296	92.38
362.523	93.38
362.749	95.38
362.976	80.38
363.203	99.38
363.429	82.38
363.656	83.38
363.882	87.38
364.109	91.38
364.335	94.38
364.562	80.38
364.788	90.38
365.015	91.38
365.241	89.38
365.468	101.38
365.694	109.38
365.92	97.38
366.147	95.38
366.373	75.38
366.599	81.38
366.826	76.38
367.052	79.38
367.278	90.38
367.505	90.38
367.731	93.38
367.957	96.38
368.184	99.38
368.41	101.38
368.636	91.38
368.862	111.38
369.089	96.38
369.315	81.38
369.541	83.38
369.767	100.38
369.993	88.38
370.219	89.38
370.445	77.38
370.672	71.38
370.898	95.38
371.124	84.38
371.35	86.38
371.576	94.38
371.802	84.38
372.028	73.38
372.254	88.38
372.48	76.38
372.706	87.38
372.932	103.38
373.158	80.38
373.384	100.38
373.61	79.38
373.835	90.38
374.061	75.38
374.287	94.38
374.513	93.38
374.739	85.38
374.965	100.38
375.191	81.38
375.416	72.38
375.642	107.38
375.868	77.38
376.094	77.38
376.319	97.38
376.545	100.38
376.771	92.38
376.997	76.38
377.222	83.38
377.448	92.38
377.674	90.38
377.899	92.38
378.125	73.38
378.35	81.38
378.576	93.38
378.802	80.38
379.027	78.38
379.253	88.38
379.478	79.38
379.704	95.38
379.929	96.38
380.155	91.38
380.38	86.38
380.606	98.38
380.831	89.38
381.057	94.38
381.282	85.38
381.507	89.38
381.733	96.38
381.958	90.38
382.184	96.38
382.409	94.38
382.634	100.38
382.86	103.38
383.085	108.38
383.31	89.38
383.535	97.38
383.761	93.38
383.986	90.38
384.211	97.38
384.436	90.38
384.662	111.38
384.887	107.38
385.112	102.38
385.337	104.38
385.562	101.38
385.787	103.38
386.013	109.38
386.238	120.38
386.463	108.38
386.688	113.38
386.913	88.38
387.138	96.38
387.363	95.38
387.588	96.38
387.813	97.38
388.038	108.38
388.263	103.38
388.488	107.38
388.713	87.38
388.938	95.38
389.163	92.38
389.387	114.38
389.612	83.38
389.837	80.38
390.062	90.38
390.287	96.38
390.512	71.38
390.736	94.38
390.961	100.38
391.186	91.38
391.411	86.38
391.636	88.38
391.86	88.38
392.085	97.38
392.31	94.38
392.534	88.38
392.759	74.38
392.984	87.38
393.208	72.38
393.433	81.38
393.658	93.38
393.882	95.38
394.107	89.38
394.331	73.38
394.556	71.38
394.78	89.38
395.005	102.38
395.229	78.38
395.454	89.38
395.678	93.38
395.903	78.38
396.127	86.38
396.352	85.38
396.576	74.38
396.801	83.38
397.025	80.38
397.249	91.38
397.474	87.38
397.698	81.38
397.922	79.38
398.147	92.38
398.371	88.38
398.595	75.38
398.82	89.38
399.044	93.38
399.268	80.38
399.492	94.38
399.717	84.38
399.941	83.38
400.165	106.38
400.389	83.38
400.613	77.38
400.837	97.38
401.062	87.38
401.286	84.38
401.51	88.38
401.734	102.38
401.958	109.38
402.182	107.38
402.406	145.38
402.63	118.38
402.854	94.38
403.078	91.38
403.302	79.38
403.526	80.38
403.75	85.38
403.974	77.38
404.198	78.38
404.422	94.38
404.645	78.38
404.869	99.38
405.093	80.38
405.317	95.38
405.541	98.38
405.765	93.38
405.988	117.38
406.212	167.38
406.436	217.38
406.66	141.38
406.883	111.38
407.107	79.38
407.331	91.38
407.555	89.38
407.778	93.38
408.002	90.38
408.226	77.38
408.449	93.38
408.673	101.38
408.896	85.38
409.12	93.38
409.344	91.38
409.567	84.38
409.791	94.38
410.014	104.38
410.238	101.38
410.461	81.38
410.685	83.38
410.908	92.38
411.132	119.38
411.355	93.38
411.578	96.38
411.802	85.38
412.025	96.38
412.249	94.38
412.472	96.38
412.695	91.38
412.919	77.38
413.142	77.38
413.365	88.38
413.589	83.38
413.812	89.38
414.035	91.38
414.258	83.38
414.482	95.38
414.705	87.38
414.928	80.38
415.151	89.38
415.374	88.38
415.597	97.38
415.821	93.38
416.044	72.38
416.267	88.38
416.49	81.38
416.713	93.38
416.936	78.38
417.159	81.38
417.382	80.38
417.605	100.38
417.828	100.38
418.051	86.38
418.274	90.38
418.497	84.38
418.72	92.38
418.943	99.38
419.166	80.38
419.389	75.38
419.611	70.38
419.834	82.38
420.057	97.38
420.28	92.38
420.503	81.38
420.726	91.38
420.948	94.38
421.171	97.38
421.394	87.38
421.617	97.38
421.839	85.38
422.062	75.38
422.285	103.38
422.507	108.38
422.73	92.38
422.953	88.38
423.175	80.38
423.398	95.38
423.621	80.38
423.843	92.38
424.066	80.38
424.288	88.38
424.511	86.38
424.733	80.38
424.956	97.38
425.178	93.38
425.401	84.38
425.623	90.38
425.846	73.38
426.068	95.38
426.291	80.38
426.513	89.38
426.735	86.38
426.958	87.38
427.18	101.38
427.402	147.38
427.625	149.38
427.847	108.38
428.069	103.38
428.292	87.38
428.514	75.38
428.736	89.38
428.958	88.38
429.181	86.38
429.403	94.38
429.625	86.38
429.847	80.38
430.069	93.38
430.292	86.38
430.514	87.38
430.736	81.38
430.958	97.38
431.18	95.38
431.402	84.38
431.624	91.38
431.846	83.38
432.068	92.38
432.29	92.38
432.512	99.38
432.734	83.38
432.956	87.38
433.178	92.38
433.4	93.38
433.622	81.38
433.844	84.38
434.066	86.38
434.287	101.38
434.509	89.38
434.731	81.38
434.953	81.38
435.175	76.38
435.397	86.38
435.618	94.38
435.84	96.38
436.062	113.38
436.284	116.38
436.505	95.38
436.727	87.38
436.949	97.38
437.17	88.38
437.392	104.38
437.614	99.38
437.835	92.38
438.057	113.38
438.278	88.38
438.5	102.38
438.721	114.38
438.943	97.38
439.165	73.38
439.386	75.38
439.608	84.38
439.829	81.38
440.05	123.38
440.272	124.38
440.493	91.38
440.715	90.38
440.936	90.38
441.158	98.38
441.379	91.38
441.6	94.38
441.822	86.38
442.043	88.38
442.264	112.38
442.486	92.38
442.707	74.38
442.928	101.38
443.149	128.38
443.371	125.38
443.592	106.38
443.813	110.38
444.034	90.38
444.255	108.38
444.476	87.38
444.698	82.38
444.919	81.38
445.14	119.38
445.361	101.38
445.582	123.38
445.803	114.38
446.024	110.38
446.245	118.38
446.466	113.38
446.687	95.38
446.908	76.38
447.129	73.38
447.35	77.38
447.571	83.38
447.792	95.38
448.013	93.38
448.234	102.38
448.455	74.38
448.675	100.38
448.896	107.38
449.117	87.38
449.338	84.38
449.559	109.38
449.779	132.38
450	90.38
450.221	84.38
450.442	91.38
450.662	98.38
450.883	99.38
451.104	102.38
451.324	92.38
451.545	84.38
451.766	89.38
451.986	89.38
452.207	85.38
452.428	90.38
452.648	80.38
452.869	91.38
453.089	120.38
453.31	105.38
453.53	89.38
453.751	89.38
453.971	117.38
454.192	94.38
454.412	92.38
454.633	72.38
454.853	86.38
455.073	82.38
455.294	86.38
455.514	95.38
455.734	83.38
455.955	83.38
456.175	85.38
456.395	88.38
456.616	78.38
456.836	66.38
457.056	80.38
457.276	80.38
457.497	82.38
457.717	62.38
457.937	65.38
458.157	87.38
458.377	95.38
458.598	101.38
458.818	155.38
459.038	147.38
459.258	79.38
459.478	84.38
459.698	78.38
459.918	93.38
460.138	69.38
460.358	84.38
460.578	64.38
460.798	68.38
461.018	89.38
461.238	78.38
461.458	87.38
461.678	83.38
461.898	85.38
462.118	79.38
462.338	97.38
462.558	86.38
462.777	72.38
462.997	81.38
463.217	87.38
463.437	77.38
463.657	74.38
463.876	79.38
464.096	87.38
464.316	86.38
464.536	84.38
464.755	80.38
464.975	89.38
465.195	144.38
465.414	147.38
465.634	91.38
465.854	88.38
466.073	86.38
466.293	93.38
466.512	85.38
466.732	80.38
466.951	84.38
467.171	86.38
467.391	93.38
467.61	83.38
467.829	101.38
468.049	91.38
468.268	93.38
468.488	92.38
468.707	75.38
468.927	81.38
469.146	97.38
469.365	99.38
469.585	80.38
469.804	102.38
470.023	102.38
470.243	82.38
470.462	97.38
470.681	108.38
470.901	88.38
471.12	89.38
471.339	75.38
471.558	77.38
471.777	81.38
471.997	91.38
472.216	92.38
472.435	91.38
472.654	84.38
472.873	79.38
473.092	78.38
473.311	90.38
473.53	79.38
473.749	87.38
473.968	89.38
474.187	102.38
474.406	102.38
474.625	95.38
474.844	78.38
475.063	104.38
475.282	88.38
475.501	90.38
475.72	99.38
475.939	97.38
476.158	83.38
476.377	92.38
476.596	100.38
476.814	95.38
477.033	99.38
477.252	97.38
477.471	85.38
477.69	78.38
477.908	76.38
478.127	88.38
478.346	95.38
478.564	100.38
478.783	103.38
479.002	93.38
479.22	91.38
479.439	87.38
479.658	102.38
479.876	107.38
480.095	67.38
480.313	81.38
480.532	87.38
480.751	85.38
480.969	90.38
481.188	78.38
481.406	80.38
481.624	97.38
481.843	101.38
482.061	80.38
482.28	77.38
482.498	91.38
482.717	103.38
482.935	88.38
483.153	88.38
483.372	87.38
483.59	100.38
483.808	95.38
484.027	93.38
484.245	80.38
484.463	89.38
484.681	103.38
484.9	103.38
485.118	97.38
485.336	78.38
485.554	91.38
485.772	88.38
485.99	109.38
486.209	91.38
486.427	112.38
486.645	92.38
486.863	113.38
487.081	109.38
487.299	103.38
487.517	91.38
487.735	79.38
487.953	94.38
488.171	87.38
488.389	108.38
488.607	99.38
488.825	91.38
489.043	98.38
489.261	83.38
489.479	92.38
489.696	83.38
489.914	93.38
490.132	72.38
490.35	84.38
490.568	91.38
490.786	91.38
491.003	93.38
491.221	87.38
491.439	94.38
491.657	92.38
491.874	90.38
492.092	94.38
492.31	92.38
492.527	89.38
492.745	98.38
492.963	82.38
493.18	105.38
493.398	94.38
493.615	89.38
493.833	94.38
494.05	92.38
494.268	71.38
494.485	87.38
494.703	81.38
494.92	81.38
495.138	89.38
495.355	94.38
495.573	93.38
495.79	83.38
496.008	85.38
496.225	76.38
496.442	88.38
496.66	81.38
496.877	72.38
497.094	92.38
497.312	95.38
497.529	83.38
497.746	90.38
497.963	93.38
498.181	92.38
498.398	110.38
498.615	116.38
498.832	105.38
499.049	101.38
499.267	73.38
499.484	96.38
499.701	95.38
499.918	101.38
500.135	88.38
500.352	88.38
500.569	92.38
500.786	82.38
501.003	90.38
501.22	89.38
501.437	94.38
501.654	100.38
501.871	99.38
502.088	86.38
502.305	90.38
502.522	83.38
502.739	88.38
502.956	96.38
503.172	87.38
503.389	95.38
503.606	103.38
503.823	104.38
504.04	91.38
504.256	94.38
504.473	87.38
504.69	81.38
504.907	93.38
505.123	99.38
505.34	90.38
505.557	90.38
505.773	90.38
505.99	88.38
506.207	80.38
506.423	87.38
506.64	83.38
506.856	88.38
507.073	75.38
507.289	77.38
507.506	108.38
507.722	113.38
507.939	103.38
508.155	88.38
508.372	86.38
508.588	87.38
508.805	86.38
509.021	95.38
509.238	100.38
509.454	98.38
509.67	107.38
509.887	107.38
510.103	107.38
510.319	218.38
510.536	779.38
510.752	2482.38
510.968	665.38
511.184	155.38
511.401	111.38
511.617	93.38
511.833	91.38
512.049	98.38
512.265	95.38
512.481	97.38
512.698	86.38
512.914	77.38
513.13	92.38
513.346	86.38
513.562	93.38
513.778	92.38
513.994	90.38
514.21	101.38
514.426	100.38
514.642	147.38
514.858	110.38
515.074	171.38
515.29	451.38
515.506	1461.38
515.721	531.38
515.937	143.38
516.153	96.38
516.369	80.38
516.585	99.38
