Data from Uncirc_1995_H10_HRD10591_00024.txt Node
Date: Wed Jan 03 11:35:38 EST 2024
User: Yrep
Spectrometer: HR+D1059
Trigger mode: 1
Integration Time (sec): 1.000000E-1
Scans to average: 1
Electric dark correction enabled: true
Nonlinearity correction enabled: false
Boxcar width: 0
XAxis mode: Wavelengths
Number of Pixels in Spectrum: 2048
>>>>>Begin Spectral Data<<<<<
223.165	-11.44
223.4	-11.44
223.635	-11.44
223.869	-14.44
224.104	-30.44
224.338	-24.44
224.573	-20.44
224.808	-8.44
225.042	12.56
225.277	5.56
225.511	0.56
225.746	-6.44
225.98	7.56
226.215	-8.44
226.449	18.56
226.683	21.56
226.918	26.56
227.152	31.56
227.387	39.56
227.621	44.56
227.856	54.56
228.09	53.56
228.324	60.56
228.559	51.56
228.793	66.56
229.027	77.56
229.262	68.56
229.496	85.56
229.73	83.56
229.964	81.56
230.199	67.56
230.433	75.56
230.667	74.56
230.901	86.56
231.136	97.56
231.37	76.56
231.604	83.56
231.838	93.56
232.072	72.56
232.306	77.56
232.541	76.56
232.775	73.56
233.009	87.56
233.243	96.56
233.477	77.56
233.711	82.56
233.945	79.56
234.179	71.56
234.413	89.56
234.647	77.56
234.881	72.56
235.115	67.56
235.349	78.56
235.583	99.56
235.817	89.56
236.051	97.56
236.285	85.56
236.519	89.56
236.753	81.56
236.987	86.56
237.221	70.56
237.455	88.56
237.689	75.56
237.922	81.56
238.156	73.56
238.39	78.56
238.624	87.56
238.858	93.56
239.091	77.56
239.325	78.56
239.559	83.56
239.793	78.56
240.027	90.56
240.26	81.56
240.494	87.56
240.728	82.56
240.961	86.56
241.195	77.56
241.429	81.56
241.662	85.56
241.896	84.56
242.13	83.56
242.363	90.56
242.597	90.56
242.83	92.56
243.064	86.56
243.298	71.56
243.531	86.56
243.765	81.56
243.998	94.56
244.232	73.56
244.465	83.56
244.699	78.56
244.932	91.56
245.166	82.56
245.399	70.56
245.633	73.56
245.866	73.56
246.099	87.56
246.333	86.56
246.566	83.56
246.8	74.56
247.033	77.56
247.266	86.56
247.5	98.56
247.733	86.56
247.966	83.56
248.2	86.56
248.433	64.56
248.666	83.56
248.899	81.56
249.133	91.56
249.366	89.56
249.599	111.56
249.832	79.56
250.066	80.56
250.299	75.56
250.532	89.56
250.765	90.56
250.998	77.56
251.231	100.56
251.465	73.56
251.698	69.56
251.931	81.56
252.164	83.56
252.397	86.56
252.63	84.56
252.863	78.56
253.096	91.56
253.329	81.56
253.562	94.56
253.795	80.56
254.028	96.56
254.261	81.56
254.494	84.56
254.727	108.56
254.96	88.56
255.193	81.56
255.426	79.56
255.659	90.56
255.892	80.56
256.124	82.56
256.357	79.56
256.59	60.56
256.823	85.56
257.056	93.56
257.289	85.56
257.521	91.56
257.754	75.56
257.987	83.56
258.22	96.56
258.452	89.56
258.685	78.56
258.918	87.56
259.151	92.56
259.383	81.56
259.616	76.56
259.849	82.56
260.081	91.56
260.314	91.56
260.547	80.56
260.779	73.56
261.012	75.56
261.244	93.56
261.477	84.56
261.71	85.56
261.942	90.56
262.175	95.56
262.407	87.56
262.64	84.56
262.872	95.56
263.105	89.56
263.337	79.56
263.57	96.56
263.802	89.56
264.035	92.56
264.267	91.56
264.499	100.56
264.732	86.56
264.964	104.56
265.197	87.56
265.429	88.56
265.661	79.56
265.894	90.56
266.126	88.56
266.358	101.56
266.591	94.56
266.823	84.56
267.055	87.56
267.287	79.56
267.52	99.56
267.752	79.56
267.984	80.56
268.216	83.56
268.448	95.56
268.681	79.56
268.913	67.56
269.145	81.56
269.377	89.56
269.609	84.56
269.841	79.56
270.073	101.56
270.306	88.56
270.538	86.56
270.77	89.56
271.002	94.56
271.234	90.56
271.466	100.56
271.698	87.56
271.93	106.56
272.162	98.56
272.394	93.56
272.626	85.56
272.858	71.56
273.09	84.56
273.322	76.56
273.553	90.56
273.785	87.56
274.017	90.56
274.249	98.56
274.481	78.56
274.713	85.56
274.945	87.56
275.176	74.56
275.408	97.56
275.64	100.56
275.872	87.56
276.104	84.56
276.335	83.56
276.567	103.56
276.799	106.56
277.031	98.56
277.262	96.56
277.494	81.56
277.726	94.56
277.957	92.56
278.189	78.56
278.421	97.56
278.652	76.56
278.884	86.56
279.115	94.56
279.347	95.56
279.579	83.56
279.81	84.56
280.042	86.56
280.273	87.56
280.505	93.56
280.736	86.56
280.968	93.56
281.199	93.56
281.431	86.56
281.662	109.56
281.894	99.56
282.125	94.56
282.356	107.56
282.588	145.56
282.819	115.56
283.051	91.56
283.282	73.56
283.513	91.56
283.745	93.56
283.976	88.56
284.207	98.56
284.439	86.56
284.67	98.56
284.901	106.56
285.132	87.56
285.364	91.56
285.595	89.56
285.826	87.56
286.057	94.56
286.288	85.56
286.52	83.56
286.751	86.56
286.982	84.56
287.213	76.56
287.444	98.56
287.675	89.56
287.906	98.56
288.138	85.56
288.369	95.56
288.6	93.56
288.831	99.56
289.062	94.56
289.293	97.56
289.524	93.56
289.755	102.56
289.986	82.56
290.217	82.56
290.448	91.56
290.679	90.56
290.91	91.56
291.141	98.56
291.371	76.56
291.602	83.56
291.833	87.56
292.064	80.56
292.295	92.56
292.526	89.56
292.757	108.56
292.987	95.56
293.218	93.56
293.449	97.56
293.68	98.56
293.91	82.56
294.141	99.56
294.372	80.56
294.603	100.56
294.833	86.56
295.064	89.56
295.295	91.56
295.525	92.56
295.756	108.56
295.987	103.56
296.217	131.56
296.448	113.56
296.679	93.56
296.909	90.56
297.14	104.56
297.37	91.56
297.601	95.56
297.831	105.56
298.062	93.56
298.292	93.56
298.523	87.56
298.753	100.56
298.984	83.56
299.214	87.56
299.445	87.56
299.675	91.56
299.905	104.56
300.136	90.56
300.366	87.56
300.597	92.56
300.827	93.56
301.057	102.56
301.288	106.56
301.518	95.56
301.748	97.56
301.979	108.56
302.209	100.56
302.439	104.56
302.669	79.56
302.9	106.56
303.13	98.56
303.36	85.56
303.59	98.56
303.82	104.56
304.051	87.56
304.281	95.56
304.511	97.56
304.741	88.56
304.971	79.56
305.201	84.56
305.431	83.56
305.661	83.56
305.891	91.56
306.121	112.56
306.352	93.56
306.582	113.56
306.812	93.56
307.042	85.56
307.272	77.56
307.502	73.56
307.731	97.56
307.961	92.56
308.191	91.56
308.421	98.56
308.651	92.56
308.881	99.56
309.111	101.56
309.341	81.56
309.571	95.56
309.8	101.56
310.03	104.56
310.26	93.56
310.49	94.56
310.72	90.56
310.949	91.56
311.179	99.56
311.409	102.56
311.639	104.56
311.868	97.56
312.098	103.56
312.328	99.56
312.557	104.56
312.787	100.56
313.017	102.56
313.246	95.56
313.476	98.56
313.706	83.56
313.935	76.56
314.165	109.56
314.394	111.56
314.624	95.56
314.853	98.56
315.083	93.56
315.312	102.56
315.542	91.56
315.771	85.56
316.001	89.56
316.23	80.56
316.46	86.56
316.689	101.56
316.919	97.56
317.148	99.56
317.377	91.56
317.607	98.56
317.836	94.56
318.065	87.56
318.295	103.56
318.524	104.56
318.753	99.56
318.983	101.56
319.212	102.56
319.441	103.56
319.67	108.56
319.9	85.56
320.129	95.56
320.358	99.56
320.587	102.56
320.816	108.56
321.046	98.56
321.275	91.56
321.504	102.56
321.733	103.56
321.962	93.56
322.191	94.56
322.42	94.56
322.649	110.56
322.878	102.56
323.108	131.56
323.337	123.56
323.566	126.56
323.795	137.56
324.024	206.56
324.253	399.56
324.482	791.56
324.71	1596.56
324.939	2105.56
325.168	774.56
325.397	241.56
325.626	140.56
325.855	136.56
326.084	122.56
326.313	122.56
326.542	157.56
326.77	227.56
326.999	444.56
327.228	932.56
327.457	1679.56
327.686	1329.56
327.914	365.56
328.143	181.56
328.372	137.56
328.6	149.56
328.829	131.56
329.058	127.56
329.287	100.56
329.515	113.56
329.744	92.56
329.972	92.56
330.201	86.56
330.43	110.56
330.658	115.56
330.887	133.56
331.115	122.56
331.344	99.56
331.572	108.56
331.801	107.56
332.03	100.56
332.258	110.56
332.486	94.56
332.715	100.56
332.943	99.56
333.172	94.56
333.4	96.56
333.629	94.56
333.857	113.56
334.085	93.56
334.314	106.56
334.542	111.56
334.771	90.56
334.999	107.56
335.227	97.56
335.455	94.56
335.684	109.56
335.912	96.56
336.14	102.56
336.369	105.56
336.597	91.56
336.825	109.56
337.053	90.56
337.281	85.56
337.51	82.56
337.738	97.56
337.966	104.56
338.194	99.56
338.422	118.56
338.65	97.56
338.878	102.56
339.106	86.56
339.334	101.56
339.562	80.56
339.79	90.56
340.018	98.56
340.246	93.56
340.474	104.56
340.702	93.56
340.93	92.56
341.158	80.56
341.386	105.56
341.614	84.56
341.842	101.56
342.07	86.56
342.298	87.56
342.526	84.56
342.754	102.56
342.981	85.56
343.209	96.56
343.437	110.56
343.665	91.56
343.893	94.56
344.12	107.56
344.348	78.56
344.576	91.56
344.804	101.56
345.031	86.56
345.259	104.56
345.487	97.56
345.714	100.56
345.942	83.56
346.17	92.56
346.397	93.56
346.625	105.56
346.853	121.56
347.08	95.56
347.308	92.56
347.535	102.56
347.763	96.56
347.99	101.56
348.218	105.56
348.445	101.56
348.673	96.56
348.9	103.56
349.128	101.56
349.355	89.56
349.583	86.56
349.81	92.56
350.037	97.56
350.265	102.56
350.492	115.56
350.72	93.56
350.947	102.56
351.174	113.56
351.402	103.56
351.629	103.56
351.856	96.56
352.083	107.56
352.311	104.56
352.538	103.56
352.765	108.56
352.992	112.56
353.22	119.56
353.447	103.56
353.674	103.56
353.901	111.56
354.128	98.56
354.355	99.56
354.583	82.56
354.81	99.56
355.037	101.56
355.264	113.56
355.491	98.56
355.718	101.56
355.945	103.56
356.172	102.56
356.399	91.56
356.626	101.56
356.853	107.56
357.08	99.56
357.307	99.56
357.534	96.56
357.761	89.56
357.988	110.56
358.215	99.56
358.441	99.56
358.668	98.56
358.895	91.56
359.122	91.56
359.349	86.56
359.576	90.56
359.802	87.56
360.029	115.56
360.256	114.56
360.483	118.56
360.709	94.56
360.936	101.56
361.163	94.56
361.39	87.56
361.616	85.56
361.843	86.56
362.07	110.56
362.296	101.56
362.523	97.56
362.749	96.56
362.976	109.56
363.203	101.56
363.429	89.56
363.656	100.56
363.882	90.56
364.109	111.56
364.335	94.56
364.562	102.56
364.788	100.56
365.015	103.56
365.241	89.56
365.468	97.56
365.694	89.56
365.92	86.56
366.147	94.56
366.373	108.56
366.599	86.56
366.826	91.56
367.052	87.56
367.278	99.56
367.505	85.56
367.731	93.56
367.957	90.56
368.184	93.56
368.41	97.56
368.636	106.56
368.862	110.56
369.089	105.56
369.315	98.56
369.541	78.56
369.767	93.56
369.993	108.56
370.219	97.56
370.445	102.56
370.672	79.56
370.898	93.56
371.124	103.56
371.35	99.56
371.576	91.56
371.802	93.56
372.028	86.56
372.254	89.56
372.48	88.56
372.706	81.56
372.932	90.56
373.158	82.56
373.384	108.56
373.61	92.56
373.835	97.56
374.061	88.56
374.287	86.56
374.513	85.56
374.739	103.56
374.965	78.56
375.191	103.56
375.416	105.56
375.642	92.56
375.868	92.56
376.094	99.56
376.319	94.56
376.545	89.56
376.771	97.56
376.997	93.56
377.222	102.56
377.448	87.56
377.674	102.56
377.899	101.56
378.125	95.56
378.35	107.56
378.576	103.56
378.802	95.56
379.027	92.56
379.253	92.56
379.478	103.56
379.704	97.56
379.929	99.56
380.155	100.56
380.38	92.56
380.606	95.56
380.831	91.56
381.057	106.56
381.282	103.56
381.507	107.56
381.733	98.56
381.958	104.56
382.184	93.56
382.409	106.56
382.634	102.56
382.86	92.56
383.085	78.56
383.31	108.56
383.535	94.56
383.761	93.56
383.986	105.56
384.211	99.56
384.436	98.56
384.662	103.56
384.887	122.56
385.112	107.56
385.337	110.56
385.562	105.56
385.787	117.56
386.013	114.56
386.238	120.56
386.463	111.56
386.688	103.56
386.913	113.56
387.138	105.56
387.363	109.56
387.588	101.56
387.813	112.56
388.038	101.56
388.263	114.56
388.488	112.56
388.713	117.56
388.938	93.56
389.163	98.56
389.387	95.56
389.612	89.56
389.837	105.56
390.062	91.56
390.287	103.56
390.512	90.56
390.736	104.56
390.961	111.56
391.186	94.56
391.411	96.56
391.636	94.56
391.86	98.56
392.085	95.56
392.31	83.56
392.534	79.56
392.759	81.56
392.984	101.56
393.208	97.56
393.433	95.56
393.658	96.56
393.882	111.56
394.107	102.56
394.331	86.56
394.556	87.56
394.78	85.56
395.005	87.56
395.229	97.56
395.454	83.56
395.678	96.56
395.903	89.56
396.127	83.56
396.352	94.56
396.576	84.56
396.801	82.56
397.025	80.56
397.249	99.56
397.474	102.56
397.698	99.56
397.922	78.56
398.147	85.56
398.371	92.56
398.595	87.56
398.82	88.56
399.044	82.56
399.268	94.56
399.492	90.56
399.717	97.56
399.941	91.56
400.165	98.56
400.389	97.56
400.613	91.56
400.837	96.56
401.062	88.56
401.286	95.56
401.51	100.56
401.734	100.56
401.958	122.56
402.182	125.56
402.406	138.56
402.63	110.56
402.854	91.56
403.078	95.56
403.302	92.56
403.526	103.56
403.75	96.56
403.974	92.56
404.198	95.56
404.422	86.56
404.645	94.56
404.869	99.56
405.093	90.56
405.317	107.56
405.541	93.56
405.765	106.56
405.988	114.56
406.212	173.56
406.436	213.56
406.66	151.56
406.883	98.56
407.107	98.56
407.331	103.56
407.555	94.56
407.778	102.56
408.002	91.56
408.226	88.56
408.449	78.56
408.673	92.56
408.896	117.56
409.12	100.56
409.344	103.56
409.567	97.56
409.791	98.56
410.014	90.56
410.238	98.56
410.461	74.56
410.685	102.56
410.908	94.56
411.132	103.56
411.355	95.56
411.578	103.56
411.802	100.56
412.025	94.56
412.249	81.56
412.472	96.56
412.695	88.56
412.919	87.56
413.142	98.56
413.365	91.56
413.589	88.56
413.812	99.56
414.035	89.56
414.258	95.56
414.482	93.56
414.705	103.56
414.928	92.56
415.151	95.56
415.374	100.56
415.597	91.56
415.821	94.56
416.044	95.56
416.267	92.56
416.49	86.56
416.713	103.56
416.936	98.56
417.159	77.56
417.382	95.56
417.605	89.56
417.828	80.56
418.051	91.56
418.274	97.56
418.497	97.56
418.72	83.56
418.943	95.56
419.166	86.56
419.389	103.56
419.611	92.56
419.834	85.56
420.057	80.56
420.28	98.56
420.503	84.56
420.726	87.56
420.948	100.56
421.171	90.56
421.394	86.56
421.617	97.56
421.839	93.56
422.062	91.56
422.285	94.56
422.507	92.56
422.73	100.56
422.953	116.56
423.175	100.56
423.398	86.56
423.621	87.56
423.843	77.56
424.066	84.56
424.288	93.56
424.511	82.56
424.733	110.56
424.956	114.56
425.178	101.56
425.401	97.56
425.623	115.56
425.846	93.56
426.068	85.56
426.291	98.56
426.513	104.56
426.735	102.56
426.958	89.56
427.18	113.56
427.402	128.56
427.625	150.56
427.847	111.56
428.069	77.56
428.292	102.56
428.514	95.56
428.736	94.56
428.958	87.56
429.181	106.56
429.403	85.56
429.625	85.56
429.847	95.56
430.069	98.56
430.292	116.56
430.514	100.56
430.736	86.56
430.958	88.56
431.18	84.56
431.402	89.56
431.624	86.56
431.846	80.56
432.068	83.56
432.29	93.56
432.512	83.56
432.734	84.56
432.956	104.56
433.178	101.56
433.4	109.56
433.622	95.56
433.844	87.56
434.066	100.56
434.287	81.56
434.509	101.56
434.731	82.56
434.953	86.56
435.175	100.56
435.397	100.56
435.618	100.56
435.84	92.56
436.062	110.56
436.284	115.56
436.505	121.56
436.727	107.56
436.949	96.56
437.17	83.56
437.392	79.56
437.614	89.56
437.835	97.56
438.057	108.56
438.278	111.56
438.5	99.56
438.721	114.56
438.943	95.56
439.165	89.56
439.386	90.56
439.608	100.56
439.829	98.56
440.05	119.56
440.272	117.56
440.493	99.56
440.715	98.56
440.936	84.56
441.158	98.56
441.379	106.56
441.6	94.56
441.822	95.56
442.043	99.56
442.264	101.56
442.486	92.56
442.707	78.56
442.928	91.56
443.149	137.56
443.371	116.56
443.592	98.56
443.813	115.56
444.034	96.56
444.255	103.56
444.476	85.56
444.698	91.56
444.919	84.56
445.14	130.56
445.361	125.56
445.582	110.56
445.803	128.56
446.024	121.56
446.245	116.56
446.466	113.56
446.687	97.56
446.908	104.56
447.129	95.56
447.35	99.56
447.571	99.56
447.792	101.56
448.013	105.56
448.234	118.56
448.455	80.56
448.675	105.56
448.896	103.56
449.117	100.56
449.338	102.56
449.559	128.56
449.779	126.56
450	93.56
450.221	107.56
450.442	94.56
450.662	107.56
450.883	103.56
451.104	110.56
451.324	99.56
451.545	76.56
451.766	90.56
451.986	86.56
452.207	89.56
452.428	97.56
452.648	109.56
452.869	95.56
453.089	107.56
453.31	102.56
453.53	92.56
453.751	107.56
453.971	102.56
454.192	113.56
454.412	79.56
454.633	74.56
454.853	101.56
455.073	77.56
455.294	84.56
455.514	89.56
455.734	98.56
455.955	84.56
456.175	108.56
456.395	89.56
456.616	87.56
456.836	92.56
457.056	70.56
457.276	97.56
457.497	86.56
457.717	82.56
457.937	93.56
458.157	104.56
458.377	93.56
458.598	96.56
458.818	134.56
459.038	132.56
459.258	108.56
459.478	87.56
459.698	91.56
459.918	100.56
460.138	92.56
460.358	79.56
460.578	99.56
460.798	93.56
461.018	96.56
461.238	85.56
461.458	91.56
461.678	81.56
461.898	92.56
462.118	89.56
462.338	92.56
462.558	97.56
462.777	79.56
462.997	75.56
463.217	86.56
463.437	87.56
463.657	97.56
463.876	93.56
464.096	106.56
464.316	77.56
464.536	91.56
464.755	97.56
464.975	89.56
465.195	139.56
465.414	139.56
465.634	100.56
465.854	90.56
466.073	87.56
466.293	90.56
466.512	83.56
466.732	92.56
466.951	86.56
467.171	102.56
467.391	100.56
467.61	97.56
467.829	94.56
468.049	88.56
468.268	89.56
468.488	91.56
468.707	94.56
468.927	90.56
469.146	83.56
469.365	99.56
469.585	99.56
469.804	103.56
470.023	106.56
470.243	86.56
470.462	106.56
470.681	96.56
470.901	104.56
471.12	94.56
471.339	87.56
471.558	95.56
471.777	94.56
471.997	94.56
472.216	82.56
472.435	82.56
472.654	95.56
472.873	94.56
473.092	95.56
473.311	95.56
473.53	82.56
473.749	89.56
473.968	87.56
474.187	109.56
474.406	103.56
474.625	101.56
474.844	106.56
475.063	89.56
475.282	71.56
475.501	81.56
475.72	93.56
475.939	89.56
476.158	97.56
476.377	78.56
476.596	86.56
476.814	95.56
477.033	107.56
477.252	94.56
477.471	87.56
477.69	86.56
477.908	93.56
478.127	89.56
478.346	82.56
478.564	87.56
478.783	95.56
479.002	87.56
479.22	93.56
479.439	95.56
479.658	93.56
479.876	84.56
480.095	82.56
480.313	91.56
480.532	90.56
480.751	91.56
480.969	105.56
481.188	113.56
481.406	84.56
481.624	100.56
481.843	83.56
482.061	92.56
482.28	88.56
482.498	89.56
482.717	99.56
482.935	101.56
483.153	94.56
483.372	83.56
483.59	94.56
483.808	84.56
484.027	103.56
484.245	86.56
484.463	94.56
484.681	99.56
484.9	93.56
485.118	100.56
485.336	98.56
485.554	115.56
485.772	101.56
485.99	103.56
486.209	97.56
486.427	109.56
486.645	113.56
486.863	119.56
487.081	108.56
487.299	113.56
487.517	104.56
487.735	86.56
487.953	97.56
488.171	95.56
488.389	92.56
488.607	95.56
488.825	119.56
489.043	81.56
489.261	98.56
489.479	93.56
489.696	103.56
489.914	102.56
490.132	92.56
490.35	93.56
490.568	105.56
490.786	100.56
491.003	87.56
491.221	95.56
491.439	93.56
491.657	96.56
491.874	110.56
492.092	92.56
492.31	98.56
492.527	86.56
492.745	102.56
492.963	92.56
493.18	96.56
493.398	94.56
493.615	98.56
493.833	101.56
494.05	104.56
494.268	81.56
494.485	87.56
494.703	93.56
494.92	89.56
495.138	90.56
495.355	103.56
495.573	94.56
495.79	86.56
496.008	94.56
496.225	92.56
496.442	110.56
496.66	92.56
496.877	76.56
497.094	105.56
497.312	89.56
497.529	99.56
497.746	94.56
497.963	102.56
498.181	109.56
498.398	113.56
498.615	118.56
498.832	99.56
499.049	81.56
499.267	89.56
499.484	85.56
499.701	89.56
499.918	79.56
500.135	90.56
500.352	88.56
500.569	91.56
500.786	99.56
501.003	96.56
501.22	93.56
501.437	96.56
501.654	92.56
501.871	107.56
502.088	91.56
502.305	91.56
502.522	97.56
502.739	84.56
502.956	103.56
503.172	93.56
503.389	115.56
503.606	111.56
503.823	114.56
504.04	107.56
504.256	93.56
504.473	86.56
504.69	97.56
504.907	81.56
505.123	103.56
505.34	95.56
505.557	98.56
505.773	90.56
505.99	87.56
506.207	105.56
506.423	104.56
506.64	108.56
506.856	93.56
507.073	79.56
507.289	92.56
507.506	88.56
507.722	121.56
507.939	98.56
508.155	78.56
508.372	97.56
508.588	93.56
508.805	100.56
509.021	98.56
509.238	108.56
509.454	93.56
509.67	89.56
509.887	98.56
510.103	126.56
510.319	220.56
510.536	734.56
510.752	2171.56
510.968	600.56
511.184	162.56
511.401	101.56
511.617	114.56
511.833	105.56
512.049	110.56
512.265	98.56
512.481	104.56
512.698	90.56
512.914	93.56
513.13	97.56
513.346	98.56
513.562	111.56
513.778	105.56
513.994	97.56
514.21	101.56
514.426	109.56
