Data from Uncirc_1995_H10_HRD10591_00005.txt Node
Date: Wed Jan 03 11:35:34 EST 2024
User: Yrep
Spectrometer: HR+D1059
Trigger mode: 1
Integration Time (sec): 1.000000E-1
Scans to average: 1
Electric dark correction enabled: true
Nonlinearity correction enabled: false
Boxcar width: 0
XAxis mode: Wavelengths
Number of Pixels in Spectrum: 2048
>>>>>Begin Spectral Data<<<<<
223.165	-22.31
223.4	-22.31
223.635	-22.31
223.869	-20.31
224.104	-5.31
224.338	-16.31
224.573	-17.31
224.808	-8.31
225.042	-16.31
225.277	5.69
225.511	2.69
225.746	-6.31
225.98	-1.31
226.215	8.69
226.449	9.69
226.683	37.69
226.918	22.69
227.152	26.69
227.387	31.69
227.621	34.69
227.856	33.69
228.09	39.69
228.324	38.69
228.559	56.69
228.793	79.69
229.027	75.69
229.262	66.69
229.496	78.69
229.73	74.69
229.964	77.69
230.199	79.69
230.433	82.69
230.667	77.69
230.901	83.69
231.136	84.69
231.37	77.69
231.604	83.69
231.838	84.69
232.072	70.69
232.306	78.69
232.541	85.69
232.775	89.69
233.009	68.69
233.243	88.69
233.477	78.69
233.711	86.69
233.945	72.69
234.179	77.69
234.413	92.69
234.647	79.69
234.881	90.69
235.115	78.69
235.349	89.69
235.583	91.69
235.817	86.69
236.051	86.69
236.285	73.69
236.519	81.69
236.753	81.69
236.987	81.69
237.221	86.69
237.455	84.69
237.689	87.69
237.922	76.69
238.156	79.69
238.39	74.69
238.624	80.69
238.858	85.69
239.091	85.69
239.325	66.69
239.559	94.69
239.793	83.69
240.027	66.69
240.26	87.69
240.494	89.69
240.728	73.69
240.961	75.69
241.195	82.69
241.429	88.69
241.662	68.69
241.896	68.69
242.13	75.69
242.363	92.69
242.597	82.69
242.83	80.69
243.064	88.69
243.298	74.69
243.531	82.69
243.765	83.69
243.998	78.69
244.232	79.69
244.465	73.69
244.699	93.69
244.932	75.69
245.166	94.69
245.399	73.69
245.633	75.69
245.866	82.69
246.099	67.69
246.333	67.69
246.566	74.69
246.8	73.69
247.033	77.69
247.266	82.69
247.5	85.69
247.733	85.69
247.966	77.69
248.2	84.69
248.433	79.69
248.666	82.69
248.899	81.69
249.133	96.69
249.366	93.69
249.599	89.69
249.832	86.69
250.066	85.69
250.299	88.69
250.532	77.69
250.765	82.69
250.998	69.69
251.231	70.69
251.465	95.69
251.698	76.69
251.931	80.69
252.164	89.69
252.397	81.69
252.63	94.69
252.863	78.69
253.096	77.69
253.329	82.69
253.562	68.69
253.795	84.69
254.028	84.69
254.261	105.69
254.494	83.69
254.727	100.69
254.96	73.69
255.193	83.69
255.426	95.69
255.659	91.69
255.892	90.69
256.124	85.69
256.357	81.69
256.59	76.69
256.823	83.69
257.056	70.69
257.289	76.69
257.521	89.69
257.754	81.69
257.987	84.69
258.22	96.69
258.452	92.69
258.685	93.69
258.918	66.69
259.151	75.69
259.383	91.69
259.616	86.69
259.849	85.69
260.081	90.69
260.314	81.69
260.547	77.69
260.779	85.69
261.012	89.69
261.244	105.69
261.477	86.69
261.71	95.69
261.942	111.69
262.175	116.69
262.407	79.69
262.64	84.69
262.872	87.69
263.105	85.69
263.337	84.69
263.57	83.69
263.802	77.69
264.035	89.69
264.267	83.69
264.499	77.69
264.732	86.69
264.964	93.69
265.197	105.69
265.429	89.69
265.661	96.69
265.894	78.69
266.126	81.69
266.358	75.69
266.591	93.69
266.823	91.69
267.055	89.69
267.287	87.69
267.52	93.69
267.752	86.69
267.984	91.69
268.216	94.69
268.448	80.69
268.681	91.69
268.913	86.69
269.145	77.69
269.377	74.69
269.609	89.69
269.841	90.69
270.073	95.69
270.306	84.69
270.538	85.69
270.77	73.69
271.002	81.69
271.234	87.69
271.466	84.69
271.698	87.69
271.93	79.69
272.162	101.69
272.394	88.69
272.626	87.69
272.858	85.69
273.09	97.69
273.322	81.69
273.553	87.69
273.785	96.69
274.017	89.69
274.249	82.69
274.481	96.69
274.713	91.69
274.945	75.69
275.176	84.69
275.408	77.69
275.64	81.69
275.872	97.69
276.104	87.69
276.335	93.69
276.567	100.69
276.799	114.69
277.031	101.69
277.262	92.69
277.494	86.69
277.726	99.69
277.957	95.69
278.189	89.69
278.421	103.69
278.652	77.69
278.884	93.69
279.115	100.69
279.347	87.69
279.579	76.69
279.81	89.69
280.042	76.69
280.273	102.69
280.505	99.69
280.736	94.69
280.968	85.69
281.199	99.69
281.431	97.69
281.662	87.69
281.894	92.69
282.125	96.69
282.356	109.69
282.588	125.69
282.819	108.69
283.051	80.69
283.282	96.69
283.513	94.69
283.745	98.69
283.976	87.69
284.207	90.69
284.439	79.69
284.67	91.69
284.901	90.69
285.132	92.69
285.364	88.69
285.595	92.69
285.826	92.69
286.057	89.69
286.288	88.69
286.52	93.69
286.751	86.69
286.982	80.69
287.213	93.69
287.444	104.69
287.675	89.69
287.906	92.69
288.138	78.69
288.369	85.69
288.6	93.69
288.831	83.69
289.062	89.69
289.293	93.69
289.524	92.69
289.755	97.69
289.986	99.69
290.217	100.69
290.448	83.69
290.679	101.69
290.91	90.69
291.141	95.69
291.371	88.69
291.602	94.69
291.833	99.69
292.064	102.69
292.295	87.69
292.526	87.69
292.757	83.69
292.987	84.69
293.218	77.69
293.449	94.69
293.68	95.69
293.91	96.69
294.141	92.69
294.372	95.69
294.603	89.69
294.833	87.69
295.064	90.69
295.295	106.69
295.525	104.69
295.756	90.69
295.987	91.69
296.217	117.69
296.448	113.69
296.679	91.69
296.909	98.69
297.14	79.69
297.37	94.69
297.601	89.69
297.831	76.69
298.062	82.69
298.292	101.69
298.523	97.69
298.753	90.69
298.984	94.69
299.214	94.69
299.445	93.69
299.675	94.69
299.905	97.69
300.136	105.69
300.366	94.69
300.597	102.69
300.827	99.69
301.057	110.69
301.288	99.69
301.518	100.69
301.748	83.69
301.979	98.69
302.209	89.69
302.439	84.69
302.669	82.69
302.9	97.69
303.13	96.69
303.36	97.69
303.59	92.69
303.82	101.69
304.051	106.69
304.281	96.69
304.511	103.69
304.741	102.69
304.971	91.69
305.201	100.69
305.431	100.69
305.661	85.69
305.891	104.69
306.121	107.69
306.352	106.69
306.582	103.69
306.812	93.69
307.042	84.69
307.272	106.69
307.502	90.69
307.731	97.69
307.961	87.69
308.191	102.69
308.421	91.69
308.651	83.69
308.881	98.69
309.111	99.69
309.341	106.69
309.571	112.69
309.8	95.69
310.03	103.69
310.26	93.69
310.49	110.69
310.72	89.69
310.949	105.69
311.179	88.69
311.409	93.69
311.639	91.69
311.868	102.69
312.098	99.69
312.328	113.69
312.557	93.69
312.787	91.69
313.017	101.69
313.246	101.69
313.476	87.69
313.706	102.69
313.935	98.69
314.165	93.69
314.394	97.69
314.624	110.69
314.853	85.69
315.083	81.69
315.312	100.69
315.542	91.69
315.771	87.69
316.001	101.69
316.23	97.69
316.46	95.69
316.689	89.69
316.919	80.69
317.148	103.69
317.377	99.69
317.607	109.69
317.836	101.69
318.065	97.69
318.295	91.69
318.524	105.69
318.753	95.69
318.983	95.69
319.212	95.69
319.441	113.69
319.67	111.69
319.9	102.69
320.129	99.69
320.358	97.69
320.587	97.69
320.816	93.69
321.046	78.69
321.275	91.69
321.504	110.69
321.733	77.69
321.962	83.69
322.191	92.69
322.42	100.69
322.649	112.69
322.878	102.69
323.108	117.69
323.337	111.69
323.566	122.69
323.795	131.69
324.024	189.69
324.253	337.69
324.482	684.69
324.71	1453.69
324.939	1898.69
325.168	684.69
325.397	223.69
325.626	138.69
325.855	129.69
326.084	132.69
326.313	126.69
326.542	146.69
326.77	210.69
326.999	402.69
327.228	834.69
327.457	1489.69
327.686	1189.69
327.914	323.69
328.143	182.69
328.372	142.69
328.6	95.69
328.829	108.69
329.058	114.69
329.287	101.69
329.515	111.69
329.744	109.69
329.972	112.69
330.201	103.69
330.43	105.69
330.658	103.69
330.887	104.69
331.115	127.69
331.344	89.69
331.572	110.69
331.801	113.69
332.03	102.69
332.258	108.69
332.486	93.69
332.715	82.69
332.943	97.69
333.172	99.69
333.4	97.69
333.629	115.69
333.857	107.69
334.085	111.69
334.314	103.69
334.542	103.69
334.771	94.69
334.999	95.69
335.227	90.69
335.455	96.69
335.684	89.69
335.912	104.69
336.14	111.69
336.369	92.69
336.597	96.69
336.825	109.69
337.053	89.69
337.281	85.69
337.51	92.69
337.738	95.69
337.966	96.69
338.194	112.69
338.422	107.69
338.65	104.69
338.878	96.69
339.106	89.69
339.334	91.69
339.562	109.69
339.79	92.69
340.018	103.69
340.246	107.69
340.474	98.69
340.702	90.69
340.93	95.69
341.158	93.69
341.386	98.69
341.614	94.69
341.842	99.69
342.07	97.69
342.298	103.69
342.526	87.69
342.754	106.69
342.981	113.69
343.209	86.69
343.437	90.69
343.665	94.69
343.893	102.69
344.12	99.69
344.348	101.69
344.576	102.69
344.804	109.69
345.031	109.69
345.259	92.69
345.487	98.69
345.714	93.69
345.942	95.69
346.17	95.69
346.397	124.69
346.625	107.69
346.853	89.69
347.08	104.69
347.308	105.69
347.535	104.69
347.763	107.69
347.99	101.69
348.218	108.69
348.445	111.69
348.673	107.69
348.9	115.69
349.128	98.69
349.355	87.69
349.583	91.69
349.81	90.69
350.037	101.69
350.265	97.69
350.492	96.69
350.72	73.69
350.947	103.69
351.174	108.69
351.402	116.69
351.629	103.69
351.856	103.69
352.083	109.69
352.311	104.69
352.538	112.69
352.765	108.69
352.992	116.69
353.22	109.69
353.447	104.69
353.674	103.69
353.901	98.69
354.128	88.69
354.355	92.69
354.583	103.69
354.81	104.69
355.037	94.69
355.264	93.69
355.491	87.69
355.718	95.69
355.945	100.69
356.172	102.69
356.399	110.69
356.626	111.69
356.853	94.69
357.08	94.69
357.307	104.69
357.534	106.69
357.761	96.69
357.988	101.69
358.215	94.69
358.441	100.69
358.668	89.69
358.895	93.69
359.122	91.69
359.349	94.69
359.576	100.69
359.802	89.69
360.029	97.69
360.256	103.69
360.483	83.69
360.709	90.69
360.936	96.69
361.163	101.69
361.39	96.69
361.616	93.69
361.843	94.69
362.07	94.69
362.296	114.69
362.523	102.69
362.749	92.69
362.976	85.69
363.203	97.69
363.429	87.69
363.656	96.69
363.882	101.69
364.109	78.69
364.335	99.69
364.562	97.69
364.788	110.69
365.015	77.69
365.241	91.69
365.468	111.69
365.694	103.69
365.92	96.69
366.147	87.69
366.373	82.69
366.599	86.69
366.826	83.69
367.052	96.69
367.278	85.69
367.505	82.69
367.731	87.69
367.957	94.69
368.184	93.69
368.41	104.69
368.636	103.69
368.862	107.69
369.089	96.69
369.315	102.69
369.541	99.69
369.767	100.69
369.993	101.69
370.219	100.69
370.445	94.69
370.672	98.69
370.898	97.69
371.124	92.69
371.35	92.69
371.576	87.69
371.802	100.69
372.028	86.69
372.254	92.69
372.48	98.69
372.706	89.69
372.932	104.69
373.158	87.69
373.384	89.69
373.61	92.69
373.835	86.69
374.061	93.69
374.287	107.69
374.513	107.69
374.739	96.69
374.965	81.69
375.191	73.69
375.416	92.69
375.642	85.69
375.868	100.69
376.094	97.69
376.319	89.69
376.545	95.69
376.771	102.69
376.997	95.69
377.222	98.69
377.448	96.69
377.674	87.69
377.899	101.69
378.125	107.69
378.35	96.69
378.576	89.69
378.802	90.69
379.027	85.69
379.253	108.69
379.478	88.69
379.704	86.69
379.929	91.69
380.155	96.69
380.38	89.69
380.606	103.69
380.831	108.69
381.057	101.69
381.282	105.69
381.507	91.69
381.733	100.69
381.958	110.69
382.184	113.69
382.409	109.69
382.634	110.69
382.86	114.69
383.085	97.69
383.31	109.69
383.535	105.69
383.761	124.69
383.986	104.69
384.211	114.69
384.436	99.69
384.662	106.69
384.887	106.69
385.112	111.69
385.337	122.69
385.562	124.69
385.787	117.69
386.013	126.69
386.238	123.69
386.463	133.69
386.688	115.69
386.913	110.69
387.138	121.69
387.363	111.69
387.588	102.69
387.813	120.69
388.038	126.69
388.263	127.69
388.488	124.69
388.713	95.69
388.938	105.69
389.163	108.69
389.387	93.69
389.612	109.69
389.837	87.69
390.062	108.69
390.287	93.69
390.512	93.69
390.736	90.69
390.961	117.69
391.186	103.69
391.411	85.69
391.636	109.69
391.86	93.69
392.085	94.69
392.31	95.69
392.534	90.69
392.759	81.69
392.984	75.69
393.208	86.69
393.433	110.69
393.658	101.69
393.882	82.69
394.107	83.69
394.331	93.69
394.556	88.69
394.78	93.69
395.005	83.69
395.229	86.69
395.454	83.69
395.678	85.69
395.903	98.69
396.127	101.69
396.352	86.69
396.576	81.69
396.801	96.69
397.025	92.69
397.249	83.69
397.474	106.69
397.698	100.69
397.922	90.69
398.147	79.69
398.371	81.69
398.595	94.69
398.82	73.69
399.044	88.69
399.268	87.69
399.492	92.69
399.717	91.69
399.941	91.69
400.165	97.69
400.389	93.69
400.613	98.69
400.837	84.69
401.062	82.69
401.286	97.69
401.51	90.69
401.734	89.69
401.958	108.69
402.182	118.69
402.406	127.69
402.63	107.69
402.854	94.69
403.078	91.69
403.302	86.69
403.526	90.69
403.75	79.69
403.974	86.69
404.198	87.69
404.422	90.69
404.645	86.69
404.869	104.69
405.093	98.69
405.317	95.69
405.541	105.69
405.765	103.69
405.988	113.69
406.212	140.69
406.436	173.69
406.66	118.69
406.883	105.69
407.107	97.69
407.331	101.69
407.555	104.69
407.778	95.69
408.002	94.69
408.226	88.69
408.449	94.69
408.673	98.69
408.896	114.69
409.12	102.69
409.344	89.69
409.567	92.69
409.791	104.69
410.014	103.69
410.238	84.69
410.461	89.69
410.685	86.69
410.908	108.69
411.132	111.69
411.355	117.69
411.578	100.69
411.802	89.69
412.025	93.69
412.249	100.69
412.472	90.69
412.695	99.69
412.919	81.69
413.142	88.69
413.365	87.69
413.589	89.69
413.812	90.69
414.035	92.69
414.258	89.69
414.482	99.69
414.705	95.69
414.928	116.69
415.151	74.69
415.374	85.69
415.597	106.69
415.821	105.69
416.044	86.69
416.267	106.69
416.49	82.69
416.713	89.69
416.936	89.69
417.159	89.69
417.382	95.69
417.605	87.69
417.828	108.69
418.051	103.69
418.274	90.69
418.497	110.69
418.72	85.69
418.943	89.69
419.166	96.69
419.389	100.69
419.611	89.69
419.834	95.69
420.057	78.69
420.28	86.69
420.503	101.69
420.726	92.69
420.948	83.69
421.171	87.69
421.394	105.69
421.617	84.69
421.839	92.69
422.062	67.69
422.285	101.69
422.507	103.69
422.73	104.69
422.953	100.69
423.175	93.69
423.398	86.69
423.621	73.69
423.843	83.69
424.066	98.69
424.288	93.69
424.511	87.69
424.733	90.69
424.956	115.69
425.178	110.69
425.401	102.69
425.623	93.69
425.846	90.69
426.068	94.69
426.291	95.69
426.513	91.69
426.735	89.69
426.958	86.69
427.18	100.69
427.402	131.69
427.625	157.69
427.847	120.69
428.069	114.69
428.292	89.69
428.514	93.69
428.736	89.69
428.958	99.69
429.181	89.69
429.403	105.69
429.625	73.69
429.847	91.69
430.069	100.69
430.292	86.69
430.514	88.69
430.736	95.69
430.958	90.69
431.18	104.69
431.402	81.69
431.624	89.69
431.846	87.69
432.068	93.69
432.29	90.69
432.512	84.69
432.734	98.69
432.956	90.69
433.178	97.69
433.4	104.69
433.622	71.69
433.844	87.69
434.066	89.69
434.287	85.69
434.509	77.69
434.731	91.69
434.953	94.69
435.175	85.69
435.397	102.69
435.618	85.69
435.84	117.69
436.062	111.69
436.284	110.69
436.505	84.69
436.727	106.69
436.949	97.69
437.17	85.69
437.392	77.69
437.614	92.69
437.835	97.69
438.057	110.69
438.278	102.69
438.5	97.69
438.721	107.69
438.943	103.69
439.165	89.69
439.386	86.69
439.608	86.69
439.829	106.69
440.05	126.69
440.272	124.69
440.493	105.69
440.715	100.69
440.936	102.69
441.158	78.69
441.379	100.69
441.6	97.69
441.822	83.69
442.043	86.69
442.264	107.69
442.486	109.69
442.707	105.69
442.928	89.69
443.149	125.69
443.371	120.69
443.592	109.69
443.813	111.69
444.034	116.69
444.255	102.69
444.476	98.69
444.698	90.69
444.919	89.69
445.14	138.69
445.361	115.69
445.582	97.69
445.803	112.69
446.024	125.69
446.245	132.69
446.466	116.69
446.687	85.69
446.908	101.69
447.129	102.69
447.35	93.69
447.571	81.69
447.792	76.69
448.013	92.69
448.234	95.69
448.455	107.69
448.675	109.69
448.896	106.69
449.117	92.69
449.338	112.69
449.559	127.69
449.779	118.69
450	90.69
450.221	80.69
450.442	82.69
450.662	93.69
450.883	98.69
451.104	105.69
451.324	86.69
451.545	86.69
451.766	94.69
451.986	97.69
452.207	99.69
452.428	99.69
452.648	101.69
452.869	98.69
453.089	119.69
453.31	121.69
453.53	81.69
453.751	100.69
453.971	115.69
454.192	99.69
454.412	95.69
454.633	97.69
454.853	80.69
455.073	88.69
455.294	86.69
455.514	106.69
455.734	99.69
455.955	78.69
456.175	94.69
456.395	85.69
456.616	93.69
456.836	82.69
457.056	87.69
457.276	83.69
457.497	94.69
457.717	93.69
457.937	98.69
458.157	84.69
458.377	101.69
458.598	113.69
458.818	138.69
459.038	146.69
459.258	120.69
459.478	105.69
459.698	83.69
459.918	85.69
460.138	86.69
460.358	89.69
460.578	81.69
460.798	84.69
461.018	84.69
461.238	94.69
461.458	93.69
461.678	100.69
461.898	97.69
462.118	94.69
462.338	94.69
462.558	87.69
462.777	82.69
462.997	79.69
463.217	85.69
463.437	98.69
463.657	94.69
463.876	96.69
464.096	96.69
464.316	98.69
464.536	75.69
464.755	97.69
464.975	122.69
465.195	132.69
465.414	134.69
465.634	99.69
465.854	88.69
466.073	82.69
466.293	81.69
466.512	79.69
466.732	111.69
466.951	76.69
467.171	90.69
467.391	99.69
467.61	104.69
467.829	94.69
468.049	95.69
468.268	93.69
468.488	84.69
468.707	92.69
468.927	104.69
469.146	83.69
469.365	95.69
469.585	93.69
469.804	100.69
470.023	104.69
470.243	91.69
470.462	86.69
470.681	101.69
470.901	89.69
471.12	88.69
471.339	102.69
471.558	92.69
471.777	88.69
471.997	89.69
472.216	95.69
472.435	106.69
472.654	83.69
472.873	103.69
473.092	86.69
473.311	94.69
473.53	85.69
473.749	86.69
473.968	78.69
474.187	94.69
474.406	99.69
474.625	81.69
474.844	79.69
475.063	79.69
475.282	105.69
475.501	85.69
475.72	100.69
475.939	96.69
476.158	90.69
476.377	89.69
476.596	106.69
476.814	91.69
477.033	95.69
477.252	88.69
477.471	83.69
477.69	89.69
477.908	73.69
478.127	96.69
478.346	82.69
478.564	96.69
478.783	90.69
479.002	85.69
479.22	97.69
479.439	106.69
479.658	97.69
479.876	110.69
480.095	97.69
480.313	108.69
480.532	101.69
480.751	94.69
480.969	91.69
481.188	101.69
481.406	110.69
481.624	98.69
481.843	91.69
482.061	80.69
482.28	83.69
482.498	84.69
482.717	86.69
482.935	100.69
483.153	94.69
483.372	95.69
483.59	102.69
483.808	96.69
484.027	101.69
484.245	94.69
484.463	95.69
484.681	91.69
484.9	91.69
485.118	107.69
485.336	91.69
485.554	114.69
485.772	109.69
485.99	105.69
486.209	107.69
486.427	114.69
486.645	109.69
486.863	123.69
487.081	98.69
487.299	94.69
487.517	98.69
487.735	98.69
487.953	97.69
488.171	86.69
488.389	91.69
488.607	98.69
488.825	107.69
489.043	91.69
489.261	101.69
489.479	92.69
489.696	96.69
489.914	93.69
490.132	100.69
490.35	100.69
490.568	102.69
490.786	83.69
491.003	88.69
491.221	93.69
491.439	95.69
491.657	100.69
491.874	98.69
492.092	96.69
492.31	100.69
492.527	98.69
492.745	99.69
492.963	100.69
493.18	85.69
493.398	98.69
493.615	105.69
493.833	98.69
494.05	92.69
494.268	94.69
494.485	95.69
494.703	100.69
494.92	89.69
495.138	101.69
495.355	90.69
495.573	96.69
495.79	99.69
496.008	100.69
496.225	101.69
496.442	94.69
496.66	99.69
496.877	94.69
497.094	105.69
497.312	92.69
497.529	95.69
497.746	96.69
497.963	95.69
498.181	86.69
498.398	104.69
498.615	99.69
498.832	99.69
499.049	89.69
499.267	83.69
499.484	105.69
499.701	109.69
499.918	105.69
500.135	98.69
500.352	95.69
500.569	76.69
500.786	87.69
501.003	93.69
501.22	89.69
501.437	101.69
501.654	100.69
501.871	105.69
502.088	90.69
502.305	99.69
502.522	95.69
502.739	94.69
502.956	87.69
503.172	101.69
503.389	102.69
503.606	106.69
503.823	102.69
504.04	87.69
504.256	89.69
504.473	90.69
504.69	84.69
504.907	103.69
505.123	96.69
505.34	86.69
505.557	96.69
505.773	105.69
505.99	85.69
506.207	86.69
506.423	96.69
506.64	93.69
506.856	82.69
507.073	98.69
507.289	90.69
507.506	102.69
507.722	114.69
507.939	119.69
508.155	110.69
508.372	84.69
508.588	108.69
508.805	98.69
509.021	91.69
509.238	98.69
509.454	101.69
509.67	98.69
509.887	110.69
510.103	122.69
510.319	193.69
510.536	658.69
510.752	1883.69
510.968	541.69
511.184	142.69
511.401	113.69
511.617	95.69
511.833	75.69
512.049	91.69
512.265	93.69
512.481	101.69
512.698	98.69
512.914	92.69
513.13	98.69
513.346	96.69
513.562	102.69
513.778	91.69
513.994	101.69
514.21	92.69
