Data from Uncirc_1995_H10_HRD10591_00084.txt Node
Date: Wed Jan 03 11:35:50 EST 2024
User: Yrep
Spectrometer: HR+D1059
Trigger mode: 1
Integration Time (sec): 1.000000E-1
Scans to average: 1
Electric dark correction enabled: true
Nonlinearity correction enabled: false
Boxcar width: 0
XAxis mode: Wavelengths
Number of Pixels in Spectrum: 2048
>>>>>Begin Spectral Data<<<<<
223.165	-20
223.4	-20
223.635	-20
223.869	-21
224.104	-22
224.338	-11
224.573	-14
224.808	-8
225.042	-10
225.277	2
225.511	-5
225.746	2
225.98	-2
226.215	6
226.449	15
226.683	15
226.918	29
227.152	44
227.387	37
227.621	34
227.856	48
228.09	48
228.324	62
228.559	76
228.793	54
229.027	59
229.262	69
229.496	67
229.73	84
229.964	84
230.199	97
230.433	96
230.667	85
230.901	88
231.136	81
231.37	77
231.604	87
231.838	87
232.072	77
232.306	87
232.541	87
232.775	78
233.009	85
233.243	90
233.477	86
233.711	76
233.945	88
234.179	98
234.413	81
234.647	80
234.881	95
235.115	80
235.349	82
235.583	91
235.817	78
236.051	72
236.285	84
236.519	81
236.753	94
236.987	92
237.221	93
237.455	91
237.689	73
237.922	86
238.156	82
238.39	89
238.624	65
238.858	65
239.091	83
239.325	76
239.559	70
239.793	97
240.027	80
240.26	78
240.494	87
240.728	71
240.961	78
241.195	84
241.429	88
241.662	88
241.896	91
242.13	85
242.363	93
242.597	76
242.83	81
243.064	58
243.298	83
243.531	78
243.765	72
243.998	86
244.232	91
244.465	90
244.699	74
244.932	67
245.166	71
245.399	91
245.633	83
245.866	80
246.099	87
246.333	88
246.566	77
246.8	88
247.033	66
247.266	81
247.5	85
247.733	78
247.966	85
248.2	90
248.433	96
248.666	86
248.899	79
249.133	80
249.366	96
249.599	97
249.832	85
250.066	81
250.299	78
250.532	87
250.765	68
250.998	68
251.231	89
251.465	85
251.698	76
251.931	75
252.164	91
252.397	87
252.63	97
252.863	86
253.096	87
253.329	84
253.562	72
253.795	71
254.028	97
254.261	80
254.494	101
254.727	87
254.96	88
255.193	71
255.426	91
255.659	84
255.892	94
256.124	83
256.357	82
256.59	87
256.823	92
257.056	84
257.289	87
257.521	92
257.754	89
257.987	77
258.22	96
258.452	86
258.685	88
258.918	85
259.151	65
259.383	78
259.616	76
259.849	95
260.081	84
260.314	74
260.547	94
260.779	80
261.012	81
261.244	81
261.477	86
261.71	107
261.942	116
262.175	116
262.407	86
262.64	87
262.872	83
263.105	98
263.337	86
263.57	77
263.802	81
264.035	69
264.267	85
264.499	70
264.732	83
264.964	79
265.197	87
265.429	86
265.661	89
265.894	90
266.126	80
266.358	95
266.591	85
266.823	87
267.055	101
267.287	96
267.52	85
267.752	84
267.984	78
268.216	91
268.448	92
268.681	86
268.913	80
269.145	90
269.377	82
269.609	94
269.841	79
270.073	82
270.306	107
270.538	85
270.77	79
271.002	84
271.234	85
271.466	84
271.698	82
271.93	75
272.162	88
272.394	86
272.626	88
272.858	92
273.09	82
273.322	96
273.553	78
273.785	86
274.017	98
274.249	78
274.481	93
274.713	77
274.945	82
275.176	101
275.408	93
275.64	88
275.872	92
276.104	96
276.335	98
276.567	95
276.799	111
277.031	103
277.262	91
277.494	82
277.726	73
277.957	88
278.189	99
278.421	84
278.652	88
278.884	86
279.115	94
279.347	90
279.579	84
279.81	79
280.042	84
280.273	94
280.505	82
280.736	87
280.968	102
281.199	103
281.431	84
281.662	87
281.894	99
282.125	110
282.356	103
282.588	138
282.819	114
283.051	102
283.282	75
283.513	78
283.745	93
283.976	82
284.207	91
284.439	96
284.67	80
284.901	93
285.132	102
285.364	91
285.595	82
285.826	94
286.057	79
286.288	95
286.52	100
286.751	99
286.982	77
287.213	92
287.444	88
287.675	78
287.906	99
288.138	82
288.369	86
288.6	94
288.831	99
289.062	97
289.293	94
289.524	90
289.755	89
289.986	99
290.217	91
290.448	102
290.679	92
290.91	93
291.141	85
291.371	97
291.602	79
291.833	66
292.064	93
292.295	97
292.526	95
292.757	94
292.987	81
293.218	86
293.449	94
293.68	77
293.91	85
294.141	98
294.372	94
294.603	91
294.833	95
295.064	88
295.295	89
295.525	102
295.756	109
295.987	110
296.217	133
296.448	113
296.679	87
296.909	107
297.14	89
297.37	98
297.601	89
297.831	100
298.062	96
298.292	88
298.523	85
298.753	85
298.984	91
299.214	89
299.445	99
299.675	84
299.905	107
300.136	87
300.366	97
300.597	86
300.827	87
301.057	92
301.288	110
301.518	98
301.748	94
301.979	87
302.209	91
302.439	90
302.669	85
302.9	93
303.13	102
303.36	95
303.59	90
303.82	108
304.051	99
304.281	86
304.511	93
304.741	97
304.971	99
305.201	92
305.431	92
305.661	101
305.891	93
306.121	92
306.352	100
306.582	96
306.812	90
307.042	99
307.272	80
307.502	86
307.731	96
307.961	83
308.191	94
308.421	94
308.651	87
308.881	100
309.111	104
309.341	92
309.571	110
309.8	94
310.03	97
310.26	96
310.49	98
310.72	112
310.949	99
311.179	98
311.409	94
311.639	99
311.868	99
312.098	112
312.328	101
312.557	107
312.787	105
313.017	101
313.246	98
313.476	92
313.706	92
313.935	111
314.165	109
314.394	111
314.624	100
314.853	108
315.083	96
315.312	96
315.542	98
315.771	88
316.001	92
316.23	96
316.46	90
316.689	92
316.919	106
317.148	95
317.377	100
317.607	86
317.836	80
318.065	92
318.295	96
318.524	102
318.753	102
318.983	91
319.212	106
319.441	116
319.67	106
319.9	100
320.129	116
320.358	94
320.587	112
320.816	91
321.046	95
321.275	111
321.504	98
321.733	90
321.962	102
322.191	104
322.42	114
322.649	115
322.878	103
323.108	111
323.337	130
323.566	123
323.795	160
324.024	202
324.253	383
324.482	822
324.71	1738
324.939	2327
325.168	861
325.397	269
325.626	146
325.855	140
326.084	134
326.313	135
326.542	152
326.77	230
326.999	480
327.228	984
327.457	1791
327.686	1403
327.914	375
328.143	210
328.372	143
328.6	112
328.829	115
329.058	109
329.287	130
329.515	126
329.744	107
329.972	105
330.201	110
330.43	107
330.658	117
330.887	143
331.115	115
331.344	101
331.572	114
331.801	102
332.03	105
332.258	93
332.486	81
332.715	95
332.943	107
333.172	103
333.4	113
333.629	109
333.857	113
334.085	116
334.314	103
334.542	90
334.771	104
334.999	94
335.227	94
335.455	100
335.684	99
335.912	96
336.14	101
336.369	104
336.597	115
336.825	101
337.053	86
337.281	92
337.51	106
337.738	90
337.966	99
338.194	108
338.422	106
338.65	102
338.878	102
339.106	94
339.334	91
339.562	84
339.79	90
340.018	86
340.246	86
340.474	102
340.702	85
340.93	100
341.158	88
341.386	92
341.614	101
341.842	103
342.07	83
342.298	85
342.526	92
342.754	83
342.981	93
343.209	102
343.437	108
343.665	95
343.893	84
344.12	97
344.348	95
344.576	89
344.804	95
345.031	87
345.259	103
345.487	89
345.714	92
345.942	94
346.17	104
346.397	114
346.625	99
346.853	96
347.08	98
347.308	93
347.535	94
347.763	102
347.99	101
348.218	118
348.445	101
348.673	83
348.9	104
349.128	108
349.355	96
349.583	102
349.81	98
350.037	102
350.265	102
350.492	93
350.72	108
350.947	112
351.174	108
351.402	109
351.629	87
351.856	97
352.083	106
352.311	105
352.538	93
352.765	110
352.992	116
353.22	120
353.447	106
353.674	96
353.901	104
354.128	98
354.355	103
354.583	97
354.81	95
355.037	100
355.264	101
355.491	99
355.718	95
355.945	91
356.172	83
356.399	90
356.626	100
356.853	94
357.08	98
357.307	97
357.534	98
357.761	107
357.988	96
358.215	99
358.441	101
358.668	84
358.895	82
359.122	95
359.349	106
359.576	94
359.802	97
360.029	112
360.256	106
360.483	109
360.709	92
360.936	107
361.163	97
361.39	95
361.616	90
361.843	87
362.07	114
362.296	112
362.523	94
362.749	100
362.976	96
363.203	85
363.429	98
363.656	96
363.882	104
364.109	103
364.335	98
364.562	92
364.788	79
365.015	105
365.241	117
365.468	115
365.694	97
365.92	101
366.147	99
366.373	86
366.599	93
366.826	106
367.052	82
367.278	96
367.505	95
367.731	107
367.957	85
368.184	104
368.41	86
368.636	116
368.862	115
369.089	109
369.315	85
369.541	98
369.767	82
369.993	102
370.219	98
370.445	86
370.672	84
370.898	102
371.124	71
371.35	83
371.576	95
371.802	89
372.028	98
372.254	96
372.48	84
372.706	94
372.932	103
373.158	101
373.384	94
373.61	90
373.835	99
374.061	93
374.287	87
374.513	102
374.739	91
374.965	101
375.191	91
375.416	96
375.642	97
375.868	80
376.094	104
376.319	98
376.545	84
376.771	95
376.997	88
377.222	98
377.448	92
377.674	95
377.899	91
378.125	93
378.35	106
378.576	103
378.802	92
379.027	114
379.253	87
379.478	78
379.704	93
379.929	101
380.155	95
380.38	104
380.606	103
380.831	108
381.057	94
381.282	90
381.507	97
381.733	100
381.958	92
382.184	112
382.409	105
382.634	104
382.86	101
383.085	99
383.31	87
383.535	87
383.761	96
383.986	102
384.211	102
384.436	101
384.662	106
384.887	92
385.112	104
385.337	107
385.562	107
385.787	107
386.013	102
386.238	122
386.463	101
386.688	108
386.913	98
387.138	118
387.363	96
387.588	108
387.813	111
388.038	100
388.263	111
388.488	112
388.713	100
388.938	99
389.163	87
389.387	105
389.612	105
389.837	91
390.062	97
390.287	88
390.512	82
390.736	86
390.961	93
391.186	100
391.411	101
391.636	105
391.86	84
392.085	85
392.31	96
392.534	93
392.759	87
392.984	90
393.208	100
393.433	107
393.658	87
393.882	101
394.107	91
394.331	84
394.556	86
394.78	92
395.005	93
395.229	91
395.454	90
395.678	108
395.903	92
396.127	96
396.352	84
396.576	98
396.801	84
397.025	96
397.249	90
397.474	88
397.698	90
397.922	104
398.147	94
398.371	94
398.595	79
398.82	92
399.044	93
399.268	95
399.492	89
399.717	103
399.941	99
400.165	105
400.389	98
400.613	90
400.837	104
401.062	94
401.286	81
401.51	106
401.734	92
401.958	105
402.182	132
402.406	183
402.63	116
402.854	93
403.078	86
403.302	82
403.526	101
403.75	104
403.974	86
404.198	90
404.422	90
404.645	83
404.869	91
405.093	95
405.317	94
405.541	95
405.765	108
405.988	130
406.212	169
406.436	244
406.66	147
406.883	101
407.107	92
407.331	102
407.555	114
407.778	93
408.002	94
408.226	91
408.449	96
408.673	94
408.896	91
409.12	96
409.344	100
409.567	89
409.791	82
410.014	95
410.238	101
410.461	92
410.685	92
410.908	103
411.132	125
411.355	94
411.578	106
411.802	91
412.025	99
412.249	104
412.472	94
412.695	87
412.919	89
413.142	88
413.365	85
413.589	104
413.812	91
414.035	92
414.258	94
414.482	97
414.705	95
414.928	93
415.151	100
415.374	82
415.597	99
415.821	97
416.044	104
416.267	97
416.49	84
416.713	91
416.936	96
417.159	103
417.382	97
417.605	82
417.828	95
418.051	97
418.274	94
418.497	96
418.72	93
418.943	94
419.166	89
419.389	90
419.611	90
419.834	95
420.057	96
420.28	91
420.503	95
420.726	90
420.948	94
421.171	95
421.394	97
421.617	102
421.839	104
422.062	87
422.285	93
422.507	84
422.73	104
422.953	103
423.175	93
423.398	83
423.621	94
423.843	93
424.066	109
424.288	91
424.511	97
424.733	102
424.956	110
425.178	94
425.401	94
425.623	104
425.846	111
426.068	81
426.291	93
426.513	88
426.735	107
426.958	96
427.18	103
427.402	145
427.625	162
427.847	151
428.069	104
428.292	94
428.514	90
428.736	93
428.958	80
429.181	91
429.403	74
429.625	92
429.847	101
430.069	99
430.292	95
430.514	92
430.736	99
430.958	102
431.18	90
431.402	87
431.624	94
431.846	81
432.068	86
432.29	100
432.512	87
432.734	85
432.956	90
433.178	109
433.4	95
433.622	97
433.844	82
434.066	87
434.287	103
434.509	79
434.731	89
434.953	83
435.175	102
435.397	97
435.618	111
435.84	111
436.062	125
436.284	117
436.505	97
436.727	98
436.949	104
437.17	103
437.392	88
437.614	108
437.835	112
438.057	119
438.278	104
438.5	107
438.721	126
438.943	115
439.165	92
439.386	98
439.608	100
439.829	104
440.05	130
440.272	133
440.493	86
440.715	85
440.936	103
441.158	76
441.379	87
441.6	106
441.822	101
442.043	93
442.264	99
442.486	114
442.707	97
442.928	115
443.149	120
443.371	128
443.592	102
443.813	107
444.034	98
444.255	97
444.476	87
444.698	96
444.919	99
445.14	138
445.361	117
445.582	115
445.803	124
446.024	125
446.245	131
446.466	108
446.687	102
446.908	88
447.129	103
447.35	93
447.571	95
447.792	101
448.013	103
448.234	102
448.455	101
448.675	122
448.896	127
449.117	102
449.338	110
449.559	123
449.779	115
450	105
450.221	93
450.442	86
450.662	97
450.883	114
451.104	102
451.324	92
451.545	92
451.766	95
451.986	90
452.207	81
452.428	97
452.648	91
452.869	123
453.089	125
453.31	127
453.53	102
453.751	97
453.971	96
454.192	99
454.412	95
454.633	101
454.853	92
455.073	96
455.294	95
455.514	111
455.734	88
455.955	90
456.175	70
456.395	83
456.616	78
456.836	76
457.056	96
457.276	95
457.497	102
457.717	94
457.937	88
458.157	94
458.377	101
458.598	104
458.818	148
459.038	154
459.258	104
459.478	97
459.698	84
459.918	86
460.138	94
460.358	108
460.578	86
460.798	86
461.018	89
461.238	89
461.458	86
461.678	95
461.898	78
462.118	83
462.338	76
462.558	77
462.777	92
462.997	85
463.217	96
463.437	89
463.657	86
463.876	86
464.096	103
464.316	100
464.536	110
464.755	89
464.975	99
465.195	164
465.414	154
465.634	108
465.854	94
466.073	99
466.293	100
466.512	100
466.732	81
466.951	88
467.171	87
467.391	97
467.61	108
467.829	98
468.049	95
468.268	90
468.488	94
468.707	93
468.927	104
469.146	83
469.365	87
469.585	82
469.804	94
470.023	105
470.243	95
470.462	117
470.681	100
470.901	97
471.12	83
471.339	84
471.558	95
471.777	83
471.997	95
472.216	94
472.435	83
472.654	70
472.873	97
473.092	85
473.311	87
473.53	85
473.749	91
473.968	104
474.187	111
474.406	108
474.625	83
474.844	97
475.063	80
475.282	104
475.501	91
475.72	86
475.939	81
476.158	102
476.377	86
476.596	93
476.814	72
477.033	98
477.252	89
477.471	91
477.69	94
477.908	92
478.127	111
478.346	82
478.564	102
478.783	104
479.002	93
479.22	97
479.439	96
479.658	95
479.876	103
480.095	109
480.313	102
480.532	93
480.751	98
480.969	85
481.188	98
481.406	106
481.624	103
481.843	86
482.061	80
482.28	99
482.498	90
482.717	101
482.935	100
483.153	86
483.372	79
483.59	79
483.808	101
484.027	113
484.245	114
484.463	98
484.681	97
484.9	102
485.118	98
485.336	100
485.554	102
485.772	93
485.99	106
486.209	100
486.427	95
486.645	110
486.863	115
487.081	118
487.299	106
487.517	98
487.735	100
487.953	89
488.171	87
488.389	105
488.607	95
488.825	99
489.043	88
489.261	101
489.479	91
489.696	96
489.914	81
490.132	88
490.35	87
490.568	94
490.786	96
491.003	93
491.221	106
491.439	88
491.657	98
491.874	87
492.092	93
492.31	86
492.527	83
492.745	83
492.963	92
493.18	88
493.398	106
493.615	105
493.833	107
494.05	97
494.268	85
494.485	89
494.703	83
494.92	93
495.138	85
495.355	94
495.573	93
495.79	90
496.008	95
496.225	97
496.442	106
496.66	92
496.877	92
497.094	102
497.312	99
497.529	99
497.746	91
497.963	97
498.181	102
498.398	98
498.615	115
498.832	100
499.049	101
499.267	82
499.484	86
499.701	88
499.918	88
500.135	99
500.352	93
500.569	104
500.786	104
501.003	86
501.22	101
501.437	104
501.654	109
501.871	107
502.088	98
502.305	96
502.522	95
502.739	89
502.956	96
503.172	97
503.389	90
503.606	118
503.823	107
504.04	102
504.256	99
504.473	95
504.69	87
504.907	92
505.123	96
505.34	93
505.557	87
505.773	93
505.99	96
506.207	105
506.423	85
506.64	95
506.856	86
507.073	95
507.289	92
507.506	87
507.722	118
507.939	111
508.155	103
508.372	94
508.588	91
508.805	108
509.021	95
509.238	94
509.454	109
509.67	97
509.887	112
510.103	153
510.319	230
510.536	828
510.752	2598
510.968	711
511.184	174
511.401	98
511.617	100
511.833	88
512.049	99
512.265	99
512.481	94
512.698	94
512.914	97
513.13	93
513.346	97
513.562	101
513.778	111
513.994	93
514.21	103
514.426	117
514.642	118
514.858	136
515.074	176
515.29	456
515.506	1497
515.721	554
515.937	148
516.153	113
516.369	103
516.585	84
516.801	85
517.016	97
517.232	105
517.448	101
517.664	104
517.879	100
518.095	92
518.311	95
518.527	98
518.742	89
518.958	100
519.173	92
519.389	96
519.605	81
519.82	95
520.036	95
520.251	128
520.467	107
520.682	101
520.898	104
521.113	111
521.329	152
521.544	217
521.76	570
521.975	2506
522.19	1493
522.406	313
522.621	126
522.836	112
523.052	91
523.267	110
523.482	93
523.698	104
523.913	118
524.128	108
524.343	89
524.559	95
524.774	86
524.989	112
525.204	100
525.419	104
525.634	92
525.849	105
526.064	87
526.28	99
526.495	84
526.71	95
526.925	101
527.14	88
527.355	85
527.57	96
527.785	93
527.999	92
528.214	111
528.429	101
528.644	104
528.859	89
529.074	101
529.289	126
529.503	166
529.718	110
529.933	92
530.148	100
530.363	96
530.577	93
530.792	105
531.007	87
531.221	100
531.436	93
531.651	82
531.865	87
532.08	93
532.295	90
532.509	96
532.724	92
532.938	97
533.153	108
533.367	99
533.582	109
533.796	103
534.011	91
534.225	92
534.44	92
534.654	88
534.868	85
535.083	96
535.297	102
535.511	101
535.726	104
535.94	111
536.154	99
536.369	97
536.583	101
536.797	98
537.011	94
537.225	94
537.44	82
537.654	80
537.868	86
538.082	96
538.296	103
538.51	102
538.724	95
538.938	92
539.153	104
539.367	96
539.581	88
539.795	103
540.009	106
540.222	100
540.436	100
540.65	92
540.864	95
541.078	105
541.292	96
541.506	89
541.72	84
541.934	90
542.147	92
542.361	99
542.575	94
542.789	97
543.002	87
543.216	101
543.43	100
543.644	104
543.857	82
544.071	79
544.285	107
544.498	96
544.712	90
544.925	94
545.139	96
545.352	85
545.566	95
545.779	98
545.993	94
546.206	86
546.42	102
546.633	92
546.847	96
547.06	102
547.274	109
547.487	94
547.7	106
547.914	102
548.127	99
548.34	102
548.554	92
548.767	85
548.98	96
549.193	95
549.407	93
549.62	100
549.833	97
550.046	98
550.259	97
550.473	89
550.686	93
550.899	97
551.112	85
551.325	97
551.538	102
551.751	99
551.964	101
552.177	91
552.39	94
552.603	86
552.816	90
553.029	103
553.242	95
553.455	103
553.667	110
553.88	113
554.093	110
554.306	99
554.519	98
554.732	83
554.944	110
555.157	109
555.37	99
555.583	94
555.795	84
556.008	102
556.221	85
556.433	92
556.646	98
556.859	85
557.071	84
557.284	98
557.496	93
557.709	94
557.921	89
558.134	88
558.346	95
558.559	104
558.771	88
558.984	82
559.196	95
559.409	99
559.621	92
559.833	94
560.046	98
560.258	97
560.47	110
560.683	98
560.895	92
561.107	86
561.32	90
561.532	93
561.744	100
561.956	101
562.168	87
562.381	103
562.593	103
562.805	106
563.017	88
563.229	101
563.441	94
563.653	96
563.865	87
564.077	88
564.289	94
564.501	91
564.713	94
564.925	91
565.137	106
565.349	93
565.561	85
565.773	78
565.985	95
566.197	100
566.408	87
566.62	93
566.832	92
567.044	95
567.255	84
567.467	98
567.679	85
567.891	89
568.102	90
568.314	87
568.526	92
568.737	103
568.949	82
569.161	108
569.372	92
569.584	90
569.795	93
570.007	117
570.218	266
570.43	144
570.641	88
570.853	89
571.064	94
571.276	94
571.487	96
571.698	92
571.91	68
572.121	101
572.333	80
572.544	92
572.755	104
572.966	84
573.178	95
573.389	94
573.6	93
573.811	93
574.023	101
574.234	91
574.445	90
574.656	100
574.867	86
575.078	91
575.289	97
575.501	94
575.712	88
575.923	80
576.134	87
576.345	82
576.556	85
576.767	81
576.978	85
577.188	102
577.399	102
577.61	88
577.821	115
578.032	128
578.243	314
578.454	859
578.665	230
578.875	108
579.086	99
579.297	102
579.508	90
579.718	90
579.929	102
580.14	94
580.35	82
580.561	92
580.772	95
580.982	110
581.193	84
581.403	94
581.614	82
