Data from Uncirc_1995_H10_HRD10591_00080.txt Node
Date: Wed Jan 03 11:35:49 EST 2024
User: Yrep
Spectrometer: HR+D1059
Trigger mode: 1
Integration Time (sec): 1.000000E-1
Scans to average: 1
Electric dark correction enabled: true
Nonlinearity correction enabled: false
Boxcar width: 0
XAxis mode: Wavelengths
Number of Pixels in Spectrum: 2048
>>>>>Begin Spectral Data<<<<<
223.165	-21.75
223.4	-21.75
223.635	-21.75
223.869	-25.75
224.104	-18.75
224.338	-16.75
224.573	-12.75
224.808	-24.75
225.042	-6.75
225.277	-5.75
225.511	-4.75
225.746	10.25
225.98	11.25
226.215	19.25
226.449	28.25
226.683	22.25
226.918	22.25
227.152	24.25
227.387	26.25
227.621	23.25
227.856	49.25
228.09	36.25
228.324	60.25
228.559	63.25
228.793	51.25
229.027	60.25
229.262	59.25
229.496	82.25
229.73	83.25
229.964	80.25
230.199	76.25
230.433	75.25
230.667	90.25
230.901	85.25
231.136	67.25
231.37	82.25
231.604	79.25
231.838	86.25
232.072	79.25
232.306	81.25
232.541	88.25
232.775	88.25
233.009	83.25
233.243	77.25
233.477	75.25
233.711	77.25
233.945	79.25
234.179	81.25
234.413	84.25
234.647	83.25
234.881	74.25
235.115	72.25
235.349	73.25
235.583	82.25
235.817	80.25
236.051	79.25
236.285	77.25
236.519	64.25
236.753	81.25
236.987	88.25
237.221	85.25
237.455	82.25
237.689	81.25
237.922	76.25
238.156	81.25
238.39	69.25
238.624	79.25
238.858	92.25
239.091	87.25
239.325	74.25
239.559	72.25
239.793	71.25
240.027	84.25
240.26	95.25
240.494	77.25
240.728	74.25
240.961	72.25
241.195	82.25
241.429	71.25
241.662	85.25
241.896	75.25
242.13	71.25
242.363	83.25
242.597	75.25
242.83	66.25
243.064	92.25
243.298	84.25
243.531	73.25
243.765	77.25
243.998	85.25
244.232	76.25
244.465	80.25
244.699	81.25
244.932	71.25
245.166	81.25
245.399	80.25
245.633	83.25
245.866	80.25
246.099	90.25
246.333	78.25
246.566	75.25
246.8	77.25
247.033	84.25
247.266	73.25
247.5	70.25
247.733	79.25
247.966	82.25
248.2	68.25
248.433	67.25
248.666	72.25
248.899	94.25
249.133	84.25
249.366	96.25
249.599	89.25
249.832	73.25
250.066	90.25
250.299	71.25
250.532	75.25
250.765	89.25
250.998	83.25
251.231	84.25
251.465	94.25
251.698	72.25
251.931	71.25
252.164	64.25
252.397	80.25
252.63	81.25
252.863	86.25
253.096	83.25
253.329	82.25
253.562	69.25
253.795	80.25
254.028	84.25
254.261	82.25
254.494	91.25
254.727	85.25
254.96	92.25
255.193	88.25
255.426	92.25
255.659	87.25
255.892	82.25
256.124	96.25
256.357	82.25
256.59	91.25
256.823	85.25
257.056	66.25
257.289	81.25
257.521	87.25
257.754	78.25
257.987	81.25
258.22	87.25
258.452	77.25
258.685	80.25
258.918	79.25
259.151	87.25
259.383	81.25
259.616	77.25
259.849	82.25
260.081	76.25
260.314	88.25
260.547	72.25
260.779	61.25
261.012	81.25
261.244	85.25
261.477	76.25
261.71	81.25
261.942	99.25
262.175	113.25
262.407	82.25
262.64	82.25
262.872	95.25
263.105	84.25
263.337	76.25
263.57	84.25
263.802	80.25
264.035	78.25
264.267	80.25
264.499	83.25
264.732	75.25
264.964	70.25
265.197	81.25
265.429	81.25
265.661	89.25
265.894	90.25
266.126	86.25
266.358	93.25
266.591	85.25
266.823	89.25
267.055	85.25
267.287	89.25
267.52	84.25
267.752	84.25
267.984	97.25
268.216	95.25
268.448	85.25
268.681	77.25
268.913	84.25
269.145	85.25
269.377	100.25
269.609	92.25
269.841	81.25
270.073	79.25
270.306	98.25
270.538	78.25
270.77	82.25
271.002	92.25
271.234	88.25
271.466	75.25
271.698	97.25
271.93	88.25
272.162	82.25
272.394	92.25
272.626	80.25
272.858	73.25
273.09	68.25
273.322	89.25
273.553	79.25
273.785	81.25
274.017	93.25
274.249	90.25
274.481	83.25
274.713	90.25
274.945	92.25
275.176	89.25
275.408	88.25
275.64	82.25
275.872	81.25
276.104	83.25
276.335	95.25
276.567	99.25
276.799	100.25
277.031	83.25
277.262	91.25
277.494	97.25
277.726	84.25
277.957	85.25
278.189	87.25
278.421	92.25
278.652	87.25
278.884	95.25
279.115	85.25
279.347	84.25
279.579	81.25
279.81	89.25
280.042	94.25
280.273	79.25
280.505	95.25
280.736	88.25
280.968	82.25
281.199	92.25
281.431	79.25
281.662	79.25
281.894	86.25
282.125	98.25
282.356	125.25
282.588	140.25
282.819	109.25
283.051	85.25
283.282	91.25
283.513	97.25
283.745	85.25
283.976	80.25
284.207	100.25
284.439	99.25
284.67	90.25
284.901	91.25
285.132	82.25
285.364	80.25
285.595	95.25
285.826	91.25
286.057	83.25
286.288	83.25
286.52	93.25
286.751	80.25
286.982	90.25
287.213	92.25
287.444	96.25
287.675	104.25
287.906	111.25
288.138	86.25
288.369	103.25
288.6	100.25
288.831	71.25
289.062	101.25
289.293	106.25
289.524	83.25
289.755	90.25
289.986	87.25
290.217	79.25
290.448	83.25
290.679	90.25
290.91	102.25
291.141	97.25
291.371	96.25
291.602	89.25
291.833	77.25
292.064	93.25
292.295	85.25
292.526	81.25
292.757	86.25
292.987	83.25
293.218	79.25
293.449	87.25
293.68	84.25
293.91	85.25
294.141	91.25
294.372	84.25
294.603	100.25
294.833	87.25
295.064	103.25
295.295	91.25
295.525	81.25
295.756	98.25
295.987	112.25
296.217	123.25
296.448	126.25
296.679	94.25
296.909	84.25
297.14	89.25
297.37	72.25
297.601	102.25
297.831	91.25
298.062	105.25
298.292	82.25
298.523	103.25
298.753	101.25
298.984	91.25
299.214	93.25
299.445	91.25
299.675	108.25
299.905	79.25
300.136	95.25
300.366	97.25
300.597	86.25
300.827	97.25
301.057	99.25
301.288	90.25
301.518	100.25
301.748	101.25
301.979	88.25
302.209	93.25
302.439	92.25
302.669	82.25
302.9	98.25
303.13	97.25
303.36	79.25
303.59	103.25
303.82	111.25
304.051	90.25
304.281	98.25
304.511	86.25
304.741	99.25
304.971	81.25
305.201	84.25
305.431	78.25
305.661	98.25
305.891	90.25
306.121	76.25
306.352	107.25
306.582	103.25
306.812	104.25
307.042	95.25
307.272	103.25
307.502	98.25
307.731	104.25
307.961	90.25
308.191	84.25
308.421	100.25
308.651	88.25
308.881	101.25
309.111	90.25
309.341	103.25
309.571	102.25
309.8	88.25
310.03	90.25
310.26	77.25
310.49	88.25
310.72	90.25
310.949	112.25
311.179	98.25
311.409	91.25
311.639	100.25
311.868	110.25
312.098	102.25
312.328	96.25
312.557	100.25
312.787	109.25
313.017	88.25
313.246	107.25
313.476	97.25
313.706	96.25
313.935	95.25
314.165	97.25
314.394	107.25
314.624	107.25
314.853	106.25
315.083	93.25
315.312	115.25
315.542	98.25
315.771	102.25
316.001	105.25
316.23	88.25
316.46	92.25
316.689	83.25
316.919	91.25
317.148	109.25
317.377	91.25
317.607	88.25
317.836	95.25
318.065	101.25
318.295	97.25
318.524	92.25
318.753	93.25
318.983	89.25
319.212	100.25
319.441	97.25
319.67	113.25
319.9	98.25
320.129	89.25
320.358	95.25
320.587	97.25
320.816	113.25
321.046	94.25
321.275	106.25
321.504	107.25
321.733	99.25
321.962	96.25
322.191	99.25
322.42	108.25
322.649	120.25
322.878	112.25
323.108	111.25
323.337	113.25
323.566	132.25
323.795	148.25
324.024	192.25
324.253	392.25
324.482	801.25
324.71	1667.25
324.939	2199.25
325.168	797.25
325.397	238.25
325.626	157.25
325.855	135.25
326.084	132.25
326.313	123.25
326.542	148.25
326.77	229.25
326.999	447.25
327.228	960.25
327.457	1723.25
327.686	1329.25
327.914	370.25
328.143	202.25
328.372	146.25
328.6	131.25
328.829	103.25
329.058	109.25
329.287	130.25
329.515	109.25
329.744	105.25
329.972	107.25
330.201	91.25
330.43	104.25
330.658	113.25
330.887	121.25
331.115	120.25
331.344	120.25
331.572	102.25
331.801	107.25
332.03	95.25
332.258	91.25
332.486	97.25
332.715	97.25
332.943	93.25
333.172	109.25
333.4	105.25
333.629	116.25
333.857	109.25
334.085	99.25
334.314	92.25
334.542	96.25
334.771	95.25
334.999	103.25
335.227	95.25
335.455	94.25
335.684	96.25
335.912	92.25
336.14	92.25
336.369	99.25
336.597	99.25
336.825	93.25
337.053	95.25
337.281	96.25
337.51	75.25
337.738	83.25
337.966	91.25
338.194	98.25
338.422	104.25
338.65	89.25
338.878	86.25
339.106	90.25
339.334	97.25
339.562	94.25
339.79	100.25
340.018	84.25
340.246	102.25
340.474	105.25
340.702	84.25
340.93	92.25
341.158	88.25
341.386	97.25
341.614	97.25
341.842	103.25
342.07	95.25
342.298	102.25
342.526	98.25
342.754	91.25
342.981	97.25
343.209	94.25
343.437	96.25
343.665	109.25
343.893	98.25
344.12	106.25
344.348	81.25
344.576	81.25
344.804	100.25
345.031	84.25
345.259	97.25
345.487	90.25
345.714	90.25
345.942	88.25
346.17	87.25
346.397	92.25
346.625	110.25
346.853	98.25
347.08	92.25
347.308	95.25
347.535	101.25
347.763	106.25
347.99	102.25
348.218	100.25
348.445	109.25
348.673	93.25
348.9	93.25
349.128	84.25
349.355	98.25
349.583	93.25
349.81	106.25
350.037	91.25
350.265	93.25
350.492	92.25
350.72	92.25
350.947	91.25
351.174	117.25
351.402	94.25
351.629	95.25
351.856	93.25
352.083	97.25
352.311	119.25
352.538	108.25
352.765	107.25
352.992	110.25
353.22	114.25
353.447	105.25
353.674	106.25
353.901	98.25
354.128	92.25
354.355	93.25
354.583	104.25
354.81	110.25
355.037	97.25
355.264	94.25
355.491	80.25
355.718	83.25
355.945	108.25
356.172	91.25
356.399	96.25
356.626	91.25
356.853	95.25
357.08	95.25
357.307	95.25
357.534	91.25
357.761	87.25
357.988	78.25
358.215	89.25
358.441	79.25
358.668	87.25
358.895	93.25
359.122	89.25
359.349	89.25
359.576	96.25
359.802	101.25
360.029	101.25
360.256	106.25
360.483	109.25
360.709	97.25
360.936	86.25
361.163	100.25
361.39	96.25
361.616	91.25
361.843	85.25
362.07	95.25
362.296	97.25
362.523	96.25
362.749	92.25
362.976	98.25
363.203	101.25
363.429	101.25
363.656	100.25
363.882	79.25
364.109	96.25
364.335	87.25
364.562	99.25
364.788	88.25
365.015	94.25
365.241	97.25
365.468	102.25
365.694	106.25
365.92	96.25
366.147	87.25
366.373	81.25
366.599	87.25
366.826	88.25
367.052	100.25
367.278	76.25
367.505	96.25
367.731	94.25
367.957	99.25
368.184	89.25
368.41	96.25
368.636	109.25
368.862	124.25
369.089	107.25
369.315	104.25
369.541	90.25
369.767	94.25
369.993	79.25
370.219	87.25
370.445	89.25
370.672	84.25
370.898	83.25
371.124	91.25
371.35	91.25
371.576	92.25
371.802	90.25
372.028	90.25
372.254	85.25
372.48	94.25
372.706	81.25
372.932	71.25
373.158	82.25
373.384	91.25
373.61	83.25
373.835	81.25
374.061	82.25
374.287	91.25
374.513	76.25
374.739	81.25
374.965	83.25
375.191	97.25
375.416	73.25
375.642	96.25
375.868	89.25
376.094	108.25
376.319	96.25
376.545	92.25
376.771	83.25
376.997	84.25
377.222	80.25
377.448	100.25
377.674	71.25
377.899	84.25
378.125	106.25
378.35	95.25
378.576	103.25
378.802	96.25
379.027	81.25
379.253	78.25
379.478	82.25
379.704	90.25
379.929	95.25
380.155	90.25
380.38	96.25
380.606	83.25
380.831	105.25
381.057	100.25
381.282	93.25
381.507	98.25
381.733	80.25
381.958	104.25
382.184	88.25
382.409	97.25
382.634	108.25
382.86	105.25
383.085	95.25
383.31	101.25
383.535	99.25
383.761	101.25
383.986	96.25
384.211	87.25
384.436	96.25
384.662	96.25
384.887	101.25
385.112	117.25
385.337	100.25
385.562	94.25
385.787	114.25
386.013	110.25
386.238	121.25
386.463	99.25
386.688	111.25
386.913	103.25
387.138	96.25
387.363	95.25
387.588	99.25
387.813	92.25
388.038	106.25
388.263	87.25
388.488	119.25
388.713	96.25
388.938	106.25
389.163	104.25
389.387	109.25
389.612	100.25
389.837	107.25
390.062	98.25
390.287	102.25
390.512	93.25
390.736	85.25
390.961	80.25
391.186	103.25
391.411	87.25
391.636	104.25
391.86	84.25
392.085	90.25
392.31	81.25
392.534	95.25
392.759	81.25
392.984	83.25
393.208	93.25
393.433	84.25
393.658	83.25
393.882	77.25
394.107	88.25
394.331	94.25
394.556	83.25
394.78	89.25
395.005	87.25
395.229	88.25
395.454	84.25
395.678	83.25
395.903	91.25
396.127	88.25
396.352	92.25
396.576	96.25
396.801	76.25
397.025	83.25
397.249	98.25
397.474	102.25
397.698	89.25
397.922	96.25
398.147	83.25
398.371	75.25
398.595	100.25
398.82	83.25
399.044	79.25
399.268	97.25
399.492	82.25
399.717	88.25
399.941	91.25
400.165	93.25
400.389	95.25
400.613	86.25
400.837	81.25
401.062	92.25
401.286	71.25
401.51	74.25
401.734	91.25
401.958	92.25
402.182	122.25
402.406	149.25
402.63	122.25
402.854	98.25
403.078	73.25
403.302	99.25
403.526	88.25
403.75	89.25
403.974	95.25
404.198	90.25
404.422	79.25
404.645	75.25
404.869	80.25
405.093	67.25
405.317	105.25
405.541	87.25
405.765	107.25
405.988	108.25
406.212	176.25
406.436	196.25
406.66	138.25
406.883	82.25
407.107	94.25
407.331	89.25
407.555	91.25
407.778	101.25
408.002	97.25
408.226	83.25
408.449	91.25
408.673	90.25
408.896	98.25
409.12	88.25
409.344	77.25
409.567	91.25
409.791	87.25
410.014	93.25
410.238	96.25
410.461	80.25
410.685	95.25
410.908	106.25
411.132	109.25
411.355	91.25
411.578	95.25
411.802	97.25
412.025	90.25
412.249	85.25
412.472	85.25
412.695	92.25
412.919	96.25
413.142	87.25
413.365	83.25
413.589	89.25
413.812	88.25
414.035	97.25
414.258	104.25
414.482	97.25
414.705	91.25
414.928	78.25
415.151	91.25
415.374	89.25
415.597	90.25
415.821	96.25
416.044	91.25
416.267	97.25
416.49	103.25
416.713	100.25
416.936	89.25
417.159	82.25
417.382	102.25
417.605	87.25
417.828	96.25
418.051	99.25
418.274	105.25
418.497	79.25
418.72	89.25
418.943	86.25
419.166	66.25
419.389	75.25
419.611	104.25
419.834	95.25
420.057	82.25
420.28	76.25
420.503	87.25
420.726	97.25
420.948	87.25
421.171	86.25
421.394	97.25
421.617	85.25
421.839	89.25
422.062	99.25
422.285	75.25
422.507	94.25
422.73	90.25
422.953	93.25
423.175	95.25
423.398	86.25
423.621	88.25
423.843	88.25
424.066	72.25
424.288	72.25
424.511	95.25
424.733	91.25
424.956	106.25
425.178	101.25
425.401	93.25
425.623	108.25
425.846	108.25
426.068	96.25
426.291	91.25
426.513	105.25
426.735	85.25
426.958	76.25
427.18	109.25
427.402	139.25
427.625	159.25
427.847	128.25
428.069	92.25
428.292	87.25
428.514	94.25
428.736	92.25
428.958	80.25
429.181	85.25
429.403	97.25
429.625	85.25
429.847	93.25
430.069	98.25
430.292	94.25
430.514	83.25
430.736	92.25
430.958	96.25
431.18	83.25
431.402	101.25
431.624	86.25
431.846	91.25
432.068	75.25
432.29	97.25
432.512	102.25
432.734	82.25
432.956	99.25
433.178	95.25
433.4	90.25
433.622	81.25
433.844	77.25
434.066	84.25
434.287	81.25
434.509	90.25
434.731	80.25
434.953	80.25
435.175	81.25
435.397	106.25
435.618	87.25
435.84	99.25
436.062	118.25
436.284	108.25
436.505	108.25
436.727	103.25
436.949	77.25
437.17	91.25
437.392	90.25
437.614	98.25
437.835	101.25
438.057	103.25
438.278	83.25
438.5	97.25
438.721	117.25
438.943	109.25
439.165	95.25
439.386	85.25
439.608	89.25
439.829	86.25
440.05	114.25
440.272	106.25
440.493	91.25
440.715	80.25
440.936	85.25
441.158	92.25
441.379	98.25
441.6	85.25
441.822	95.25
442.043	92.25
442.264	102.25
442.486	107.25
442.707	81.25
442.928	101.25
443.149	111.25
443.371	128.25
443.592	101.25
443.813	107.25
444.034	95.25
444.255	98.25
444.476	99.25
444.698	110.25
444.919	85.25
445.14	139.25
445.361	128.25
445.582	105.25
445.803	131.25
446.024	129.25
446.245	137.25
446.466	99.25
446.687	86.25
446.908	79.25
447.129	92.25
447.35	89.25
447.571	96.25
447.792	96.25
448.013	95.25
448.234	87.25
448.455	84.25
448.675	114.25
448.896	103.25
449.117	96.25
449.338	98.25
449.559	113.25
449.779	113.25
450	89.25
450.221	90.25
450.442	89.25
450.662	103.25
450.883	93.25
451.104	122.25
451.324	95.25
451.545	81.25
451.766	64.25
451.986	93.25
452.207	79.25
452.428	83.25
452.648	101.25
452.869	117.25
453.089	97.25
453.31	107.25
453.53	93.25
453.751	71.25
453.971	100.25
454.192	104.25
454.412	89.25
454.633	88.25
454.853	101.25
455.073	79.25
455.294	88.25
455.514	99.25
455.734	76.25
455.955	87.25
456.175	81.25
456.395	81.25
456.616	88.25
456.836	85.25
457.056	89.25
457.276	81.25
457.497	62.25
457.717	85.25
457.937	99.25
458.157	91.25
458.377	98.25
458.598	110.25
458.818	136.25
459.038	135.25
459.258	123.25
459.478	88.25
459.698	90.25
459.918	78.25
460.138	84.25
460.358	89.25
460.578	85.25
460.798	95.25
461.018	91.25
461.238	92.25
461.458	94.25
461.678	92.25
461.898	90.25
462.118	86.25
462.338	91.25
462.558	103.25
462.777	81.25
462.997	98.25
463.217	78.25
463.437	96.25
463.657	72.25
463.876	78.25
464.096	89.25
464.316	93.25
464.536	103.25
464.755	74.25
464.975	96.25
465.195	170.25
465.414	143.25
465.634	94.25
465.854	102.25
466.073	104.25
466.293	76.25
466.512	86.25
466.732	81.25
466.951	74.25
467.171	84.25
467.391	108.25
467.61	93.25
467.829	95.25
468.049	96.25
468.268	95.25
468.488	91.25
468.707	101.25
468.927	79.25
469.146	87.25
469.365	69.25
469.585	87.25
469.804	88.25
470.023	86.25
470.243	89.25
470.462	93.25
470.681	101.25
470.901	87.25
471.12	86.25
471.339	96.25
471.558	77.25
471.777	109.25
471.997	103.25
472.216	83.25
472.435	90.25
472.654	88.25
472.873	89.25
473.092	95.25
473.311	80.25
473.53	84.25
473.749	83.25
473.968	77.25
474.187	101.25
474.406	100.25
474.625	93.25
474.844	93.25
475.063	89.25
475.282	81.25
475.501	84.25
475.72	92.25
475.939	89.25
476.158	88.25
476.377	85.25
476.596	90.25
476.814	95.25
477.033	98.25
477.252	91.25
477.471	85.25
477.69	85.25
477.908	86.25
478.127	98.25
478.346	91.25
478.564	91.25
478.783	100.25
479.002	89.25
479.22	89.25
479.439	101.25
479.658	105.25
479.876	90.25
480.095	84.25
480.313	87.25
480.532	92.25
480.751	91.25
480.969	91.25
481.188	96.25
481.406	95.25
481.624	95.25
481.843	96.25
482.061	83.25
482.28	94.25
482.498	94.25
482.717	90.25
482.935	96.25
483.153	97.25
483.372	88.25
483.59	106.25
483.808	106.25
484.027	99.25
484.245	98.25
484.463	79.25
484.681	91.25
484.9	90.25
485.118	103.25
485.336	106.25
485.554	106.25
485.772	100.25
485.99	96.25
486.209	91.25
486.427	96.25
486.645	104.25
486.863	104.25
487.081	100.25
487.299	97.25
487.517	96.25
487.735	95.25
487.953	92.25
488.171	113.25
488.389	86.25
488.607	100.25
488.825	85.25
489.043	95.25
489.261	91.25
489.479	100.25
489.696	93.25
489.914	84.25
490.132	81.25
490.35	85.25
490.568	81.25
490.786	96.25
491.003	91.25
491.221	84.25
491.439	86.25
491.657	84.25
491.874	92.25
492.092	93.25
492.31	97.25
492.527	92.25
492.745	107.25
492.963	95.25
493.18	94.25
493.398	93.25
493.615	95.25
493.833	90.25
494.05	82.25
494.268	91.25
494.485	121.25
494.703	103.25
494.92	81.25
495.138	84.25
495.355	87.25
495.573	95.25
495.79	93.25
496.008	98.25
496.225	111.25
496.442	85.25
496.66	100.25
496.877	104.25
497.094	93.25
497.312	84.25
497.529	81.25
497.746	98.25
497.963	84.25
498.181	95.25
498.398	108.25
498.615	87.25
498.832	111.25
499.049	98.25
499.267	105.25
499.484	87.25
499.701	78.25
499.918	84.25
500.135	88.25
500.352	92.25
500.569	91.25
500.786	104.25
501.003	99.25
501.22	98.25
501.437	103.25
501.654	98.25
501.871	93.25
502.088	97.25
502.305	97.25
502.522	89.25
502.739	79.25
502.956	95.25
503.172	94.25
503.389	87.25
503.606	96.25
503.823	101.25
504.04	91.25
504.256	93.25
504.473	100.25
504.69	91.25
504.907	99.25
505.123	100.25
505.34	100.25
505.557	83.25
505.773	93.25
505.99	89.25
506.207	101.25
506.423	96.25
506.64	91.25
506.856	82.25
507.073	82.25
507.289	92.25
507.506	105.25
507.722	111.25
507.939	91.25
508.155	94.25
508.372	88.25
508.588	92.25
508.805	99.25
509.021	96.25
509.238	107.25
509.454	104.25
509.67	104.25
509.887	112.25
510.103	136.25
510.319	210.25
510.536	745.25
510.752	2403.25
510.968	665.25
511.184	157.25
511.401	109.25
511.617	90.25
511.833	72.25
512.049	90.25
512.265	96.25
512.481	83.25
512.698	96.25
512.914	101.25
513.13	105.25
513.346	96.25
513.562	92.25
513.778	90.25
513.994	103.25
514.21	99.25
514.426	116.25
514.642	127.25
514.858	115.25
515.074	165.25
515.29	416.25
515.506	1366.25
