Data from Uncirc_1995_H10_HRD10591_00100.txt Node
Date: Wed Jan 03 11:35:53 EST 2024
User: Yrep
Spectrometer: HR+D1059
Trigger mode: 1
Integration Time (sec): 1.000000E-1
Scans to average: 1
Electric dark correction enabled: true
Nonlinearity correction enabled: false
Boxcar width: 0
XAxis mode: Wavelengths
Number of Pixels in Spectrum: 2048
>>>>>Begin Spectral Data<<<<<
223.165	-12.81
223.4	-12.81
223.635	-12.81
223.869	-36.81
224.104	-22.81
224.338	-10.81
224.573	-4.81
224.808	-8.81
225.042	3.19
225.277	-1.81
225.511	15.19
225.746	-0.81
225.98	-2.81
226.215	15.19
226.449	7.19
226.683	18.19
226.918	15.19
227.152	28.19
227.387	22.19
227.621	44.19
227.856	56.19
228.09	33.19
228.324	47.19
228.559	62.19
228.793	71.19
229.027	62.19
229.262	66.19
229.496	74.19
229.73	77.19
229.964	87.19
230.199	72.19
230.433	65.19
230.667	81.19
230.901	73.19
231.136	72.19
231.37	74.19
231.604	88.19
231.838	91.19
232.072	88.19
232.306	73.19
232.541	81.19
232.775	88.19
233.009	88.19
233.243	92.19
233.477	84.19
233.711	80.19
233.945	74.19
234.179	81.19
234.413	81.19
234.647	81.19
234.881	89.19
235.115	87.19
235.349	74.19
235.583	80.19
235.817	80.19
236.051	92.19
236.285	80.19
236.519	80.19
236.753	78.19
236.987	76.19
237.221	87.19
237.455	82.19
237.689	81.19
237.922	90.19
238.156	87.19
238.39	81.19
238.624	68.19
238.858	89.19
239.091	69.19
239.325	75.19
239.559	82.19
239.793	73.19
240.027	80.19
240.26	74.19
240.494	68.19
240.728	87.19
240.961	64.19
241.195	85.19
241.429	67.19
241.662	83.19
241.896	74.19
242.13	75.19
242.363	79.19
242.597	79.19
242.83	74.19
243.064	71.19
243.298	85.19
243.531	77.19
243.765	89.19
243.998	89.19
244.232	79.19
244.465	91.19
244.699	83.19
244.932	80.19
245.166	88.19
245.399	68.19
245.633	92.19
245.866	77.19
246.099	95.19
246.333	82.19
246.566	76.19
246.8	82.19
247.033	69.19
247.266	90.19
247.5	81.19
247.733	84.19
247.966	78.19
248.2	69.19
248.433	82.19
248.666	84.19
248.899	78.19
249.133	84.19
249.366	96.19
249.599	100.19
249.832	91.19
250.066	94.19
250.299	80.19
250.532	85.19
250.765	72.19
250.998	73.19
251.231	86.19
251.465	87.19
251.698	80.19
251.931	82.19
252.164	87.19
252.397	80.19
252.63	89.19
252.863	84.19
253.096	82.19
253.329	78.19
253.562	82.19
253.795	83.19
254.028	67.19
254.261	79.19
254.494	95.19
254.727	82.19
254.96	85.19
255.193	80.19
255.426	90.19
255.659	84.19
255.892	86.19
256.124	81.19
256.357	91.19
256.59	89.19
256.823	77.19
257.056	91.19
257.289	80.19
257.521	79.19
257.754	87.19
257.987	95.19
258.22	83.19
258.452	82.19
258.685	81.19
258.918	93.19
259.151	79.19
259.383	87.19
259.616	74.19
259.849	79.19
260.081	87.19
260.314	88.19
260.547	73.19
260.779	84.19
261.012	75.19
261.244	84.19
261.477	110.19
261.71	104.19
261.942	105.19
262.175	119.19
262.407	104.19
262.64	77.19
262.872	73.19
263.105	94.19
263.337	75.19
263.57	82.19
263.802	80.19
264.035	71.19
264.267	82.19
264.499	86.19
264.732	91.19
264.964	82.19
265.197	75.19
265.429	88.19
265.661	73.19
265.894	69.19
266.126	86.19
266.358	81.19
266.591	91.19
266.823	88.19
267.055	84.19
267.287	83.19
267.52	84.19
267.752	74.19
267.984	98.19
268.216	94.19
268.448	82.19
268.681	70.19
268.913	98.19
269.145	80.19
269.377	79.19
269.609	79.19
269.841	87.19
270.073	91.19
270.306	81.19
270.538	87.19
270.77	103.19
271.002	76.19
271.234	96.19
271.466	85.19
271.698	89.19
271.93	81.19
272.162	90.19
272.394	97.19
272.626	93.19
272.858	82.19
273.09	71.19
273.322	100.19
273.553	91.19
273.785	90.19
274.017	91.19
274.249	91.19
274.481	89.19
274.713	94.19
274.945	96.19
275.176	83.19
275.408	87.19
275.64	79.19
275.872	92.19
276.104	93.19
276.335	84.19
276.567	92.19
276.799	116.19
277.031	109.19
277.262	91.19
277.494	101.19
277.726	89.19
277.957	79.19
278.189	88.19
278.421	111.19
278.652	82.19
278.884	87.19
279.115	100.19
279.347	78.19
279.579	91.19
279.81	89.19
280.042	72.19
280.273	94.19
280.505	90.19
280.736	92.19
280.968	95.19
281.199	91.19
281.431	88.19
281.662	79.19
281.894	100.19
282.125	116.19
282.356	117.19
282.588	133.19
282.819	111.19
283.051	88.19
283.282	82.19
283.513	95.19
283.745	97.19
283.976	89.19
284.207	72.19
284.439	72.19
284.67	89.19
284.901	75.19
285.132	89.19
285.364	87.19
285.595	92.19
285.826	75.19
286.057	82.19
286.288	96.19
286.52	97.19
286.751	90.19
286.982	100.19
287.213	88.19
287.444	81.19
287.675	97.19
287.906	86.19
288.138	89.19
288.369	100.19
288.6	105.19
288.831	77.19
289.062	95.19
289.293	81.19
289.524	85.19
289.755	94.19
289.986	86.19
290.217	80.19
290.448	88.19
290.679	77.19
290.91	71.19
291.141	92.19
291.371	101.19
291.602	93.19
291.833	95.19
292.064	90.19
292.295	83.19
292.526	84.19
292.757	66.19
292.987	89.19
293.218	83.19
293.449	86.19
293.68	79.19
293.91	94.19
294.141	95.19
294.372	88.19
294.603	94.19
294.833	87.19
295.064	97.19
295.295	96.19
295.525	85.19
295.756	85.19
295.987	119.19
296.217	128.19
296.448	122.19
296.679	107.19
296.909	86.19
297.14	95.19
297.37	84.19
297.601	97.19
297.831	87.19
298.062	87.19
298.292	81.19
298.523	92.19
298.753	83.19
298.984	88.19
299.214	98.19
299.445	103.19
299.675	97.19
299.905	100.19
300.136	100.19
300.366	101.19
300.597	87.19
300.827	98.19
301.057	100.19
301.288	94.19
301.518	108.19
301.748	93.19
301.979	96.19
302.209	92.19
302.439	99.19
302.669	96.19
302.9	87.19
303.13	80.19
303.36	91.19
303.59	104.19
303.82	112.19
304.051	92.19
304.281	85.19
304.511	88.19
304.741	96.19
304.971	89.19
305.201	96.19
305.431	93.19
305.661	91.19
305.891	93.19
306.121	82.19
306.352	112.19
306.582	100.19
306.812	107.19
307.042	91.19
307.272	87.19
307.502	87.19
307.731	97.19
307.961	89.19
308.191	89.19
308.421	85.19
308.651	89.19
308.881	77.19
309.111	96.19
309.341	90.19
309.571	105.19
309.8	87.19
310.03	104.19
310.26	99.19
310.49	88.19
310.72	79.19
310.949	115.19
311.179	98.19
311.409	97.19
311.639	87.19
311.868	92.19
312.098	96.19
312.328	112.19
312.557	112.19
312.787	109.19
313.017	109.19
313.246	81.19
313.476	102.19
313.706	97.19
313.935	91.19
314.165	98.19
314.394	103.19
314.624	79.19
314.853	93.19
315.083	94.19
315.312	100.19
315.542	94.19
315.771	84.19
316.001	89.19
316.23	94.19
316.46	98.19
316.689	93.19
316.919	88.19
317.148	90.19
317.377	97.19
317.607	79.19
317.836	95.19
318.065	99.19
318.295	89.19
318.524	89.19
318.753	91.19
318.983	98.19
319.212	101.19
319.441	119.19
319.67	114.19
319.9	110.19
320.129	95.19
320.358	93.19
320.587	99.19
320.816	108.19
321.046	85.19
321.275	87.19
321.504	100.19
321.733	89.19
321.962	99.19
322.191	105.19
322.42	110.19
322.649	103.19
322.878	114.19
323.108	126.19
323.337	128.19
323.566	139.19
323.795	154.19
324.024	219.19
324.253	425.19
324.482	908.19
324.71	1975.19
324.939	2546.19
325.168	931.19
325.397	275.19
325.626	150.19
325.855	137.19
326.084	132.19
326.313	138.19
326.542	174.19
326.77	251.19
326.999	514.19
327.228	1084.19
327.457	1930.19
327.686	1544.19
327.914	407.19
328.143	214.19
328.372	156.19
328.6	128.19
328.829	109.19
329.058	121.19
329.287	130.19
329.515	98.19
329.744	99.19
329.972	95.19
330.201	100.19
330.43	109.19
330.658	117.19
330.887	127.19
331.115	126.19
331.344	109.19
331.572	89.19
331.801	104.19
332.03	92.19
332.258	99.19
332.486	79.19
332.715	99.19
332.943	91.19
333.172	108.19
333.4	93.19
333.629	100.19
333.857	119.19
334.085	107.19
334.314	105.19
334.542	103.19
334.771	108.19
334.999	93.19
335.227	98.19
335.455	87.19
335.684	98.19
335.912	108.19
336.14	94.19
336.369	95.19
336.597	111.19
336.825	100.19
337.053	91.19
337.281	94.19
337.51	92.19
337.738	100.19
337.966	99.19
338.194	101.19
338.422	95.19
338.65	106.19
338.878	109.19
339.106	94.19
339.334	94.19
339.562	97.19
339.79	98.19
340.018	79.19
340.246	83.19
340.474	92.19
340.702	92.19
340.93	102.19
341.158	101.19
341.386	92.19
341.614	91.19
341.842	82.19
342.07	90.19
342.298	78.19
342.526	84.19
342.754	93.19
342.981	102.19
343.209	92.19
343.437	77.19
343.665	78.19
343.893	80.19
344.12	91.19
344.348	83.19
344.576	94.19
344.804	87.19
345.031	93.19
345.259	100.19
345.487	100.19
345.714	97.19
345.942	87.19
346.17	76.19
346.397	101.19
346.625	94.19
346.853	101.19
347.08	87.19
347.308	79.19
347.535	83.19
347.763	98.19
347.99	96.19
348.218	100.19
348.445	111.19
348.673	100.19
348.9	96.19
349.128	98.19
349.355	89.19
349.583	81.19
349.81	100.19
350.037	102.19
350.265	95.19
350.492	90.19
350.72	90.19
350.947	95.19
351.174	100.19
351.402	113.19
351.629	100.19
351.856	104.19
352.083	100.19
352.311	101.19
352.538	108.19
352.765	106.19
352.992	104.19
353.22	122.19
353.447	115.19
353.674	104.19
353.901	91.19
354.128	89.19
354.355	95.19
354.583	91.19
354.81	92.19
355.037	84.19
355.264	99.19
355.491	100.19
355.718	104.19
355.945	93.19
356.172	106.19
356.399	97.19
356.626	85.19
356.853	85.19
357.08	96.19
357.307	92.19
357.534	87.19
357.761	99.19
357.988	98.19
358.215	83.19
358.441	82.19
358.668	81.19
358.895	89.19
359.122	96.19
359.349	90.19
359.576	85.19
359.802	103.19
360.029	108.19
360.256	99.19
360.483	99.19
360.709	85.19
360.936	95.19
361.163	94.19
361.39	106.19
361.616	89.19
361.843	87.19
362.07	86.19
362.296	98.19
362.523	91.19
362.749	98.19
362.976	95.19
363.203	105.19
363.429	87.19
363.656	92.19
363.882	84.19
364.109	100.19
364.335	87.19
364.562	83.19
364.788	93.19
365.015	97.19
365.241	101.19
365.468	102.19
365.694	104.19
365.92	82.19
366.147	97.19
366.373	91.19
366.599	99.19
366.826	101.19
367.052	90.19
367.278	75.19
367.505	79.19
367.731	86.19
367.957	78.19
368.184	88.19
368.41	98.19
368.636	111.19
368.862	123.19
369.089	101.19
369.315	94.19
369.541	92.19
369.767	98.19
369.993	88.19
370.219	100.19
370.445	90.19
370.672	90.19
370.898	91.19
371.124	100.19
371.35	90.19
371.576	85.19
371.802	88.19
372.028	82.19
372.254	84.19
372.48	97.19
372.706	84.19
372.932	87.19
373.158	87.19
373.384	97.19
373.61	89.19
373.835	90.19
374.061	107.19
374.287	83.19
374.513	97.19
374.739	84.19
374.965	94.19
375.191	97.19
375.416	98.19
375.642	92.19
375.868	94.19
376.094	84.19
376.319	91.19
376.545	88.19
376.771	96.19
376.997	92.19
377.222	88.19
377.448	84.19
377.674	89.19
377.899	98.19
378.125	95.19
378.35	92.19
378.576	83.19
378.802	89.19
379.027	91.19
379.253	97.19
379.478	89.19
379.704	97.19
379.929	91.19
380.155	95.19
380.38	94.19
380.606	82.19
380.831	84.19
381.057	80.19
381.282	104.19
381.507	94.19
381.733	92.19
381.958	87.19
382.184	109.19
382.409	99.19
382.634	102.19
382.86	112.19
383.085	108.19
383.31	101.19
383.535	105.19
383.761	112.19
383.986	98.19
384.211	98.19
384.436	93.19
384.662	101.19
384.887	88.19
385.112	95.19
385.337	98.19
385.562	92.19
385.787	99.19
386.013	107.19
386.238	111.19
386.463	107.19
386.688	101.19
386.913	115.19
387.138	85.19
387.363	96.19
387.588	105.19
387.813	117.19
388.038	86.19
388.263	104.19
388.488	100.19
388.713	100.19
388.938	104.19
389.163	108.19
389.387	89.19
389.612	105.19
389.837	92.19
390.062	82.19
390.287	88.19
390.512	89.19
390.736	100.19
390.961	92.19
391.186	106.19
391.411	84.19
391.636	87.19
391.86	79.19
392.085	88.19
392.31	76.19
392.534	78.19
392.759	73.19
392.984	75.19
393.208	89.19
393.433	64.19
393.658	78.19
393.882	85.19
394.107	88.19
394.331	92.19
394.556	90.19
394.78	77.19
395.005	87.19
395.229	75.19
395.454	88.19
395.678	91.19
395.903	83.19
396.127	87.19
396.352	84.19
396.576	88.19
396.801	83.19
397.025	76.19
397.249	88.19
397.474	83.19
397.698	82.19
397.922	81.19
398.147	88.19
398.371	81.19
398.595	99.19
398.82	78.19
399.044	88.19
399.268	76.19
399.492	91.19
399.717	89.19
399.941	87.19
400.165	100.19
400.389	104.19
400.613	87.19
400.837	94.19
401.062	83.19
401.286	88.19
401.51	81.19
401.734	83.19
401.958	92.19
402.182	142.19
402.406	153.19
402.63	109.19
402.854	95.19
403.078	88.19
403.302	85.19
403.526	91.19
403.75	88.19
403.974	88.19
404.198	97.19
404.422	89.19
404.645	98.19
404.869	90.19
405.093	99.19
405.317	93.19
405.541	104.19
405.765	103.19
405.988	120.19
406.212	186.19
406.436	247.19
406.66	150.19
406.883	83.19
407.107	91.19
407.331	105.19
407.555	90.19
407.778	86.19
408.002	89.19
408.226	84.19
408.449	84.19
408.673	81.19
408.896	100.19
409.12	77.19
409.344	99.19
409.567	96.19
409.791	88.19
410.014	99.19
410.238	89.19
410.461	97.19
410.685	93.19
410.908	97.19
411.132	94.19
411.355	89.19
411.578	86.19
411.802	82.19
412.025	91.19
412.249	93.19
412.472	80.19
412.695	85.19
412.919	88.19
413.142	89.19
413.365	87.19
413.589	98.19
413.812	96.19
414.035	93.19
414.258	102.19
414.482	89.19
414.705	102.19
414.928	89.19
415.151	97.19
415.374	83.19
415.597	98.19
415.821	90.19
416.044	92.19
416.267	89.19
416.49	99.19
416.713	91.19
416.936	78.19
417.159	67.19
417.382	94.19
417.605	94.19
417.828	105.19
418.051	87.19
418.274	77.19
418.497	102.19
418.72	91.19
418.943	82.19
419.166	86.19
419.389	81.19
419.611	106.19
419.834	94.19
420.057	85.19
420.28	98.19
420.503	60.19
420.726	93.19
420.948	95.19
421.171	90.19
421.394	94.19
421.617	105.19
421.839	93.19
422.062	100.19
422.285	75.19
422.507	89.19
422.73	94.19
422.953	90.19
423.175	92.19
423.398	82.19
423.621	87.19
423.843	91.19
424.066	89.19
424.288	107.19
424.511	88.19
424.733	90.19
424.956	103.19
425.178	96.19
425.401	104.19
425.623	104.19
425.846	96.19
426.068	100.19
426.291	101.19
426.513	78.19
426.735	81.19
426.958	108.19
427.18	108.19
427.402	137.19
427.625	154.19
427.847	130.19
428.069	101.19
428.292	88.19
428.514	97.19
428.736	76.19
428.958	99.19
429.181	67.19
429.403	76.19
429.625	80.19
429.847	96.19
430.069	89.19
430.292	86.19
430.514	75.19
430.736	72.19
430.958	83.19
431.18	88.19
431.402	84.19
431.624	86.19
431.846	76.19
432.068	89.19
432.29	86.19
432.512	105.19
432.734	80.19
432.956	88.19
433.178	109.19
433.4	107.19
433.622	99.19
433.844	87.19
434.066	91.19
434.287	97.19
434.509	97.19
434.731	101.19
434.953	91.19
435.175	79.19
435.397	105.19
435.618	91.19
435.84	92.19
436.062	114.19
436.284	106.19
436.505	97.19
436.727	107.19
436.949	89.19
437.17	89.19
437.392	83.19
437.614	88.19
437.835	108.19
438.057	126.19
438.278	93.19
438.5	107.19
438.721	117.19
438.943	101.19
439.165	95.19
439.386	86.19
439.608	96.19
439.829	97.19
440.05	124.19
440.272	142.19
440.493	92.19
440.715	85.19
440.936	97.19
441.158	95.19
441.379	88.19
441.6	113.19
441.822	99.19
442.043	87.19
442.264	85.19
442.486	99.19
442.707	110.19
442.928	106.19
443.149	119.19
443.371	120.19
443.592	115.19
443.813	98.19
444.034	88.19
444.255	82.19
444.476	83.19
444.698	93.19
444.919	78.19
445.14	111.19
445.361	118.19
445.582	123.19
445.803	131.19
446.024	124.19
446.245	122.19
446.466	100.19
446.687	95.19
446.908	88.19
447.129	80.19
447.35	87.19
447.571	100.19
447.792	71.19
448.013	112.19
448.234	113.19
448.455	107.19
448.675	118.19
448.896	116.19
449.117	98.19
449.338	106.19
449.559	119.19
449.779	138.19
450	98.19
450.221	81.19
450.442	80.19
450.662	91.19
450.883	105.19
451.104	107.19
451.324	99.19
451.545	88.19
451.766	78.19
451.986	96.19
452.207	98.19
452.428	95.19
452.648	95.19
452.869	98.19
453.089	97.19
453.31	112.19
453.53	97.19
453.751	82.19
453.971	118.19
454.192	96.19
454.412	95.19
454.633	80.19
454.853	100.19
455.073	86.19
455.294	89.19
455.514	92.19
455.734	88.19
455.955	81.19
456.175	83.19
456.395	84.19
456.616	79.19
456.836	88.19
457.056	94.19
457.276	94.19
457.497	84.19
457.717	83.19
457.937	92.19
458.157	92.19
458.377	89.19
458.598	110.19
458.818	156.19
459.038	153.19
459.258	108.19
459.478	95.19
459.698	87.19
459.918	101.19
460.138	90.19
460.358	91.19
460.578	87.19
460.798	91.19
461.018	94.19
461.238	93.19
461.458	84.19
461.678	99.19
461.898	88.19
462.118	81.19
462.338	84.19
462.558	69.19
462.777	94.19
462.997	87.19
463.217	76.19
463.437	75.19
463.657	95.19
463.876	92.19
464.096	90.19
464.316	89.19
464.536	100.19
464.755	99.19
464.975	96.19
465.195	152.19
465.414	151.19
465.634	96.19
465.854	87.19
466.073	95.19
466.293	85.19
466.512	75.19
466.732	84.19
466.951	86.19
467.171	79.19
467.391	98.19
467.61	104.19
467.829	97.19
468.049	90.19
468.268	82.19
468.488	81.19
468.707	93.19
468.927	83.19
469.146	83.19
469.365	91.19
469.585	101.19
469.804	87.19
470.023	103.19
470.243	102.19
470.462	109.19
470.681	99.19
470.901	90.19
471.12	96.19
471.339	91.19
471.558	89.19
471.777	93.19
471.997	87.19
472.216	97.19
472.435	95.19
472.654	87.19
472.873	85.19
473.092	85.19
473.311	76.19
473.53	90.19
473.749	89.19
473.968	85.19
474.187	107.19
474.406	91.19
474.625	81.19
474.844	99.19
475.063	68.19
475.282	81.19
475.501	92.19
475.72	99.19
475.939	77.19
476.158	103.19
476.377	87.19
476.596	92.19
476.814	100.19
477.033	109.19
477.252	82.19
477.471	89.19
477.69	79.19
477.908	91.19
478.127	89.19
478.346	83.19
478.564	80.19
478.783	92.19
479.002	95.19
479.22	87.19
479.439	114.19
479.658	125.19
479.876	87.19
480.095	84.19
480.313	89.19
480.532	75.19
480.751	97.19
480.969	93.19
481.188	90.19
481.406	93.19
481.624	91.19
481.843	92.19
482.061	82.19
482.28	102.19
482.498	98.19
482.717	85.19
482.935	98.19
483.153	77.19
483.372	91.19
483.59	101.19
483.808	88.19
484.027	89.19
484.245	98.19
484.463	97.19
484.681	116.19
484.9	92.19
485.118	90.19
485.336	96.19
485.554	90.19
485.772	110.19
485.99	79.19
486.209	90.19
486.427	89.19
486.645	117.19
486.863	96.19
487.081	112.19
487.299	95.19
487.517	96.19
487.735	82.19
487.953	84.19
488.171	88.19
488.389	96.19
488.607	98.19
488.825	84.19
489.043	81.19
489.261	87.19
489.479	95.19
489.696	93.19
489.914	81.19
490.132	89.19
490.35	85.19
490.568	95.19
490.786	84.19
491.003	95.19
491.221	91.19
491.439	101.19
491.657	97.19
491.874	83.19
492.092	94.19
492.31	91.19
492.527	89.19
492.745	91.19
492.963	93.19
493.18	104.19
493.398	99.19
493.615	101.19
493.833	91.19
494.05	93.19
494.268	92.19
494.485	104.19
494.703	99.19
494.92	88.19
495.138	88.19
495.355	101.19
495.573	92.19
495.79	85.19
496.008	99.19
496.225	80.19
496.442	99.19
496.66	91.19
496.877	106.19
497.094	92.19
497.312	98.19
497.529	82.19
497.746	100.19
497.963	93.19
498.181	95.19
498.398	81.19
498.615	97.19
498.832	97.19
499.049	101.19
499.267	98.19
499.484	74.19
499.701	85.19
499.918	94.19
500.135	90.19
500.352	75.19
500.569	89.19
500.786	89.19
501.003	84.19
501.22	92.19
501.437	91.19
501.654	103.19
501.871	106.19
502.088	98.19
502.305	91.19
502.522	89.19
502.739	100.19
502.956	81.19
503.172	90.19
503.389	85.19
503.606	105.19
503.823	107.19
504.04	85.19
504.256	87.19
504.473	94.19
504.69	91.19
504.907	78.19
505.123	97.19
505.34	97.19
505.557	94.19
505.773	83.19
505.99	95.19
506.207	85.19
506.423	102.19
506.64	87.19
506.856	88.19
507.073	83.19
507.289	93.19
507.506	95.19
507.722	103.19
507.939	105.19
508.155	98.19
508.372	92.19
508.588	100.19
508.805	83.19
509.021	90.19
509.238	122.19
509.454	94.19
509.67	108.19
509.887	117.19
510.103	130.19
510.319	233.19
510.536	912.19
510.752	2846.19
510.968	743.19
511.184	182.19
511.401	122.19
511.617	114.19
511.833	102.19
512.049	96.19
512.265	105.19
512.481	105.19
512.698	100.19
512.914	77.19
513.13	99.19
513.346	99.19
513.562	85.19
513.778	97.19
513.994	114.19
514.21	105.19
514.426	121.19
514.642	143.19
514.858	129.19
515.074	178.19
515.29	523.19
515.506	1671.19
515.721	594.19
