Data from Uncirc_1995_H10_HRD10591_00031.txt Node
Date: Wed Jan 03 11:35:40 EST 2024
User: Yrep
Spectrometer: HR+D1059
Trigger mode: 1
Integration Time (sec): 1.000000E-1
Scans to average: 1
Electric dark correction enabled: true
Nonlinearity correction enabled: false
Boxcar width: 0
XAxis mode: Wavelengths
Number of Pixels in Spectrum: 2048
>>>>>Begin Spectral Data<<<<<
223.165	-1.94
223.4	-1.94
223.635	-1.94
223.869	-17.94
224.104	-35.94
224.338	-13.94
224.573	-9.94
224.808	-4.94
225.042	-0.94
225.277	-15.94
225.511	2.06
225.746	1.06
225.98	-1.94
226.215	4.06
226.449	15.06
226.683	20.06
226.918	27.06
227.152	34.06
227.387	29.06
227.621	32.06
227.856	37.06
228.09	46.06
228.324	49.06
228.559	70.06
228.793	60.06
229.027	50.06
229.262	76.06
229.496	71.06
229.73	76.06
229.964	86.06
230.199	81.06
230.433	80.06
230.667	70.06
230.901	76.06
231.136	84.06
231.37	81.06
231.604	81.06
231.838	78.06
232.072	83.06
232.306	72.06
232.541	85.06
232.775	81.06
233.009	85.06
233.243	83.06
233.477	85.06
233.711	88.06
233.945	82.06
234.179	83.06
234.413	86.06
234.647	82.06
234.881	74.06
235.115	72.06
235.349	87.06
235.583	84.06
235.817	87.06
236.051	84.06
236.285	64.06
236.519	84.06
236.753	85.06
236.987	68.06
237.221	66.06
237.455	72.06
237.689	74.06
237.922	71.06
238.156	77.06
238.39	80.06
238.624	84.06
238.858	67.06
239.091	73.06
239.325	67.06
239.559	82.06
239.793	74.06
240.027	93.06
240.26	76.06
240.494	70.06
240.728	90.06
240.961	82.06
241.195	82.06
241.429	80.06
241.662	80.06
241.896	74.06
242.13	80.06
242.363	79.06
242.597	75.06
242.83	66.06
243.064	70.06
243.298	62.06
243.531	78.06
243.765	79.06
243.998	82.06
244.232	78.06
244.465	86.06
244.699	72.06
244.932	70.06
245.166	71.06
245.399	83.06
245.633	86.06
245.866	72.06
246.099	69.06
246.333	90.06
246.566	91.06
246.8	91.06
247.033	63.06
247.266	90.06
247.5	78.06
247.733	88.06
247.966	90.06
248.2	73.06
248.433	72.06
248.666	75.06
248.899	77.06
249.133	86.06
249.366	97.06
249.599	90.06
249.832	86.06
250.066	68.06
250.299	87.06
250.532	76.06
250.765	71.06
250.998	91.06
251.231	96.06
251.465	86.06
251.698	81.06
251.931	89.06
252.164	88.06
252.397	86.06
252.63	87.06
252.863	87.06
253.096	80.06
253.329	77.06
253.562	83.06
253.795	84.06
254.028	98.06
254.261	81.06
254.494	77.06
254.727	81.06
254.96	80.06
255.193	70.06
255.426	92.06
255.659	70.06
255.892	86.06
256.124	84.06
256.357	79.06
256.59	91.06
256.823	83.06
257.056	60.06
257.289	83.06
257.521	94.06
257.754	90.06
257.987	83.06
258.22	79.06
258.452	88.06
258.685	85.06
258.918	67.06
259.151	71.06
259.383	98.06
259.616	91.06
259.849	81.06
260.081	83.06
260.314	76.06
260.547	93.06
260.779	86.06
261.012	76.06
261.244	92.06
261.477	86.06
261.71	88.06
261.942	103.06
262.175	114.06
262.407	93.06
262.64	76.06
262.872	76.06
263.105	75.06
263.337	79.06
263.57	93.06
263.802	71.06
264.035	86.06
264.267	113.06
264.499	86.06
264.732	77.06
264.964	79.06
265.197	87.06
265.429	76.06
265.661	91.06
265.894	82.06
266.126	86.06
266.358	80.06
266.591	72.06
266.823	85.06
267.055	67.06
267.287	83.06
267.52	91.06
267.752	67.06
267.984	88.06
268.216	88.06
268.448	85.06
268.681	81.06
268.913	57.06
269.145	98.06
269.377	85.06
269.609	84.06
269.841	90.06
270.073	82.06
270.306	103.06
270.538	79.06
270.77	79.06
271.002	98.06
271.234	86.06
271.466	89.06
271.698	91.06
271.93	72.06
272.162	77.06
272.394	92.06
272.626	79.06
272.858	86.06
273.09	90.06
273.322	82.06
273.553	88.06
273.785	88.06
274.017	77.06
274.249	87.06
274.481	93.06
274.713	88.06
274.945	85.06
275.176	70.06
275.408	102.06
275.64	93.06
275.872	88.06
276.104	98.06
276.335	88.06
276.567	108.06
276.799	108.06
277.031	109.06
277.262	79.06
277.494	91.06
277.726	96.06
277.957	78.06
278.189	86.06
278.421	92.06
278.652	100.06
278.884	83.06
279.115	79.06
279.347	91.06
279.579	99.06
279.81	87.06
280.042	87.06
280.273	86.06
280.505	89.06
280.736	82.06
280.968	83.06
281.199	76.06
281.431	72.06
281.662	88.06
281.894	68.06
282.125	108.06
282.356	107.06
282.588	139.06
282.819	110.06
283.051	86.06
283.282	91.06
283.513	86.06
283.745	86.06
283.976	79.06
284.207	86.06
284.439	94.06
284.67	84.06
284.901	93.06
285.132	82.06
285.364	83.06
285.595	83.06
285.826	89.06
286.057	90.06
286.288	79.06
286.52	89.06
286.751	97.06
286.982	86.06
287.213	88.06
287.444	96.06
287.675	97.06
287.906	86.06
288.138	84.06
288.369	88.06
288.6	84.06
288.831	95.06
289.062	90.06
289.293	83.06
289.524	86.06
289.755	83.06
289.986	96.06
290.217	76.06
290.448	91.06
290.679	83.06
290.91	98.06
291.141	103.06
291.371	88.06
291.602	98.06
291.833	91.06
292.064	97.06
292.295	77.06
292.526	98.06
292.757	83.06
292.987	79.06
293.218	96.06
293.449	90.06
293.68	89.06
293.91	94.06
294.141	89.06
294.372	91.06
294.603	84.06
294.833	96.06
295.064	79.06
295.295	85.06
295.525	80.06
295.756	112.06
295.987	117.06
296.217	125.06
296.448	131.06
296.679	94.06
296.909	98.06
297.14	75.06
297.37	83.06
297.601	83.06
297.831	83.06
298.062	87.06
298.292	97.06
298.523	96.06
298.753	99.06
298.984	81.06
299.214	78.06
299.445	95.06
299.675	85.06
299.905	121.06
300.136	91.06
300.366	94.06
300.597	79.06
300.827	90.06
301.057	93.06
301.288	99.06
301.518	94.06
301.748	80.06
301.979	93.06
302.209	92.06
302.439	94.06
302.669	84.06
302.9	92.06
303.13	97.06
303.36	83.06
303.59	87.06
303.82	97.06
304.051	99.06
304.281	93.06
304.511	97.06
304.741	94.06
304.971	91.06
305.201	91.06
305.431	96.06
305.661	86.06
305.891	93.06
306.121	99.06
306.352	106.06
306.582	104.06
306.812	88.06
307.042	111.06
307.272	100.06
307.502	95.06
307.731	86.06
307.961	84.06
308.191	90.06
308.421	90.06
308.651	97.06
308.881	91.06
309.111	87.06
309.341	91.06
309.571	109.06
309.8	103.06
310.03	87.06
310.26	95.06
310.49	97.06
310.72	99.06
310.949	97.06
311.179	109.06
311.409	90.06
311.639	90.06
311.868	99.06
312.098	104.06
312.328	94.06
312.557	94.06
312.787	96.06
313.017	85.06
313.246	86.06
313.476	93.06
313.706	79.06
313.935	94.06
314.165	104.06
314.394	91.06
314.624	83.06
314.853	100.06
315.083	101.06
315.312	96.06
315.542	102.06
315.771	84.06
316.001	92.06
316.23	93.06
316.46	91.06
316.689	95.06
316.919	103.06
317.148	84.06
317.377	104.06
317.607	108.06
317.836	103.06
318.065	89.06
318.295	96.06
318.524	92.06
318.753	98.06
318.983	91.06
319.212	92.06
319.441	103.06
319.67	96.06
319.9	73.06
320.129	84.06
320.358	92.06
320.587	98.06
320.816	91.06
321.046	111.06
321.275	80.06
321.504	98.06
321.733	106.06
321.962	88.06
322.191	87.06
322.42	85.06
322.649	127.06
322.878	105.06
323.108	115.06
323.337	129.06
323.566	132.06
323.795	149.06
324.024	198.06
324.253	372.06
324.482	774.06
324.71	1584.06
324.939	2064.06
325.168	780.06
325.397	224.06
325.626	152.06
325.855	122.06
326.084	130.06
326.313	128.06
326.542	156.06
326.77	226.06
326.999	424.06
327.228	907.06
327.457	1606.06
327.686	1290.06
327.914	349.06
328.143	194.06
328.372	138.06
328.6	119.06
328.829	117.06
329.058	119.06
329.287	108.06
329.515	102.06
329.744	84.06
329.972	99.06
330.201	101.06
330.43	102.06
330.658	104.06
330.887	118.06
331.115	118.06
331.344	93.06
331.572	99.06
331.801	89.06
332.03	87.06
332.258	95.06
332.486	84.06
332.715	97.06
332.943	107.06
333.172	100.06
333.4	96.06
333.629	111.06
333.857	114.06
334.085	94.06
334.314	85.06
334.542	95.06
334.771	102.06
334.999	106.06
335.227	100.06
335.455	97.06
335.684	89.06
335.912	89.06
336.14	96.06
336.369	96.06
336.597	93.06
336.825	89.06
337.053	105.06
337.281	91.06
337.51	87.06
337.738	94.06
337.966	88.06
338.194	93.06
338.422	103.06
338.65	105.06
338.878	86.06
339.106	79.06
339.334	92.06
339.562	81.06
339.79	86.06
340.018	97.06
340.246	80.06
340.474	95.06
340.702	87.06
340.93	85.06
341.158	95.06
341.386	100.06
341.614	88.06
341.842	95.06
342.07	79.06
342.298	84.06
342.526	87.06
342.754	88.06
342.981	74.06
343.209	88.06
343.437	86.06
343.665	94.06
343.893	85.06
344.12	94.06
344.348	85.06
344.576	81.06
344.804	80.06
345.031	81.06
345.259	82.06
345.487	94.06
345.714	95.06
345.942	81.06
346.17	88.06
346.397	81.06
346.625	76.06
346.853	92.06
347.08	100.06
347.308	85.06
347.535	94.06
347.763	79.06
347.99	100.06
348.218	92.06
348.445	102.06
348.673	98.06
348.9	99.06
349.128	89.06
349.355	92.06
349.583	81.06
349.81	88.06
350.037	96.06
350.265	102.06
350.492	95.06
350.72	115.06
350.947	107.06
351.174	105.06
351.402	106.06
351.629	106.06
351.856	101.06
352.083	100.06
352.311	111.06
352.538	104.06
352.765	105.06
352.992	113.06
353.22	104.06
353.447	95.06
353.674	117.06
353.901	98.06
354.128	83.06
354.355	85.06
354.583	96.06
354.81	101.06
355.037	99.06
355.264	83.06
355.491	83.06
355.718	98.06
355.945	95.06
356.172	101.06
356.399	94.06
356.626	104.06
356.853	87.06
357.08	98.06
357.307	90.06
357.534	88.06
357.761	102.06
357.988	100.06
358.215	95.06
358.441	104.06
358.668	89.06
358.895	97.06
359.122	92.06
359.349	96.06
359.576	90.06
359.802	98.06
360.029	107.06
360.256	88.06
360.483	90.06
360.709	91.06
360.936	93.06
361.163	90.06
361.39	111.06
361.616	91.06
361.843	93.06
362.07	100.06
362.296	92.06
362.523	86.06
362.749	102.06
362.976	83.06
363.203	91.06
363.429	92.06
363.656	84.06
363.882	90.06
364.109	83.06
364.335	74.06
364.562	90.06
364.788	100.06
365.015	76.06
365.241	103.06
365.468	110.06
365.694	98.06
365.92	94.06
366.147	83.06
366.373	91.06
366.599	84.06
366.826	90.06
367.052	89.06
367.278	91.06
367.505	99.06
367.731	84.06
367.957	95.06
368.184	86.06
368.41	77.06
368.636	115.06
368.862	109.06
369.089	104.06
369.315	88.06
369.541	90.06
369.767	91.06
369.993	82.06
370.219	96.06
370.445	91.06
370.672	89.06
370.898	82.06
371.124	97.06
371.35	83.06
371.576	110.06
371.802	82.06
372.028	87.06
372.254	80.06
372.48	88.06
372.706	89.06
372.932	84.06
373.158	86.06
373.384	87.06
373.61	89.06
373.835	92.06
374.061	87.06
374.287	84.06
374.513	72.06
374.739	84.06
374.965	87.06
375.191	79.06
375.416	88.06
375.642	90.06
375.868	100.06
376.094	82.06
376.319	96.06
376.545	102.06
376.771	92.06
376.997	83.06
377.222	84.06
377.448	95.06
377.674	89.06
377.899	86.06
378.125	91.06
378.35	99.06
378.576	98.06
378.802	90.06
379.027	94.06
379.253	92.06
379.478	95.06
379.704	93.06
379.929	90.06
380.155	100.06
380.38	111.06
380.606	100.06
380.831	96.06
381.057	107.06
381.282	87.06
381.507	98.06
381.733	104.06
381.958	96.06
382.184	97.06
382.409	91.06
382.634	109.06
382.86	98.06
383.085	103.06
383.31	93.06
383.535	99.06
383.761	94.06
383.986	109.06
384.211	91.06
384.436	98.06
384.662	94.06
384.887	86.06
385.112	112.06
385.337	121.06
385.562	109.06
385.787	110.06
386.013	96.06
386.238	108.06
386.463	91.06
386.688	115.06
386.913	113.06
387.138	108.06
387.363	111.06
387.588	111.06
387.813	109.06
388.038	98.06
388.263	122.06
388.488	101.06
388.713	92.06
388.938	92.06
389.163	91.06
389.387	103.06
389.612	91.06
389.837	101.06
390.062	94.06
390.287	91.06
390.512	83.06
390.736	103.06
390.961	97.06
391.186	102.06
391.411	103.06
391.636	102.06
391.86	86.06
392.085	91.06
392.31	77.06
392.534	98.06
392.759	83.06
392.984	100.06
393.208	91.06
393.433	82.06
393.658	83.06
393.882	86.06
394.107	92.06
394.331	95.06
394.556	82.06
394.78	81.06
395.005	88.06
395.229	86.06
395.454	103.06
395.678	80.06
395.903	92.06
396.127	88.06
396.352	82.06
396.576	76.06
396.801	90.06
397.025	87.06
397.249	84.06
397.474	92.06
397.698	92.06
397.922	91.06
398.147	82.06
398.371	76.06
398.595	83.06
398.82	100.06
399.044	87.06
399.268	73.06
399.492	83.06
399.717	102.06
399.941	78.06
400.165	92.06
400.389	100.06
400.613	100.06
400.837	77.06
401.062	90.06
401.286	89.06
401.51	88.06
401.734	95.06
401.958	99.06
402.182	124.06
402.406	150.06
402.63	106.06
402.854	90.06
403.078	89.06
403.302	87.06
403.526	88.06
403.75	92.06
403.974	76.06
404.198	86.06
404.422	79.06
404.645	89.06
404.869	95.06
405.093	83.06
405.317	99.06
405.541	117.06
405.765	101.06
405.988	122.06
406.212	164.06
406.436	214.06
406.66	144.06
406.883	99.06
407.107	80.06
407.331	90.06
407.555	99.06
407.778	110.06
408.002	93.06
408.226	84.06
408.449	88.06
408.673	86.06
408.896	70.06
409.12	99.06
409.344	89.06
409.567	97.06
409.791	98.06
410.014	107.06
410.238	94.06
410.461	82.06
410.685	114.06
410.908	92.06
411.132	99.06
411.355	100.06
411.578	102.06
411.802	92.06
412.025	92.06
412.249	86.06
412.472	89.06
412.695	102.06
412.919	98.06
413.142	100.06
413.365	79.06
413.589	97.06
413.812	107.06
414.035	87.06
414.258	73.06
414.482	88.06
414.705	81.06
414.928	81.06
415.151	78.06
415.374	99.06
415.597	94.06
415.821	92.06
416.044	81.06
416.267	88.06
416.49	80.06
416.713	89.06
416.936	86.06
417.159	83.06
417.382	92.06
417.605	88.06
417.828	96.06
418.051	103.06
418.274	89.06
418.497	84.06
418.72	96.06
418.943	88.06
419.166	82.06
419.389	82.06
419.611	91.06
419.834	82.06
420.057	91.06
420.28	83.06
420.503	82.06
420.726	90.06
420.948	85.06
421.171	87.06
421.394	93.06
421.617	95.06
421.839	99.06
422.062	96.06
422.285	82.06
422.507	97.06
422.73	76.06
422.953	82.06
423.175	86.06
423.398	88.06
423.621	94.06
423.843	72.06
424.066	84.06
424.288	79.06
424.511	87.06
424.733	87.06
424.956	99.06
425.178	84.06
425.401	84.06
425.623	103.06
425.846	72.06
426.068	82.06
426.291	98.06
426.513	81.06
426.735	105.06
426.958	114.06
427.18	103.06
427.402	128.06
427.625	124.06
427.847	129.06
428.069	110.06
428.292	87.06
428.514	85.06
428.736	82.06
428.958	84.06
429.181	77.06
429.403	86.06
429.625	86.06
429.847	100.06
430.069	96.06
430.292	98.06
430.514	99.06
430.736	84.06
430.958	99.06
431.18	99.06
431.402	83.06
431.624	81.06
431.846	83.06
432.068	71.06
432.29	72.06
432.512	81.06
432.734	88.06
432.956	83.06
433.178	100.06
433.4	95.06
433.622	83.06
433.844	87.06
434.066	99.06
434.287	95.06
434.509	86.06
434.731	71.06
434.953	83.06
435.175	86.06
435.397	89.06
435.618	100.06
435.84	93.06
436.062	115.06
436.284	103.06
436.505	88.06
436.727	88.06
436.949	95.06
437.17	97.06
437.392	83.06
437.614	91.06
437.835	104.06
438.057	116.06
438.278	102.06
438.5	107.06
438.721	106.06
438.943	108.06
439.165	89.06
439.386	86.06
439.608	100.06
439.829	112.06
440.05	96.06
440.272	130.06
440.493	96.06
440.715	89.06
440.936	92.06
441.158	83.06
441.379	87.06
441.6	79.06
441.822	83.06
442.043	86.06
442.264	100.06
442.486	87.06
442.707	87.06
442.928	99.06
443.149	110.06
443.371	131.06
443.592	98.06
443.813	104.06
444.034	105.06
444.255	96.06
444.476	93.06
444.698	86.06
444.919	92.06
445.14	122.06
445.361	130.06
445.582	115.06
445.803	129.06
446.024	131.06
446.245	112.06
446.466	111.06
446.687	93.06
446.908	85.06
447.129	76.06
447.35	86.06
447.571	92.06
447.792	89.06
448.013	108.06
448.234	115.06
448.455	100.06
448.675	99.06
448.896	112.06
449.117	96.06
449.338	92.06
449.559	120.06
449.779	126.06
450	98.06
450.221	87.06
450.442	88.06
450.662	92.06
450.883	115.06
451.104	106.06
451.324	86.06
451.545	75.06
451.766	88.06
451.986	78.06
452.207	86.06
452.428	83.06
452.648	96.06
452.869	111.06
453.089	109.06
453.31	115.06
453.53	92.06
453.751	93.06
453.971	83.06
454.192	99.06
454.412	84.06
454.633	86.06
454.853	88.06
455.073	91.06
455.294	83.06
455.514	91.06
455.734	94.06
455.955	82.06
456.175	79.06
456.395	83.06
456.616	93.06
456.836	78.06
457.056	88.06
457.276	83.06
457.497	81.06
457.717	87.06
457.937	83.06
458.157	95.06
458.377	82.06
458.598	104.06
458.818	126.06
459.038	127.06
459.258	109.06
459.478	93.06
459.698	86.06
459.918	85.06
460.138	86.06
460.358	88.06
460.578	85.06
460.798	99.06
461.018	90.06
461.238	86.06
461.458	91.06
461.678	90.06
461.898	79.06
462.118	89.06
462.338	91.06
462.558	89.06
462.777	101.06
462.997	88.06
463.217	84.06
463.437	82.06
463.657	86.06
463.876	91.06
464.096	89.06
464.316	92.06
464.536	96.06
464.755	93.06
464.975	110.06
465.195	153.06
465.414	156.06
465.634	89.06
465.854	92.06
466.073	90.06
466.293	91.06
466.512	82.06
466.732	81.06
466.951	97.06
467.171	85.06
467.391	81.06
467.61	98.06
467.829	81.06
468.049	90.06
468.268	82.06
468.488	83.06
468.707	84.06
468.927	86.06
469.146	73.06
469.365	84.06
469.585	92.06
469.804	87.06
470.023	84.06
470.243	104.06
470.462	86.06
470.681	104.06
470.901	73.06
471.12	95.06
471.339	89.06
471.558	100.06
471.777	88.06
471.997	74.06
472.216	95.06
472.435	98.06
472.654	87.06
472.873	87.06
473.092	91.06
473.311	98.06
473.53	98.06
473.749	92.06
473.968	93.06
474.187	100.06
474.406	95.06
474.625	89.06
474.844	83.06
475.063	77.06
475.282	92.06
475.501	92.06
475.72	87.06
475.939	78.06
476.158	90.06
476.377	84.06
476.596	91.06
476.814	82.06
477.033	99.06
477.252	96.06
477.471	89.06
477.69	79.06
477.908	86.06
478.127	102.06
478.346	90.06
478.564	81.06
478.783	94.06
479.002	94.06
479.22	85.06
479.439	94.06
479.658	94.06
479.876	95.06
480.095	83.06
480.313	90.06
480.532	90.06
480.751	81.06
480.969	91.06
481.188	98.06
481.406	83.06
481.624	92.06
481.843	89.06
482.061	91.06
482.28	93.06
482.498	100.06
482.717	87.06
482.935	82.06
483.153	88.06
483.372	83.06
483.59	102.06
483.808	96.06
484.027	92.06
484.245	93.06
484.463	106.06
484.681	94.06
484.9	99.06
485.118	93.06
485.336	93.06
485.554	97.06
485.772	90.06
485.99	103.06
486.209	108.06
486.427	121.06
486.645	113.06
486.863	122.06
487.081	108.06
487.299	84.06
487.517	91.06
487.735	103.06
487.953	92.06
488.171	86.06
488.389	96.06
488.607	98.06
488.825	89.06
489.043	88.06
489.261	108.06
489.479	86.06
489.696	92.06
489.914	83.06
490.132	82.06
490.35	93.06
490.568	94.06
490.786	102.06
491.003	89.06
491.221	86.06
491.439	80.06
491.657	96.06
491.874	98.06
492.092	93.06
492.31	80.06
492.527	101.06
492.745	101.06
492.963	89.06
493.18	82.06
493.398	88.06
493.615	105.06
493.833	97.06
494.05	88.06
494.268	102.06
494.485	85.06
494.703	100.06
494.92	96.06
495.138	84.06
495.355	91.06
495.573	86.06
495.79	103.06
496.008	98.06
496.225	99.06
496.442	86.06
496.66	105.06
496.877	103.06
497.094	104.06
497.312	107.06
497.529	105.06
497.746	92.06
497.963	92.06
498.181	97.06
498.398	99.06
498.615	98.06
498.832	101.06
499.049	90.06
499.267	103.06
499.484	84.06
499.701	98.06
499.918	91.06
500.135	86.06
500.352	80.06
500.569	101.06
500.786	90.06
501.003	87.06
501.22	82.06
501.437	72.06
501.654	111.06
501.871	99.06
502.088	100.06
502.305	98.06
502.522	101.06
502.739	78.06
502.956	89.06
503.172	94.06
503.389	98.06
503.606	110.06
503.823	100.06
504.04	91.06
504.256	96.06
504.473	79.06
504.69	92.06
504.907	91.06
505.123	88.06
505.34	91.06
505.557	87.06
505.773	88.06
505.99	102.06
506.207	89.06
506.423	103.06
506.64	88.06
506.856	102.06
507.073	97.06
507.289	105.06
507.506	92.06
507.722	110.06
507.939	122.06
508.155	98.06
508.372	98.06
508.588	88.06
508.805	89.06
509.021	107.06
509.238	110.06
509.454	99.06
509.67	94.06
509.887	105.06
510.103	135.06
510.319	198.06
510.536	764.06
510.752	2335.06
510.968	625.06
511.184	146.06
511.401	127.06
511.617	95.06
511.833	100.06
512.049	99.06
512.265	89.06
512.481	97.06
512.698	95.06
512.914	80.06
513.13	86.06
513.346	91.06
513.562	87.06
513.778	94.06
513.994	107.06
514.21	115.06
514.426	118.06
514.642	124.06
514.858	123.06
515.074	171.06
515.29	429.06
515.506	1368.06
515.721	502.06
515.937	151.06
