Data from Uncirc_1995_H10_HRD10591_00004.txt Node
Date: Wed Jan 03 11:35:34 EST 2024
User: Yrep
Spectrometer: HR+D1059
Trigger mode: 1
Integration Time (sec): 1.000000E-1
Scans to average: 1
Electric dark correction enabled: true
Nonlinearity correction enabled: false
Boxcar width: 0
XAxis mode: Wavelengths
Number of Pixels in Spectrum: 2048
>>>>>Begin Spectral Data<<<<<
223.165	-17.62
223.4	-17.62
223.635	-17.62
223.869	-20.62
224.104	-14.62
224.338	-9.62
224.573	-25.62
224.808	-5.62
225.042	-20.62
225.277	-5.62
225.511	-4.62
225.746	9.38
225.98	6.38
226.215	19.38
226.449	11.38
226.683	22.38
226.918	31.38
227.152	24.38
227.387	43.38
227.621	15.38
227.856	53.38
228.09	56.38
228.324	67.38
228.559	57.38
228.793	65.38
229.027	68.38
229.262	67.38
229.496	74.38
229.73	80.38
229.964	69.38
230.199	79.38
230.433	88.38
230.667	67.38
230.901	85.38
231.136	76.38
231.37	78.38
231.604	98.38
231.838	79.38
232.072	79.38
232.306	96.38
232.541	61.38
232.775	81.38
233.009	84.38
233.243	78.38
233.477	65.38
233.711	83.38
233.945	71.38
234.179	85.38
234.413	89.38
234.647	85.38
234.881	82.38
235.115	84.38
235.349	77.38
235.583	84.38
235.817	86.38
236.051	82.38
236.285	87.38
236.519	80.38
236.753	70.38
236.987	93.38
237.221	81.38
237.455	99.38
237.689	68.38
237.922	88.38
238.156	74.38
238.39	82.38
238.624	74.38
238.858	86.38
239.091	74.38
239.325	86.38
239.559	96.38
239.793	79.38
240.027	89.38
240.26	82.38
240.494	75.38
240.728	74.38
240.961	79.38
241.195	77.38
241.429	81.38
241.662	65.38
241.896	61.38
242.13	78.38
242.363	82.38
242.597	76.38
242.83	80.38
243.064	87.38
243.298	89.38
243.531	84.38
243.765	69.38
243.998	78.38
244.232	83.38
244.465	82.38
244.699	82.38
244.932	79.38
245.166	82.38
245.399	59.38
245.633	80.38
245.866	85.38
246.099	77.38
246.333	80.38
246.566	68.38
246.8	79.38
247.033	86.38
247.266	81.38
247.5	83.38
247.733	75.38
247.966	96.38
248.2	85.38
248.433	68.38
248.666	78.38
248.899	79.38
249.133	71.38
249.366	97.38
249.599	95.38
249.832	73.38
250.066	83.38
250.299	90.38
250.532	73.38
250.765	92.38
250.998	77.38
251.231	89.38
251.465	91.38
251.698	74.38
251.931	78.38
252.164	83.38
252.397	85.38
252.63	81.38
252.863	76.38
253.096	72.38
253.329	96.38
253.562	76.38
253.795	89.38
254.028	80.38
254.261	86.38
254.494	83.38
254.727	87.38
254.96	92.38
255.193	86.38
255.426	87.38
255.659	85.38
255.892	83.38
256.124	85.38
256.357	80.38
256.59	75.38
256.823	75.38
257.056	90.38
257.289	86.38
257.521	73.38
257.754	81.38
257.987	90.38
258.22	77.38
258.452	87.38
258.685	100.38
258.918	77.38
259.151	82.38
259.383	77.38
259.616	77.38
259.849	88.38
260.081	66.38
260.314	82.38
260.547	86.38
260.779	78.38
261.012	86.38
261.244	65.38
261.477	96.38
261.71	98.38
261.942	103.38
262.175	101.38
262.407	88.38
262.64	87.38
262.872	81.38
263.105	83.38
263.337	85.38
263.57	80.38
263.802	82.38
264.035	78.38
264.267	88.38
264.499	101.38
264.732	82.38
264.964	83.38
265.197	81.38
265.429	95.38
265.661	87.38
265.894	90.38
266.126	91.38
266.358	92.38
266.591	84.38
266.823	90.38
267.055	79.38
267.287	88.38
267.52	82.38
267.752	85.38
267.984	86.38
268.216	86.38
268.448	83.38
268.681	90.38
268.913	86.38
269.145	82.38
269.377	87.38
269.609	80.38
269.841	83.38
270.073	85.38
270.306	90.38
270.538	79.38
270.77	84.38
271.002	90.38
271.234	85.38
271.466	83.38
271.698	75.38
271.93	88.38
272.162	102.38
272.394	76.38
272.626	104.38
272.858	92.38
273.09	98.38
273.322	90.38
273.553	89.38
273.785	86.38
274.017	92.38
274.249	91.38
274.481	87.38
274.713	74.38
274.945	83.38
275.176	93.38
275.408	84.38
275.64	95.38
275.872	81.38
276.104	98.38
276.335	94.38
276.567	94.38
276.799	81.38
277.031	94.38
277.262	85.38
277.494	91.38
277.726	87.38
277.957	69.38
278.189	87.38
278.421	95.38
278.652	89.38
278.884	82.38
279.115	101.38
279.347	87.38
279.579	85.38
279.81	91.38
280.042	91.38
280.273	86.38
280.505	76.38
280.736	88.38
280.968	85.38
281.199	92.38
281.431	92.38
281.662	71.38
281.894	92.38
282.125	82.38
282.356	97.38
282.588	118.38
282.819	107.38
283.051	87.38
283.282	86.38
283.513	103.38
283.745	86.38
283.976	89.38
284.207	91.38
284.439	81.38
284.67	93.38
284.901	83.38
285.132	77.38
285.364	87.38
285.595	81.38
285.826	99.38
286.057	95.38
286.288	89.38
286.52	83.38
286.751	89.38
286.982	87.38
287.213	67.38
287.444	87.38
287.675	75.38
287.906	98.38
288.138	97.38
288.369	107.38
288.6	88.38
288.831	89.38
289.062	86.38
289.293	88.38
289.524	109.38
289.755	99.38
289.986	82.38
290.217	79.38
290.448	85.38
290.679	89.38
290.91	92.38
291.141	84.38
291.371	87.38
291.602	91.38
291.833	89.38
292.064	94.38
292.295	94.38
292.526	102.38
292.757	76.38
292.987	71.38
293.218	97.38
293.449	106.38
293.68	94.38
293.91	87.38
294.141	100.38
294.372	90.38
294.603	93.38
294.833	77.38
295.064	91.38
295.295	87.38
295.525	99.38
295.756	93.38
295.987	107.38
296.217	124.38
296.448	113.38
296.679	92.38
296.909	89.38
297.14	99.38
297.37	89.38
297.601	89.38
297.831	83.38
298.062	89.38
298.292	87.38
298.523	98.38
298.753	103.38
298.984	73.38
299.214	87.38
299.445	109.38
299.675	94.38
299.905	89.38
300.136	100.38
300.366	89.38
300.597	88.38
300.827	93.38
301.057	94.38
301.288	90.38
301.518	94.38
301.748	85.38
301.979	100.38
302.209	89.38
302.439	100.38
302.669	82.38
302.9	91.38
303.13	97.38
303.36	83.38
303.59	90.38
303.82	101.38
304.051	101.38
304.281	93.38
304.511	93.38
304.741	96.38
304.971	98.38
305.201	103.38
305.431	94.38
305.661	104.38
305.891	97.38
306.121	95.38
306.352	92.38
306.582	95.38
306.812	99.38
307.042	81.38
307.272	94.38
307.502	110.38
307.731	97.38
307.961	81.38
308.191	85.38
308.421	86.38
308.651	99.38
308.881	85.38
309.111	97.38
309.341	97.38
309.571	89.38
309.8	95.38
310.03	103.38
310.26	98.38
310.49	89.38
310.72	86.38
310.949	104.38
311.179	109.38
311.409	96.38
311.639	96.38
311.868	90.38
312.098	97.38
312.328	97.38
312.557	99.38
312.787	92.38
313.017	108.38
313.246	99.38
313.476	88.38
313.706	108.38
313.935	98.38
314.165	85.38
314.394	114.38
314.624	92.38
314.853	99.38
315.083	96.38
315.312	89.38
315.542	82.38
315.771	103.38
316.001	93.38
316.23	111.38
316.46	89.38
316.689	87.38
316.919	100.38
317.148	100.38
317.377	74.38
317.607	81.38
317.836	100.38
318.065	91.38
318.295	87.38
318.524	91.38
318.753	83.38
318.983	91.38
319.212	94.38
319.441	104.38
319.67	101.38
319.9	91.38
320.129	96.38
320.358	98.38
320.587	92.38
320.816	91.38
321.046	98.38
321.275	86.38
321.504	97.38
321.733	100.38
321.962	103.38
322.191	95.38
322.42	96.38
322.649	104.38
322.878	103.38
323.108	123.38
323.337	108.38
323.566	125.38
323.795	127.38
324.024	178.38
324.253	337.38
324.482	676.38
324.71	1348.38
324.939	1732.38
325.168	667.38
325.397	215.38
325.626	137.38
325.855	118.38
326.084	117.38
326.313	118.38
326.542	125.38
326.77	203.38
326.999	390.38
327.228	811.38
327.457	1422.38
327.686	1095.38
327.914	315.38
328.143	161.38
328.372	146.38
328.6	104.38
328.829	116.38
329.058	107.38
329.287	116.38
329.515	87.38
329.744	108.38
329.972	83.38
330.201	105.38
330.43	107.38
330.658	92.38
330.887	140.38
331.115	114.38
331.344	92.38
331.572	108.38
331.801	106.38
332.03	85.38
332.258	93.38
332.486	99.38
332.715	96.38
332.943	101.38
333.172	91.38
333.4	97.38
333.629	98.38
333.857	103.38
334.085	109.38
334.314	100.38
334.542	97.38
334.771	96.38
334.999	97.38
335.227	90.38
335.455	91.38
335.684	94.38
335.912	100.38
336.14	96.38
336.369	78.38
336.597	108.38
336.825	97.38
337.053	84.38
337.281	99.38
337.51	96.38
337.738	97.38
337.966	82.38
338.194	99.38
338.422	101.38
338.65	84.38
338.878	85.38
339.106	85.38
339.334	89.38
339.562	93.38
339.79	92.38
340.018	98.38
340.246	74.38
340.474	100.38
340.702	88.38
340.93	81.38
341.158	89.38
341.386	92.38
341.614	100.38
341.842	85.38
342.07	83.38
342.298	108.38
342.526	90.38
342.754	96.38
342.981	85.38
343.209	113.38
343.437	110.38
343.665	101.38
343.893	95.38
344.12	97.38
344.348	95.38
344.576	91.38
344.804	101.38
345.031	84.38
345.259	100.38
345.487	89.38
345.714	84.38
345.942	102.38
346.17	89.38
346.397	102.38
346.625	103.38
346.853	116.38
347.08	85.38
347.308	89.38
347.535	102.38
347.763	105.38
347.99	102.38
348.218	103.38
348.445	108.38
348.673	104.38
348.9	96.38
349.128	94.38
349.355	89.38
349.583	96.38
349.81	108.38
350.037	94.38
350.265	102.38
350.492	99.38
350.72	89.38
350.947	110.38
351.174	98.38
351.402	118.38
351.629	113.38
351.856	107.38
352.083	110.38
352.311	110.38
352.538	105.38
352.765	101.38
352.992	114.38
353.22	107.38
353.447	106.38
353.674	91.38
353.901	100.38
354.128	94.38
354.355	101.38
354.583	112.38
354.81	110.38
355.037	111.38
355.264	106.38
355.491	88.38
355.718	91.38
355.945	109.38
356.172	92.38
356.399	93.38
356.626	101.38
356.853	96.38
357.08	100.38
357.307	96.38
357.534	97.38
357.761	101.38
357.988	104.38
358.215	105.38
358.441	89.38
358.668	103.38
358.895	95.38
359.122	83.38
359.349	93.38
359.576	107.38
359.802	99.38
360.029	100.38
360.256	97.38
360.483	98.38
360.709	83.38
360.936	100.38
361.163	102.38
361.39	95.38
361.616	101.38
361.843	98.38
362.07	89.38
362.296	96.38
362.523	97.38
362.749	105.38
362.976	72.38
363.203	90.38
363.429	91.38
363.656	104.38
363.882	81.38
364.109	97.38
364.335	88.38
364.562	84.38
364.788	93.38
365.015	89.38
365.241	88.38
365.468	103.38
365.694	93.38
365.92	119.38
366.147	97.38
366.373	93.38
366.599	98.38
366.826	109.38
367.052	90.38
367.278	98.38
367.505	87.38
367.731	90.38
367.957	80.38
368.184	91.38
368.41	104.38
368.636	106.38
368.862	101.38
369.089	118.38
369.315	98.38
369.541	96.38
369.767	84.38
369.993	104.38
370.219	107.38
370.445	100.38
370.672	100.38
370.898	100.38
371.124	88.38
371.35	92.38
371.576	94.38
371.802	89.38
372.028	92.38
372.254	78.38
372.48	95.38
372.706	93.38
372.932	94.38
373.158	103.38
373.384	79.38
373.61	84.38
373.835	94.38
374.061	88.38
374.287	98.38
374.513	95.38
374.739	98.38
374.965	108.38
375.191	100.38
375.416	97.38
375.642	96.38
375.868	85.38
376.094	105.38
376.319	84.38
376.545	85.38
376.771	95.38
376.997	99.38
377.222	91.38
377.448	102.38
377.674	92.38
377.899	108.38
378.125	107.38
378.35	90.38
378.576	103.38
378.802	102.38
379.027	95.38
379.253	109.38
379.478	99.38
379.704	100.38
379.929	111.38
380.155	110.38
380.38	100.38
380.606	106.38
380.831	101.38
381.057	121.38
381.282	95.38
381.507	115.38
381.733	97.38
381.958	110.38
382.184	97.38
382.409	108.38
382.634	102.38
382.86	112.38
383.085	95.38
383.31	96.38
383.535	116.38
383.761	110.38
383.986	118.38
384.211	118.38
384.436	114.38
384.662	116.38
384.887	121.38
385.112	113.38
385.337	125.38
385.562	130.38
385.787	118.38
386.013	104.38
386.238	116.38
386.463	120.38
386.688	147.38
386.913	126.38
387.138	141.38
387.363	110.38
387.588	110.38
387.813	115.38
388.038	122.38
388.263	133.38
388.488	131.38
388.713	106.38
388.938	103.38
389.163	128.38
389.387	98.38
389.612	83.38
389.837	74.38
390.062	76.38
390.287	107.38
390.512	91.38
390.736	92.38
390.961	102.38
391.186	103.38
391.411	99.38
391.636	96.38
391.86	84.38
392.085	92.38
392.31	86.38
392.534	83.38
392.759	82.38
392.984	102.38
393.208	83.38
393.433	110.38
393.658	93.38
393.882	76.38
394.107	97.38
394.331	86.38
394.556	93.38
394.78	100.38
395.005	101.38
395.229	93.38
395.454	82.38
395.678	92.38
395.903	89.38
396.127	94.38
396.352	100.38
396.576	92.38
396.801	87.38
397.025	97.38
397.249	104.38
397.474	100.38
397.698	104.38
397.922	101.38
398.147	84.38
398.371	90.38
398.595	82.38
398.82	106.38
399.044	82.38
399.268	100.38
399.492	111.38
399.717	109.38
399.941	88.38
400.165	83.38
400.389	107.38
400.613	84.38
400.837	101.38
401.062	108.38
401.286	91.38
401.51	105.38
401.734	100.38
401.958	107.38
402.182	113.38
402.406	133.38
402.63	102.38
402.854	90.38
403.078	108.38
403.302	97.38
403.526	93.38
403.75	100.38
403.974	86.38
404.198	94.38
404.422	95.38
404.645	96.38
404.869	97.38
405.093	109.38
405.317	84.38
405.541	90.38
405.765	94.38
405.988	118.38
406.212	146.38
406.436	177.38
406.66	113.38
406.883	106.38
407.107	102.38
407.331	95.38
407.555	85.38
407.778	91.38
408.002	86.38
408.226	94.38
408.449	100.38
408.673	89.38
408.896	102.38
409.12	95.38
409.344	97.38
409.567	87.38
409.791	91.38
410.014	102.38
410.238	100.38
410.461	90.38
410.685	108.38
410.908	103.38
411.132	108.38
411.355	109.38
411.578	94.38
411.802	92.38
412.025	89.38
412.249	94.38
412.472	107.38
412.695	97.38
412.919	90.38
413.142	88.38
413.365	80.38
413.589	89.38
413.812	94.38
414.035	89.38
414.258	83.38
414.482	92.38
414.705	91.38
414.928	110.38
415.151	100.38
415.374	104.38
415.597	100.38
415.821	96.38
416.044	90.38
416.267	98.38
416.49	100.38
416.713	103.38
416.936	92.38
417.159	91.38
417.382	94.38
417.605	89.38
417.828	98.38
418.051	98.38
418.274	93.38
418.497	91.38
418.72	73.38
418.943	95.38
419.166	84.38
419.389	80.38
419.611	96.38
419.834	81.38
420.057	88.38
420.28	93.38
420.503	95.38
420.726	101.38
420.948	106.38
421.171	105.38
421.394	96.38
421.617	101.38
421.839	92.38
422.062	97.38
422.285	103.38
422.507	114.38
422.73	110.38
422.953	97.38
423.175	102.38
423.398	89.38
423.621	89.38
423.843	99.38
424.066	96.38
424.288	95.38
424.511	97.38
424.733	92.38
424.956	100.38
425.178	92.38
425.401	95.38
425.623	105.38
425.846	93.38
426.068	90.38
426.291	91.38
426.513	91.38
426.735	93.38
426.958	92.38
427.18	97.38
427.402	129.38
427.625	151.38
427.847	111.38
428.069	104.38
428.292	79.38
428.514	84.38
428.736	77.38
428.958	87.38
429.181	103.38
429.403	85.38
429.625	92.38
429.847	92.38
430.069	115.38
430.292	99.38
430.514	95.38
430.736	77.38
430.958	90.38
431.18	91.38
431.402	70.38
431.624	84.38
431.846	90.38
432.068	98.38
432.29	92.38
432.512	99.38
432.734	89.38
432.956	94.38
433.178	104.38
433.4	93.38
433.622	81.38
433.844	88.38
434.066	95.38
434.287	92.38
434.509	85.38
434.731	105.38
434.953	86.38
435.175	97.38
435.397	92.38
435.618	93.38
435.84	94.38
436.062	114.38
436.284	89.38
436.505	93.38
436.727	106.38
436.949	101.38
437.17	90.38
437.392	93.38
437.614	96.38
437.835	86.38
438.057	103.38
438.278	107.38
438.5	107.38
438.721	108.38
438.943	102.38
439.165	66.38
439.386	89.38
439.608	89.38
439.829	82.38
440.05	127.38
440.272	133.38
440.493	107.38
440.715	96.38
440.936	84.38
441.158	86.38
441.379	93.38
441.6	94.38
441.822	107.38
442.043	92.38
442.264	93.38
442.486	111.38
442.707	95.38
442.928	102.38
443.149	106.38
443.371	120.38
443.592	98.38
443.813	109.38
444.034	105.38
444.255	99.38
444.476	93.38
444.698	89.38
444.919	89.38
445.14	147.38
445.361	122.38
445.582	111.38
445.803	119.38
446.024	113.38
446.245	133.38
446.466	102.38
446.687	86.38
446.908	102.38
447.129	92.38
447.35	90.38
447.571	87.38
447.792	111.38
448.013	110.38
448.234	91.38
448.455	96.38
448.675	108.38
448.896	107.38
449.117	98.38
449.338	109.38
449.559	116.38
449.779	120.38
450	93.38
450.221	82.38
450.442	81.38
450.662	105.38
450.883	114.38
451.104	109.38
451.324	96.38
451.545	87.38
451.766	92.38
451.986	88.38
452.207	95.38
452.428	93.38
452.648	95.38
452.869	111.38
453.089	108.38
453.31	102.38
453.53	101.38
453.751	98.38
453.971	102.38
454.192	103.38
454.412	86.38
454.633	87.38
454.853	95.38
455.073	85.38
455.294	94.38
455.514	102.38
455.734	104.38
455.955	88.38
456.175	71.38
456.395	99.38
456.616	89.38
456.836	87.38
457.056	85.38
457.276	88.38
457.497	92.38
457.717	93.38
457.937	90.38
458.157	102.38
458.377	94.38
458.598	112.38
458.818	139.38
459.038	124.38
459.258	91.38
459.478	82.38
459.698	98.38
459.918	82.38
460.138	92.38
460.358	76.38
460.578	97.38
460.798	89.38
461.018	91.38
461.238	92.38
461.458	97.38
461.678	94.38
461.898	90.38
462.118	91.38
462.338	90.38
462.558	87.38
462.777	98.38
462.997	82.38
463.217	81.38
463.437	84.38
463.657	102.38
463.876	95.38
464.096	108.38
464.316	92.38
464.536	96.38
464.755	91.38
464.975	89.38
465.195	131.38
465.414	122.38
465.634	86.38
465.854	97.38
466.073	98.38
466.293	84.38
466.512	85.38
466.732	81.38
466.951	102.38
467.171	92.38
467.391	85.38
467.61	110.38
467.829	95.38
468.049	97.38
468.268	93.38
468.488	99.38
468.707	87.38
468.927	84.38
469.146	89.38
469.365	91.38
469.585	97.38
469.804	105.38
470.023	92.38
470.243	87.38
470.462	89.38
470.681	109.38
470.901	95.38
471.12	90.38
471.339	100.38
471.558	78.38
471.777	91.38
471.997	94.38
472.216	77.38
472.435	73.38
472.654	77.38
472.873	95.38
473.092	83.38
473.311	81.38
473.53	76.38
473.749	89.38
473.968	101.38
474.187	109.38
474.406	98.38
474.625	94.38
474.844	104.38
475.063	93.38
475.282	99.38
475.501	80.38
475.72	82.38
475.939	81.38
476.158	92.38
476.377	92.38
476.596	78.38
476.814	97.38
477.033	97.38
477.252	93.38
477.471	87.38
477.69	86.38
477.908	99.38
478.127	103.38
478.346	101.38
478.564	94.38
478.783	102.38
479.002	89.38
479.22	100.38
479.439	90.38
479.658	113.38
479.876	86.38
480.095	91.38
480.313	97.38
480.532	93.38
480.751	100.38
480.969	110.38
481.188	111.38
481.406	85.38
481.624	90.38
481.843	77.38
482.061	84.38
482.28	118.38
482.498	110.38
482.717	76.38
482.935	94.38
483.153	98.38
483.372	95.38
483.59	79.38
483.808	102.38
484.027	98.38
484.245	107.38
484.463	99.38
484.681	102.38
484.9	99.38
485.118	95.38
485.336	88.38
485.554	82.38
485.772	112.38
485.99	110.38
486.209	113.38
486.427	103.38
486.645	102.38
486.863	121.38
487.081	105.38
487.299	103.38
487.517	98.38
487.735	106.38
487.953	94.38
488.171	98.38
488.389	92.38
488.607	103.38
488.825	100.38
489.043	90.38
489.261	102.38
489.479	103.38
489.696	100.38
489.914	90.38
490.132	81.38
490.35	81.38
490.568	96.38
490.786	95.38
491.003	90.38
491.221	87.38
491.439	94.38
491.657	106.38
491.874	97.38
492.092	110.38
492.31	114.38
492.527	65.38
492.745	78.38
492.963	79.38
493.18	89.38
493.398	106.38
493.615	98.38
493.833	103.38
494.05	97.38
494.268	88.38
494.485	87.38
494.703	97.38
494.92	99.38
495.138	102.38
495.355	91.38
495.573	88.38
495.79	93.38
496.008	85.38
496.225	97.38
496.442	98.38
496.66	99.38
496.877	104.38
497.094	93.38
497.312	86.38
497.529	105.38
497.746	97.38
497.963	102.38
498.181	98.38
498.398	101.38
498.615	111.38
498.832	91.38
499.049	92.38
499.267	89.38
499.484	97.38
499.701	88.38
499.918	99.38
500.135	88.38
500.352	91.38
500.569	108.38
500.786	95.38
501.003	92.38
501.22	86.38
501.437	81.38
501.654	102.38
501.871	99.38
502.088	84.38
502.305	95.38
502.522	101.38
502.739	97.38
502.956	94.38
503.172	79.38
503.389	101.38
503.606	95.38
503.823	89.38
504.04	102.38
504.256	101.38
504.473	90.38
504.69	87.38
504.907	94.38
505.123	82.38
505.34	90.38
505.557	93.38
505.773	91.38
505.99	100.38
506.207	84.38
506.423	96.38
506.64	81.38
506.856	98.38
507.073	98.38
507.289	92.38
507.506	96.38
507.722	106.38
507.939	107.38
508.155	98.38
508.372	88.38
508.588	104.38
508.805	84.38
509.021	98.38
509.238	98.38
509.454	119.38
509.67	79.38
509.887	93.38
510.103	125.38
510.319	184.38
510.536	576.38
510.752	1746.38
510.968	475.38
511.184	146.38
511.401	102.38
511.617	107.38
511.833	91.38
512.049	95.38
512.265	100.38
512.481	94.38
512.698	101.38
512.914	83.38
513.13	97.38
513.346	97.38
513.562	92.38
513.778	97.38
513.994	98.38
514.21	102.38
514.426	119.38
514.642	124.38
