Data from Uncirc_1995_H10_HRD10591_00054.txt Node
Date: Wed Jan 03 11:35:44 EST 2024
User: Yrep
Spectrometer: HR+D1059
Trigger mode: 1
Integration Time (sec): 1.000000E-1
Scans to average: 1
Electric dark correction enabled: true
Nonlinearity correction enabled: false
Boxcar width: 0
XAxis mode: Wavelengths
Number of Pixels in Spectrum: 2048
>>>>>Begin Spectral Data<<<<<
223.165	-22
223.4	-22
223.635	-22
223.869	-18
224.104	-28
224.338	-13
224.573	-11
224.808	-20
225.042	-8
225.277	-3
225.511	-2
225.746	1
225.98	10
226.215	16
226.449	4
226.683	33
226.918	28
227.152	33
227.387	25
227.621	24
227.856	40
228.09	48
228.324	52
228.559	60
228.793	52
229.027	58
229.262	57
229.496	55
229.73	83
229.964	88
230.199	80
230.433	76
230.667	60
230.901	61
231.136	71
231.37	76
231.604	74
231.838	73
232.072	90
232.306	59
232.541	84
232.775	84
233.009	68
233.243	71
233.477	82
233.711	89
233.945	72
234.179	82
234.413	81
234.647	76
234.881	67
235.115	89
235.349	62
235.583	80
235.817	83
236.051	76
236.285	77
236.519	89
236.753	83
236.987	75
237.221	85
237.455	85
237.689	71
237.922	83
238.156	61
238.39	76
238.624	72
238.858	73
239.091	88
239.325	76
239.559	90
239.793	80
240.027	82
240.26	73
240.494	75
240.728	69
240.961	79
241.195	92
241.429	81
241.662	85
241.896	59
242.13	81
242.363	82
242.597	88
242.83	69
243.064	71
243.298	81
243.531	71
243.765	73
243.998	71
244.232	84
244.465	71
244.699	94
244.932	75
245.166	68
245.399	67
245.633	80
245.866	80
246.099	75
246.333	81
246.566	68
246.8	74
247.033	84
247.266	87
247.5	81
247.733	78
247.966	81
248.2	79
248.433	79
248.666	72
248.899	81
249.133	75
249.366	94
249.599	87
249.832	69
250.066	78
250.299	70
250.532	66
250.765	77
250.998	58
251.231	88
251.465	73
251.698	87
251.931	78
252.164	91
252.397	82
252.63	73
252.863	95
253.096	90
253.329	71
253.562	83
253.795	72
254.028	81
254.261	74
254.494	88
254.727	93
254.96	77
255.193	94
255.426	77
255.659	75
255.892	75
256.124	73
256.357	91
256.59	84
256.823	92
257.056	81
257.289	103
257.521	81
257.754	73
257.987	73
258.22	81
258.452	87
258.685	68
258.918	71
259.151	79
259.383	80
259.616	84
259.849	87
260.081	82
260.314	73
260.547	79
260.779	88
261.012	91
261.244	79
261.477	88
261.71	94
261.942	91
262.175	104
262.407	97
262.64	83
262.872	94
263.105	92
263.337	91
263.57	68
263.802	99
264.035	90
264.267	75
264.499	83
264.732	85
264.964	84
265.197	82
265.429	79
265.661	78
265.894	88
266.126	83
266.358	92
266.591	79
266.823	83
267.055	86
267.287	81
267.52	76
267.752	66
267.984	92
268.216	86
268.448	83
268.681	93
268.913	84
269.145	95
269.377	94
269.609	82
269.841	98
270.073	101
270.306	76
270.538	79
270.77	75
271.002	93
271.234	92
271.466	91
271.698	88
271.93	82
272.162	82
272.394	78
272.626	90
272.858	88
273.09	94
273.322	86
273.553	89
273.785	87
274.017	86
274.249	97
274.481	80
274.713	83
274.945	85
275.176	95
275.408	93
275.64	89
275.872	84
276.104	80
276.335	93
276.567	93
276.799	93
277.031	98
277.262	84
277.494	86
277.726	89
277.957	85
278.189	85
278.421	81
278.652	87
278.884	87
279.115	84
279.347	88
279.579	97
279.81	101
280.042	89
280.273	83
280.505	76
280.736	85
280.968	93
281.199	77
281.431	93
281.662	88
281.894	88
282.125	111
282.356	111
282.588	134
282.819	97
283.051	87
283.282	81
283.513	85
283.745	93
283.976	84
284.207	96
284.439	75
284.67	79
284.901	87
285.132	83
285.364	68
285.595	84
285.826	78
286.057	92
286.288	75
286.52	85
286.751	89
286.982	81
287.213	68
287.444	84
287.675	100
287.906	87
288.138	79
288.369	86
288.6	77
288.831	91
289.062	90
289.293	100
289.524	107
289.755	91
289.986	89
290.217	87
290.448	75
290.679	81
290.91	89
291.141	87
291.371	93
291.602	93
291.833	79
292.064	83
292.295	83
292.526	95
292.757	80
292.987	80
293.218	82
293.449	84
293.68	101
293.91	91
294.141	94
294.372	89
294.603	93
294.833	105
295.064	87
295.295	86
295.525	97
295.756	123
295.987	116
296.217	123
296.448	118
296.679	95
296.909	98
297.14	100
297.37	96
297.601	85
297.831	93
298.062	83
298.292	93
298.523	84
298.753	93
298.984	98
299.214	106
299.445	81
299.675	99
299.905	94
300.136	101
300.366	104
300.597	90
300.827	92
301.057	88
301.288	107
301.518	99
301.748	98
301.979	95
302.209	94
302.439	84
302.669	87
302.9	96
303.13	83
303.36	111
303.59	85
303.82	99
304.051	96
304.281	68
304.511	85
304.741	92
304.971	95
305.201	90
305.431	90
305.661	103
305.891	93
306.121	85
306.352	94
306.582	92
306.812	97
307.042	91
307.272	88
307.502	91
307.731	97
307.961	107
308.191	92
308.421	82
308.651	106
308.881	89
309.111	88
309.341	99
309.571	95
309.8	97
310.03	90
310.26	108
310.49	89
310.72	96
310.949	113
311.179	112
311.409	92
311.639	102
311.868	107
312.098	98
312.328	108
312.557	98
312.787	100
313.017	111
313.246	95
313.476	92
313.706	97
313.935	88
314.165	92
314.394	82
314.624	84
314.853	101
315.083	87
315.312	86
315.542	96
315.771	91
316.001	99
316.23	87
316.46	75
316.689	84
316.919	73
317.148	93
317.377	91
317.607	90
317.836	92
318.065	83
318.295	93
318.524	84
318.753	87
318.983	96
319.212	107
319.441	108
319.67	94
319.9	95
320.129	89
320.358	81
320.587	87
320.816	80
321.046	95
321.275	100
321.504	87
321.733	93
321.962	98
322.191	96
322.42	105
322.649	101
322.878	122
323.108	114
323.337	113
323.566	133
323.795	151
324.024	211
324.253	377
324.482	745
324.71	1536
324.939	2051
325.168	768
325.397	244
325.626	145
325.855	118
326.084	137
326.313	129
326.542	154
326.77	237
326.999	432
327.228	859
327.457	1592
327.686	1277
327.914	357
328.143	182
328.372	141
328.6	121
328.829	109
329.058	111
329.287	114
329.515	106
329.744	94
329.972	88
330.201	117
330.43	122
330.658	100
330.887	122
331.115	116
331.344	87
331.572	98
331.801	85
332.03	100
332.258	86
332.486	95
332.715	103
332.943	108
333.172	92
333.4	79
333.629	105
333.857	105
334.085	99
334.314	90
334.542	100
334.771	74
334.999	107
335.227	90
335.455	95
335.684	93
335.912	91
336.14	100
336.369	91
336.597	109
336.825	78
337.053	85
337.281	92
337.51	94
337.738	88
337.966	91
338.194	107
338.422	90
338.65	89
338.878	98
339.106	93
339.334	89
339.562	120
339.79	92
340.018	103
340.246	82
340.474	96
340.702	86
340.93	81
341.158	101
341.386	91
341.614	96
341.842	89
342.07	85
342.298	95
342.526	95
342.754	91
342.981	98
343.209	83
343.437	91
343.665	81
343.893	95
344.12	96
344.348	74
344.576	89
344.804	93
345.031	85
345.259	80
345.487	93
345.714	99
345.942	91
346.17	96
346.397	113
346.625	101
346.853	97
347.08	98
347.308	92
347.535	101
347.763	100
347.99	107
348.218	93
348.445	99
348.673	78
348.9	92
349.128	101
349.355	96
349.583	91
349.81	110
350.037	89
350.265	95
350.492	96
350.72	78
350.947	109
351.174	112
351.402	108
351.629	105
351.856	108
352.083	96
352.311	111
352.538	99
352.765	106
352.992	107
353.22	96
353.447	101
353.674	101
353.901	107
354.128	87
354.355	105
354.583	99
354.81	104
355.037	104
355.264	100
355.491	92
355.718	86
355.945	95
356.172	91
356.399	95
356.626	99
356.853	100
357.08	82
357.307	94
357.534	80
357.761	96
357.988	104
358.215	93
358.441	91
358.668	92
358.895	86
359.122	101
359.349	84
359.576	99
359.802	94
360.029	104
360.256	100
360.483	76
360.709	92
360.936	93
361.163	111
361.39	83
361.616	94
361.843	90
362.07	107
362.296	92
362.523	82
362.749	92
362.976	93
363.203	116
363.429	101
363.656	99
363.882	98
364.109	91
364.335	85
364.562	95
364.788	90
365.015	90
365.241	88
365.468	106
365.694	97
365.92	101
366.147	88
366.373	92
366.599	101
366.826	92
367.052	96
367.278	103
367.505	90
367.731	89
367.957	90
368.184	96
368.41	101
368.636	107
368.862	122
369.089	109
369.315	106
369.541	107
369.767	99
369.993	96
370.219	87
370.445	89
370.672	100
370.898	94
371.124	96
371.35	85
371.576	98
371.802	92
372.028	84
372.254	85
372.48	91
372.706	93
372.932	91
373.158	88
373.384	95
373.61	92
373.835	96
374.061	94
374.287	87
374.513	101
374.739	88
374.965	91
375.191	100
375.416	90
375.642	82
375.868	96
376.094	92
376.319	90
376.545	80
376.771	97
376.997	103
377.222	95
377.448	86
377.674	94
377.899	104
378.125	103
378.35	78
378.576	92
378.802	88
379.027	90
379.253	87
379.478	108
379.704	87
379.929	100
380.155	106
380.38	102
380.606	96
380.831	113
381.057	93
381.282	89
381.507	81
381.733	107
381.958	111
382.184	101
382.409	87
382.634	101
382.86	100
383.085	104
383.31	109
383.535	103
383.761	89
383.986	96
384.211	88
384.436	104
384.662	100
384.887	103
385.112	97
385.337	89
385.562	112
385.787	104
386.013	105
386.238	114
386.463	100
386.688	106
386.913	114
387.138	104
387.363	96
387.588	86
387.813	97
388.038	106
388.263	90
388.488	116
388.713	98
388.938	98
389.163	103
389.387	93
389.612	101
389.837	94
390.062	81
390.287	85
390.512	86
390.736	86
390.961	100
391.186	93
391.411	93
391.636	102
391.86	110
392.085	96
392.31	92
392.534	103
392.759	83
392.984	87
393.208	97
393.433	98
393.658	96
393.882	94
394.107	97
394.331	100
394.556	88
394.78	98
395.005	87
395.229	74
395.454	87
395.678	88
395.903	92
396.127	90
396.352	87
396.576	79
396.801	90
397.025	82
397.249	86
397.474	92
397.698	75
397.922	82
398.147	84
398.371	88
398.595	98
398.82	94
399.044	86
399.268	82
399.492	87
399.717	83
399.941	81
400.165	96
400.389	91
400.613	82
400.837	99
401.062	87
401.286	89
401.51	88
401.734	100
401.958	104
402.182	101
402.406	148
402.63	112
402.854	101
403.078	95
403.302	98
403.526	80
403.75	80
403.974	91
404.198	95
404.422	92
404.645	92
404.869	85
405.093	88
405.317	90
405.541	99
405.765	93
405.988	116
406.212	141
406.436	194
406.66	135
406.883	111
407.107	105
407.331	95
407.555	94
407.778	84
408.002	91
408.226	79
408.449	83
408.673	98
408.896	99
409.12	92
409.344	99
409.567	88
409.791	97
410.014	93
410.238	107
410.461	91
410.685	87
410.908	103
411.132	104
411.355	93
411.578	101
411.802	89
412.025	94
412.249	75
412.472	96
412.695	103
412.919	107
413.142	91
413.365	99
413.589	85
413.812	82
414.035	98
414.258	80
414.482	76
414.705	88
414.928	109
415.151	98
415.374	107
415.597	91
415.821	89
416.044	89
416.267	94
416.49	87
416.713	105
416.936	113
417.159	68
417.382	84
417.605	92
417.828	98
418.051	99
418.274	98
418.497	97
418.72	86
418.943	90
419.166	83
419.389	80
419.611	85
419.834	91
420.057	97
420.28	100
420.503	95
420.726	81
420.948	97
421.171	98
421.394	76
421.617	94
421.839	91
422.062	100
422.285	90
422.507	93
422.73	94
422.953	97
423.175	103
423.398	93
423.621	90
423.843	93
424.066	82
424.288	84
424.511	98
424.733	110
424.956	109
425.178	96
425.401	100
425.623	107
425.846	95
426.068	106
426.291	101
426.513	91
426.735	95
426.958	98
427.18	100
427.402	130
427.625	141
427.847	121
428.069	94
428.292	79
428.514	87
428.736	97
428.958	89
429.181	98
429.403	79
429.625	86
429.847	105
430.069	96
430.292	86
430.514	94
430.736	84
430.958	85
431.18	87
431.402	91
431.624	87
431.846	89
432.068	101
432.29	83
432.512	104
432.734	87
432.956	80
433.178	100
433.4	107
433.622	83
433.844	95
434.066	95
434.287	100
434.509	88
434.731	93
434.953	78
435.175	84
435.397	92
435.618	110
435.84	99
436.062	127
436.284	99
436.505	103
436.727	91
436.949	96
437.17	89
437.392	89
437.614	85
437.835	112
438.057	105
438.278	101
438.5	107
438.721	121
438.943	97
439.165	85
439.386	94
439.608	105
439.829	99
440.05	115
440.272	132
440.493	97
440.715	88
440.936	87
441.158	98
441.379	92
441.6	87
441.822	80
442.043	101
442.264	96
442.486	92
442.707	89
442.928	101
443.149	116
443.371	128
443.592	104
443.813	112
444.034	109
444.255	87
444.476	82
444.698	88
444.919	81
445.14	121
445.361	118
445.582	110
445.803	117
446.024	127
446.245	129
446.466	101
446.687	90
446.908	92
447.129	98
447.35	89
447.571	92
447.792	104
448.013	84
448.234	94
448.455	107
448.675	106
448.896	96
449.117	85
449.338	109
449.559	126
449.779	124
450	101
450.221	108
450.442	87
450.662	99
450.883	104
451.104	113
451.324	98
451.545	101
451.766	97
451.986	94
452.207	81
452.428	75
452.648	99
452.869	107
453.089	108
453.31	109
453.53	103
453.751	77
453.971	96
454.192	100
454.412	89
454.633	88
454.853	93
455.073	89
455.294	103
455.514	93
455.734	99
455.955	100
456.175	83
456.395	81
456.616	82
456.836	97
457.056	99
457.276	93
457.497	97
457.717	83
457.937	73
458.157	88
458.377	93
458.598	101
458.818	137
459.038	136
459.258	104
459.478	91
459.698	84
459.918	81
460.138	81
460.358	81
460.578	69
460.798	85
461.018	80
461.238	87
461.458	95
461.678	85
461.898	82
462.118	90
462.338	88
462.558	85
462.777	88
462.997	84
463.217	84
463.437	93
463.657	81
463.876	84
464.096	87
464.316	80
464.536	90
464.755	95
464.975	101
465.195	161
465.414	140
465.634	95
465.854	99
466.073	85
466.293	105
466.512	90
466.732	93
466.951	89
467.171	86
467.391	100
467.61	116
467.829	82
468.049	99
468.268	82
468.488	87
468.707	98
468.927	97
469.146	104
469.365	86
469.585	100
469.804	91
470.023	98
470.243	94
470.462	86
470.681	96
470.901	90
471.12	97
471.339	83
471.558	87
471.777	96
471.997	83
472.216	81
472.435	98
472.654	103
472.873	99
473.092	107
473.311	94
473.53	82
473.749	95
473.968	94
474.187	97
474.406	84
474.625	92
474.844	106
475.063	93
475.282	97
475.501	84
475.72	82
475.939	84
476.158	102
476.377	90
476.596	89
476.814	91
477.033	81
477.252	76
477.471	83
477.69	88
477.908	86
478.127	81
478.346	93
478.564	90
478.783	95
479.002	94
479.22	73
479.439	93
479.658	97
479.876	100
480.095	93
480.313	97
480.532	93
480.751	90
480.969	112
481.188	98
481.406	108
481.624	97
481.843	88
482.061	90
482.28	88
482.498	95
482.717	92
482.935	81
483.153	98
483.372	85
483.59	97
483.808	87
484.027	97
484.245	83
484.463	82
484.681	98
484.9	103
485.118	95
485.336	99
485.554	99
485.772	93
485.99	100
486.209	104
486.427	98
486.645	113
486.863	107
487.081	84
487.299	95
487.517	97
487.735	87
487.953	101
488.171	96
488.389	96
488.607	104
488.825	90
489.043	90
489.261	82
489.479	92
489.696	92
489.914	80
490.132	85
490.35	93
490.568	84
490.786	90
491.003	84
491.221	94
491.439	98
491.657	99
491.874	93
492.092	92
492.31	94
492.527	103
492.745	84
492.963	90
493.18	94
493.398	104
493.615	100
493.833	92
494.05	94
494.268	96
494.485	81
494.703	90
494.92	95
495.138	78
495.355	99
495.573	92
495.79	83
496.008	93
496.225	107
496.442	87
496.66	100
496.877	81
497.094	90
497.312	87
497.529	99
497.746	108
497.963	95
498.181	91
498.398	107
498.615	116
498.832	102
499.049	103
499.267	89
499.484	77
499.701	95
499.918	80
500.135	91
500.352	83
500.569	101
500.786	102
501.003	111
501.22	93
501.437	91
501.654	77
501.871	112
502.088	74
502.305	75
502.522	89
502.739	96
502.956	87
503.172	97
503.389	89
503.606	92
503.823	92
504.04	93
504.256	88
504.473	88
504.69	103
504.907	79
505.123	78
505.34	95
505.557	92
505.773	92
505.99	85
506.207	90
506.423	97
506.64	105
506.856	91
507.073	103
507.289	98
507.506	115
507.722	103
507.939	107
508.155	91
508.372	92
508.588	85
508.805	94
509.021	107
509.238	100
509.454	104
509.67	98
509.887	106
510.103	126
510.319	213
510.536	739
510.752	2286
510.968	626
511.184	155
511.401	107
511.617	99
511.833	104
512.049	101
512.265	94
512.481	96
512.698	94
512.914	90
513.13	91
513.346	91
513.562	92
513.778	86
513.994	101
514.21	98
514.426	117
514.642	137
514.858	110
515.074	157
515.29	415
515.506	1324
515.721	473
515.937	151
516.153	109
516.369	96
516.585	94
516.801	83
517.016	83
517.232	101
517.448	99
517.664	83
517.879	87
518.095	104
518.311	89
518.527	107
518.742	90
518.958	90
519.173	95
519.389	91
519.605	96
519.82	101
520.036	110
520.251	116
520.467	101
520.682	98
520.898	98
521.113	97
521.329	140
521.544	179
521.76	485
521.975	2069
522.19	1287
522.406	283
522.621	120
522.836	103
523.052	89
523.267	98
523.482	87
523.698	102
523.913	108
524.128	110
524.343	99
524.559	96
524.774	94
524.989	108
525.204	102
525.419	91
525.634	96
525.849	101
526.064	80
526.28	81
526.495	81
526.71	92
526.925	89
527.14	77
527.355	95
527.57	91
527.785	98
527.999	89
528.214	95
528.429	94
528.644	104
528.859	107
529.074	94
529.289	117
529.503	169
529.718	102
529.933	110
530.148	102
530.363	93
530.577	85
530.792	82
531.007	80
531.221	93
531.436	78
531.651	87
531.865	81
532.08	94
532.295	92
532.509	92
532.724	86
532.938	87
533.153	93
533.367	84
533.582	103
533.796	89
534.011	102
534.225	94
534.44	90
534.654	105
534.868	75
535.083	95
535.297	85
535.511	88
535.726	98
535.94	99
536.154	83
536.369	93
536.583	105
536.797	87
537.011	113
537.225	79
537.44	95
537.654	88
537.868	98
538.082	87
538.296	77
538.51	85
538.724	71
538.938	92
539.153	106
539.367	113
539.581	99
539.795	96
540.009	91
540.222	85
540.436	97
540.65	87
540.864	77
541.078	79
541.292	90
541.506	88
541.72	83
541.934	95
542.147	85
542.361	91
542.575	95
542.789	101
543.002	86
543.216	96
543.43	101
543.644	92
543.857	102
544.071	97
544.285	89
544.498	96
544.712	85
544.925	88
545.139	92
545.352	86
545.566	93
545.779	91
545.993	89
546.206	101
546.42	102
546.633	103
546.847	97
547.06	74
547.274	87
547.487	79
547.7	88
547.914	95
548.127	90
548.34	81
548.554	98
548.767	62
548.98	82
549.193	84
549.407	81
549.62	86
549.833	85
550.046	94
550.259	85
550.473	96
550.686	80
550.899	77
551.112	102
551.325	92
551.538	89
551.751	87
551.964	79
552.177	78
552.39	89
552.603	93
552.816	88
553.029	89
553.242	98
553.455	100
553.667	96
553.88	112
554.093	79
554.306	85
554.519	87
554.732	87
554.944	86
555.157	81
555.37	84
555.583	93
555.795	79
556.008	95
556.221	87
556.433	88
556.646	88
556.859	84
557.071	83
557.284	97
557.496	98
557.709	88
557.921	87
558.134	89
558.346	88
558.559	87
558.771	88
558.984	80
559.196	83
559.409	94
559.621	79
559.833	101
560.046	85
560.258	78
560.47	75
560.683	84
560.895	96
561.107	86
561.32	94
561.532	103
561.744	91
561.956	88
562.168	89
562.381	91
562.593	87
562.805	87
563.017	94
563.229	91
563.441	103
563.653	87
563.865	72
564.077	91
564.289	96
564.501	90
564.713	99
564.925	96
565.137	100
565.349	92
565.561	91
565.773	84
565.985	95
566.197	83
566.408	80
566.62	87
566.832	87
567.044	100
567.255	87
567.467	102
567.679	87
567.891	88
568.102	96
568.314	93
568.526	88
568.737	95
568.949	96
569.161	95
569.372	86
569.584	89
569.795	93
570.007	112
570.218	235
570.43	135
570.641	96
570.853	91
571.064	91
571.276	88
571.487	98
571.698	94
571.91	88
572.121	91
572.333	100
572.544	93
572.755	83
572.966	79
573.178	87
573.389	79
573.6	91
573.811	81
574.023	81
574.234	87
574.445	88
574.656	96
574.867	79
575.078	86
575.289	92
575.501	110
575.712	89
575.923	88
576.134	93
576.345	91
576.556	83
576.767	88
576.978	102
577.188	79
577.399	99
577.61	95
577.821	95
578.032	120
578.243	277
578.454	738
578.665	222
578.875	118
579.086	81
579.297	89
579.508	84
579.718	86
579.929	72
580.14	92
580.35	83
580.561	91
580.772	93
580.982	92
581.193	92
581.403	83
581.614	95
581.825	92
582.035	81
582.246	97
582.456	93
582.667	81
582.877	87
583.087	91
583.298	82
583.508	88
583.719	87
583.929	91
584.139	87
