Data from Uncirc_1995_H10_HRD10591_00018.txt Node
Date: Wed Jan 03 11:35:37 EST 2024
User: Yrep
Spectrometer: HR+D1059
Trigger mode: 1
Integration Time (sec): 1.000000E-1
Scans to average: 1
Electric dark correction enabled: true
Nonlinearity correction enabled: false
Boxcar width: 0
XAxis mode: Wavelengths
Number of Pixels in Spectrum: 2048
>>>>>Begin Spectral Data<<<<<
223.165	-14.75
223.4	-14.75
223.635	-14.75
223.869	-18.75
224.104	-15.75
224.338	-33.75
224.573	-12.75
224.808	-12.75
225.042	-7.75
225.277	0.25
225.511	10.25
225.746	5.25
225.98	6.25
226.215	-3.75
226.449	26.25
226.683	24.25
226.918	19.25
227.152	28.25
227.387	34.25
227.621	26.25
227.856	37.25
228.09	49.25
228.324	51.25
228.559	61.25
228.793	64.25
229.027	55.25
229.262	61.25
229.496	65.25
229.73	79.25
229.964	76.25
230.199	67.25
230.433	80.25
230.667	79.25
230.901	74.25
231.136	76.25
231.37	91.25
231.604	88.25
231.838	75.25
232.072	75.25
232.306	81.25
232.541	76.25
232.775	72.25
233.009	82.25
233.243	70.25
233.477	87.25
233.711	88.25
233.945	75.25
234.179	85.25
234.413	82.25
234.647	73.25
234.881	74.25
235.115	55.25
235.349	62.25
235.583	94.25
235.817	75.25
236.051	85.25
236.285	61.25
236.519	73.25
236.753	85.25
236.987	78.25
237.221	83.25
237.455	91.25
237.689	83.25
237.922	77.25
238.156	77.25
238.39	78.25
238.624	64.25
238.858	84.25
239.091	78.25
239.325	71.25
239.559	80.25
239.793	80.25
240.027	87.25
240.26	80.25
240.494	69.25
240.728	67.25
240.961	82.25
241.195	84.25
241.429	66.25
241.662	79.25
241.896	77.25
242.13	72.25
242.363	80.25
242.597	68.25
242.83	72.25
243.064	80.25
243.298	76.25
243.531	82.25
243.765	76.25
243.998	78.25
244.232	86.25
244.465	78.25
244.699	70.25
244.932	81.25
245.166	67.25
245.399	64.25
245.633	80.25
245.866	80.25
246.099	76.25
246.333	82.25
246.566	67.25
246.8	81.25
247.033	76.25
247.266	72.25
247.5	79.25
247.733	87.25
247.966	97.25
248.2	81.25
248.433	75.25
248.666	72.25
248.899	73.25
249.133	98.25
249.366	77.25
249.599	86.25
249.832	86.25
250.066	79.25
250.299	74.25
250.532	75.25
250.765	71.25
250.998	71.25
251.231	66.25
251.465	81.25
251.698	72.25
251.931	75.25
252.164	66.25
252.397	67.25
252.63	85.25
252.863	77.25
253.096	79.25
253.329	93.25
253.562	81.25
253.795	86.25
254.028	83.25
254.261	83.25
254.494	74.25
254.727	76.25
254.96	85.25
255.193	76.25
255.426	78.25
255.659	80.25
255.892	79.25
256.124	76.25
256.357	73.25
256.59	77.25
256.823	91.25
257.056	84.25
257.289	96.25
257.521	79.25
257.754	80.25
257.987	85.25
258.22	82.25
258.452	74.25
258.685	83.25
258.918	88.25
259.151	81.25
259.383	84.25
259.616	87.25
259.849	91.25
260.081	63.25
260.314	76.25
260.547	84.25
260.779	92.25
261.012	83.25
261.244	87.25
261.477	89.25
261.71	88.25
261.942	102.25
262.175	126.25
262.407	92.25
262.64	83.25
262.872	78.25
263.105	79.25
263.337	89.25
263.57	79.25
263.802	82.25
264.035	82.25
264.267	94.25
264.499	80.25
264.732	83.25
264.964	81.25
265.197	80.25
265.429	89.25
265.661	94.25
265.894	96.25
266.126	95.25
266.358	90.25
266.591	88.25
266.823	96.25
267.055	83.25
267.287	85.25
267.52	74.25
267.752	90.25
267.984	97.25
268.216	89.25
268.448	83.25
268.681	97.25
268.913	97.25
269.145	81.25
269.377	77.25
269.609	93.25
269.841	82.25
270.073	74.25
270.306	85.25
270.538	91.25
270.77	72.25
271.002	87.25
271.234	81.25
271.466	100.25
271.698	84.25
271.93	86.25
272.162	74.25
272.394	96.25
272.626	99.25
272.858	86.25
273.09	83.25
273.322	84.25
273.553	74.25
273.785	87.25
274.017	81.25
274.249	75.25
274.481	89.25
274.713	95.25
274.945	66.25
275.176	77.25
275.408	78.25
275.64	87.25
275.872	81.25
276.104	99.25
276.335	99.25
276.567	104.25
276.799	108.25
277.031	112.25
277.262	96.25
277.494	89.25
277.726	84.25
277.957	88.25
278.189	90.25
278.421	100.25
278.652	84.25
278.884	96.25
279.115	100.25
279.347	82.25
279.579	90.25
279.81	88.25
280.042	90.25
280.273	80.25
280.505	82.25
280.736	94.25
280.968	97.25
281.199	96.25
281.431	81.25
281.662	91.25
281.894	95.25
282.125	99.25
282.356	120.25
282.588	127.25
282.819	102.25
283.051	92.25
283.282	88.25
283.513	81.25
283.745	89.25
283.976	95.25
284.207	89.25
284.439	89.25
284.67	87.25
284.901	73.25
285.132	92.25
285.364	99.25
285.595	79.25
285.826	89.25
286.057	83.25
286.288	91.25
286.52	78.25
286.751	96.25
286.982	84.25
287.213	91.25
287.444	77.25
287.675	78.25
287.906	88.25
288.138	86.25
288.369	87.25
288.6	100.25
288.831	82.25
289.062	92.25
289.293	83.25
289.524	97.25
289.755	76.25
289.986	80.25
290.217	87.25
290.448	87.25
290.679	77.25
290.91	89.25
291.141	84.25
291.371	86.25
291.602	80.25
291.833	82.25
292.064	87.25
292.295	90.25
292.526	78.25
292.757	89.25
292.987	83.25
293.218	83.25
293.449	82.25
293.68	92.25
293.91	92.25
294.141	102.25
294.372	103.25
294.603	97.25
294.833	91.25
295.064	97.25
295.295	79.25
295.525	85.25
295.756	90.25
295.987	134.25
296.217	142.25
296.448	106.25
296.679	92.25
296.909	90.25
297.14	87.25
297.37	89.25
297.601	90.25
297.831	81.25
298.062	75.25
298.292	92.25
298.523	78.25
298.753	78.25
298.984	85.25
299.214	92.25
299.445	74.25
299.675	86.25
299.905	110.25
300.136	100.25
300.366	94.25
300.597	80.25
300.827	101.25
301.057	101.25
301.288	91.25
301.518	104.25
301.748	87.25
301.979	106.25
302.209	87.25
302.439	103.25
302.669	86.25
302.9	83.25
303.13	102.25
303.36	87.25
303.59	89.25
303.82	94.25
304.051	92.25
304.281	80.25
304.511	104.25
304.741	105.25
304.971	83.25
305.201	96.25
305.431	94.25
305.661	87.25
305.891	84.25
306.121	94.25
306.352	92.25
306.582	92.25
306.812	87.25
307.042	87.25
307.272	99.25
307.502	104.25
307.731	99.25
307.961	98.25
308.191	92.25
308.421	95.25
308.651	100.25
308.881	104.25
309.111	94.25
309.341	96.25
309.571	90.25
309.8	82.25
310.03	86.25
310.26	89.25
310.49	86.25
310.72	86.25
310.949	88.25
311.179	91.25
311.409	91.25
311.639	96.25
311.868	98.25
312.098	97.25
312.328	95.25
312.557	109.25
312.787	102.25
313.017	99.25
313.246	102.25
313.476	90.25
313.706	105.25
313.935	104.25
314.165	88.25
314.394	98.25
314.624	92.25
314.853	86.25
315.083	95.25
315.312	95.25
315.542	91.25
315.771	102.25
316.001	89.25
316.23	90.25
316.46	88.25
316.689	86.25
316.919	78.25
317.148	86.25
317.377	105.25
317.607	93.25
317.836	97.25
318.065	85.25
318.295	92.25
318.524	87.25
318.753	87.25
318.983	95.25
319.212	95.25
319.441	100.25
319.67	104.25
319.9	98.25
320.129	92.25
320.358	95.25
320.587	108.25
320.816	87.25
321.046	108.25
321.275	106.25
321.504	105.25
321.733	91.25
321.962	86.25
322.191	92.25
322.42	84.25
322.649	123.25
322.878	113.25
323.108	103.25
323.337	123.25
323.566	116.25
323.795	150.25
324.024	186.25
324.253	382.25
324.482	810.25
324.71	1649.25
324.939	2216.25
325.168	793.25
325.397	255.25
325.626	141.25
325.855	120.25
326.084	111.25
326.313	118.25
326.542	173.25
326.77	233.25
326.999	454.25
327.228	918.25
327.457	1711.25
327.686	1308.25
327.914	358.25
328.143	180.25
328.372	151.25
328.6	100.25
328.829	107.25
329.058	118.25
329.287	114.25
329.515	90.25
329.744	111.25
329.972	110.25
330.201	91.25
330.43	100.25
330.658	125.25
330.887	117.25
331.115	101.25
331.344	89.25
331.572	102.25
331.801	87.25
332.03	90.25
332.258	87.25
332.486	92.25
332.715	98.25
332.943	91.25
333.172	89.25
333.4	101.25
333.629	100.25
333.857	101.25
334.085	84.25
334.314	87.25
334.542	84.25
334.771	100.25
334.999	95.25
335.227	102.25
335.455	82.25
335.684	96.25
335.912	98.25
336.14	95.25
336.369	86.25
336.597	89.25
336.825	93.25
337.053	103.25
337.281	90.25
337.51	91.25
337.738	110.25
337.966	88.25
338.194	91.25
338.422	100.25
338.65	103.25
338.878	89.25
339.106	91.25
339.334	93.25
339.562	96.25
339.79	95.25
340.018	78.25
340.246	82.25
340.474	98.25
340.702	88.25
340.93	80.25
341.158	88.25
341.386	98.25
341.614	98.25
341.842	90.25
342.07	87.25
342.298	94.25
342.526	87.25
342.754	95.25
342.981	80.25
343.209	67.25
343.437	92.25
343.665	89.25
343.893	99.25
344.12	92.25
344.348	85.25
344.576	92.25
344.804	81.25
345.031	94.25
345.259	91.25
345.487	93.25
345.714	86.25
345.942	98.25
346.17	89.25
346.397	89.25
346.625	90.25
346.853	111.25
347.08	97.25
347.308	94.25
347.535	88.25
347.763	96.25
347.99	95.25
348.218	104.25
348.445	98.25
348.673	94.25
348.9	101.25
349.128	87.25
349.355	87.25
349.583	89.25
349.81	95.25
350.037	89.25
350.265	91.25
350.492	94.25
350.72	86.25
350.947	96.25
351.174	109.25
351.402	109.25
351.629	81.25
351.856	105.25
352.083	115.25
352.311	98.25
352.538	110.25
352.765	106.25
352.992	118.25
353.22	118.25
353.447	116.25
353.674	99.25
353.901	81.25
354.128	97.25
354.355	102.25
354.583	94.25
354.81	92.25
355.037	91.25
355.264	101.25
355.491	98.25
355.718	92.25
355.945	93.25
356.172	112.25
356.399	104.25
356.626	100.25
356.853	112.25
357.08	90.25
357.307	99.25
357.534	83.25
357.761	90.25
357.988	88.25
358.215	99.25
358.441	119.25
358.668	81.25
358.895	98.25
359.122	105.25
359.349	95.25
359.576	94.25
359.802	92.25
360.029	105.25
360.256	104.25
360.483	100.25
360.709	75.25
360.936	97.25
361.163	97.25
361.39	82.25
361.616	93.25
361.843	84.25
362.07	79.25
362.296	88.25
362.523	93.25
362.749	101.25
362.976	105.25
363.203	102.25
363.429	95.25
363.656	92.25
363.882	86.25
364.109	88.25
364.335	89.25
364.562	96.25
364.788	83.25
365.015	90.25
365.241	96.25
365.468	105.25
365.694	106.25
365.92	105.25
366.147	100.25
366.373	94.25
366.599	97.25
366.826	90.25
367.052	98.25
367.278	95.25
367.505	91.25
367.731	97.25
367.957	87.25
368.184	90.25
368.41	87.25
368.636	111.25
368.862	119.25
369.089	90.25
369.315	79.25
369.541	88.25
369.767	87.25
369.993	91.25
370.219	103.25
370.445	82.25
370.672	95.25
370.898	99.25
371.124	89.25
371.35	95.25
371.576	92.25
371.802	98.25
372.028	95.25
372.254	89.25
372.48	75.25
372.706	91.25
372.932	96.25
373.158	94.25
373.384	81.25
373.61	92.25
373.835	88.25
374.061	98.25
374.287	87.25
374.513	87.25
374.739	82.25
374.965	84.25
375.191	83.25
375.416	86.25
375.642	86.25
375.868	91.25
376.094	78.25
376.319	100.25
376.545	87.25
376.771	94.25
376.997	86.25
377.222	75.25
377.448	86.25
377.674	96.25
377.899	97.25
378.125	78.25
378.35	86.25
378.576	107.25
378.802	106.25
379.027	116.25
379.253	89.25
379.478	107.25
379.704	99.25
379.929	93.25
380.155	96.25
380.38	88.25
380.606	89.25
380.831	90.25
381.057	88.25
381.282	94.25
381.507	84.25
381.733	97.25
381.958	98.25
382.184	87.25
382.409	99.25
382.634	106.25
382.86	90.25
383.085	116.25
383.31	99.25
383.535	99.25
383.761	107.25
383.986	110.25
384.211	96.25
384.436	95.25
384.662	106.25
384.887	99.25
385.112	107.25
385.337	115.25
385.562	108.25
385.787	115.25
386.013	112.25
386.238	101.25
386.463	115.25
386.688	108.25
386.913	118.25
387.138	108.25
387.363	101.25
387.588	88.25
387.813	99.25
388.038	120.25
388.263	106.25
388.488	98.25
388.713	95.25
388.938	96.25
389.163	82.25
389.387	99.25
389.612	98.25
389.837	98.25
390.062	103.25
390.287	103.25
390.512	98.25
390.736	89.25
390.961	89.25
391.186	84.25
391.411	86.25
391.636	90.25
391.86	82.25
392.085	103.25
392.31	79.25
392.534	79.25
392.759	103.25
392.984	81.25
393.208	92.25
393.433	98.25
393.658	100.25
393.882	92.25
394.107	90.25
394.331	90.25
394.556	89.25
394.78	84.25
395.005	74.25
395.229	93.25
395.454	83.25
395.678	78.25
395.903	92.25
396.127	95.25
396.352	87.25
396.576	78.25
396.801	88.25
397.025	92.25
397.249	83.25
397.474	76.25
397.698	87.25
397.922	90.25
398.147	100.25
398.371	80.25
398.595	85.25
398.82	91.25
399.044	75.25
399.268	94.25
399.492	92.25
399.717	107.25
399.941	83.25
400.165	89.25
400.389	90.25
400.613	97.25
400.837	80.25
401.062	90.25
401.286	76.25
401.51	92.25
401.734	90.25
401.958	100.25
402.182	105.25
402.406	158.25
402.63	110.25
402.854	90.25
403.078	98.25
403.302	95.25
403.526	95.25
403.75	81.25
403.974	73.25
404.198	94.25
404.422	96.25
404.645	93.25
404.869	83.25
405.093	90.25
405.317	102.25
405.541	96.25
405.765	92.25
405.988	107.25
406.212	150.25
406.436	214.25
406.66	147.25
406.883	86.25
407.107	91.25
407.331	105.25
407.555	93.25
407.778	104.25
408.002	94.25
408.226	92.25
408.449	91.25
408.673	86.25
408.896	90.25
409.12	102.25
409.344	97.25
409.567	90.25
409.791	81.25
410.014	95.25
410.238	94.25
410.461	96.25
410.685	97.25
410.908	99.25
411.132	101.25
411.355	99.25
411.578	83.25
411.802	91.25
412.025	82.25
412.249	80.25
412.472	92.25
412.695	100.25
412.919	87.25
413.142	88.25
413.365	79.25
413.589	91.25
413.812	84.25
414.035	97.25
414.258	94.25
414.482	90.25
414.705	98.25
414.928	76.25
415.151	77.25
415.374	74.25
415.597	89.25
415.821	104.25
416.044	94.25
416.267	75.25
416.49	88.25
416.713	79.25
416.936	91.25
417.159	76.25
417.382	81.25
417.605	99.25
417.828	86.25
418.051	100.25
418.274	86.25
418.497	90.25
418.72	102.25
418.943	96.25
419.166	87.25
419.389	100.25
419.611	94.25
419.834	86.25
420.057	97.25
420.28	79.25
420.503	80.25
420.726	82.25
420.948	90.25
421.171	99.25
421.394	94.25
421.617	94.25
421.839	96.25
422.062	83.25
422.285	97.25
422.507	80.25
422.73	104.25
422.953	93.25
423.175	96.25
423.398	94.25
423.621	76.25
423.843	97.25
424.066	95.25
424.288	82.25
424.511	89.25
424.733	90.25
424.956	113.25
425.178	101.25
425.401	102.25
425.623	88.25
425.846	88.25
426.068	90.25
426.291	88.25
426.513	99.25
426.735	93.25
426.958	92.25
427.18	104.25
427.402	123.25
427.625	141.25
427.847	100.25
428.069	91.25
428.292	86.25
428.514	80.25
428.736	106.25
428.958	102.25
429.181	77.25
429.403	88.25
429.625	87.25
429.847	88.25
430.069	98.25
430.292	78.25
430.514	82.25
430.736	79.25
430.958	80.25
431.18	91.25
431.402	69.25
431.624	93.25
431.846	86.25
432.068	80.25
432.29	94.25
432.512	79.25
432.734	81.25
432.956	79.25
433.178	82.25
433.4	90.25
433.622	99.25
433.844	98.25
434.066	91.25
434.287	87.25
434.509	83.25
434.731	95.25
434.953	95.25
435.175	95.25
435.397	89.25
435.618	105.25
435.84	97.25
436.062	105.25
436.284	117.25
436.505	105.25
436.727	94.25
436.949	97.25
437.17	82.25
437.392	79.25
437.614	99.25
437.835	91.25
438.057	112.25
438.278	108.25
438.5	97.25
438.721	102.25
438.943	107.25
439.165	93.25
439.386	89.25
439.608	90.25
439.829	88.25
440.05	99.25
440.272	126.25
440.493	95.25
440.715	87.25
440.936	82.25
441.158	108.25
441.379	96.25
441.6	88.25
441.822	100.25
442.043	86.25
442.264	100.25
442.486	93.25
442.707	95.25
442.928	108.25
443.149	119.25
443.371	137.25
443.592	112.25
443.813	102.25
444.034	117.25
444.255	93.25
444.476	85.25
444.698	94.25
444.919	81.25
445.14	151.25
445.361	123.25
445.582	111.25
445.803	112.25
446.024	108.25
446.245	108.25
446.466	118.25
446.687	99.25
446.908	72.25
447.129	91.25
447.35	84.25
447.571	94.25
447.792	79.25
448.013	93.25
448.234	110.25
448.455	106.25
448.675	110.25
448.896	124.25
449.117	99.25
449.338	119.25
449.559	116.25
449.779	140.25
450	89.25
450.221	94.25
450.442	81.25
450.662	95.25
450.883	99.25
451.104	108.25
451.324	92.25
451.545	93.25
451.766	87.25
451.986	97.25
452.207	79.25
452.428	100.25
452.648	98.25
452.869	103.25
453.089	98.25
453.31	106.25
453.53	81.25
453.751	99.25
453.971	103.25
454.192	98.25
454.412	88.25
454.633	90.25
454.853	105.25
455.073	101.25
455.294	94.25
455.514	95.25
455.734	97.25
455.955	103.25
456.175	96.25
456.395	79.25
456.616	89.25
456.836	82.25
457.056	86.25
457.276	84.25
457.497	67.25
457.717	83.25
457.937	72.25
458.157	88.25
458.377	100.25
458.598	110.25
458.818	136.25
459.038	136.25
459.258	105.25
459.478	111.25
459.698	86.25
459.918	84.25
460.138	99.25
460.358	79.25
460.578	98.25
460.798	89.25
461.018	84.25
461.238	87.25
461.458	82.25
461.678	79.25
461.898	80.25
462.118	78.25
462.338	90.25
462.558	86.25
462.777	68.25
462.997	88.25
463.217	89.25
463.437	64.25
463.657	82.25
463.876	92.25
464.096	94.25
464.316	90.25
464.536	86.25
464.755	92.25
464.975	106.25
465.195	131.25
465.414	129.25
465.634	86.25
465.854	91.25
466.073	83.25
466.293	107.25
466.512	104.25
466.732	87.25
466.951	95.25
467.171	97.25
467.391	110.25
467.61	88.25
467.829	109.25
468.049	88.25
468.268	92.25
468.488	83.25
468.707	84.25
468.927	91.25
469.146	84.25
469.365	94.25
469.585	67.25
469.804	105.25
470.023	84.25
470.243	93.25
470.462	97.25
470.681	107.25
470.901	60.25
471.12	87.25
471.339	99.25
471.558	84.25
471.777	90.25
471.997	97.25
472.216	86.25
472.435	100.25
472.654	86.25
472.873	83.25
473.092	86.25
473.311	86.25
473.53	92.25
473.749	83.25
473.968	91.25
474.187	110.25
474.406	102.25
474.625	96.25
474.844	84.25
475.063	83.25
475.282	76.25
475.501	83.25
475.72	83.25
475.939	83.25
476.158	76.25
476.377	77.25
476.596	85.25
476.814	83.25
477.033	87.25
477.252	99.25
477.471	90.25
477.69	94.25
477.908	96.25
478.127	86.25
478.346	82.25
478.564	84.25
478.783	98.25
479.002	90.25
479.22	86.25
479.439	114.25
479.658	105.25
479.876	94.25
480.095	94.25
480.313	97.25
480.532	91.25
480.751	79.25
480.969	97.25
481.188	97.25
481.406	76.25
481.624	71.25
481.843	90.25
482.061	86.25
482.28	83.25
482.498	83.25
482.717	88.25
482.935	86.25
483.153	95.25
483.372	101.25
483.59	84.25
483.808	99.25
484.027	80.25
484.245	77.25
484.463	93.25
484.681	83.25
484.9	97.25
485.118	100.25
485.336	100.25
485.554	111.25
485.772	101.25
485.99	103.25
486.209	100.25
486.427	100.25
486.645	109.25
486.863	110.25
487.081	92.25
487.299	97.25
487.517	96.25
487.735	86.25
487.953	88.25
488.171	86.25
488.389	109.25
488.607	96.25
488.825	85.25
489.043	92.25
489.261	107.25
489.479	75.25
489.696	88.25
489.914	96.25
490.132	94.25
490.35	83.25
490.568	80.25
490.786	81.25
491.003	87.25
491.221	91.25
491.439	92.25
491.657	91.25
491.874	84.25
492.092	91.25
492.31	98.25
492.527	88.25
492.745	103.25
492.963	99.25
493.18	90.25
493.398	106.25
493.615	76.25
493.833	86.25
494.05	84.25
494.268	99.25
494.485	90.25
494.703	89.25
494.92	89.25
495.138	95.25
495.355	95.25
495.573	94.25
495.79	98.25
496.008	98.25
496.225	88.25
496.442	113.25
496.66	83.25
496.877	83.25
497.094	87.25
497.312	95.25
497.529	98.25
497.746	87.25
497.963	92.25
498.181	91.25
498.398	105.25
498.615	110.25
498.832	107.25
499.049	93.25
499.267	85.25
499.484	85.25
499.701	90.25
499.918	93.25
500.135	99.25
500.352	86.25
500.569	99.25
500.786	91.25
501.003	96.25
501.22	84.25
501.437	79.25
501.654	90.25
501.871	96.25
502.088	104.25
502.305	98.25
502.522	89.25
502.739	71.25
502.956	91.25
503.172	94.25
503.389	94.25
503.606	107.25
503.823	98.25
504.04	96.25
504.256	98.25
504.473	88.25
504.69	93.25
504.907	98.25
505.123	105.25
505.34	93.25
505.557	82.25
505.773	75.25
505.99	79.25
506.207	95.25
506.423	91.25
506.64	94.25
506.856	86.25
507.073	97.25
507.289	97.25
507.506	98.25
507.722	107.25
507.939	99.25
508.155	104.25
508.372	104.25
508.588	92.25
508.805	103.25
509.021	102.25
509.238	96.25
509.454	96.25
509.67	105.25
509.887	98.25
510.103	150.25
510.319	211.25
510.536	754.25
510.752	2232.25
510.968	611.25
511.184	134.25
511.401	104.25
511.617	94.25
511.833	79.25
512.049	95.25
512.265	94.25
512.481	86.25
512.698	92.25
512.914	90.25
513.13	91.25
513.346	96.25
513.562	93.25
513.778	99.25
513.994	100.25
514.21	96.25
514.426	111.25
514.642	132.25
514.858	112.25
515.074	156.25
515.29	403.25
515.506	1312.25
515.721	493.25
515.937	152.25
