Data from Uncirc_1995_H10_HRD10591_00006.txt Node
Date: Wed Jan 03 11:35:35 EST 2024
User: Yrep
Spectrometer: HR+D1059
Trigger mode: 1
Integration Time (sec): 1.000000E-1
Scans to average: 1
Electric dark correction enabled: true
Nonlinearity correction enabled: false
Boxcar width: 0
XAxis mode: Wavelengths
Number of Pixels in Spectrum: 2048
>>>>>Begin Spectral Data<<<<<
223.165	-10
223.4	-10
223.635	-10
223.869	-18
224.104	-30
224.338	-13
224.573	-9
224.808	-22
225.042	-15
225.277	-7
225.511	-4
225.746	9
225.98	8
226.215	5
226.449	19
226.683	38
226.918	18
227.152	31
227.387	38
227.621	31
227.856	47
228.09	44
228.324	54
228.559	60
228.793	67
229.027	70
229.262	57
229.496	72
229.73	82
229.964	81
230.199	76
230.433	73
230.667	66
230.901	78
231.136	80
231.37	81
231.604	84
231.838	90
232.072	96
232.306	73
232.541	79
232.775	87
233.009	70
233.243	87
233.477	74
233.711	80
233.945	85
234.179	82
234.413	96
234.647	102
234.881	83
235.115	92
235.349	75
235.583	73
235.817	71
236.051	87
236.285	73
236.519	86
236.753	74
236.987	84
237.221	88
237.455	98
237.689	75
237.922	86
238.156	76
238.39	80
238.624	83
238.858	75
239.091	83
239.325	67
239.559	71
239.793	66
240.027	88
240.26	82
240.494	72
240.728	79
240.961	67
241.195	84
241.429	78
241.662	75
241.896	83
242.13	86
242.363	76
242.597	74
242.83	80
243.064	79
243.298	74
243.531	88
243.765	86
243.998	93
244.232	81
244.465	92
244.699	72
244.932	78
245.166	70
245.399	78
245.633	72
245.866	79
246.099	82
246.333	88
246.566	81
246.8	90
247.033	77
247.266	80
247.5	89
247.733	74
247.966	88
248.2	64
248.433	77
248.666	54
248.899	90
249.133	79
249.366	105
249.599	104
249.832	86
250.066	88
250.299	86
250.532	79
250.765	75
250.998	82
251.231	80
251.465	83
251.698	84
251.931	72
252.164	77
252.397	89
252.63	93
252.863	79
253.096	77
253.329	84
253.562	72
253.795	87
254.028	92
254.261	76
254.494	83
254.727	70
254.96	74
255.193	83
255.426	87
255.659	84
255.892	90
256.124	85
256.357	91
256.59	86
256.823	76
257.056	67
257.289	79
257.521	79
257.754	73
257.987	68
258.22	74
258.452	84
258.685	84
258.918	76
259.151	79
259.383	75
259.616	83
259.849	96
260.081	82
260.314	89
260.547	72
260.779	83
261.012	93
261.244	87
261.477	96
261.71	82
261.942	104
262.175	107
262.407	95
262.64	84
262.872	67
263.105	90
263.337	78
263.57	88
263.802	95
264.035	84
264.267	88
264.499	92
264.732	83
264.964	85
265.197	91
265.429	83
265.661	89
265.894	75
266.126	68
266.358	86
266.591	78
266.823	80
267.055	79
267.287	89
267.52	88
267.752	58
267.984	72
268.216	78
268.448	93
268.681	87
268.913	75
269.145	90
269.377	92
269.609	79
269.841	81
270.073	84
270.306	90
270.538	82
270.77	87
271.002	84
271.234	89
271.466	80
271.698	87
271.93	76
272.162	82
272.394	86
272.626	87
272.858	78
273.09	78
273.322	95
273.553	82
273.785	96
274.017	78
274.249	88
274.481	76
274.713	76
274.945	83
275.176	84
275.408	74
275.64	94
275.872	89
276.104	89
276.335	79
276.567	102
276.799	106
277.031	89
277.262	97
277.494	85
277.726	86
277.957	94
278.189	85
278.421	90
278.652	82
278.884	89
279.115	87
279.347	79
279.579	99
279.81	108
280.042	93
280.273	80
280.505	104
280.736	78
280.968	90
281.199	78
281.431	97
281.662	87
281.894	88
282.125	95
282.356	114
282.588	122
282.819	111
283.051	83
283.282	97
283.513	90
283.745	97
283.976	91
284.207	76
284.439	90
284.67	96
284.901	97
285.132	86
285.364	93
285.595	97
285.826	80
286.057	94
286.288	88
286.52	80
286.751	80
286.982	84
287.213	95
287.444	89
287.675	102
287.906	92
288.138	74
288.369	88
288.6	91
288.831	85
289.062	80
289.293	96
289.524	89
289.755	97
289.986	74
290.217	79
290.448	94
290.679	85
290.91	90
291.141	89
291.371	87
291.602	76
291.833	89
292.064	95
292.295	90
292.526	86
292.757	90
292.987	90
293.218	92
293.449	102
293.68	90
293.91	80
294.141	106
294.372	82
294.603	84
294.833	92
295.064	100
295.295	87
295.525	99
295.756	104
295.987	102
296.217	122
296.448	115
296.679	98
296.909	84
297.14	94
297.37	82
297.601	101
297.831	86
298.062	71
298.292	90
298.523	105
298.753	81
298.984	102
299.214	97
299.445	102
299.675	91
299.905	97
300.136	87
300.366	82
300.597	82
300.827	96
301.057	95
301.288	97
301.518	91
301.748	102
301.979	106
302.209	86
302.439	100
302.669	96
302.9	96
303.13	84
303.36	88
303.59	104
303.82	99
304.051	102
304.281	93
304.511	90
304.741	97
304.971	90
305.201	102
305.431	93
305.661	80
305.891	84
306.121	92
306.352	86
306.582	83
306.812	101
307.042	102
307.272	96
307.502	94
307.731	82
307.961	79
308.191	96
308.421	94
308.651	94
308.881	86
309.111	94
309.341	97
309.571	101
309.8	96
310.03	74
310.26	99
310.49	110
310.72	108
310.949	102
311.179	99
311.409	93
311.639	101
311.868	104
312.098	100
312.328	106
312.557	115
312.787	96
313.017	100
313.246	90
313.476	99
313.706	94
313.935	94
314.165	107
314.394	95
314.624	98
314.853	92
315.083	97
315.312	93
315.542	98
315.771	104
316.001	104
316.23	105
316.46	96
316.689	106
316.919	83
317.148	98
317.377	97
317.607	86
317.836	89
318.065	83
318.295	81
318.524	82
318.753	76
318.983	81
319.212	92
319.441	83
319.67	91
319.9	90
320.129	83
320.358	90
320.587	108
320.816	106
321.046	100
321.275	106
321.504	97
321.733	95
321.962	92
322.191	95
322.42	114
322.649	101
322.878	98
323.108	99
323.337	112
323.566	123
323.795	139
324.024	184
324.253	357
324.482	741
324.71	1503
324.939	1999
325.168	727
325.397	225
325.626	148
325.855	127
326.084	124
326.313	121
326.542	137
326.77	211
326.999	425
327.228	858
327.457	1570
327.686	1231
327.914	327
328.143	185
328.372	158
328.6	129
328.829	112
329.058	107
329.287	117
329.515	98
329.744	97
329.972	102
330.201	92
330.43	107
330.658	115
330.887	127
331.115	125
331.344	100
331.572	96
331.801	93
332.03	91
332.258	86
332.486	108
332.715	95
332.943	86
333.172	74
333.4	97
333.629	99
333.857	111
334.085	115
334.314	99
334.542	83
334.771	94
334.999	95
335.227	110
335.455	101
335.684	99
335.912	107
336.14	92
336.369	91
336.597	100
336.825	104
337.053	95
337.281	94
337.51	88
337.738	92
337.966	95
338.194	121
338.422	110
338.65	92
338.878	91
339.106	79
339.334	94
339.562	95
339.79	93
340.018	92
340.246	95
340.474	97
340.702	95
340.93	88
341.158	99
341.386	106
341.614	88
341.842	94
342.07	103
342.298	104
342.526	90
342.754	86
342.981	87
343.209	78
343.437	113
343.665	94
343.893	81
344.12	90
344.348	92
344.576	96
344.804	79
345.031	105
345.259	96
345.487	85
345.714	108
345.942	86
346.17	96
346.397	95
346.625	78
346.853	81
347.08	89
347.308	100
347.535	92
347.763	99
347.99	94
348.218	97
348.445	104
348.673	100
348.9	99
349.128	103
349.355	97
349.583	94
349.81	105
350.037	89
350.265	75
350.492	94
350.72	87
350.947	97
351.174	110
351.402	121
351.629	103
351.856	104
352.083	98
352.311	107
352.538	106
352.765	108
352.992	104
353.22	98
353.447	110
353.674	94
353.901	95
354.128	105
354.355	90
354.583	107
354.81	107
355.037	103
355.264	90
355.491	91
355.718	83
355.945	95
356.172	95
356.399	95
356.626	96
356.853	106
357.08	98
357.307	95
357.534	99
357.761	83
357.988	102
358.215	105
358.441	100
358.668	89
358.895	80
359.122	99
359.349	94
359.576	83
359.802	94
360.029	109
360.256	106
360.483	94
360.709	90
360.936	109
361.163	91
361.39	94
361.616	103
361.843	86
362.07	96
362.296	93
362.523	84
362.749	93
362.976	100
363.203	111
363.429	105
363.656	93
363.882	89
364.109	82
364.335	93
364.562	91
364.788	93
365.015	88
365.241	105
365.468	110
365.694	95
365.92	93
366.147	81
366.373	101
366.599	80
366.826	74
367.052	94
367.278	82
367.505	96
367.731	100
367.957	85
368.184	83
368.41	98
368.636	115
368.862	109
369.089	94
369.315	100
369.541	87
369.767	80
369.993	85
370.219	89
370.445	86
370.672	92
370.898	99
371.124	103
371.35	104
371.576	103
371.802	81
372.028	88
372.254	91
372.48	97
372.706	92
372.932	83
373.158	87
373.384	105
373.61	87
373.835	92
374.061	92
374.287	90
374.513	96
374.739	101
374.965	90
375.191	102
375.416	92
375.642	75
375.868	99
376.094	81
376.319	85
376.545	90
376.771	79
376.997	75
377.222	87
377.448	102
377.674	87
377.899	83
378.125	91
378.35	90
378.576	98
378.802	97
379.027	100
379.253	96
379.478	98
379.704	95
379.929	100
380.155	85
380.38	99
380.606	93
380.831	104
381.057	100
381.282	93
381.507	97
381.733	107
381.958	88
382.184	98
382.409	108
382.634	114
382.86	90
383.085	100
383.31	119
383.535	108
383.761	107
383.986	93
384.211	92
384.436	108
384.662	115
384.887	106
385.112	130
385.337	128
385.562	114
385.787	107
386.013	112
386.238	117
386.463	109
386.688	126
386.913	124
387.138	120
387.363	112
387.588	105
387.813	112
388.038	120
388.263	121
388.488	122
388.713	104
388.938	91
389.163	90
389.387	90
389.612	82
389.837	90
390.062	103
390.287	95
390.512	100
390.736	87
390.961	103
391.186	100
391.411	96
391.636	110
391.86	95
392.085	78
392.31	81
392.534	71
392.759	91
392.984	90
393.208	98
393.433	102
393.658	94
393.882	98
394.107	87
394.331	83
394.556	71
394.78	83
395.005	86
395.229	87
395.454	88
395.678	84
395.903	85
396.127	90
396.352	103
396.576	88
396.801	91
397.025	109
397.249	100
397.474	92
397.698	75
397.922	78
398.147	87
398.371	88
398.595	101
398.82	93
399.044	82
399.268	71
399.492	89
399.717	83
399.941	87
400.165	82
400.389	89
400.613	72
400.837	82
401.062	86
401.286	90
401.51	90
401.734	93
401.958	97
402.182	123
402.406	127
402.63	108
402.854	99
403.078	82
403.302	84
403.526	87
403.75	82
403.974	80
404.198	83
404.422	95
404.645	89
404.869	97
405.093	105
405.317	88
405.541	83
405.765	96
405.988	106
406.212	162
406.436	174
406.66	116
406.883	108
407.107	84
407.331	86
407.555	107
407.778	91
408.002	87
408.226	76
408.449	83
408.673	91
408.896	102
409.12	86
409.344	90
409.567	91
409.791	98
410.014	93
410.238	100
410.461	106
410.685	103
410.908	105
411.132	112
411.355	97
411.578	77
411.802	99
412.025	88
412.249	86
412.472	91
412.695	95
412.919	80
413.142	80
413.365	75
413.589	82
413.812	79
414.035	90
414.258	104
414.482	75
414.705	92
414.928	103
415.151	93
415.374	95
415.597	78
415.821	91
416.044	83
416.267	87
416.49	86
416.713	92
416.936	79
417.159	93
417.382	99
417.605	84
417.828	85
418.051	83
418.274	90
418.497	74
418.72	80
418.943	90
419.166	81
419.389	82
419.611	94
419.834	88
420.057	93
420.28	89
420.503	87
420.726	87
420.948	93
421.171	98
421.394	77
421.617	91
421.839	100
422.062	84
422.285	89
422.507	106
422.73	100
422.953	88
423.175	96
423.398	79
423.621	82
423.843	93
424.066	80
424.288	76
424.511	87
424.733	83
424.956	98
425.178	99
425.401	99
425.623	95
425.846	106
426.068	89
426.291	94
426.513	87
426.735	82
426.958	89
427.18	100
427.402	127
427.625	135
427.847	101
428.069	90
428.292	75
428.514	90
428.736	91
428.958	90
429.181	88
429.403	88
429.625	92
429.847	89
430.069	87
430.292	92
430.514	77
430.736	67
430.958	89
431.18	86
431.402	82
431.624	65
431.846	86
432.068	83
432.29	83
432.512	87
432.734	78
432.956	90
433.178	98
433.4	95
433.622	90
433.844	99
434.066	83
434.287	82
434.509	74
434.731	95
434.953	93
435.175	82
435.397	90
435.618	97
435.84	100
436.062	115
436.284	98
436.505	88
436.727	102
436.949	93
437.17	91
437.392	92
437.614	86
437.835	93
438.057	113
438.278	104
438.5	103
438.721	105
438.943	97
439.165	99
439.386	88
439.608	99
439.829	102
440.05	115
440.272	150
440.493	90
440.715	83
440.936	90
441.158	90
441.379	80
441.6	91
441.822	92
442.043	85
442.264	91
442.486	94
442.707	90
442.928	98
443.149	119
443.371	124
443.592	90
443.813	98
444.034	115
444.255	104
444.476	90
444.698	82
444.919	89
445.14	125
445.361	129
445.582	103
445.803	116
446.024	117
446.245	122
446.466	122
446.687	103
446.908	90
447.129	76
447.35	90
447.571	86
447.792	89
448.013	91
448.234	103
448.455	102
448.675	120
448.896	120
449.117	84
449.338	95
449.559	118
449.779	114
450	94
450.221	104
450.442	101
450.662	92
450.883	106
451.104	89
451.324	92
451.545	102
451.766	82
451.986	67
452.207	90
452.428	87
452.648	94
452.869	110
453.089	97
453.31	115
453.53	98
453.751	97
453.971	92
454.192	98
454.412	86
454.633	87
454.853	90
455.073	80
455.294	78
455.514	111
455.734	90
455.955	80
456.175	99
456.395	91
456.616	92
456.836	88
457.056	90
457.276	95
457.497	86
457.717	80
457.937	91
458.157	86
458.377	98
458.598	107
458.818	137
459.038	129
459.258	102
459.478	82
459.698	98
459.918	82
460.138	95
460.358	82
460.578	91
460.798	95
461.018	90
461.238	79
461.458	82
461.678	86
461.898	79
462.118	94
462.338	86
462.558	84
462.777	89
462.997	97
463.217	89
463.437	82
463.657	88
463.876	83
464.096	90
464.316	96
464.536	84
464.755	99
464.975	97
465.195	137
465.414	139
465.634	92
465.854	98
466.073	94
466.293	87
466.512	85
466.732	95
466.951	90
467.171	99
467.391	99
467.61	96
467.829	83
468.049	97
468.268	78
468.488	88
468.707	76
468.927	88
469.146	89
469.365	92
469.585	90
469.804	75
470.023	102
470.243	112
470.462	112
470.681	86
470.901	78
471.12	79
471.339	86
471.558	82
471.777	86
471.997	78
472.216	85
472.435	90
472.654	84
472.873	81
473.092	86
473.311	100
473.53	84
473.749	93
473.968	97
474.187	92
474.406	99
474.625	97
474.844	83
475.063	87
475.282	87
475.501	87
475.72	96
475.939	99
476.158	82
476.377	72
476.596	92
476.814	103
477.033	93
477.252	87
477.471	90
477.69	104
477.908	82
478.127	80
478.346	96
478.564	86
478.783	94
479.002	84
479.22	80
479.439	108
479.658	97
479.876	92
480.095	89
480.313	101
480.532	103
480.751	84
480.969	88
481.188	95
481.406	89
481.624	99
481.843	74
482.061	88
482.28	95
482.498	82
482.717	94
482.935	91
483.153	93
483.372	99
483.59	86
483.808	77
484.027	89
484.245	82
484.463	86
484.681	99
484.9	88
485.118	102
485.336	91
485.554	97
485.772	99
485.99	88
486.209	113
486.427	106
486.645	109
486.863	101
487.081	111
487.299	92
487.517	96
487.735	93
487.953	87
488.171	88
488.389	91
488.607	90
488.825	77
489.043	91
489.261	92
489.479	87
489.696	98
489.914	95
490.132	97
490.35	75
490.568	80
490.786	94
491.003	86
491.221	81
491.439	74
491.657	94
491.874	92
492.092	89
492.31	98
492.527	88
492.745	101
492.963	82
493.18	95
493.398	89
493.615	114
493.833	105
494.05	84
494.268	94
494.485	89
494.703	100
494.92	87
495.138	85
495.355	91
495.573	99
495.79	97
496.008	99
496.225	91
496.442	93
496.66	88
496.877	93
497.094	92
497.312	100
497.529	103
497.746	96
497.963	72
498.181	94
498.398	92
498.615	96
498.832	102
499.049	118
499.267	87
499.484	86
499.701	96
499.918	100
500.135	103
500.352	92
500.569	97
500.786	91
501.003	87
501.22	95
501.437	102
501.654	97
501.871	106
502.088	98
502.305	99
502.522	87
502.739	95
502.956	87
503.172	90
503.389	97
503.606	108
503.823	86
504.04	78
504.256	90
504.473	92
504.69	103
504.907	90
505.123	96
505.34	90
505.557	106
505.773	79
505.99	92
506.207	95
506.423	77
506.64	81
506.856	89
507.073	90
507.289	94
507.506	91
507.722	116
507.939	108
508.155	92
508.372	100
508.588	91
508.805	101
509.021	102
509.238	99
509.454	91
509.67	100
509.887	110
510.103	125
510.319	198
510.536	688
510.752	2052
510.968	565
511.184	121
511.401	112
511.617	98
511.833	86
512.049	91
512.265	78
512.481	96
512.698	98
512.914	96
513.13	95
513.346	95
513.562	85
513.778	94
513.994	96
514.21	106
514.426	113
514.642	114
514.858	111
515.074	157
515.29	387
515.506	1177
515.721	434
515.937	159
516.153	112
516.369	99
516.585	99
516.801	97
517.016	97
517.232	95
517.448	105
517.664	91
517.879	98
518.095	90
518.311	100
518.527	106
518.742	107
518.958	75
519.173	86
519.389	91
519.605	98
519.82	105
520.036	96
520.251	93
520.467	103
520.682	92
520.898	92
521.113	107
521.329	141
521.544	182
521.76	470
521.975	1953
522.19	1140
522.406	254
522.621	110
522.836	90
523.052	96
523.267	83
523.482	100
523.698	90
523.913	124
524.128	104
524.343	89
524.559	91
524.774	99
524.989	94
525.204	106
525.419	88
525.634	91
525.849	96
526.064	94
526.28	101
526.495	105
526.71	83
526.925	89
527.14	87
527.355	93
527.57	91
527.785	97
527.999	89
528.214	94
528.429	90
528.644	103
528.859	95
529.074	102
529.289	124
529.503	159
529.718	105
529.933	89
530.148	98
530.363	90
530.577	98
530.792	94
531.007	102
531.221	106
531.436	97
531.651	92
531.865	86
532.08	90
532.295	99
532.509	97
532.724	100
532.938	94
533.153	93
533.367	105
533.582	95
533.796	96
534.011	87
534.225	90
534.44	100
534.654	94
534.868	91
535.083	80
535.297	99
535.511	97
535.726	111
535.94	89
536.154	100
536.369	103
536.583	107
536.797	101
537.011	108
537.225	89
537.44	84
537.654	93
537.868	95
538.082	86
538.296	95
538.51	86
538.724	89
538.938	103
539.153	90
539.367	95
539.581	108
539.795	83
540.009	82
540.222	90
540.436	81
540.65	106
540.864	92
541.078	96
541.292	88
541.506	98
541.72	95
541.934	94
542.147	89
542.361	89
542.575	88
542.789	89
543.002	87
543.216	84
543.43	95
543.644	76
543.857	97
544.071	82
544.285	103
544.498	96
544.712	98
544.925	98
545.139	96
545.352	93
545.566	88
545.779	85
545.993	80
546.206	104
546.42	97
546.633	94
546.847	90
547.06	96
547.274	98
547.487	81
547.7	83
547.914	108
548.127	104
548.34	87
548.554	94
548.767	80
548.98	89
549.193	94
549.407	78
549.62	87
549.833	86
550.046	84
550.259	99
550.473	91
550.686	94
550.899	82
551.112	83
551.325	95
551.538	88
551.751	79
551.964	95
552.177	87
552.39	83
552.603	87
552.816	97
553.029	91
553.242	77
553.455	98
553.667	96
553.88	103
554.093	99
554.306	95
554.519	90
554.732	78
554.944	76
555.157	107
555.37	98
555.583	103
555.795	87
556.008	89
556.221	81
556.433	100
556.646	89
556.859	102
557.071	91
557.284	104
557.496	98
557.709	97
557.921	98
558.134	92
558.346	102
558.559	106
558.771	81
558.984	92
559.196	88
559.409	103
559.621	79
559.833	100
560.046	79
560.258	92
560.47	89
560.683	79
560.895	89
561.107	86
561.32	101
561.532	89
561.744	94
561.956	97
562.168	90
562.381	104
562.593	106
562.805	95
563.017	99
563.229	98
563.441	92
563.653	89
563.865	78
564.077	83
564.289	93
564.501	91
564.713	96
564.925	105
565.137	104
565.349	83
565.561	95
565.773	84
565.985	96
566.197	71
566.408	80
566.62	77
566.832	101
567.044	81
567.255	88
567.467	83
567.679	84
567.891	82
568.102	88
568.314	91
568.526	90
568.737	90
568.949	92
569.161	74
569.372	92
569.584	92
569.795	100
570.007	119
570.218	213
570.43	130
570.641	87
570.853	84
571.064	92
571.276	99
571.487	97
571.698	78
571.91	84
572.121	84
572.333	89
572.544	93
572.755	82
572.966	93
573.178	76
573.389	82
573.6	88
573.811	100
574.023	85
574.234	102
574.445	91
574.656	90
574.867	78
575.078	103
575.289	100
575.501	107
575.712	94
575.923	94
576.134	87
576.345	76
576.556	92
576.767	76
576.978	79
577.188	101
577.399	83
577.61	96
577.821	95
578.032	122
578.243	275
578.454	704
578.665	196
578.875	99
579.086	93
579.297	100
579.508	95
579.718	97
579.929	79
580.14	93
580.35	77
580.561	86
580.772	85
580.982	105
581.193	84
581.403	92
581.614	91
581.825	76
582.035	94
582.246	94
582.456	101
582.667	86
582.877	94
583.087	90
583.298	92
583.508	93
583.719	92
583.929	103
584.139	91
