Data from Uncirc_1995_H10_HRD10591_00009.txt Node
Date: Wed Jan 03 11:35:35 EST 2024
User: Yrep
Spectrometer: HR+D1059
Trigger mode: 1
Integration Time (sec): 1.000000E-1
Scans to average: 1
Electric dark correction enabled: true
Nonlinearity correction enabled: false
Boxcar width: 0
XAxis mode: Wavelengths
Number of Pixels in Spectrum: 2048
>>>>>Begin Spectral Data<<<<<
223.165	-12.5
223.4	-12.5
223.635	-12.5
223.869	-22.5
224.104	-23.5
224.338	-7.5
224.573	-12.5
224.808	-17.5
225.042	-4.5
225.277	-12.5
225.511	-0.5
225.746	12.5
225.98	1.5
226.215	13.5
226.449	18.5
226.683	19.5
226.918	26.5
227.152	21.5
227.387	40.5
227.621	29.5
227.856	46.5
228.09	39.5
228.324	31.5
228.559	55.5
228.793	61.5
229.027	63.5
229.262	58.5
229.496	58.5
229.73	85.5
229.964	70.5
230.199	69.5
230.433	75.5
230.667	67.5
230.901	82.5
231.136	81.5
231.37	90.5
231.604	64.5
231.838	73.5
232.072	63.5
232.306	66.5
232.541	76.5
232.775	75.5
233.009	80.5
233.243	89.5
233.477	83.5
233.711	74.5
233.945	78.5
234.179	90.5
234.413	86.5
234.647	75.5
234.881	63.5
235.115	89.5
235.349	85.5
235.583	77.5
235.817	81.5
236.051	81.5
236.285	81.5
236.519	62.5
236.753	76.5
236.987	91.5
237.221	84.5
237.455	74.5
237.689	84.5
237.922	89.5
238.156	69.5
238.39	80.5
238.624	78.5
238.858	72.5
239.091	71.5
239.325	68.5
239.559	85.5
239.793	79.5
240.027	80.5
240.26	78.5
240.494	78.5
240.728	70.5
240.961	76.5
241.195	78.5
241.429	56.5
241.662	70.5
241.896	75.5
242.13	78.5
242.363	80.5
242.597	71.5
242.83	72.5
243.064	87.5
243.298	77.5
243.531	58.5
243.765	75.5
243.998	77.5
244.232	80.5
244.465	95.5
244.699	88.5
244.932	76.5
245.166	72.5
245.399	59.5
245.633	74.5
245.866	77.5
246.099	66.5
246.333	74.5
246.566	58.5
246.8	77.5
247.033	71.5
247.266	72.5
247.5	78.5
247.733	63.5
247.966	72.5
248.2	76.5
248.433	77.5
248.666	80.5
248.899	64.5
249.133	87.5
249.366	92.5
249.599	97.5
249.832	81.5
250.066	78.5
250.299	77.5
250.532	75.5
250.765	86.5
250.998	82.5
251.231	83.5
251.465	68.5
251.698	67.5
251.931	76.5
252.164	75.5
252.397	75.5
252.63	84.5
252.863	75.5
253.096	90.5
253.329	74.5
253.562	63.5
253.795	81.5
254.028	90.5
254.261	90.5
254.494	75.5
254.727	88.5
254.96	86.5
255.193	70.5
255.426	75.5
255.659	76.5
255.892	73.5
256.124	74.5
256.357	83.5
256.59	75.5
256.823	71.5
257.056	77.5
257.289	73.5
257.521	79.5
257.754	83.5
257.987	82.5
258.22	93.5
258.452	93.5
258.685	78.5
258.918	83.5
259.151	89.5
259.383	74.5
259.616	90.5
259.849	74.5
260.081	89.5
260.314	83.5
260.547	85.5
260.779	85.5
261.012	94.5
261.244	86.5
261.477	94.5
261.71	90.5
261.942	101.5
262.175	97.5
262.407	96.5
262.64	90.5
262.872	84.5
263.105	83.5
263.337	92.5
263.57	82.5
263.802	78.5
264.035	90.5
264.267	92.5
264.499	83.5
264.732	95.5
264.964	73.5
265.197	96.5
265.429	83.5
265.661	73.5
265.894	87.5
266.126	94.5
266.358	74.5
266.591	74.5
266.823	76.5
267.055	73.5
267.287	83.5
267.52	85.5
267.752	73.5
267.984	74.5
268.216	69.5
268.448	93.5
268.681	82.5
268.913	92.5
269.145	101.5
269.377	80.5
269.609	83.5
269.841	83.5
270.073	78.5
270.306	88.5
270.538	81.5
270.77	81.5
271.002	94.5
271.234	82.5
271.466	78.5
271.698	89.5
271.93	83.5
272.162	93.5
272.394	81.5
272.626	92.5
272.858	81.5
273.09	94.5
273.322	88.5
273.553	80.5
273.785	70.5
274.017	75.5
274.249	84.5
274.481	73.5
274.713	78.5
274.945	83.5
275.176	95.5
275.408	78.5
275.64	80.5
275.872	93.5
276.104	93.5
276.335	102.5
276.567	103.5
276.799	99.5
277.031	101.5
277.262	91.5
277.494	93.5
277.726	72.5
277.957	90.5
278.189	89.5
278.421	75.5
278.652	83.5
278.884	82.5
279.115	95.5
279.347	81.5
279.579	80.5
279.81	81.5
280.042	88.5
280.273	83.5
280.505	80.5
280.736	84.5
280.968	83.5
281.199	77.5
281.431	82.5
281.662	75.5
281.894	87.5
282.125	91.5
282.356	95.5
282.588	126.5
282.819	117.5
283.051	85.5
283.282	90.5
283.513	87.5
283.745	81.5
283.976	95.5
284.207	84.5
284.439	99.5
284.67	103.5
284.901	81.5
285.132	77.5
285.364	73.5
285.595	83.5
285.826	83.5
286.057	80.5
286.288	98.5
286.52	78.5
286.751	81.5
286.982	72.5
287.213	82.5
287.444	96.5
287.675	83.5
287.906	81.5
288.138	78.5
288.369	94.5
288.6	89.5
288.831	82.5
289.062	79.5
289.293	85.5
289.524	91.5
289.755	82.5
289.986	83.5
290.217	83.5
290.448	85.5
290.679	83.5
290.91	90.5
291.141	90.5
291.371	88.5
291.602	72.5
291.833	86.5
292.064	99.5
292.295	101.5
292.526	77.5
292.757	91.5
292.987	77.5
293.218	69.5
293.449	89.5
293.68	93.5
293.91	87.5
294.141	86.5
294.372	90.5
294.603	81.5
294.833	79.5
295.064	88.5
295.295	90.5
295.525	93.5
295.756	96.5
295.987	97.5
296.217	116.5
296.448	110.5
296.679	75.5
296.909	86.5
297.14	102.5
297.37	81.5
297.601	92.5
297.831	99.5
298.062	88.5
298.292	89.5
298.523	86.5
298.753	91.5
298.984	81.5
299.214	92.5
299.445	83.5
299.675	91.5
299.905	97.5
300.136	83.5
300.366	89.5
300.597	77.5
300.827	79.5
301.057	78.5
301.288	104.5
301.518	90.5
301.748	90.5
301.979	87.5
302.209	81.5
302.439	97.5
302.669	87.5
302.9	92.5
303.13	97.5
303.36	101.5
303.59	98.5
303.82	84.5
304.051	93.5
304.281	91.5
304.511	92.5
304.741	89.5
304.971	88.5
305.201	98.5
305.431	94.5
305.661	79.5
305.891	88.5
306.121	105.5
306.352	104.5
306.582	92.5
306.812	86.5
307.042	87.5
307.272	82.5
307.502	99.5
307.731	93.5
307.961	96.5
308.191	77.5
308.421	85.5
308.651	84.5
308.881	85.5
309.111	94.5
309.341	95.5
309.571	84.5
309.8	94.5
310.03	74.5
310.26	101.5
310.49	77.5
310.72	95.5
310.949	97.5
311.179	92.5
311.409	91.5
311.639	89.5
311.868	98.5
312.098	78.5
312.328	94.5
312.557	94.5
312.787	90.5
313.017	89.5
313.246	76.5
313.476	86.5
313.706	98.5
313.935	95.5
314.165	91.5
314.394	95.5
314.624	102.5
314.853	78.5
315.083	83.5
315.312	91.5
315.542	90.5
315.771	103.5
316.001	91.5
316.23	85.5
316.46	109.5
316.689	88.5
316.919	87.5
317.148	71.5
317.377	89.5
317.607	91.5
317.836	97.5
318.065	97.5
318.295	93.5
318.524	80.5
318.753	73.5
318.983	79.5
319.212	94.5
319.441	113.5
319.67	94.5
319.9	85.5
320.129	89.5
320.358	85.5
320.587	82.5
320.816	95.5
321.046	85.5
321.275	99.5
321.504	97.5
321.733	96.5
321.962	94.5
322.191	93.5
322.42	104.5
322.649	99.5
322.878	107.5
323.108	117.5
323.337	116.5
323.566	129.5
323.795	128.5
324.024	186.5
324.253	356.5
324.482	719.5
324.71	1433.5
324.939	1914.5
325.168	717.5
325.397	229.5
325.626	144.5
325.855	127.5
326.084	120.5
326.313	127.5
326.542	139.5
326.77	206.5
326.999	406.5
327.228	831.5
327.457	1517.5
327.686	1161.5
327.914	335.5
328.143	174.5
328.372	141.5
328.6	120.5
328.829	113.5
329.058	117.5
329.287	123.5
329.515	98.5
329.744	99.5
329.972	94.5
330.201	96.5
330.43	106.5
330.658	104.5
330.887	123.5
331.115	122.5
331.344	95.5
331.572	101.5
331.801	96.5
332.03	103.5
332.258	81.5
332.486	96.5
332.715	84.5
332.943	81.5
333.172	88.5
333.4	85.5
333.629	99.5
333.857	110.5
334.085	96.5
334.314	88.5
334.542	95.5
334.771	81.5
334.999	97.5
335.227	97.5
335.455	90.5
335.684	82.5
335.912	103.5
336.14	93.5
336.369	102.5
336.597	94.5
336.825	96.5
337.053	106.5
337.281	75.5
337.51	98.5
337.738	95.5
337.966	90.5
338.194	94.5
338.422	92.5
338.65	85.5
338.878	73.5
339.106	82.5
339.334	93.5
339.562	86.5
339.79	104.5
340.018	101.5
340.246	86.5
340.474	97.5
340.702	98.5
340.93	86.5
341.158	103.5
341.386	99.5
341.614	90.5
341.842	94.5
342.07	76.5
342.298	94.5
342.526	80.5
342.754	85.5
342.981	92.5
343.209	94.5
343.437	90.5
343.665	100.5
343.893	102.5
344.12	89.5
344.348	92.5
344.576	97.5
344.804	88.5
345.031	89.5
345.259	93.5
345.487	92.5
345.714	95.5
345.942	86.5
346.17	79.5
346.397	79.5
346.625	96.5
346.853	104.5
347.08	77.5
347.308	89.5
347.535	87.5
347.763	99.5
347.99	102.5
348.218	87.5
348.445	93.5
348.673	87.5
348.9	92.5
349.128	87.5
349.355	94.5
349.583	82.5
349.81	86.5
350.037	101.5
350.265	98.5
350.492	95.5
350.72	92.5
350.947	105.5
351.174	104.5
351.402	100.5
351.629	95.5
351.856	99.5
352.083	97.5
352.311	97.5
352.538	107.5
352.765	117.5
352.992	118.5
353.22	111.5
353.447	112.5
353.674	102.5
353.901	103.5
354.128	88.5
354.355	95.5
354.583	94.5
354.81	111.5
355.037	108.5
355.264	92.5
355.491	90.5
355.718	98.5
355.945	95.5
356.172	90.5
356.399	107.5
356.626	94.5
356.853	83.5
357.08	85.5
357.307	99.5
357.534	100.5
357.761	92.5
357.988	99.5
358.215	90.5
358.441	94.5
358.668	85.5
358.895	99.5
359.122	85.5
359.349	79.5
359.576	90.5
359.802	82.5
360.029	103.5
360.256	100.5
360.483	90.5
360.709	100.5
360.936	92.5
361.163	96.5
361.39	84.5
361.616	84.5
361.843	106.5
362.07	96.5
362.296	92.5
362.523	86.5
362.749	92.5
362.976	91.5
363.203	94.5
363.429	96.5
363.656	92.5
363.882	84.5
364.109	94.5
364.335	86.5
364.562	88.5
364.788	103.5
365.015	94.5
365.241	89.5
365.468	112.5
365.694	97.5
365.92	81.5
366.147	81.5
366.373	97.5
366.599	97.5
366.826	82.5
367.052	98.5
367.278	95.5
367.505	73.5
367.731	89.5
367.957	96.5
368.184	95.5
368.41	91.5
368.636	101.5
368.862	127.5
369.089	90.5
369.315	82.5
369.541	83.5
369.767	85.5
369.993	97.5
370.219	75.5
370.445	77.5
370.672	89.5
370.898	94.5
371.124	93.5
371.35	84.5
371.576	70.5
371.802	78.5
372.028	89.5
372.254	94.5
372.48	85.5
372.706	76.5
372.932	83.5
373.158	70.5
373.384	79.5
373.61	82.5
373.835	82.5
374.061	84.5
374.287	102.5
374.513	86.5
374.739	87.5
374.965	93.5
375.191	92.5
375.416	96.5
375.642	82.5
375.868	81.5
376.094	88.5
376.319	93.5
376.545	80.5
376.771	96.5
376.997	87.5
377.222	93.5
377.448	77.5
377.674	107.5
377.899	94.5
378.125	90.5
378.35	96.5
378.576	90.5
378.802	92.5
379.027	77.5
379.253	88.5
379.478	74.5
379.704	86.5
379.929	99.5
380.155	96.5
380.38	107.5
380.606	83.5
380.831	91.5
381.057	88.5
381.282	91.5
381.507	99.5
381.733	105.5
381.958	90.5
382.184	95.5
382.409	85.5
382.634	97.5
382.86	102.5
383.085	94.5
383.31	108.5
383.535	99.5
383.761	96.5
383.986	101.5
384.211	94.5
384.436	102.5
384.662	103.5
384.887	112.5
385.112	113.5
385.337	113.5
385.562	98.5
385.787	111.5
386.013	107.5
386.238	116.5
386.463	112.5
386.688	109.5
386.913	104.5
387.138	119.5
387.363	107.5
387.588	110.5
387.813	106.5
388.038	107.5
388.263	117.5
388.488	122.5
388.713	101.5
388.938	98.5
389.163	83.5
389.387	89.5
389.612	104.5
389.837	104.5
390.062	89.5
390.287	79.5
390.512	97.5
390.736	91.5
390.961	80.5
391.186	89.5
391.411	89.5
391.636	81.5
391.86	79.5
392.085	88.5
392.31	89.5
392.534	98.5
392.759	93.5
392.984	78.5
393.208	90.5
393.433	104.5
393.658	95.5
393.882	88.5
394.107	90.5
394.331	85.5
394.556	78.5
394.78	90.5
395.005	62.5
395.229	94.5
395.454	95.5
395.678	81.5
395.903	84.5
396.127	90.5
396.352	83.5
396.576	96.5
396.801	89.5
397.025	107.5
397.249	86.5
397.474	85.5
397.698	87.5
397.922	88.5
398.147	74.5
398.371	80.5
398.595	94.5
398.82	82.5
399.044	91.5
399.268	87.5
399.492	105.5
399.717	77.5
399.941	81.5
400.165	81.5
400.389	77.5
400.613	85.5
400.837	94.5
401.062	76.5
401.286	71.5
401.51	97.5
401.734	96.5
401.958	102.5
402.182	112.5
402.406	145.5
402.63	90.5
402.854	81.5
403.078	75.5
403.302	91.5
403.526	97.5
403.75	90.5
403.974	88.5
404.198	94.5
404.422	91.5
404.645	79.5
404.869	96.5
405.093	90.5
405.317	89.5
405.541	98.5
405.765	90.5
405.988	113.5
406.212	163.5
406.436	210.5
406.66	129.5
406.883	96.5
407.107	90.5
407.331	96.5
407.555	102.5
407.778	93.5
408.002	91.5
408.226	95.5
408.449	81.5
408.673	88.5
408.896	85.5
409.12	85.5
409.344	96.5
409.567	82.5
409.791	81.5
410.014	97.5
410.238	87.5
410.461	78.5
410.685	93.5
410.908	80.5
411.132	104.5
411.355	83.5
411.578	97.5
411.802	74.5
412.025	87.5
412.249	96.5
412.472	87.5
412.695	78.5
412.919	83.5
413.142	86.5
413.365	80.5
413.589	86.5
413.812	99.5
414.035	91.5
414.258	90.5
414.482	74.5
414.705	83.5
414.928	75.5
415.151	80.5
415.374	87.5
415.597	90.5
415.821	90.5
416.044	99.5
416.267	93.5
416.49	85.5
416.713	99.5
416.936	95.5
417.159	91.5
417.382	88.5
417.605	84.5
417.828	89.5
418.051	82.5
418.274	97.5
418.497	91.5
418.72	72.5
418.943	75.5
419.166	88.5
419.389	78.5
419.611	97.5
419.834	92.5
420.057	99.5
420.28	81.5
420.503	97.5
420.726	89.5
420.948	87.5
421.171	94.5
421.394	89.5
421.617	82.5
421.839	97.5
422.062	88.5
422.285	95.5
422.507	97.5
422.73	100.5
422.953	89.5
423.175	78.5
423.398	99.5
423.621	85.5
423.843	99.5
424.066	87.5
424.288	82.5
424.511	84.5
424.733	92.5
424.956	88.5
425.178	90.5
425.401	91.5
425.623	96.5
425.846	77.5
426.068	87.5
426.291	92.5
426.513	75.5
426.735	100.5
426.958	92.5
427.18	98.5
427.402	131.5
427.625	141.5
427.847	124.5
428.069	93.5
428.292	81.5
428.514	90.5
428.736	86.5
428.958	87.5
429.181	82.5
429.403	84.5
429.625	92.5
429.847	103.5
430.069	84.5
430.292	75.5
430.514	73.5
430.736	95.5
430.958	81.5
431.18	100.5
431.402	87.5
431.624	85.5
431.846	85.5
432.068	80.5
432.29	69.5
432.512	82.5
432.734	87.5
432.956	99.5
433.178	87.5
433.4	93.5
433.622	86.5
433.844	90.5
434.066	97.5
434.287	94.5
434.509	89.5
434.731	95.5
434.953	91.5
435.175	87.5
435.397	96.5
435.618	106.5
435.84	104.5
436.062	100.5
436.284	93.5
436.505	87.5
436.727	104.5
436.949	91.5
437.17	91.5
437.392	90.5
437.614	90.5
437.835	108.5
438.057	106.5
438.278	91.5
438.5	107.5
438.721	107.5
438.943	92.5
439.165	83.5
439.386	95.5
439.608	86.5
439.829	104.5
440.05	105.5
440.272	128.5
440.493	97.5
440.715	87.5
440.936	89.5
441.158	83.5
441.379	87.5
441.6	85.5
441.822	88.5
442.043	90.5
442.264	99.5
442.486	97.5
442.707	86.5
442.928	92.5
443.149	99.5
443.371	113.5
443.592	103.5
443.813	92.5
444.034	103.5
444.255	102.5
444.476	80.5
444.698	91.5
444.919	96.5
445.14	135.5
445.361	123.5
445.582	101.5
445.803	118.5
446.024	107.5
446.245	128.5
446.466	92.5
446.687	83.5
446.908	94.5
447.129	102.5
447.35	85.5
447.571	96.5
447.792	93.5
448.013	87.5
448.234	102.5
448.455	107.5
448.675	103.5
448.896	107.5
449.117	94.5
449.338	99.5
449.559	128.5
449.779	120.5
450	81.5
450.221	87.5
450.442	71.5
450.662	91.5
450.883	98.5
451.104	86.5
451.324	104.5
451.545	72.5
451.766	81.5
451.986	87.5
452.207	89.5
452.428	95.5
452.648	97.5
452.869	109.5
453.089	101.5
453.31	110.5
453.53	90.5
453.751	87.5
453.971	108.5
454.192	107.5
454.412	89.5
454.633	78.5
454.853	90.5
455.073	104.5
455.294	83.5
455.514	80.5
455.734	79.5
455.955	83.5
456.175	81.5
456.395	74.5
456.616	81.5
456.836	82.5
457.056	90.5
457.276	89.5
457.497	98.5
457.717	90.5
457.937	85.5
458.157	77.5
458.377	97.5
458.598	99.5
458.818	114.5
459.038	127.5
459.258	106.5
459.478	81.5
459.698	78.5
459.918	90.5
460.138	78.5
460.358	86.5
460.578	92.5
460.798	81.5
461.018	90.5
461.238	88.5
461.458	76.5
461.678	82.5
461.898	87.5
462.118	69.5
462.338	73.5
462.558	78.5
462.777	83.5
462.997	94.5
463.217	75.5
463.437	64.5
463.657	73.5
463.876	82.5
464.096	78.5
464.316	96.5
464.536	94.5
464.755	99.5
464.975	90.5
465.195	147.5
465.414	136.5
465.634	104.5
465.854	94.5
466.073	80.5
466.293	82.5
466.512	100.5
466.732	91.5
466.951	89.5
467.171	89.5
467.391	94.5
467.61	94.5
467.829	90.5
468.049	77.5
468.268	85.5
468.488	88.5
468.707	82.5
468.927	86.5
469.146	88.5
469.365	75.5
469.585	87.5
469.804	97.5
470.023	96.5
470.243	90.5
470.462	93.5
470.681	95.5
470.901	82.5
471.12	91.5
471.339	93.5
471.558	86.5
471.777	91.5
471.997	96.5
472.216	102.5
472.435	91.5
472.654	71.5
472.873	66.5
473.092	84.5
473.311	80.5
473.53	91.5
473.749	102.5
473.968	91.5
474.187	70.5
474.406	94.5
474.625	86.5
474.844	93.5
475.063	89.5
475.282	81.5
475.501	90.5
475.72	90.5
475.939	93.5
476.158	89.5
476.377	99.5
476.596	87.5
476.814	78.5
477.033	82.5
477.252	89.5
477.471	91.5
477.69	108.5
477.908	95.5
478.127	85.5
478.346	88.5
478.564	90.5
478.783	75.5
479.002	89.5
479.22	82.5
479.439	96.5
479.658	95.5
479.876	79.5
480.095	86.5
480.313	94.5
480.532	94.5
480.751	91.5
480.969	89.5
481.188	100.5
481.406	85.5
481.624	90.5
481.843	84.5
482.061	88.5
482.28	90.5
482.498	102.5
482.717	86.5
482.935	86.5
483.153	80.5
483.372	84.5
483.59	80.5
483.808	94.5
484.027	83.5
484.245	83.5
484.463	91.5
484.681	95.5
484.9	79.5
485.118	96.5
485.336	111.5
485.554	98.5
485.772	104.5
485.99	104.5
486.209	103.5
486.427	97.5
486.645	105.5
486.863	105.5
487.081	97.5
487.299	96.5
487.517	89.5
487.735	93.5
487.953	98.5
488.171	90.5
488.389	96.5
488.607	94.5
488.825	87.5
489.043	90.5
489.261	89.5
489.479	98.5
489.696	89.5
489.914	86.5
490.132	81.5
490.35	86.5
490.568	81.5
490.786	98.5
491.003	90.5
491.221	95.5
491.439	89.5
491.657	96.5
491.874	72.5
492.092	100.5
492.31	86.5
492.527	89.5
492.745	82.5
492.963	87.5
493.18	99.5
493.398	93.5
493.615	81.5
493.833	91.5
494.05	75.5
494.268	80.5
494.485	86.5
494.703	91.5
494.92	85.5
495.138	88.5
495.355	92.5
495.573	107.5
495.79	86.5
496.008	90.5
496.225	92.5
496.442	89.5
496.66	84.5
496.877	73.5
497.094	83.5
497.312	88.5
497.529	91.5
497.746	95.5
497.963	84.5
498.181	96.5
498.398	90.5
498.615	97.5
498.832	91.5
499.049	81.5
499.267	75.5
499.484	78.5
499.701	91.5
499.918	93.5
500.135	81.5
500.352	103.5
500.569	77.5
500.786	95.5
501.003	91.5
501.22	88.5
501.437	89.5
501.654	82.5
501.871	96.5
502.088	84.5
502.305	92.5
502.522	102.5
502.739	96.5
502.956	82.5
503.172	90.5
503.389	89.5
503.606	91.5
503.823	91.5
504.04	87.5
504.256	87.5
504.473	103.5
504.69	91.5
504.907	89.5
505.123	90.5
505.34	81.5
505.557	89.5
505.773	97.5
505.99	93.5
506.207	89.5
506.423	103.5
506.64	77.5
506.856	80.5
507.073	94.5
507.289	87.5
507.506	88.5
507.722	107.5
507.939	97.5
508.155	107.5
508.372	96.5
508.588	94.5
508.805	79.5
509.021	85.5
509.238	97.5
509.454	104.5
509.67	102.5
509.887	117.5
510.103	124.5
510.319	202.5
510.536	687.5
510.752	2059.5
510.968	591.5
511.184	153.5
511.401	103.5
511.617	96.5
511.833	96.5
512.049	93.5
512.265	95.5
512.481	74.5
512.698	79.5
512.914	87.5
513.13	85.5
513.346	89.5
513.562	106.5
513.778	94.5
513.994	89.5
514.21	99.5
514.426	110.5
514.642	122.5
514.858	119.5
515.074	145.5
515.29	404.5
515.506	1233.5
515.721	450.5
515.937	145.5
516.153	99.5
516.369	96.5
516.585	87.5
516.801	90.5
517.016	92.5
517.232	83.5
517.448	96.5
517.664	97.5
517.879	90.5
518.095	91.5
518.311	99.5
518.527	98.5
518.742	92.5
518.958	106.5
519.173	92.5
519.389	91.5
519.605	96.5
519.82	98.5
520.036	109.5
520.251	106.5
520.467	114.5
520.682	100.5
520.898	109.5
521.113	122.5
521.329	128.5
521.544	183.5
521.76	480.5
521.975	2016.5
522.19	1194.5
522.406	255.5
522.621	115.5
522.836	90.5
523.052	91.5
523.267	109.5
523.482	91.5
523.698	96.5
523.913	101.5
524.128	100.5
524.343	79.5
524.559	89.5
524.774	89.5
524.989	104.5
525.204	105.5
525.419	88.5
525.634	90.5
525.849	93.5
526.064	96.5
526.28	92.5
526.495	86.5
526.71	89.5
526.925	86.5
527.14	84.5
527.355	82.5
527.57	100.5
527.785	80.5
527.999	82.5
528.214	93.5
528.429	95.5
528.644	73.5
528.859	85.5
529.074	80.5
529.289	107.5
529.503	136.5
529.718	93.5
529.933	89.5
530.148	91.5
530.363	84.5
530.577	88.5
530.792	91.5
531.007	94.5
531.221	78.5
531.436	85.5
531.651	86.5
531.865	97.5
532.08	77.5
532.295	84.5
532.509	85.5
532.724	96.5
532.938	93.5
533.153	102.5
533.367	94.5
533.582	90.5
533.796	82.5
534.011	86.5
534.225	89.5
534.44	91.5
534.654	88.5
534.868	83.5
535.083	97.5
535.297	97.5
535.511	85.5
535.726	102.5
535.94	95.5
536.154	88.5
536.369	89.5
536.583	90.5
536.797	86.5
