Data from Uncirc_1995_H10_HRD10591_00047.txt Node
Date: Wed Jan 03 11:35:43 EST 2024
User: Yrep
Spectrometer: HR+D1059
Trigger mode: 1
Integration Time (sec): 1.000000E-1
Scans to average: 1
Electric dark correction enabled: true
Nonlinearity correction enabled: false
Boxcar width: 0
XAxis mode: Wavelengths
Number of Pixels in Spectrum: 2048
>>>>>Begin Spectral Data<<<<<
223.165	-14.44
223.4	-14.44
223.635	-14.44
223.869	-37.44
224.104	-28.44
224.338	-7.44
224.573	-8.44
224.808	-12.44
225.042	-11.44
225.277	-0.44
225.511	6.56
225.746	-1.44
225.98	8.56
226.215	16.56
226.449	18.56
226.683	18.56
226.918	20.56
227.152	32.56
227.387	34.56
227.621	38.56
227.856	34.56
228.09	38.56
228.324	58.56
228.559	48.56
228.793	63.56
229.027	58.56
229.262	70.56
229.496	85.56
229.73	85.56
229.964	86.56
230.199	70.56
230.433	79.56
230.667	87.56
230.901	80.56
231.136	88.56
231.37	67.56
231.604	74.56
231.838	75.56
232.072	82.56
232.306	87.56
232.541	74.56
232.775	83.56
233.009	93.56
233.243	89.56
233.477	88.56
233.711	80.56
233.945	74.56
234.179	82.56
234.413	85.56
234.647	76.56
234.881	82.56
235.115	77.56
235.349	73.56
235.583	81.56
235.817	73.56
236.051	82.56
236.285	71.56
236.519	78.56
236.753	80.56
236.987	83.56
237.221	81.56
237.455	92.56
237.689	79.56
237.922	72.56
238.156	72.56
238.39	76.56
238.624	80.56
238.858	90.56
239.091	86.56
239.325	85.56
239.559	92.56
239.793	98.56
240.027	61.56
240.26	78.56
240.494	76.56
240.728	72.56
240.961	90.56
241.195	77.56
241.429	84.56
241.662	75.56
241.896	73.56
242.13	74.56
242.363	63.56
242.597	78.56
242.83	85.56
243.064	78.56
243.298	90.56
243.531	59.56
243.765	67.56
243.998	87.56
244.232	87.56
244.465	91.56
244.699	85.56
244.932	88.56
245.166	70.56
245.399	93.56
245.633	72.56
245.866	67.56
246.099	80.56
246.333	72.56
246.566	65.56
246.8	70.56
247.033	70.56
247.266	68.56
247.5	83.56
247.733	91.56
247.966	75.56
248.2	88.56
248.433	99.56
248.666	76.56
248.899	82.56
249.133	91.56
249.366	91.56
249.599	108.56
249.832	78.56
250.066	81.56
250.299	75.56
250.532	70.56
250.765	80.56
250.998	71.56
251.231	92.56
251.465	78.56
251.698	84.56
251.931	70.56
252.164	65.56
252.397	85.56
252.63	83.56
252.863	75.56
253.096	90.56
253.329	83.56
253.562	78.56
253.795	77.56
254.028	90.56
254.261	82.56
254.494	71.56
254.727	86.56
254.96	82.56
255.193	74.56
255.426	64.56
255.659	76.56
255.892	90.56
256.124	84.56
256.357	67.56
256.59	102.56
256.823	80.56
257.056	71.56
257.289	63.56
257.521	88.56
257.754	82.56
257.987	89.56
258.22	73.56
258.452	81.56
258.685	80.56
258.918	90.56
259.151	77.56
259.383	84.56
259.616	75.56
259.849	83.56
260.081	88.56
260.314	79.56
260.547	79.56
260.779	71.56
261.012	88.56
261.244	74.56
261.477	85.56
261.71	94.56
261.942	103.56
262.175	111.56
262.407	77.56
262.64	81.56
262.872	86.56
263.105	91.56
263.337	86.56
263.57	84.56
263.802	91.56
264.035	86.56
264.267	80.56
264.499	80.56
264.732	86.56
264.964	76.56
265.197	87.56
265.429	93.56
265.661	76.56
265.894	91.56
266.126	90.56
266.358	68.56
266.591	75.56
266.823	79.56
267.055	87.56
267.287	73.56
267.52	79.56
267.752	79.56
267.984	96.56
268.216	87.56
268.448	87.56
268.681	82.56
268.913	91.56
269.145	62.56
269.377	88.56
269.609	90.56
269.841	95.56
270.073	73.56
270.306	97.56
270.538	67.56
270.77	78.56
271.002	82.56
271.234	87.56
271.466	73.56
271.698	92.56
271.93	61.56
272.162	92.56
272.394	94.56
272.626	81.56
272.858	90.56
273.09	81.56
273.322	77.56
273.553	82.56
273.785	76.56
274.017	79.56
274.249	82.56
274.481	90.56
274.713	79.56
274.945	80.56
275.176	77.56
275.408	83.56
275.64	86.56
275.872	84.56
276.104	80.56
276.335	91.56
276.567	89.56
276.799	105.56
277.031	91.56
277.262	101.56
277.494	89.56
277.726	100.56
277.957	86.56
278.189	73.56
278.421	81.56
278.652	81.56
278.884	77.56
279.115	95.56
279.347	89.56
279.579	95.56
279.81	83.56
280.042	86.56
280.273	76.56
280.505	81.56
280.736	93.56
280.968	80.56
281.199	92.56
281.431	89.56
281.662	87.56
281.894	79.56
282.125	92.56
282.356	113.56
282.588	115.56
282.819	108.56
283.051	96.56
283.282	82.56
283.513	92.56
283.745	94.56
283.976	99.56
284.207	85.56
284.439	93.56
284.67	87.56
284.901	82.56
285.132	80.56
285.364	93.56
285.595	91.56
285.826	98.56
286.057	95.56
286.288	86.56
286.52	74.56
286.751	91.56
286.982	79.56
287.213	89.56
287.444	84.56
287.675	95.56
287.906	84.56
288.138	90.56
288.369	99.56
288.6	97.56
288.831	89.56
289.062	80.56
289.293	74.56
289.524	78.56
289.755	82.56
289.986	75.56
290.217	77.56
290.448	85.56
290.679	81.56
290.91	96.56
291.141	86.56
291.371	85.56
291.602	92.56
291.833	84.56
292.064	86.56
292.295	93.56
292.526	91.56
292.757	87.56
292.987	88.56
293.218	79.56
293.449	88.56
293.68	93.56
293.91	89.56
294.141	87.56
294.372	80.56
294.603	97.56
294.833	93.56
295.064	84.56
295.295	78.56
295.525	88.56
295.756	96.56
295.987	112.56
296.217	113.56
296.448	124.56
296.679	89.56
296.909	98.56
297.14	93.56
297.37	89.56
297.601	93.56
297.831	92.56
298.062	86.56
298.292	91.56
298.523	90.56
298.753	83.56
298.984	84.56
299.214	95.56
299.445	83.56
299.675	92.56
299.905	90.56
300.136	89.56
300.366	84.56
300.597	99.56
300.827	96.56
301.057	90.56
301.288	102.56
301.518	89.56
301.748	99.56
301.979	99.56
302.209	109.56
302.439	83.56
302.669	79.56
302.9	86.56
303.13	106.56
303.36	80.56
303.59	95.56
303.82	117.56
304.051	98.56
304.281	81.56
304.511	103.56
304.741	80.56
304.971	84.56
305.201	92.56
305.431	95.56
305.661	86.56
305.891	99.56
306.121	100.56
306.352	91.56
306.582	98.56
306.812	83.56
307.042	84.56
307.272	101.56
307.502	103.56
307.731	81.56
307.961	104.56
308.191	92.56
308.421	92.56
308.651	97.56
308.881	92.56
309.111	90.56
309.341	99.56
309.571	87.56
309.8	81.56
310.03	94.56
310.26	89.56
310.49	106.56
310.72	97.56
310.949	103.56
311.179	98.56
311.409	90.56
311.639	87.56
311.868	88.56
312.098	98.56
312.328	94.56
312.557	97.56
312.787	86.56
313.017	86.56
313.246	84.56
313.476	94.56
313.706	105.56
313.935	100.56
314.165	103.56
314.394	99.56
314.624	95.56
314.853	95.56
315.083	91.56
315.312	90.56
315.542	95.56
315.771	97.56
316.001	99.56
316.23	88.56
316.46	88.56
316.689	99.56
316.919	84.56
317.148	95.56
317.377	89.56
317.607	93.56
317.836	106.56
318.065	85.56
318.295	93.56
318.524	99.56
318.753	90.56
318.983	92.56
319.212	91.56
319.441	106.56
319.67	92.56
319.9	100.56
320.129	91.56
320.358	101.56
320.587	94.56
320.816	104.56
321.046	92.56
321.275	105.56
321.504	85.56
321.733	97.56
321.962	96.56
322.191	114.56
322.42	109.56
322.649	97.56
322.878	100.56
323.108	103.56
323.337	121.56
323.566	136.56
323.795	153.56
324.024	200.56
324.253	394.56
324.482	811.56
324.71	1664.56
324.939	2138.56
325.168	776.56
325.397	224.56
325.626	140.56
325.855	142.56
326.084	125.56
326.313	147.56
326.542	133.56
326.77	198.56
326.999	435.56
327.228	931.56
327.457	1661.56
327.686	1355.56
327.914	362.56
328.143	182.56
328.372	142.56
328.6	119.56
328.829	122.56
329.058	119.56
329.287	103.56
329.515	119.56
329.744	120.56
329.972	93.56
330.201	111.56
330.43	108.56
330.658	107.56
330.887	131.56
331.115	104.56
331.344	97.56
331.572	84.56
331.801	98.56
332.03	81.56
332.258	96.56
332.486	104.56
332.715	99.56
332.943	108.56
333.172	95.56
333.4	95.56
333.629	93.56
333.857	101.56
334.085	100.56
334.314	85.56
334.542	94.56
334.771	105.56
334.999	83.56
335.227	90.56
335.455	88.56
335.684	99.56
335.912	94.56
336.14	95.56
336.369	101.56
336.597	110.56
336.825	91.56
337.053	89.56
337.281	99.56
337.51	89.56
337.738	97.56
337.966	90.56
338.194	75.56
338.422	104.56
338.65	93.56
338.878	96.56
339.106	83.56
339.334	92.56
339.562	91.56
339.79	86.56
340.018	92.56
340.246	76.56
340.474	97.56
340.702	95.56
340.93	100.56
341.158	97.56
341.386	101.56
341.614	89.56
341.842	106.56
342.07	97.56
342.298	99.56
342.526	104.56
342.754	94.56
342.981	92.56
343.209	84.56
343.437	98.56
343.665	87.56
343.893	83.56
344.12	93.56
344.348	100.56
344.576	88.56
344.804	99.56
345.031	98.56
345.259	86.56
345.487	94.56
345.714	93.56
345.942	95.56
346.17	93.56
346.397	81.56
346.625	95.56
346.853	82.56
347.08	78.56
347.308	92.56
347.535	97.56
347.763	95.56
347.99	113.56
348.218	104.56
348.445	100.56
348.673	92.56
348.9	98.56
349.128	101.56
349.355	100.56
349.583	95.56
349.81	111.56
350.037	97.56
350.265	76.56
350.492	100.56
350.72	96.56
350.947	94.56
351.174	100.56
351.402	115.56
351.629	101.56
351.856	99.56
352.083	110.56
352.311	93.56
352.538	108.56
352.765	97.56
352.992	107.56
353.22	106.56
353.447	101.56
353.674	98.56
353.901	108.56
354.128	96.56
354.355	107.56
354.583	88.56
354.81	100.56
355.037	84.56
355.264	94.56
355.491	95.56
355.718	91.56
355.945	88.56
356.172	104.56
356.399	109.56
356.626	113.56
356.853	88.56
357.08	89.56
357.307	82.56
357.534	91.56
357.761	89.56
357.988	96.56
358.215	88.56
358.441	101.56
358.668	94.56
358.895	94.56
359.122	93.56
359.349	83.56
359.576	103.56
359.802	96.56
360.029	94.56
360.256	106.56
360.483	95.56
360.709	86.56
360.936	88.56
361.163	76.56
361.39	87.56
361.616	90.56
361.843	84.56
362.07	103.56
362.296	95.56
362.523	80.56
362.749	97.56
362.976	81.56
363.203	107.56
363.429	82.56
363.656	89.56
363.882	94.56
364.109	95.56
364.335	94.56
364.562	96.56
364.788	81.56
365.015	86.56
365.241	91.56
365.468	95.56
365.694	95.56
365.92	83.56
366.147	79.56
366.373	86.56
366.599	77.56
366.826	86.56
367.052	97.56
367.278	80.56
367.505	90.56
367.731	103.56
367.957	94.56
368.184	93.56
368.41	90.56
368.636	127.56
368.862	114.56
369.089	99.56
369.315	104.56
369.541	95.56
369.767	97.56
369.993	102.56
370.219	95.56
370.445	90.56
370.672	99.56
370.898	85.56
371.124	91.56
371.35	82.56
371.576	99.56
371.802	102.56
372.028	80.56
372.254	98.56
372.48	81.56
372.706	81.56
372.932	79.56
373.158	97.56
373.384	96.56
373.61	83.56
373.835	81.56
374.061	97.56
374.287	94.56
374.513	88.56
374.739	107.56
374.965	82.56
375.191	95.56
375.416	91.56
375.642	97.56
375.868	95.56
376.094	89.56
376.319	84.56
376.545	91.56
376.771	81.56
376.997	67.56
377.222	91.56
377.448	88.56
377.674	92.56
377.899	89.56
378.125	83.56
378.35	92.56
378.576	109.56
378.802	92.56
379.027	83.56
379.253	92.56
379.478	111.56
379.704	90.56
379.929	92.56
380.155	95.56
380.38	99.56
380.606	91.56
380.831	84.56
381.057	98.56
381.282	97.56
381.507	81.56
381.733	104.56
381.958	96.56
382.184	92.56
382.409	103.56
382.634	100.56
382.86	106.56
383.085	98.56
383.31	102.56
383.535	96.56
383.761	101.56
383.986	94.56
384.211	80.56
384.436	90.56
384.662	99.56
384.887	104.56
385.112	109.56
385.337	110.56
385.562	102.56
385.787	107.56
386.013	110.56
386.238	115.56
386.463	99.56
386.688	113.56
386.913	106.56
387.138	115.56
387.363	108.56
387.588	99.56
387.813	113.56
388.038	114.56
388.263	115.56
388.488	116.56
388.713	96.56
388.938	119.56
389.163	104.56
389.387	98.56
389.612	94.56
389.837	99.56
390.062	98.56
390.287	97.56
390.512	95.56
390.736	91.56
390.961	100.56
391.186	93.56
391.411	88.56
391.636	112.56
391.86	88.56
392.085	96.56
392.31	87.56
392.534	89.56
392.759	79.56
392.984	95.56
393.208	83.56
393.433	100.56
393.658	108.56
393.882	96.56
394.107	92.56
394.331	90.56
394.556	85.56
394.78	88.56
395.005	86.56
395.229	83.56
395.454	81.56
395.678	82.56
395.903	91.56
396.127	75.56
396.352	83.56
396.576	85.56
396.801	85.56
397.025	89.56
397.249	90.56
397.474	78.56
397.698	91.56
397.922	98.56
398.147	91.56
398.371	59.56
398.595	76.56
398.82	84.56
399.044	76.56
399.268	87.56
399.492	95.56
399.717	82.56
399.941	80.56
400.165	96.56
400.389	95.56
400.613	85.56
400.837	89.56
401.062	89.56
401.286	91.56
401.51	91.56
401.734	85.56
401.958	97.56
402.182	115.56
402.406	142.56
402.63	108.56
402.854	92.56
403.078	89.56
403.302	93.56
403.526	93.56
403.75	86.56
403.974	81.56
404.198	88.56
404.422	91.56
404.645	89.56
404.869	90.56
405.093	101.56
405.317	95.56
405.541	102.56
405.765	89.56
405.988	111.56
406.212	150.56
406.436	207.56
406.66	123.56
406.883	101.56
407.107	95.56
407.331	98.56
407.555	88.56
407.778	84.56
408.002	87.56
408.226	66.56
408.449	88.56
408.673	85.56
408.896	83.56
409.12	89.56
409.344	96.56
409.567	80.56
409.791	106.56
410.014	98.56
410.238	90.56
410.461	100.56
410.685	101.56
410.908	106.56
411.132	95.56
411.355	92.56
411.578	99.56
411.802	78.56
412.025	78.56
412.249	101.56
412.472	90.56
412.695	76.56
412.919	78.56
413.142	86.56
413.365	84.56
413.589	101.56
413.812	98.56
414.035	92.56
414.258	94.56
414.482	87.56
414.705	90.56
414.928	103.56
415.151	93.56
415.374	103.56
415.597	90.56
415.821	85.56
416.044	100.56
416.267	85.56
416.49	82.56
416.713	88.56
416.936	81.56
417.159	82.56
417.382	86.56
417.605	100.56
417.828	87.56
418.051	90.56
418.274	98.56
418.497	83.56
418.72	95.56
418.943	106.56
419.166	94.56
419.389	85.56
419.611	91.56
419.834	96.56
420.057	83.56
420.28	84.56
420.503	81.56
420.726	92.56
420.948	84.56
421.171	94.56
421.394	97.56
421.617	85.56
421.839	97.56
422.062	82.56
422.285	100.56
422.507	113.56
422.73	95.56
422.953	79.56
423.175	94.56
423.398	93.56
423.621	78.56
423.843	90.56
424.066	87.56
424.288	91.56
424.511	91.56
424.733	96.56
424.956	107.56
425.178	95.56
425.401	102.56
425.623	108.56
425.846	96.56
426.068	92.56
426.291	92.56
426.513	101.56
426.735	90.56
426.958	91.56
427.18	107.56
427.402	119.56
427.625	140.56
427.847	131.56
428.069	99.56
428.292	98.56
428.514	82.56
428.736	80.56
428.958	81.56
429.181	100.56
429.403	96.56
429.625	77.56
429.847	83.56
430.069	90.56
430.292	94.56
430.514	92.56
430.736	87.56
430.958	82.56
431.18	76.56
431.402	68.56
431.624	94.56
431.846	78.56
432.068	99.56
432.29	93.56
432.512	96.56
432.734	90.56
432.956	95.56
433.178	97.56
433.4	96.56
433.622	81.56
433.844	79.56
434.066	84.56
434.287	88.56
434.509	96.56
434.731	103.56
434.953	89.56
435.175	99.56
435.397	89.56
435.618	89.56
435.84	98.56
436.062	110.56
436.284	99.56
436.505	90.56
436.727	104.56
436.949	82.56
437.17	84.56
437.392	96.56
437.614	85.56
437.835	100.56
438.057	121.56
438.278	94.56
438.5	94.56
438.721	114.56
438.943	101.56
439.165	87.56
439.386	90.56
439.608	97.56
439.829	92.56
440.05	113.56
440.272	124.56
440.493	99.56
440.715	94.56
440.936	87.56
441.158	89.56
441.379	91.56
441.6	89.56
441.822	89.56
442.043	92.56
442.264	95.56
442.486	89.56
442.707	94.56
442.928	95.56
443.149	99.56
443.371	109.56
443.592	99.56
443.813	114.56
444.034	98.56
444.255	83.56
444.476	86.56
444.698	74.56
444.919	78.56
445.14	135.56
445.361	116.56
445.582	106.56
445.803	124.56
446.024	125.56
446.245	127.56
446.466	102.56
446.687	79.56
446.908	91.56
447.129	94.56
447.35	95.56
447.571	88.56
447.792	97.56
448.013	101.56
448.234	99.56
448.455	101.56
448.675	118.56
448.896	118.56
449.117	96.56
449.338	103.56
449.559	127.56
449.779	128.56
450	104.56
450.221	90.56
450.442	102.56
450.662	93.56
450.883	103.56
451.104	109.56
451.324	88.56
451.545	90.56
451.766	93.56
451.986	86.56
452.207	91.56
452.428	84.56
452.648	97.56
452.869	99.56
453.089	108.56
453.31	118.56
453.53	93.56
453.751	91.56
453.971	94.56
454.192	99.56
454.412	87.56
454.633	83.56
454.853	72.56
455.073	89.56
455.294	87.56
455.514	93.56
455.734	94.56
455.955	89.56
456.175	92.56
456.395	93.56
456.616	82.56
456.836	74.56
457.056	86.56
457.276	95.56
457.497	84.56
457.717	88.56
457.937	92.56
458.157	86.56
458.377	87.56
458.598	93.56
458.818	128.56
459.038	141.56
459.258	98.56
459.478	94.56
459.698	87.56
459.918	84.56
460.138	78.56
460.358	76.56
460.578	83.56
460.798	89.56
461.018	88.56
461.238	78.56
461.458	74.56
461.678	92.56
461.898	83.56
462.118	97.56
462.338	79.56
462.558	77.56
462.777	77.56
462.997	96.56
463.217	95.56
463.437	90.56
463.657	77.56
463.876	97.56
464.096	80.56
464.316	94.56
464.536	91.56
464.755	89.56
464.975	101.56
465.195	152.56
465.414	145.56
465.634	100.56
465.854	111.56
466.073	110.56
466.293	86.56
466.512	79.56
466.732	86.56
466.951	92.56
467.171	83.56
467.391	92.56
467.61	90.56
467.829	90.56
468.049	86.56
468.268	86.56
468.488	87.56
468.707	104.56
468.927	105.56
469.146	94.56
469.365	81.56
469.585	82.56
469.804	88.56
470.023	96.56
470.243	101.56
470.462	84.56
470.681	97.56
470.901	100.56
471.12	94.56
471.339	94.56
471.558	90.56
471.777	76.56
471.997	83.56
472.216	94.56
472.435	91.56
472.654	89.56
472.873	82.56
473.092	89.56
473.311	87.56
473.53	90.56
473.749	97.56
473.968	87.56
474.187	104.56
474.406	88.56
474.625	96.56
474.844	80.56
475.063	80.56
475.282	96.56
475.501	94.56
475.72	90.56
475.939	80.56
476.158	96.56
476.377	88.56
476.596	105.56
476.814	86.56
477.033	97.56
477.252	98.56
477.471	82.56
477.69	87.56
477.908	95.56
478.127	99.56
478.346	89.56
478.564	84.56
478.783	106.56
479.002	93.56
479.22	98.56
479.439	101.56
479.658	96.56
479.876	87.56
480.095	88.56
480.313	99.56
480.532	77.56
480.751	95.56
480.969	92.56
481.188	99.56
481.406	93.56
481.624	100.56
481.843	87.56
482.061	94.56
482.28	99.56
482.498	103.56
482.717	93.56
482.935	89.56
483.153	96.56
483.372	103.56
483.59	94.56
483.808	88.56
484.027	88.56
484.245	86.56
484.463	87.56
484.681	97.56
484.9	92.56
485.118	100.56
485.336	96.56
485.554	104.56
485.772	111.56
485.99	95.56
486.209	110.56
486.427	104.56
486.645	101.56
486.863	114.56
487.081	97.56
487.299	84.56
487.517	76.56
487.735	90.56
487.953	100.56
488.171	92.56
488.389	108.56
488.607	104.56
488.825	85.56
489.043	95.56
489.261	101.56
489.479	102.56
489.696	90.56
489.914	89.56
490.132	80.56
490.35	113.56
490.568	101.56
490.786	91.56
491.003	99.56
491.221	100.56
491.439	107.56
491.657	84.56
491.874	76.56
492.092	94.56
492.31	91.56
492.527	84.56
492.745	92.56
492.963	89.56
493.18	88.56
493.398	90.56
493.615	88.56
493.833	94.56
494.05	99.56
494.268	93.56
494.485	88.56
494.703	88.56
494.92	88.56
495.138	92.56
495.355	82.56
495.573	96.56
495.79	90.56
496.008	95.56
496.225	96.56
496.442	108.56
496.66	89.56
496.877	106.56
497.094	87.56
497.312	104.56
497.529	110.56
497.746	96.56
497.963	98.56
498.181	82.56
498.398	94.56
498.615	107.56
498.832	107.56
499.049	82.56
499.267	78.56
499.484	88.56
499.701	92.56
499.918	94.56
500.135	96.56
500.352	86.56
500.569	82.56
500.786	82.56
501.003	97.56
501.22	92.56
501.437	97.56
501.654	86.56
501.871	103.56
502.088	98.56
502.305	97.56
502.522	96.56
502.739	95.56
502.956	107.56
503.172	95.56
503.389	90.56
503.606	104.56
503.823	100.56
504.04	95.56
504.256	91.56
504.473	92.56
504.69	81.56
504.907	91.56
505.123	91.56
505.34	89.56
505.557	91.56
505.773	87.56
505.99	87.56
506.207	90.56
506.423	95.56
506.64	88.56
506.856	94.56
507.073	91.56
507.289	102.56
507.506	101.56
507.722	116.56
507.939	105.56
508.155	96.56
508.372	98.56
508.588	87.56
508.805	91.56
509.021	90.56
509.238	92.56
509.454	108.56
509.67	99.56
509.887	104.56
510.103	129.56
510.319	217.56
510.536	742.56
510.752	2314.56
510.968	630.56
511.184	156.56
511.401	94.56
511.617	94.56
511.833	86.56
512.049	113.56
512.265	83.56
512.481	104.56
512.698	94.56
512.914	87.56
513.13	102.56
513.346	98.56
513.562	102.56
513.778	84.56
513.994	106.56
514.21	93.56
514.426	105.56
514.642	138.56
514.858	125.56
515.074	160.56
515.29	421.56
515.506	1300.56
515.721	470.56
515.937	145.56
516.153	99.56
