Data from Uncirc_1995_H10_HRD10591_00028.txt Node
Date: Wed Jan 03 11:35:39 EST 2024
User: Yrep
Spectrometer: HR+D1059
Trigger mode: 1
Integration Time (sec): 1.000000E-1
Scans to average: 1
Electric dark correction enabled: true
Nonlinearity correction enabled: false
Boxcar width: 0
XAxis mode: Wavelengths
Number of Pixels in Spectrum: 2048
>>>>>Begin Spectral Data<<<<<
223.165	-13.38
223.4	-13.38
223.635	-13.38
223.869	-21.38
224.104	-31.38
224.338	-30.38
224.573	-8.38
224.808	-13.38
225.042	-6.38
225.277	-5.38
225.511	0.62
225.746	3.62
225.98	-0.38
226.215	26.62
226.449	11.62
226.683	30.62
226.918	24.62
227.152	32.62
227.387	37.62
227.621	34.62
227.856	31.62
228.09	52.62
228.324	54.62
228.559	70.62
228.793	69.62
229.027	73.62
229.262	70.62
229.496	64.62
229.73	81.62
229.964	70.62
230.199	78.62
230.433	94.62
230.667	81.62
230.901	79.62
231.136	74.62
231.37	84.62
231.604	85.62
231.838	82.62
232.072	95.62
232.306	76.62
232.541	80.62
232.775	89.62
233.009	78.62
233.243	90.62
233.477	76.62
233.711	65.62
233.945	81.62
234.179	58.62
234.413	81.62
234.647	79.62
234.881	83.62
235.115	73.62
235.349	81.62
235.583	80.62
235.817	91.62
236.051	75.62
236.285	82.62
236.519	78.62
236.753	88.62
236.987	86.62
237.221	92.62
237.455	90.62
237.689	63.62
237.922	77.62
238.156	64.62
238.39	63.62
238.624	65.62
238.858	63.62
239.091	62.62
239.325	80.62
239.559	70.62
239.793	82.62
240.027	85.62
240.26	81.62
240.494	83.62
240.728	76.62
240.961	87.62
241.195	83.62
241.429	71.62
241.662	74.62
241.896	72.62
242.13	76.62
242.363	66.62
242.597	69.62
242.83	77.62
243.064	79.62
243.298	71.62
243.531	77.62
243.765	75.62
243.998	74.62
244.232	79.62
244.465	104.62
244.699	84.62
244.932	85.62
245.166	82.62
245.399	74.62
245.633	82.62
245.866	60.62
246.099	80.62
246.333	73.62
246.566	65.62
246.8	79.62
247.033	70.62
247.266	80.62
247.5	84.62
247.733	70.62
247.966	89.62
248.2	80.62
248.433	83.62
248.666	74.62
248.899	66.62
249.133	84.62
249.366	86.62
249.599	80.62
249.832	71.62
250.066	87.62
250.299	81.62
250.532	84.62
250.765	71.62
250.998	79.62
251.231	79.62
251.465	81.62
251.698	75.62
251.931	84.62
252.164	78.62
252.397	86.62
252.63	73.62
252.863	74.62
253.096	68.62
253.329	99.62
253.562	53.62
253.795	78.62
254.028	96.62
254.261	78.62
254.494	74.62
254.727	83.62
254.96	66.62
255.193	82.62
255.426	89.62
255.659	79.62
255.892	76.62
256.124	76.62
256.357	83.62
256.59	88.62
256.823	83.62
257.056	77.62
257.289	67.62
257.521	81.62
257.754	79.62
257.987	65.62
258.22	80.62
258.452	82.62
258.685	75.62
258.918	91.62
259.151	79.62
259.383	81.62
259.616	79.62
259.849	84.62
260.081	80.62
260.314	87.62
260.547	84.62
260.779	82.62
261.012	93.62
261.244	84.62
261.477	78.62
261.71	92.62
261.942	119.62
262.175	110.62
262.407	97.62
262.64	79.62
262.872	82.62
263.105	80.62
263.337	79.62
263.57	81.62
263.802	90.62
264.035	75.62
264.267	68.62
264.499	71.62
264.732	72.62
264.964	80.62
265.197	82.62
265.429	80.62
265.661	88.62
265.894	88.62
266.126	87.62
266.358	82.62
266.591	78.62
266.823	87.62
267.055	73.62
267.287	88.62
267.52	94.62
267.752	89.62
267.984	83.62
268.216	89.62
268.448	83.62
268.681	59.62
268.913	87.62
269.145	82.62
269.377	89.62
269.609	89.62
269.841	79.62
270.073	85.62
270.306	81.62
270.538	82.62
270.77	81.62
271.002	89.62
271.234	80.62
271.466	75.62
271.698	76.62
271.93	88.62
272.162	83.62
272.394	103.62
272.626	70.62
272.858	93.62
273.09	100.62
273.322	97.62
273.553	88.62
273.785	86.62
274.017	88.62
274.249	83.62
274.481	96.62
274.713	78.62
274.945	94.62
275.176	74.62
275.408	83.62
275.64	61.62
275.872	93.62
276.104	96.62
276.335	87.62
276.567	105.62
276.799	108.62
277.031	93.62
277.262	80.62
277.494	89.62
277.726	91.62
277.957	85.62
278.189	66.62
278.421	75.62
278.652	90.62
278.884	81.62
279.115	77.62
279.347	81.62
279.579	92.62
279.81	86.62
280.042	98.62
280.273	95.62
280.505	75.62
280.736	89.62
280.968	88.62
281.199	95.62
281.431	79.62
281.662	85.62
281.894	83.62
282.125	93.62
282.356	107.62
282.588	152.62
282.819	115.62
283.051	88.62
283.282	89.62
283.513	94.62
283.745	90.62
283.976	88.62
284.207	87.62
284.439	83.62
284.67	95.62
284.901	87.62
285.132	83.62
285.364	75.62
285.595	89.62
285.826	106.62
286.057	82.62
286.288	81.62
286.52	91.62
286.751	93.62
286.982	82.62
287.213	85.62
287.444	94.62
287.675	89.62
287.906	90.62
288.138	92.62
288.369	106.62
288.6	93.62
288.831	90.62
289.062	82.62
289.293	80.62
289.524	98.62
289.755	82.62
289.986	79.62
290.217	88.62
290.448	81.62
290.679	83.62
290.91	99.62
291.141	95.62
291.371	91.62
291.602	89.62
291.833	91.62
292.064	70.62
292.295	85.62
292.526	66.62
292.757	74.62
292.987	90.62
293.218	91.62
293.449	94.62
293.68	92.62
293.91	81.62
294.141	76.62
294.372	79.62
294.603	79.62
294.833	88.62
295.064	85.62
295.295	94.62
295.525	87.62
295.756	103.62
295.987	118.62
296.217	138.62
296.448	111.62
296.679	82.62
296.909	89.62
297.14	94.62
297.37	82.62
297.601	90.62
297.831	84.62
298.062	80.62
298.292	95.62
298.523	89.62
298.753	81.62
298.984	105.62
299.214	90.62
299.445	88.62
299.675	82.62
299.905	105.62
300.136	62.62
300.366	78.62
300.597	82.62
300.827	81.62
301.057	96.62
301.288	116.62
301.518	99.62
301.748	102.62
301.979	106.62
302.209	74.62
302.439	82.62
302.669	94.62
302.9	87.62
303.13	85.62
303.36	92.62
303.59	100.62
303.82	112.62
304.051	106.62
304.281	98.62
304.511	95.62
304.741	89.62
304.971	82.62
305.201	86.62
305.431	97.62
305.661	90.62
305.891	87.62
306.121	95.62
306.352	94.62
306.582	110.62
306.812	93.62
307.042	104.62
307.272	96.62
307.502	93.62
307.731	83.62
307.961	89.62
308.191	91.62
308.421	85.62
308.651	93.62
308.881	107.62
309.111	91.62
309.341	97.62
309.571	104.62
309.8	85.62
310.03	94.62
310.26	104.62
310.49	95.62
310.72	78.62
310.949	90.62
311.179	102.62
311.409	85.62
311.639	90.62
311.868	106.62
312.098	92.62
312.328	88.62
312.557	91.62
312.787	109.62
313.017	96.62
313.246	91.62
313.476	92.62
313.706	83.62
313.935	101.62
314.165	91.62
314.394	98.62
314.624	89.62
314.853	86.62
315.083	101.62
315.312	80.62
315.542	92.62
315.771	99.62
316.001	87.62
316.23	97.62
316.46	92.62
316.689	94.62
316.919	88.62
317.148	83.62
317.377	88.62
317.607	98.62
317.836	99.62
318.065	96.62
318.295	91.62
318.524	88.62
318.753	93.62
318.983	98.62
319.212	106.62
319.441	92.62
319.67	94.62
319.9	90.62
320.129	105.62
320.358	78.62
320.587	86.62
320.816	103.62
321.046	99.62
321.275	105.62
321.504	100.62
321.733	99.62
321.962	102.62
322.191	106.62
322.42	89.62
322.649	97.62
322.878	120.62
323.108	115.62
323.337	120.62
323.566	116.62
323.795	156.62
324.024	199.62
324.253	397.62
324.482	798.62
324.71	1671.62
324.939	2189.62
325.168	795.62
325.397	236.62
325.626	149.62
325.855	127.62
326.084	132.62
326.313	118.62
326.542	150.62
326.77	236.62
326.999	448.62
327.228	945.62
327.457	1730.62
327.686	1362.62
327.914	368.62
328.143	188.62
328.372	146.62
328.6	119.62
328.829	121.62
329.058	105.62
329.287	116.62
329.515	108.62
329.744	103.62
329.972	101.62
330.201	104.62
330.43	107.62
330.658	113.62
330.887	126.62
331.115	119.62
331.344	85.62
331.572	95.62
331.801	108.62
332.03	109.62
332.258	95.62
332.486	99.62
332.715	94.62
332.943	98.62
333.172	97.62
333.4	123.62
333.629	110.62
333.857	113.62
334.085	109.62
334.314	96.62
334.542	118.62
334.771	99.62
334.999	109.62
335.227	116.62
335.455	105.62
335.684	108.62
335.912	80.62
336.14	75.62
336.369	97.62
336.597	100.62
336.825	94.62
337.053	93.62
337.281	85.62
337.51	107.62
337.738	97.62
337.966	99.62
338.194	105.62
338.422	104.62
338.65	102.62
338.878	99.62
339.106	87.62
339.334	93.62
339.562	79.62
339.79	89.62
340.018	89.62
340.246	86.62
340.474	90.62
340.702	86.62
340.93	92.62
341.158	109.62
341.386	88.62
341.614	96.62
341.842	91.62
342.07	97.62
342.298	91.62
342.526	89.62
342.754	74.62
342.981	88.62
343.209	94.62
343.437	96.62
343.665	98.62
343.893	77.62
344.12	88.62
344.348	72.62
344.576	91.62
344.804	95.62
345.031	83.62
345.259	94.62
345.487	98.62
345.714	96.62
345.942	89.62
346.17	94.62
346.397	99.62
346.625	96.62
346.853	94.62
347.08	98.62
347.308	86.62
347.535	103.62
347.763	98.62
347.99	100.62
348.218	103.62
348.445	104.62
348.673	92.62
348.9	111.62
349.128	92.62
349.355	101.62
349.583	90.62
349.81	99.62
350.037	104.62
350.265	94.62
350.492	90.62
350.72	99.62
350.947	97.62
351.174	110.62
351.402	99.62
351.629	110.62
351.856	90.62
352.083	104.62
352.311	109.62
352.538	96.62
352.765	119.62
352.992	103.62
353.22	105.62
353.447	107.62
353.674	97.62
353.901	99.62
354.128	114.62
354.355	80.62
354.583	103.62
354.81	92.62
355.037	100.62
355.264	100.62
355.491	92.62
355.718	100.62
355.945	106.62
356.172	96.62
356.399	95.62
356.626	82.62
356.853	92.62
357.08	96.62
357.307	99.62
357.534	106.62
357.761	96.62
357.988	95.62
358.215	90.62
358.441	98.62
358.668	94.62
358.895	90.62
359.122	91.62
359.349	79.62
359.576	98.62
359.802	104.62
360.029	112.62
360.256	91.62
360.483	86.62
360.709	81.62
360.936	90.62
361.163	87.62
361.39	88.62
361.616	104.62
361.843	92.62
362.07	86.62
362.296	83.62
362.523	89.62
362.749	93.62
362.976	91.62
363.203	84.62
363.429	99.62
363.656	94.62
363.882	80.62
364.109	106.62
364.335	91.62
364.562	83.62
364.788	98.62
365.015	88.62
365.241	100.62
365.468	109.62
365.694	95.62
365.92	108.62
366.147	89.62
366.373	78.62
366.599	105.62
366.826	86.62
367.052	94.62
367.278	84.62
367.505	94.62
367.731	86.62
367.957	77.62
368.184	90.62
368.41	109.62
368.636	115.62
368.862	113.62
369.089	92.62
369.315	99.62
369.541	90.62
369.767	98.62
369.993	99.62
370.219	81.62
370.445	72.62
370.672	95.62
370.898	82.62
371.124	87.62
371.35	86.62
371.576	98.62
371.802	91.62
372.028	84.62
372.254	82.62
372.48	77.62
372.706	84.62
372.932	90.62
373.158	95.62
373.384	93.62
373.61	89.62
373.835	95.62
374.061	97.62
374.287	82.62
374.513	89.62
374.739	89.62
374.965	91.62
375.191	90.62
375.416	86.62
375.642	88.62
375.868	93.62
376.094	93.62
376.319	88.62
376.545	75.62
376.771	84.62
376.997	100.62
377.222	90.62
377.448	97.62
377.674	75.62
377.899	92.62
378.125	95.62
378.35	80.62
378.576	92.62
378.802	96.62
379.027	103.62
379.253	92.62
379.478	86.62
379.704	92.62
379.929	89.62
380.155	110.62
380.38	97.62
380.606	100.62
380.831	87.62
381.057	85.62
381.282	99.62
381.507	85.62
381.733	86.62
381.958	100.62
382.184	84.62
382.409	96.62
382.634	109.62
382.86	95.62
383.085	112.62
383.31	98.62
383.535	104.62
383.761	105.62
383.986	104.62
384.211	93.62
384.436	79.62
384.662	104.62
384.887	108.62
385.112	113.62
385.337	94.62
385.562	107.62
385.787	104.62
386.013	110.62
386.238	122.62
386.463	102.62
386.688	116.62
386.913	107.62
387.138	116.62
387.363	107.62
387.588	99.62
387.813	96.62
388.038	113.62
388.263	116.62
388.488	105.62
388.713	87.62
388.938	98.62
389.163	111.62
389.387	93.62
389.612	93.62
389.837	92.62
390.062	90.62
390.287	82.62
390.512	100.62
390.736	102.62
390.961	95.62
391.186	93.62
391.411	94.62
391.636	93.62
391.86	74.62
392.085	91.62
392.31	72.62
392.534	88.62
392.759	89.62
392.984	101.62
393.208	96.62
393.433	94.62
393.658	84.62
393.882	80.62
394.107	84.62
394.331	80.62
394.556	88.62
394.78	89.62
395.005	95.62
395.229	96.62
395.454	98.62
395.678	78.62
395.903	86.62
396.127	98.62
396.352	94.62
396.576	87.62
396.801	72.62
397.025	88.62
397.249	103.62
397.474	99.62
397.698	92.62
397.922	74.62
398.147	84.62
398.371	93.62
398.595	95.62
398.82	85.62
399.044	104.62
399.268	98.62
399.492	86.62
399.717	73.62
399.941	82.62
400.165	90.62
400.389	82.62
400.613	91.62
400.837	86.62
401.062	92.62
401.286	90.62
401.51	75.62
401.734	80.62
401.958	82.62
402.182	108.62
402.406	156.62
402.63	126.62
402.854	90.62
403.078	88.62
403.302	74.62
403.526	90.62
403.75	94.62
403.974	87.62
404.198	83.62
404.422	88.62
404.645	74.62
404.869	81.62
405.093	89.62
405.317	108.62
405.541	93.62
405.765	90.62
405.988	107.62
406.212	153.62
406.436	194.62
406.66	140.62
406.883	96.62
407.107	87.62
407.331	80.62
407.555	94.62
407.778	90.62
408.002	96.62
408.226	92.62
408.449	107.62
408.673	86.62
408.896	71.62
409.12	90.62
409.344	95.62
409.567	80.62
409.791	89.62
410.014	83.62
410.238	93.62
410.461	83.62
410.685	103.62
410.908	98.62
411.132	106.62
411.355	95.62
411.578	96.62
411.802	95.62
412.025	83.62
412.249	84.62
412.472	96.62
412.695	88.62
412.919	71.62
413.142	86.62
413.365	79.62
413.589	92.62
413.812	78.62
414.035	92.62
414.258	92.62
414.482	90.62
414.705	99.62
414.928	86.62
415.151	94.62
415.374	102.62
415.597	103.62
415.821	87.62
416.044	91.62
416.267	97.62
416.49	82.62
416.713	95.62
416.936	105.62
417.159	88.62
417.382	78.62
417.605	81.62
417.828	105.62
418.051	95.62
418.274	93.62
418.497	80.62
418.72	82.62
418.943	86.62
419.166	92.62
419.389	98.62
419.611	83.62
419.834	73.62
420.057	98.62
420.28	93.62
420.503	86.62
420.726	89.62
420.948	97.62
421.171	90.62
421.394	82.62
421.617	83.62
421.839	92.62
422.062	105.62
422.285	81.62
422.507	119.62
422.73	101.62
422.953	89.62
423.175	78.62
423.398	95.62
423.621	76.62
423.843	95.62
424.066	94.62
424.288	82.62
424.511	82.62
424.733	98.62
424.956	93.62
425.178	102.62
425.401	91.62
425.623	86.62
425.846	81.62
426.068	93.62
426.291	92.62
426.513	86.62
426.735	87.62
426.958	98.62
427.18	106.62
427.402	119.62
427.625	148.62
427.847	110.62
428.069	102.62
428.292	95.62
428.514	96.62
428.736	103.62
428.958	89.62
429.181	87.62
429.403	88.62
429.625	81.62
429.847	84.62
430.069	91.62
430.292	93.62
430.514	73.62
430.736	83.62
430.958	81.62
431.18	73.62
431.402	80.62
431.624	79.62
431.846	74.62
432.068	76.62
432.29	89.62
432.512	86.62
432.734	86.62
432.956	98.62
433.178	95.62
433.4	98.62
433.622	81.62
433.844	84.62
434.066	81.62
434.287	86.62
434.509	90.62
434.731	81.62
434.953	83.62
435.175	92.62
435.397	91.62
435.618	107.62
435.84	118.62
436.062	118.62
436.284	97.62
436.505	99.62
436.727	106.62
436.949	92.62
437.17	95.62
437.392	90.62
437.614	92.62
437.835	93.62
438.057	104.62
438.278	95.62
438.5	99.62
438.721	126.62
438.943	106.62
439.165	83.62
439.386	97.62
439.608	84.62
439.829	95.62
440.05	115.62
440.272	132.62
440.493	105.62
440.715	91.62
440.936	88.62
441.158	94.62
441.379	80.62
441.6	89.62
441.822	98.62
442.043	80.62
442.264	91.62
442.486	91.62
442.707	82.62
442.928	92.62
443.149	130.62
443.371	138.62
443.592	107.62
443.813	114.62
444.034	95.62
444.255	98.62
444.476	109.62
444.698	87.62
444.919	102.62
445.14	129.62
445.361	112.62
445.582	115.62
445.803	122.62
446.024	126.62
446.245	131.62
446.466	118.62
446.687	93.62
446.908	95.62
447.129	69.62
447.35	79.62
447.571	94.62
447.792	80.62
448.013	110.62
448.234	114.62
448.455	100.62
448.675	123.62
448.896	126.62
449.117	92.62
449.338	100.62
449.559	122.62
449.779	116.62
450	98.62
450.221	90.62
450.442	73.62
450.662	69.62
450.883	99.62
451.104	112.62
451.324	85.62
451.545	87.62
451.766	84.62
451.986	80.62
452.207	81.62
452.428	86.62
452.648	100.62
452.869	103.62
453.089	115.62
453.31	104.62
453.53	96.62
453.751	103.62
453.971	104.62
454.192	120.62
454.412	88.62
454.633	88.62
454.853	84.62
455.073	81.62
455.294	86.62
455.514	83.62
455.734	88.62
455.955	86.62
456.175	79.62
456.395	86.62
456.616	88.62
456.836	101.62
457.056	92.62
457.276	76.62
457.497	86.62
457.717	92.62
457.937	72.62
458.157	82.62
458.377	78.62
458.598	100.62
458.818	137.62
459.038	151.62
459.258	111.62
459.478	91.62
459.698	97.62
459.918	92.62
460.138	88.62
460.358	78.62
460.578	93.62
460.798	84.62
461.018	104.62
461.238	96.62
461.458	86.62
461.678	85.62
461.898	93.62
462.118	92.62
462.338	98.62
462.558	71.62
462.777	82.62
462.997	91.62
463.217	83.62
463.437	82.62
463.657	98.62
463.876	88.62
464.096	85.62
464.316	77.62
464.536	91.62
464.755	88.62
464.975	99.62
465.195	153.62
465.414	139.62
465.634	100.62
465.854	89.62
466.073	80.62
466.293	88.62
466.512	88.62
466.732	87.62
466.951	82.62
467.171	113.62
467.391	105.62
467.61	104.62
467.829	94.62
468.049	89.62
468.268	86.62
468.488	100.62
468.707	84.62
468.927	93.62
469.146	77.62
469.365	97.62
469.585	86.62
469.804	81.62
470.023	90.62
470.243	87.62
470.462	104.62
470.681	94.62
470.901	84.62
471.12	90.62
471.339	96.62
471.558	80.62
471.777	92.62
471.997	92.62
472.216	72.62
472.435	83.62
472.654	89.62
472.873	101.62
473.092	89.62
473.311	94.62
473.53	72.62
473.749	78.62
473.968	104.62
474.187	111.62
474.406	104.62
474.625	88.62
474.844	88.62
475.063	92.62
475.282	82.62
475.501	74.62
475.72	97.62
475.939	81.62
476.158	92.62
476.377	101.62
476.596	101.62
476.814	90.62
477.033	91.62
477.252	90.62
477.471	87.62
477.69	89.62
477.908	82.62
478.127	106.62
478.346	80.62
478.564	106.62
478.783	98.62
479.002	101.62
479.22	103.62
479.439	91.62
479.658	115.62
479.876	88.62
480.095	97.62
480.313	90.62
480.532	91.62
480.751	84.62
480.969	87.62
481.188	91.62
481.406	87.62
481.624	98.62
481.843	86.62
482.061	92.62
482.28	95.62
482.498	80.62
482.717	78.62
482.935	83.62
483.153	77.62
483.372	86.62
483.59	97.62
483.808	86.62
484.027	78.62
484.245	106.62
484.463	89.62
484.681	100.62
484.9	95.62
485.118	101.62
485.336	96.62
485.554	94.62
485.772	90.62
485.99	94.62
486.209	96.62
486.427	106.62
486.645	106.62
486.863	113.62
487.081	105.62
487.299	104.62
487.517	99.62
487.735	88.62
487.953	91.62
488.171	100.62
488.389	99.62
488.607	100.62
488.825	99.62
489.043	92.62
489.261	94.62
489.479	81.62
489.696	95.62
489.914	93.62
490.132	82.62
490.35	92.62
490.568	87.62
490.786	94.62
491.003	91.62
491.221	84.62
491.439	81.62
491.657	84.62
491.874	85.62
492.092	90.62
492.31	89.62
492.527	93.62
492.745	94.62
492.963	76.62
493.18	102.62
493.398	83.62
493.615	96.62
493.833	105.62
494.05	88.62
494.268	95.62
494.485	97.62
494.703	92.62
494.92	92.62
495.138	99.62
495.355	97.62
495.573	86.62
495.79	103.62
496.008	95.62
496.225	92.62
496.442	87.62
496.66	84.62
496.877	88.62
497.094	91.62
497.312	90.62
497.529	82.62
497.746	90.62
497.963	100.62
498.181	81.62
498.398	91.62
498.615	97.62
498.832	110.62
499.049	96.62
499.267	92.62
499.484	87.62
499.701	74.62
499.918	83.62
500.135	80.62
500.352	107.62
500.569	90.62
500.786	102.62
501.003	76.62
501.22	94.62
501.437	70.62
501.654	104.62
501.871	109.62
502.088	103.62
502.305	83.62
502.522	68.62
502.739	89.62
502.956	91.62
503.172	107.62
503.389	106.62
503.606	104.62
503.823	91.62
504.04	96.62
504.256	78.62
504.473	82.62
504.69	72.62
504.907	107.62
505.123	98.62
505.34	102.62
505.557	88.62
505.773	91.62
505.99	111.62
506.207	93.62
506.423	87.62
506.64	81.62
506.856	90.62
507.073	74.62
507.289	97.62
507.506	96.62
507.722	111.62
507.939	110.62
508.155	92.62
508.372	81.62
508.588	107.62
508.805	81.62
509.021	81.62
509.238	89.62
509.454	90.62
509.67	93.62
509.887	112.62
510.103	137.62
510.319	216.62
510.536	757.62
510.752	2396.62
510.968	633.62
511.184	161.62
511.401	102.62
511.617	114.62
511.833	89.62
512.049	89.62
512.265	86.62
512.481	110.62
512.698	97.62
512.914	91.62
513.13	89.62
513.346	82.62
513.562	91.62
513.778	97.62
513.994	96.62
514.21	108.62
514.426	105.62
514.642	127.62
514.858	105.62
515.074	155.62
515.29	428.62
515.506	1398.62
515.721	489.62
515.937	135.62
