Data from Uncirc_1995_H10_HRD10591_00007.txt Node
Date: Wed Jan 03 11:35:35 EST 2024
User: Yrep
Spectrometer: HR+D1059
Trigger mode: 1
Integration Time (sec): 1.000000E-1
Scans to average: 1
Electric dark correction enabled: true
Nonlinearity correction enabled: false
Boxcar width: 0
XAxis mode: Wavelengths
Number of Pixels in Spectrum: 2048
>>>>>Begin Spectral Data<<<<<
223.165	-24
223.4	-24
223.635	-24
223.869	-21
224.104	-28
224.338	-20
224.573	-25
224.808	3
225.042	-10
225.277	3
225.511	-10
225.746	7
225.98	26
226.215	13
226.449	17
226.683	19
226.918	15
227.152	35
227.387	40
227.621	44
227.856	42
228.09	21
228.324	31
228.559	53
228.793	56
229.027	55
229.262	56
229.496	65
229.73	70
229.964	84
230.199	72
230.433	80
230.667	79
230.901	72
231.136	80
231.37	84
231.604	73
231.838	88
232.072	90
232.306	87
232.541	73
232.775	83
233.009	77
233.243	84
233.477	77
233.711	75
233.945	87
234.179	84
234.413	60
234.647	67
234.881	71
235.115	76
235.349	83
235.583	73
235.817	78
236.051	76
236.285	67
236.519	71
236.753	64
236.987	62
237.221	82
237.455	84
237.689	89
237.922	83
238.156	85
238.39	74
238.624	78
238.858	59
239.091	63
239.325	70
239.559	75
239.793	71
240.027	73
240.26	71
240.494	69
240.728	75
240.961	61
241.195	72
241.429	79
241.662	69
241.896	71
242.13	70
242.363	64
242.597	81
242.83	61
243.064	63
243.298	84
243.531	76
243.765	83
243.998	68
244.232	65
244.465	85
244.699	57
244.932	73
245.166	73
245.399	86
245.633	83
245.866	73
246.099	75
246.333	70
246.566	73
246.8	83
247.033	55
247.266	71
247.5	83
247.733	81
247.966	87
248.2	80
248.433	77
248.666	78
248.899	79
249.133	73
249.366	97
249.599	79
249.832	102
250.066	74
250.299	71
250.532	81
250.765	71
250.998	73
251.231	81
251.465	72
251.698	72
251.931	83
252.164	74
252.397	68
252.63	79
252.863	88
253.096	83
253.329	87
253.562	86
253.795	80
254.028	84
254.261	82
254.494	84
254.727	77
254.96	74
255.193	88
255.426	72
255.659	78
255.892	73
256.124	77
256.357	79
256.59	76
256.823	72
257.056	83
257.289	62
257.521	88
257.754	71
257.987	67
258.22	80
258.452	80
258.685	75
258.918	83
259.151	59
259.383	74
259.616	77
259.849	78
260.081	77
260.314	68
260.547	68
260.779	68
261.012	85
261.244	79
261.477	88
261.71	84
261.942	101
262.175	103
262.407	71
262.64	89
262.872	74
263.105	82
263.337	83
263.57	78
263.802	83
264.035	75
264.267	76
264.499	77
264.732	89
264.964	73
265.197	93
265.429	84
265.661	78
265.894	89
266.126	71
266.358	99
266.591	75
266.823	85
267.055	72
267.287	69
267.52	99
267.752	87
267.984	75
268.216	90
268.448	78
268.681	76
268.913	84
269.145	81
269.377	72
269.609	81
269.841	78
270.073	73
270.306	85
270.538	93
270.77	72
271.002	76
271.234	83
271.466	66
271.698	78
271.93	95
272.162	77
272.394	85
272.626	88
272.858	77
273.09	78
273.322	88
273.553	90
273.785	90
274.017	76
274.249	84
274.481	96
274.713	84
274.945	80
275.176	92
275.408	80
275.64	72
275.872	85
276.104	79
276.335	104
276.567	86
276.799	83
277.031	89
277.262	87
277.494	81
277.726	90
277.957	78
278.189	70
278.421	64
278.652	88
278.884	76
279.115	74
279.347	92
279.579	91
279.81	82
280.042	86
280.273	76
280.505	65
280.736	80
280.968	86
281.199	75
281.431	84
281.662	76
281.894	78
282.125	88
282.356	101
282.588	120
282.819	96
283.051	88
283.282	79
283.513	91
283.745	81
283.976	69
284.207	90
284.439	76
284.67	78
284.901	84
285.132	91
285.364	87
285.595	89
285.826	87
286.057	85
286.288	88
286.52	87
286.751	99
286.982	86
287.213	80
287.444	80
287.675	83
287.906	96
288.138	81
288.369	77
288.6	86
288.831	75
289.062	93
289.293	87
289.524	94
289.755	69
289.986	90
290.217	97
290.448	80
290.679	103
290.91	83
291.141	58
291.371	83
291.602	85
291.833	97
292.064	83
292.295	93
292.526	87
292.757	85
292.987	79
293.218	77
293.449	83
293.68	78
293.91	99
294.141	97
294.372	97
294.603	82
294.833	76
295.064	90
295.295	72
295.525	90
295.756	82
295.987	100
296.217	110
296.448	119
296.679	89
296.909	87
297.14	91
297.37	86
297.601	75
297.831	76
298.062	72
298.292	87
298.523	87
298.753	95
298.984	103
299.214	84
299.445	77
299.675	80
299.905	95
300.136	87
300.366	88
300.597	94
300.827	74
301.057	80
301.288	93
301.518	88
301.748	80
301.979	94
302.209	78
302.439	91
302.669	97
302.9	87
303.13	91
303.36	95
303.59	89
303.82	89
304.051	101
304.281	100
304.511	96
304.741	88
304.971	79
305.201	74
305.431	86
305.661	99
305.891	105
306.121	102
306.352	100
306.582	96
306.812	90
307.042	93
307.272	81
307.502	105
307.731	94
307.961	78
308.191	90
308.421	91
308.651	82
308.881	77
309.111	97
309.341	91
309.571	80
309.8	90
310.03	84
310.26	87
310.49	94
310.72	77
310.949	103
311.179	96
311.409	82
311.639	93
311.868	85
312.098	96
312.328	85
312.557	85
312.787	88
313.017	103
313.246	98
313.476	90
313.706	88
313.935	87
314.165	86
314.394	90
314.624	88
314.853	87
315.083	90
315.312	97
315.542	93
315.771	81
316.001	78
316.23	85
316.46	88
316.689	97
316.919	97
317.148	96
317.377	84
317.607	82
317.836	87
318.065	79
318.295	90
318.524	90
318.753	94
318.983	85
319.212	92
319.441	109
319.67	83
319.9	98
320.129	80
320.358	82
320.587	86
320.816	104
321.046	101
321.275	95
321.504	94
321.733	78
321.962	98
322.191	110
322.42	102
322.649	95
322.878	104
323.108	113
323.337	117
323.566	116
323.795	134
324.024	179
324.253	328
324.482	687
324.71	1336
324.939	1763
325.168	663
325.397	225
325.626	145
325.855	107
326.084	101
326.313	122
326.542	138
326.77	190
326.999	372
327.228	783
327.457	1408
327.686	1127
327.914	318
328.143	160
328.372	123
328.6	110
328.829	106
329.058	93
329.287	106
329.515	92
329.744	86
329.972	88
330.201	97
330.43	91
330.658	107
330.887	132
331.115	102
331.344	84
331.572	88
331.801	96
332.03	97
332.258	101
332.486	87
332.715	87
332.943	100
333.172	111
333.4	92
333.629	94
333.857	106
334.085	88
334.314	87
334.542	82
334.771	100
334.999	88
335.227	101
335.455	89
335.684	84
335.912	97
336.14	104
336.369	94
336.597	105
336.825	107
337.053	80
337.281	88
337.51	80
337.738	106
337.966	81
338.194	109
338.422	96
338.65	84
338.878	85
339.106	85
339.334	91
339.562	85
339.79	95
340.018	76
340.246	89
340.474	89
340.702	85
340.93	81
341.158	90
341.386	96
341.614	75
341.842	78
342.07	88
342.298	91
342.526	86
342.754	72
342.981	85
343.209	69
343.437	96
343.665	93
343.893	89
344.12	86
344.348	89
344.576	90
344.804	91
345.031	70
345.259	104
345.487	81
345.714	82
345.942	92
346.17	94
346.397	93
346.625	80
346.853	91
347.08	86
347.308	100
347.535	95
347.763	108
347.99	87
348.218	98
348.445	95
348.673	93
348.9	102
349.128	90
349.355	102
349.583	88
349.81	92
350.037	97
350.265	92
350.492	105
350.72	94
350.947	85
351.174	90
351.402	104
351.629	97
351.856	101
352.083	95
352.311	94
352.538	96
352.765	91
352.992	106
353.22	109
353.447	97
353.674	106
353.901	94
354.128	109
354.355	87
354.583	107
354.81	106
355.037	104
355.264	93
355.491	101
355.718	97
355.945	83
356.172	94
356.399	101
356.626	89
356.853	91
357.08	81
357.307	96
357.534	97
357.761	110
357.988	100
358.215	97
358.441	99
358.668	81
358.895	77
359.122	84
359.349	78
359.576	95
359.802	91
360.029	107
360.256	105
360.483	91
360.709	85
360.936	78
361.163	71
361.39	80
361.616	90
361.843	102
362.07	90
362.296	94
362.523	91
362.749	79
362.976	80
363.203	94
363.429	72
363.656	87
363.882	73
364.109	95
364.335	81
364.562	96
364.788	103
365.015	87
365.241	89
365.468	86
365.694	94
365.92	95
366.147	79
366.373	79
366.599	82
366.826	91
367.052	78
367.278	76
367.505	94
367.731	89
367.957	80
368.184	97
368.41	103
368.636	107
368.862	105
369.089	86
369.315	88
369.541	83
369.767	86
369.993	77
370.219	91
370.445	79
370.672	79
370.898	85
371.124	82
371.35	74
371.576	95
371.802	90
372.028	90
372.254	90
372.48	83
372.706	82
372.932	83
373.158	77
373.384	106
373.61	83
373.835	92
374.061	91
374.287	100
374.513	77
374.739	89
374.965	79
375.191	96
375.416	89
375.642	89
375.868	89
376.094	80
376.319	84
376.545	94
376.771	76
376.997	93
377.222	86
377.448	85
377.674	83
377.899	90
378.125	90
378.35	95
378.576	89
378.802	89
379.027	76
379.253	79
379.478	72
379.704	100
379.929	95
380.155	101
380.38	104
380.606	100
380.831	91
381.057	110
381.282	102
381.507	93
381.733	103
381.958	91
382.184	95
382.409	112
382.634	96
382.86	91
383.085	109
383.31	104
383.535	101
383.761	108
383.986	97
384.211	104
384.436	92
384.662	111
384.887	101
385.112	123
385.337	122
385.562	104
385.787	113
386.013	119
386.238	118
386.463	92
386.688	105
386.913	113
387.138	113
387.363	109
387.588	107
387.813	113
388.038	126
388.263	116
388.488	117
388.713	101
388.938	86
389.163	93
389.387	102
389.612	102
389.837	99
390.062	92
390.287	97
390.512	91
390.736	100
390.961	83
391.186	107
391.411	86
391.636	92
391.86	79
392.085	83
392.31	68
392.534	94
392.759	93
392.984	80
393.208	83
393.433	82
393.658	100
393.882	86
394.107	93
394.331	89
394.556	83
394.78	80
395.005	75
395.229	100
395.454	100
395.678	94
395.903	88
396.127	93
396.352	92
396.576	78
396.801	76
397.025	72
397.249	72
397.474	96
397.698	82
397.922	96
398.147	95
398.371	83
398.595	92
398.82	76
399.044	67
399.268	82
399.492	71
399.717	104
399.941	98
400.165	87
400.389	76
400.613	67
400.837	83
401.062	80
401.286	77
401.51	78
401.734	95
401.958	86
402.182	117
402.406	135
402.63	103
402.854	93
403.078	90
403.302	74
403.526	87
403.75	92
403.974	94
404.198	93
404.422	87
404.645	90
404.869	92
405.093	95
405.317	90
405.541	86
405.765	94
405.988	105
406.212	133
406.436	176
406.66	106
406.883	109
407.107	83
407.331	95
407.555	95
407.778	81
408.002	89
408.226	77
408.449	92
408.673	81
408.896	103
409.12	90
409.344	78
409.567	99
409.791	100
410.014	97
410.238	92
410.461	85
410.685	95
410.908	84
411.132	114
411.355	101
411.578	93
411.802	80
412.025	76
412.249	85
412.472	97
412.695	91
412.919	88
413.142	98
413.365	85
413.589	99
413.812	83
414.035	84
414.258	88
414.482	78
414.705	72
414.928	91
415.151	91
415.374	92
415.597	103
415.821	104
416.044	94
416.267	84
416.49	97
416.713	84
416.936	90
417.159	100
417.382	84
417.605	87
417.828	106
418.051	96
418.274	90
418.497	82
418.72	74
418.943	84
419.166	99
419.389	87
419.611	95
419.834	92
420.057	89
420.28	87
420.503	86
420.726	91
420.948	88
421.171	77
421.394	93
421.617	93
421.839	103
422.062	85
422.285	88
422.507	103
422.73	107
422.953	97
423.175	89
423.398	98
423.621	77
423.843	99
424.066	81
424.288	92
424.511	88
424.733	89
424.956	93
425.178	96
425.401	91
425.623	92
425.846	104
426.068	92
426.291	94
426.513	77
426.735	82
426.958	94
427.18	93
427.402	123
427.625	134
427.847	92
428.069	90
428.292	87
428.514	73
428.736	80
428.958	73
429.181	83
429.403	81
429.625	84
429.847	97
430.069	95
430.292	79
430.514	74
430.736	87
430.958	86
431.18	91
431.402	94
431.624	86
431.846	76
432.068	80
432.29	86
432.512	80
432.734	91
432.956	88
433.178	97
433.4	95
433.622	85
433.844	88
434.066	87
434.287	100
434.509	85
434.731	88
434.953	100
435.175	86
435.397	83
435.618	94
435.84	91
436.062	103
436.284	103
436.505	97
436.727	109
436.949	89
437.17	89
437.392	90
437.614	101
437.835	96
438.057	105
438.278	95
438.5	85
438.721	104
438.943	93
439.165	91
439.386	84
439.608	100
439.829	100
440.05	114
440.272	121
440.493	111
440.715	80
440.936	75
441.158	88
441.379	81
441.6	87
441.822	79
442.043	101
442.264	96
442.486	88
442.707	104
442.928	91
443.149	103
443.371	109
443.592	96
443.813	91
444.034	96
444.255	85
444.476	86
444.698	78
444.919	86
445.14	137
445.361	118
445.582	87
445.803	91
446.024	111
446.245	110
446.466	91
446.687	84
446.908	89
447.129	90
447.35	86
447.571	86
447.792	91
448.013	86
448.234	95
448.455	97
448.675	111
448.896	97
449.117	87
449.338	100
449.559	117
449.779	95
450	105
450.221	72
450.442	79
450.662	86
450.883	96
451.104	109
451.324	100
451.545	80
451.766	77
451.986	76
452.207	93
452.428	96
452.648	87
452.869	105
453.089	108
453.31	107
453.53	94
453.751	93
453.971	103
454.192	108
454.412	86
454.633	92
454.853	94
455.073	78
455.294	89
455.514	88
455.734	85
455.955	87
456.175	93
456.395	82
456.616	76
456.836	73
457.056	85
457.276	74
457.497	82
457.717	84
457.937	86
458.157	78
458.377	90
458.598	107
458.818	127
459.038	130
459.258	97
459.478	69
459.698	95
459.918	87
460.138	91
460.358	79
460.578	76
460.798	82
461.018	85
461.238	90
461.458	72
461.678	86
461.898	84
462.118	79
462.338	75
462.558	85
462.777	89
462.997	92
463.217	91
463.437	92
463.657	79
463.876	87
464.096	100
464.316	83
464.536	93
464.755	76
464.975	91
465.195	134
465.414	103
465.634	76
465.854	77
466.073	100
466.293	83
466.512	91
466.732	60
466.951	79
467.171	83
467.391	86
467.61	90
467.829	100
468.049	92
468.268	84
468.488	91
468.707	81
468.927	83
469.146	96
469.365	94
469.585	79
469.804	115
470.023	92
470.243	93
470.462	92
470.681	100
470.901	100
471.12	86
471.339	98
471.558	80
471.777	84
471.997	83
472.216	88
472.435	96
472.654	85
472.873	91
473.092	88
473.311	87
473.53	78
473.749	84
473.968	90
474.187	89
474.406	88
474.625	89
474.844	89
475.063	71
475.282	84
475.501	80
475.72	99
475.939	89
476.158	76
476.377	91
476.596	81
476.814	80
477.033	83
477.252	82
477.471	89
477.69	96
477.908	85
478.127	77
478.346	90
478.564	79
478.783	89
479.002	85
479.22	73
479.439	88
479.658	87
479.876	94
480.095	75
480.313	79
480.532	100
480.751	78
480.969	88
481.188	105
481.406	93
481.624	86
481.843	95
482.061	92
482.28	86
482.498	73
482.717	91
482.935	81
483.153	87
483.372	94
483.59	81
483.808	80
484.027	89
484.245	87
484.463	96
484.681	92
484.9	100
485.118	109
485.336	100
485.554	103
485.772	87
485.99	101
486.209	91
486.427	97
486.645	112
486.863	104
487.081	108
487.299	94
487.517	94
487.735	94
487.953	79
488.171	85
488.389	79
488.607	84
488.825	101
489.043	95
489.261	87
489.479	75
489.696	86
489.914	79
490.132	76
490.35	85
490.568	84
490.786	83
491.003	81
491.221	82
491.439	85
491.657	84
491.874	83
492.092	78
492.31	100
492.527	87
492.745	78
492.963	96
493.18	96
493.398	82
493.615	97
493.833	99
494.05	91
494.268	79
494.485	87
494.703	92
494.92	87
495.138	93
495.355	101
495.573	87
495.79	86
496.008	103
496.225	93
496.442	96
496.66	94
496.877	91
497.094	92
497.312	89
497.529	97
497.746	93
497.963	70
498.181	92
498.398	96
498.615	109
498.832	97
499.049	95
499.267	79
499.484	87
499.701	99
499.918	84
500.135	86
500.352	94
500.569	82
500.786	85
501.003	84
501.22	101
501.437	95
501.654	91
501.871	99
502.088	100
502.305	92
502.522	89
502.739	95
502.956	84
503.172	91
503.389	76
503.606	95
503.823	97
504.04	98
504.256	83
504.473	81
504.69	90
504.907	99
505.123	77
505.34	69
505.557	101
505.773	91
505.99	94
506.207	92
506.423	97
506.64	80
506.856	96
507.073	80
507.289	94
507.506	99
507.722	93
507.939	97
508.155	110
508.372	84
508.588	90
508.805	95
509.021	107
509.238	83
509.454	98
509.67	103
509.887	119
510.103	124
510.319	185
510.536	599
510.752	1831
510.968	523
511.184	126
511.401	98
511.617	81
511.833	99
512.049	79
512.265	75
512.481	85
512.698	87
512.914	88
513.13	97
513.346	94
513.562	96
513.778	102
513.994	105
514.21	91
514.426	109
514.642	117
514.858	112
515.074	163
515.29	350
515.506	1053
515.721	407
515.937	127
516.153	96
516.369	95
516.585	99
516.801	83
517.016	93
517.232	100
517.448	101
517.664	101
517.879	97
518.095	73
518.311	95
518.527	75
518.742	84
518.958	96
519.173	95
519.389	90
519.605	102
519.82	93
520.036	94
520.251	105
520.467	101
520.682	99
520.898	99
521.113	90
521.329	120
521.544	171
521.76	421
521.975	1695
522.19	1017
522.406	237
522.621	125
522.836	107
523.052	93
523.267	102
523.482	99
523.698	89
523.913	114
524.128	102
524.343	75
524.559	94
524.774	86
524.989	81
525.204	98
525.419	107
525.634	82
525.849	87
526.064	90
526.28	80
526.495	88
526.71	101
526.925	91
527.14	84
527.355	102
527.57	89
527.785	95
527.999	84
528.214	79
528.429	102
528.644	86
528.859	85
529.074	108
529.289	111
529.503	140
529.718	106
529.933	103
530.148	79
530.363	84
530.577	98
530.792	83
531.007	97
531.221	90
531.436	102
531.651	86
531.865	87
532.08	84
532.295	96
532.509	95
532.724	92
532.938	96
533.153	81
533.367	96
533.582	97
533.796	91
534.011	87
534.225	86
534.44	78
534.654	101
534.868	87
535.083	104
535.297	92
535.511	90
535.726	95
535.94	97
536.154	84
536.369	78
536.583	80
536.797	100
537.011	88
537.225	84
537.44	97
537.654	88
537.868	96
538.082	84
538.296	79
538.51	95
538.724	93
538.938	84
539.153	93
539.367	85
539.581	87
539.795	85
540.009	83
540.222	90
540.436	75
540.65	78
540.864	91
541.078	88
541.292	91
541.506	88
541.72	84
541.934	86
542.147	98
542.361	76
542.575	80
542.789	84
543.002	89
543.216	83
543.43	94
543.644	89
543.857	101
544.071	96
544.285	96
544.498	91
544.712	92
544.925	100
545.139	89
545.352	100
545.566	94
545.779	90
545.993	93
546.206	89
546.42	84
546.633	97
546.847	96
547.06	90
547.274	94
547.487	90
547.7	95
547.914	94
548.127	99
548.34	87
548.554	83
548.767	81
548.98	84
549.193	74
549.407	86
549.62	75
549.833	87
550.046	75
550.259	84
550.473	91
550.686	93
550.899	87
551.112	90
551.325	87
551.538	80
551.751	93
551.964	84
552.177	92
552.39	96
552.603	84
552.816	92
553.029	85
553.242	92
553.455	86
553.667	85
553.88	86
554.093	111
554.306	94
554.519	87
554.732	85
554.944	90
555.157	78
555.37	87
555.583	81
555.795	86
556.008	79
556.221	90
556.433	88
556.646	103
556.859	94
557.071	88
557.284	103
557.496	78
557.709	81
557.921	90
558.134	95
558.346	83
558.559	101
558.771	87
558.984	87
559.196	93
559.409	92
559.621	87
559.833	78
560.046	93
560.258	80
560.47	90
560.683	103
560.895	79
561.107	83
561.32	91
561.532	101
561.744	75
561.956	92
562.168	93
562.381	88
562.593	88
562.805	80
563.017	80
563.229	95
563.441	83
563.653	88
563.865	100
564.077	95
564.289	88
564.501	84
564.713	84
564.925	97
565.137	91
565.349	96
565.561	83
565.773	78
565.985	92
566.197	88
566.408	83
566.62	73
566.832	85
567.044	85
567.255	76
567.467	84
567.679	88
567.891	85
568.102	97
568.314	86
568.526	82
568.737	85
568.949	86
569.161	85
569.372	95
569.584	86
569.795	86
570.007	112
570.218	208
570.43	115
570.641	84
570.853	84
571.064	89
571.276	87
571.487	92
571.698	71
571.91	83
572.121	92
572.333	82
572.544	88
572.755	84
572.966	91
573.178	65
573.389	85
573.6	96
573.811	91
574.023	85
574.234	88
574.445	94
574.656	80
574.867	79
575.078	84
575.289	83
575.501	80
575.712	75
575.923	87
576.134	81
576.345	96
576.556	89
576.767	89
576.978	95
577.188	88
577.399	91
577.61	95
577.821	95
578.032	107
578.243	239
578.454	644
578.665	187
578.875	103
579.086	83
579.297	78
579.508	86
579.718	96
579.929	99
580.14	83
580.35	82
580.561	86
580.772	74
580.982	94
581.193	78
581.403	93
581.614	85
581.825	80
582.035	79
582.246	86
582.456	84
582.667	79
582.877	78
583.087	93
583.298	72
583.508	71
583.719	69
583.929	91
584.139	88
584.35	77
584.56	80
584.77	85
584.981	95
585.191	89
585.401	97
585.611	85
585.821	79
