Data from Uncirc_1995_H10_HRD10591_00066.txt Node
Date: Wed Jan 03 11:35:47 EST 2024
User: Yrep
Spectrometer: HR+D1059
Trigger mode: 1
Integration Time (sec): 1.000000E-1
Scans to average: 1
Electric dark correction enabled: true
Nonlinearity correction enabled: false
Boxcar width: 0
XAxis mode: Wavelengths
Number of Pixels in Spectrum: 2048
>>>>>Begin Spectral Data<<<<<
223.165	-8.62
223.4	-8.62
223.635	-8.62
223.869	-17.62
224.104	-17.62
224.338	0.38
224.573	-25.62
224.808	-6.62
225.042	-10.62
225.277	5.38
225.511	-4.62
225.746	4.38
225.98	-9.62
226.215	6.38
226.449	10.38
226.683	17.38
226.918	16.38
227.152	40.38
227.387	24.38
227.621	35.38
227.856	41.38
228.09	33.38
228.324	46.38
228.559	51.38
228.793	54.38
229.027	72.38
229.262	85.38
229.496	65.38
229.73	83.38
229.964	79.38
230.199	83.38
230.433	83.38
230.667	82.38
230.901	86.38
231.136	80.38
231.37	73.38
231.604	76.38
231.838	73.38
232.072	86.38
232.306	89.38
232.541	69.38
232.775	76.38
233.009	72.38
233.243	74.38
233.477	70.38
233.711	84.38
233.945	75.38
234.179	72.38
234.413	76.38
234.647	77.38
234.881	78.38
235.115	81.38
235.349	74.38
235.583	78.38
235.817	93.38
236.051	76.38
236.285	78.38
236.519	78.38
236.753	72.38
236.987	76.38
237.221	74.38
237.455	69.38
237.689	56.38
237.922	74.38
238.156	65.38
238.39	89.38
238.624	92.38
238.858	85.38
239.091	66.38
239.325	87.38
239.559	77.38
239.793	79.38
240.027	86.38
240.26	74.38
240.494	77.38
240.728	78.38
240.961	81.38
241.195	71.38
241.429	70.38
241.662	80.38
241.896	73.38
242.13	75.38
242.363	75.38
242.597	76.38
242.83	67.38
243.064	85.38
243.298	76.38
243.531	87.38
243.765	65.38
243.998	71.38
244.232	83.38
244.465	82.38
244.699	70.38
244.932	70.38
245.166	68.38
245.399	71.38
245.633	72.38
245.866	89.38
246.099	78.38
246.333	87.38
246.566	81.38
246.8	67.38
247.033	76.38
247.266	76.38
247.5	77.38
247.733	85.38
247.966	77.38
248.2	82.38
248.433	87.38
248.666	63.38
248.899	78.38
249.133	84.38
249.366	101.38
249.599	93.38
249.832	90.38
250.066	70.38
250.299	82.38
250.532	78.38
250.765	68.38
250.998	65.38
251.231	84.38
251.465	80.38
251.698	69.38
251.931	78.38
252.164	81.38
252.397	71.38
252.63	74.38
252.863	70.38
253.096	83.38
253.329	78.38
253.562	91.38
253.795	84.38
254.028	77.38
254.261	92.38
254.494	70.38
254.727	80.38
254.96	84.38
255.193	84.38
255.426	70.38
255.659	76.38
255.892	91.38
256.124	72.38
256.357	77.38
256.59	66.38
256.823	72.38
257.056	77.38
257.289	75.38
257.521	80.38
257.754	82.38
257.987	80.38
258.22	85.38
258.452	84.38
258.685	80.38
258.918	76.38
259.151	91.38
259.383	76.38
259.616	91.38
259.849	86.38
260.081	76.38
260.314	73.38
260.547	79.38
260.779	78.38
261.012	80.38
261.244	97.38
261.477	101.38
261.71	94.38
261.942	98.38
262.175	107.38
262.407	84.38
262.64	88.38
262.872	87.38
263.105	96.38
263.337	88.38
263.57	87.38
263.802	81.38
264.035	78.38
264.267	89.38
264.499	89.38
264.732	88.38
264.964	71.38
265.197	69.38
265.429	79.38
265.661	97.38
265.894	86.38
266.126	81.38
266.358	95.38
266.591	73.38
266.823	95.38
267.055	84.38
267.287	69.38
267.52	76.38
267.752	92.38
267.984	74.38
268.216	80.38
268.448	82.38
268.681	82.38
268.913	87.38
269.145	90.38
269.377	86.38
269.609	79.38
269.841	80.38
270.073	96.38
270.306	79.38
270.538	82.38
270.77	76.38
271.002	84.38
271.234	84.38
271.466	89.38
271.698	88.38
271.93	98.38
272.162	63.38
272.394	80.38
272.626	85.38
272.858	95.38
273.09	77.38
273.322	93.38
273.553	80.38
273.785	93.38
274.017	94.38
274.249	103.38
274.481	91.38
274.713	96.38
274.945	86.38
275.176	86.38
275.408	90.38
275.64	77.38
275.872	89.38
276.104	90.38
276.335	76.38
276.567	82.38
276.799	110.38
277.031	100.38
277.262	78.38
277.494	86.38
277.726	81.38
277.957	70.38
278.189	76.38
278.421	86.38
278.652	89.38
278.884	84.38
279.115	94.38
279.347	74.38
279.579	82.38
279.81	80.38
280.042	86.38
280.273	79.38
280.505	85.38
280.736	81.38
280.968	88.38
281.199	88.38
281.431	89.38
281.662	93.38
281.894	100.38
282.125	97.38
282.356	119.38
282.588	125.38
282.819	113.38
283.051	90.38
283.282	71.38
283.513	77.38
283.745	84.38
283.976	91.38
284.207	89.38
284.439	80.38
284.67	78.38
284.901	92.38
285.132	88.38
285.364	88.38
285.595	91.38
285.826	87.38
286.057	97.38
286.288	90.38
286.52	79.38
286.751	85.38
286.982	97.38
287.213	88.38
287.444	88.38
287.675	90.38
287.906	99.38
288.138	93.38
288.369	89.38
288.6	97.38
288.831	74.38
289.062	92.38
289.293	74.38
289.524	94.38
289.755	85.38
289.986	93.38
290.217	85.38
290.448	81.38
290.679	87.38
290.91	85.38
291.141	95.38
291.371	90.38
291.602	86.38
291.833	89.38
292.064	80.38
292.295	102.38
292.526	91.38
292.757	77.38
292.987	95.38
293.218	80.38
293.449	81.38
293.68	94.38
293.91	85.38
294.141	86.38
294.372	91.38
294.603	84.38
294.833	83.38
295.064	94.38
295.295	87.38
295.525	92.38
295.756	96.38
295.987	109.38
296.217	131.38
296.448	120.38
296.679	97.38
296.909	97.38
297.14	87.38
297.37	78.38
297.601	85.38
297.831	88.38
298.062	87.38
298.292	77.38
298.523	96.38
298.753	82.38
298.984	78.38
299.214	80.38
299.445	84.38
299.675	83.38
299.905	92.38
300.136	94.38
300.366	91.38
300.597	92.38
300.827	76.38
301.057	85.38
301.288	101.38
301.518	97.38
301.748	90.38
301.979	94.38
302.209	86.38
302.439	88.38
302.669	94.38
302.9	85.38
303.13	81.38
303.36	88.38
303.59	86.38
303.82	89.38
304.051	79.38
304.281	96.38
304.511	86.38
304.741	80.38
304.971	104.38
305.201	85.38
305.431	79.38
305.661	73.38
305.891	80.38
306.121	92.38
306.352	105.38
306.582	97.38
306.812	96.38
307.042	97.38
307.272	109.38
307.502	104.38
307.731	98.38
307.961	85.38
308.191	109.38
308.421	73.38
308.651	90.38
308.881	101.38
309.111	88.38
309.341	86.38
309.571	83.38
309.8	93.38
310.03	91.38
310.26	99.38
310.49	85.38
310.72	105.38
310.949	105.38
311.179	81.38
311.409	72.38
311.639	87.38
311.868	99.38
312.098	93.38
312.328	85.38
312.557	90.38
312.787	97.38
313.017	107.38
313.246	102.38
313.476	82.38
313.706	94.38
313.935	94.38
314.165	96.38
314.394	98.38
314.624	100.38
314.853	111.38
315.083	84.38
315.312	85.38
315.542	102.38
315.771	94.38
316.001	83.38
316.23	84.38
316.46	90.38
316.689	90.38
316.919	93.38
317.148	84.38
317.377	94.38
317.607	95.38
317.836	83.38
318.065	87.38
318.295	87.38
318.524	101.38
318.753	97.38
318.983	95.38
319.212	82.38
319.441	110.38
319.67	115.38
319.9	98.38
320.129	93.38
320.358	95.38
320.587	97.38
320.816	113.38
321.046	105.38
321.275	109.38
321.504	77.38
321.733	88.38
321.962	100.38
322.191	91.38
322.42	112.38
322.649	125.38
322.878	102.38
323.108	111.38
323.337	110.38
323.566	139.38
323.795	150.38
324.024	227.38
324.253	416.38
324.482	920.38
324.71	1909.38
324.939	2508.38
325.168	900.38
325.397	269.38
325.626	155.38
325.855	132.38
326.084	135.38
326.313	132.38
326.542	168.38
326.77	247.38
326.999	501.38
327.228	1076.38
327.457	1984.38
327.686	1498.38
327.914	393.38
328.143	211.38
328.372	140.38
328.6	108.38
328.829	114.38
329.058	121.38
329.287	126.38
329.515	115.38
329.744	98.38
329.972	111.38
330.201	102.38
330.43	105.38
330.658	113.38
330.887	118.38
331.115	113.38
331.344	105.38
331.572	96.38
331.801	105.38
332.03	106.38
332.258	98.38
332.486	85.38
332.715	92.38
332.943	92.38
333.172	92.38
333.4	87.38
333.629	97.38
333.857	113.38
334.085	101.38
334.314	95.38
334.542	96.38
334.771	86.38
334.999	99.38
335.227	88.38
335.455	97.38
335.684	92.38
335.912	88.38
336.14	105.38
336.369	97.38
336.597	96.38
336.825	100.38
337.053	94.38
337.281	96.38
337.51	77.38
337.738	97.38
337.966	77.38
338.194	82.38
338.422	76.38
338.65	81.38
338.878	96.38
339.106	101.38
339.334	91.38
339.562	89.38
339.79	96.38
340.018	82.38
340.246	85.38
340.474	95.38
340.702	96.38
340.93	83.38
341.158	78.38
341.386	82.38
341.614	80.38
341.842	91.38
342.07	91.38
342.298	110.38
342.526	89.38
342.754	96.38
342.981	86.38
343.209	79.38
343.437	105.38
343.665	97.38
343.893	97.38
344.12	100.38
344.348	95.38
344.576	85.38
344.804	88.38
345.031	101.38
345.259	100.38
345.487	88.38
345.714	85.38
345.942	97.38
346.17	79.38
346.397	77.38
346.625	86.38
346.853	88.38
347.08	83.38
347.308	93.38
347.535	96.38
347.763	92.38
347.99	88.38
348.218	91.38
348.445	106.38
348.673	97.38
348.9	84.38
349.128	96.38
349.355	80.38
349.583	106.38
349.81	99.38
350.037	94.38
350.265	104.38
350.492	100.38
350.72	92.38
350.947	97.38
351.174	97.38
351.402	108.38
351.629	112.38
351.856	97.38
352.083	101.38
352.311	102.38
352.538	102.38
352.765	103.38
352.992	119.38
353.22	95.38
353.447	101.38
353.674	104.38
353.901	103.38
354.128	93.38
354.355	97.38
354.583	98.38
354.81	99.38
355.037	88.38
355.264	89.38
355.491	96.38
355.718	105.38
355.945	92.38
356.172	86.38
356.399	93.38
356.626	93.38
356.853	88.38
357.08	98.38
357.307	92.38
357.534	93.38
357.761	82.38
357.988	93.38
358.215	96.38
358.441	87.38
358.668	89.38
358.895	84.38
359.122	94.38
359.349	89.38
359.576	78.38
359.802	102.38
360.029	107.38
360.256	100.38
360.483	72.38
360.709	73.38
360.936	87.38
361.163	92.38
361.39	92.38
361.616	99.38
361.843	89.38
362.07	96.38
362.296	95.38
362.523	92.38
362.749	76.38
362.976	79.38
363.203	97.38
363.429	90.38
363.656	76.38
363.882	79.38
364.109	98.38
364.335	86.38
364.562	83.38
364.788	84.38
365.015	96.38
365.241	86.38
365.468	94.38
365.694	110.38
365.92	94.38
366.147	92.38
366.373	81.38
366.599	96.38
366.826	93.38
367.052	83.38
367.278	90.38
367.505	82.38
367.731	86.38
367.957	101.38
368.184	93.38
368.41	106.38
368.636	110.38
368.862	115.38
369.089	104.38
369.315	92.38
369.541	92.38
369.767	88.38
369.993	98.38
370.219	92.38
370.445	88.38
370.672	87.38
370.898	101.38
371.124	78.38
371.35	83.38
371.576	88.38
371.802	79.38
372.028	92.38
372.254	95.38
372.48	84.38
372.706	81.38
372.932	93.38
373.158	81.38
373.384	73.38
373.61	87.38
373.835	81.38
374.061	80.38
374.287	90.38
374.513	86.38
374.739	81.38
374.965	88.38
375.191	86.38
375.416	88.38
375.642	92.38
375.868	77.38
376.094	85.38
376.319	88.38
376.545	84.38
376.771	100.38
376.997	83.38
377.222	92.38
377.448	85.38
377.674	88.38
377.899	97.38
378.125	96.38
378.35	87.38
378.576	75.38
378.802	82.38
379.027	103.38
379.253	100.38
379.478	101.38
379.704	99.38
379.929	91.38
380.155	98.38
380.38	85.38
380.606	93.38
380.831	94.38
381.057	93.38
381.282	110.38
381.507	89.38
381.733	101.38
381.958	92.38
382.184	86.38
382.409	100.38
382.634	94.38
382.86	94.38
383.085	95.38
383.31	99.38
383.535	105.38
383.761	86.38
383.986	104.38
384.211	84.38
384.436	89.38
384.662	84.38
384.887	105.38
385.112	85.38
385.337	104.38
385.562	106.38
385.787	123.38
386.013	111.38
386.238	113.38
386.463	108.38
386.688	100.38
386.913	109.38
387.138	106.38
387.363	97.38
387.588	102.38
387.813	102.38
388.038	108.38
388.263	95.38
388.488	97.38
388.713	106.38
388.938	84.38
389.163	95.38
389.387	113.38
389.612	92.38
389.837	87.38
390.062	81.38
390.287	89.38
390.512	87.38
390.736	104.38
390.961	78.38
391.186	88.38
391.411	96.38
391.636	96.38
391.86	75.38
392.085	80.38
392.31	95.38
392.534	77.38
392.759	96.38
392.984	92.38
393.208	93.38
393.433	90.38
393.658	84.38
393.882	90.38
394.107	101.38
394.331	89.38
394.556	65.38
394.78	90.38
395.005	78.38
395.229	96.38
395.454	87.38
395.678	93.38
395.903	87.38
396.127	99.38
396.352	100.38
396.576	87.38
396.801	81.38
397.025	94.38
397.249	68.38
397.474	72.38
397.698	82.38
397.922	85.38
398.147	89.38
398.371	83.38
398.595	81.38
398.82	89.38
399.044	88.38
399.268	86.38
399.492	74.38
399.717	94.38
399.941	103.38
400.165	80.38
400.389	72.38
400.613	89.38
400.837	79.38
401.062	92.38
401.286	82.38
401.51	107.38
401.734	93.38
401.958	102.38
402.182	133.38
402.406	140.38
402.63	107.38
402.854	96.38
403.078	79.38
403.302	91.38
403.526	87.38
403.75	105.38
403.974	89.38
404.198	76.38
404.422	87.38
404.645	105.38
404.869	77.38
405.093	94.38
405.317	92.38
405.541	103.38
405.765	100.38
405.988	116.38
406.212	173.38
406.436	218.38
406.66	145.38
406.883	99.38
407.107	82.38
407.331	90.38
407.555	96.38
407.778	99.38
408.002	89.38
408.226	83.38
408.449	92.38
408.673	78.38
408.896	81.38
409.12	91.38
409.344	84.38
409.567	76.38
409.791	95.38
410.014	92.38
410.238	91.38
410.461	83.38
410.685	85.38
410.908	98.38
411.132	97.38
411.355	99.38
411.578	79.38
411.802	77.38
412.025	93.38
412.249	90.38
412.472	82.38
412.695	90.38
412.919	74.38
413.142	103.38
413.365	92.38
413.589	92.38
413.812	71.38
414.035	94.38
414.258	100.38
414.482	93.38
414.705	84.38
414.928	75.38
415.151	86.38
415.374	78.38
415.597	98.38
415.821	88.38
416.044	88.38
416.267	78.38
416.49	78.38
416.713	87.38
416.936	80.38
417.159	90.38
417.382	98.38
417.605	101.38
417.828	97.38
418.051	80.38
418.274	84.38
418.497	91.38
418.72	74.38
418.943	92.38
419.166	81.38
419.389	100.38
419.611	90.38
419.834	77.38
420.057	72.38
420.28	79.38
420.503	83.38
420.726	87.38
420.948	95.38
421.171	104.38
421.394	92.38
421.617	73.38
421.839	90.38
422.062	86.38
422.285	85.38
422.507	101.38
422.73	111.38
422.953	83.38
423.175	96.38
423.398	87.38
423.621	97.38
423.843	82.38
424.066	100.38
424.288	82.38
424.511	78.38
424.733	95.38
424.956	114.38
425.178	101.38
425.401	107.38
425.623	81.38
425.846	97.38
426.068	90.38
426.291	95.38
426.513	88.38
426.735	88.38
426.958	97.38
427.18	101.38
427.402	126.38
427.625	167.38
427.847	117.38
428.069	98.38
428.292	91.38
428.514	90.38
428.736	83.38
428.958	82.38
429.181	89.38
429.403	94.38
429.625	103.38
429.847	84.38
430.069	78.38
430.292	81.38
430.514	91.38
430.736	83.38
430.958	86.38
431.18	72.38
431.402	81.38
431.624	95.38
431.846	86.38
432.068	83.38
432.29	81.38
432.512	90.38
432.734	95.38
432.956	72.38
433.178	108.38
433.4	92.38
433.622	79.38
433.844	86.38
434.066	86.38
434.287	88.38
434.509	84.38
434.731	85.38
434.953	93.38
435.175	78.38
435.397	88.38
435.618	95.38
435.84	94.38
436.062	117.38
436.284	116.38
436.505	106.38
436.727	98.38
436.949	98.38
437.17	92.38
437.392	88.38
437.614	92.38
437.835	84.38
438.057	106.38
438.278	96.38
438.5	113.38
438.721	130.38
438.943	101.38
439.165	95.38
439.386	72.38
439.608	85.38
439.829	90.38
440.05	102.38
440.272	132.38
440.493	90.38
440.715	86.38
440.936	80.38
441.158	74.38
441.379	85.38
441.6	98.38
441.822	96.38
442.043	101.38
442.264	100.38
442.486	91.38
442.707	83.38
442.928	113.38
443.149	125.38
443.371	133.38
443.592	84.38
443.813	102.38
444.034	111.38
444.255	96.38
444.476	87.38
444.698	90.38
444.919	75.38
445.14	116.38
445.361	121.38
445.582	104.38
445.803	139.38
446.024	126.38
446.245	130.38
446.466	105.38
446.687	82.38
446.908	82.38
447.129	81.38
447.35	94.38
447.571	82.38
447.792	93.38
448.013	109.38
448.234	106.38
448.455	105.38
448.675	113.38
448.896	105.38
449.117	104.38
449.338	95.38
449.559	121.38
449.779	121.38
450	109.38
450.221	84.38
450.442	78.38
450.662	88.38
450.883	92.38
451.104	105.38
451.324	92.38
451.545	87.38
451.766	87.38
451.986	84.38
452.207	84.38
452.428	89.38
452.648	97.38
452.869	101.38
453.089	117.38
453.31	106.38
453.53	70.38
453.751	98.38
453.971	106.38
454.192	102.38
454.412	78.38
454.633	81.38
454.853	83.38
455.073	93.38
455.294	94.38
455.514	103.38
455.734	91.38
455.955	95.38
456.175	83.38
456.395	77.38
456.616	86.38
456.836	80.38
457.056	63.38
457.276	76.38
457.497	83.38
457.717	84.38
457.937	99.38
458.157	78.38
458.377	92.38
458.598	100.38
458.818	134.38
459.038	150.38
459.258	108.38
459.478	93.38
459.698	90.38
459.918	90.38
460.138	79.38
460.358	86.38
460.578	77.38
460.798	91.38
461.018	85.38
461.238	93.38
461.458	86.38
461.678	80.38
461.898	90.38
462.118	94.38
462.338	79.38
462.558	74.38
462.777	85.38
462.997	88.38
463.217	88.38
463.437	85.38
463.657	93.38
463.876	88.38
464.096	78.38
464.316	89.38
464.536	104.38
464.755	90.38
464.975	81.38
465.195	162.38
465.414	133.38
465.634	89.38
465.854	96.38
466.073	82.38
466.293	85.38
466.512	69.38
466.732	72.38
466.951	96.38
467.171	78.38
467.391	85.38
467.61	111.38
467.829	81.38
468.049	79.38
468.268	81.38
468.488	84.38
468.707	87.38
468.927	92.38
469.146	90.38
469.365	92.38
469.585	81.38
469.804	99.38
470.023	99.38
470.243	89.38
470.462	89.38
470.681	95.38
470.901	89.38
471.12	83.38
471.339	81.38
471.558	84.38
471.777	73.38
471.997	85.38
472.216	88.38
472.435	80.38
472.654	77.38
472.873	81.38
473.092	84.38
473.311	76.38
473.53	74.38
473.749	70.38
473.968	98.38
474.187	89.38
474.406	77.38
474.625	85.38
474.844	84.38
475.063	98.38
475.282	88.38
475.501	89.38
475.72	90.38
475.939	101.38
476.158	95.38
476.377	68.38
476.596	81.38
476.814	76.38
477.033	78.38
477.252	86.38
477.471	101.38
477.69	81.38
477.908	82.38
478.127	92.38
478.346	97.38
478.564	85.38
478.783	77.38
479.002	94.38
479.22	96.38
479.439	110.38
479.658	95.38
479.876	98.38
480.095	105.38
480.313	87.38
480.532	97.38
480.751	92.38
480.969	97.38
481.188	83.38
481.406	97.38
481.624	84.38
481.843	90.38
482.061	84.38
482.28	68.38
482.498	93.38
482.717	83.38
482.935	80.38
483.153	86.38
483.372	82.38
483.59	90.38
483.808	105.38
484.027	104.38
484.245	102.38
484.463	73.38
484.681	86.38
484.9	87.38
485.118	104.38
485.336	98.38
485.554	88.38
485.772	104.38
485.99	117.38
486.209	110.38
486.427	94.38
486.645	108.38
486.863	96.38
487.081	105.38
487.299	77.38
487.517	91.38
487.735	98.38
487.953	85.38
488.171	97.38
488.389	97.38
488.607	99.38
488.825	93.38
489.043	78.38
489.261	91.38
489.479	86.38
489.696	79.38
489.914	85.38
490.132	88.38
490.35	91.38
490.568	84.38
490.786	103.38
491.003	86.38
491.221	75.38
491.439	89.38
491.657	88.38
491.874	84.38
492.092	88.38
492.31	106.38
492.527	94.38
492.745	88.38
492.963	90.38
493.18	83.38
493.398	94.38
493.615	92.38
493.833	98.38
494.05	90.38
494.268	88.38
494.485	103.38
494.703	95.38
494.92	80.38
495.138	93.38
495.355	86.38
495.573	94.38
495.79	79.38
496.008	81.38
496.225	102.38
496.442	84.38
496.66	94.38
496.877	93.38
497.094	90.38
497.312	81.38
497.529	85.38
497.746	83.38
497.963	93.38
498.181	109.38
498.398	86.38
498.615	121.38
498.832	95.38
499.049	96.38
499.267	86.38
499.484	94.38
499.701	94.38
499.918	85.38
500.135	101.38
500.352	97.38
500.569	99.38
500.786	91.38
501.003	71.38
501.22	92.38
501.437	86.38
501.654	98.38
501.871	108.38
502.088	95.38
502.305	101.38
502.522	106.38
502.739	104.38
502.956	85.38
503.172	78.38
503.389	107.38
503.606	100.38
503.823	92.38
504.04	88.38
504.256	86.38
504.473	74.38
504.69	85.38
504.907	83.38
505.123	73.38
505.34	85.38
505.557	86.38
505.773	96.38
505.99	85.38
506.207	84.38
506.423	85.38
506.64	81.38
506.856	88.38
507.073	94.38
507.289	101.38
507.506	103.38
507.722	109.38
507.939	105.38
508.155	96.38
508.372	100.38
508.588	95.38
508.805	91.38
509.021	101.38
509.238	98.38
509.454	89.38
509.67	102.38
509.887	113.38
510.103	145.38
510.319	229.38
510.536	813.38
510.752	2665.38
510.968	679.38
511.184	163.38
511.401	102.38
511.617	97.38
511.833	85.38
512.049	85.38
512.265	90.38
512.481	92.38
512.698	96.38
512.914	86.38
513.13	75.38
513.346	88.38
513.562	94.38
513.778	94.38
513.994	80.38
514.21	92.38
514.426	112.38
514.642	135.38
514.858	132.38
515.074	151.38
515.29	457.38
515.506	1503.38
515.721	555.38
515.937	149.38
516.153	109.38
516.369	97.38
