Data from Uncirc_1995_H10_HRD10591_00046.txt Node
Date: Wed Jan 03 11:35:43 EST 2024
User: Yrep
Spectrometer: HR+D1059
Trigger mode: 1
Integration Time (sec): 1.000000E-1
Scans to average: 1
Electric dark correction enabled: true
Nonlinearity correction enabled: false
Boxcar width: 0
XAxis mode: Wavelengths
Number of Pixels in Spectrum: 2048
>>>>>Begin Spectral Data<<<<<
223.165	-16.62
223.4	-16.62
223.635	-16.62
223.869	-17.62
224.104	-6.62
224.338	-17.62
224.573	-14.62
224.808	-17.62
225.042	-15.62
225.277	-14.62
225.511	8.38
225.746	-3.62
225.98	6.38
226.215	25.38
226.449	8.38
226.683	16.38
226.918	22.38
227.152	37.38
227.387	46.38
227.621	42.38
227.856	45.38
228.09	45.38
228.324	48.38
228.559	56.38
228.793	65.38
229.027	61.38
229.262	73.38
229.496	58.38
229.73	69.38
229.964	93.38
230.199	71.38
230.433	85.38
230.667	59.38
230.901	70.38
231.136	77.38
231.37	92.38
231.604	87.38
231.838	87.38
232.072	88.38
232.306	82.38
232.541	71.38
232.775	92.38
233.009	85.38
233.243	72.38
233.477	82.38
233.711	85.38
233.945	94.38
234.179	87.38
234.413	94.38
234.647	76.38
234.881	81.38
235.115	86.38
235.349	87.38
235.583	90.38
235.817	86.38
236.051	85.38
236.285	70.38
236.519	88.38
236.753	85.38
236.987	98.38
237.221	92.38
237.455	75.38
237.689	80.38
237.922	82.38
238.156	87.38
238.39	79.38
238.624	72.38
238.858	77.38
239.091	64.38
239.325	85.38
239.559	88.38
239.793	87.38
240.027	99.38
240.26	67.38
240.494	75.38
240.728	80.38
240.961	80.38
241.195	85.38
241.429	62.38
241.662	82.38
241.896	85.38
242.13	92.38
242.363	80.38
242.597	85.38
242.83	67.38
243.064	83.38
243.298	78.38
243.531	80.38
243.765	88.38
243.998	83.38
244.232	104.38
244.465	79.38
244.699	83.38
244.932	82.38
245.166	93.38
245.399	84.38
245.633	87.38
245.866	81.38
246.099	98.38
246.333	72.38
246.566	70.38
246.8	75.38
247.033	82.38
247.266	85.38
247.5	79.38
247.733	79.38
247.966	81.38
248.2	72.38
248.433	84.38
248.666	90.38
248.899	92.38
249.133	82.38
249.366	89.38
249.599	94.38
249.832	91.38
250.066	88.38
250.299	82.38
250.532	84.38
250.765	78.38
250.998	80.38
251.231	91.38
251.465	77.38
251.698	91.38
251.931	94.38
252.164	77.38
252.397	100.38
252.63	86.38
252.863	81.38
253.096	74.38
253.329	80.38
253.562	78.38
253.795	86.38
254.028	85.38
254.261	98.38
254.494	77.38
254.727	89.38
254.96	67.38
255.193	77.38
255.426	89.38
255.659	84.38
255.892	92.38
256.124	83.38
256.357	88.38
256.59	75.38
256.823	90.38
257.056	80.38
257.289	66.38
257.521	83.38
257.754	80.38
257.987	85.38
258.22	91.38
258.452	94.38
258.685	85.38
258.918	91.38
259.151	90.38
259.383	92.38
259.616	99.38
259.849	82.38
260.081	99.38
260.314	81.38
260.547	74.38
260.779	99.38
261.012	89.38
261.244	85.38
261.477	87.38
261.71	76.38
261.942	112.38
262.175	123.38
262.407	94.38
262.64	93.38
262.872	98.38
263.105	97.38
263.337	104.38
263.57	79.38
263.802	102.38
264.035	89.38
264.267	82.38
264.499	76.38
264.732	98.38
264.964	78.38
265.197	85.38
265.429	91.38
265.661	87.38
265.894	70.38
266.126	104.38
266.358	93.38
266.591	88.38
266.823	83.38
267.055	78.38
267.287	96.38
267.52	89.38
267.752	92.38
267.984	91.38
268.216	89.38
268.448	98.38
268.681	90.38
268.913	74.38
269.145	91.38
269.377	94.38
269.609	74.38
269.841	95.38
270.073	94.38
270.306	96.38
270.538	78.38
270.77	78.38
271.002	85.38
271.234	90.38
271.466	77.38
271.698	84.38
271.93	78.38
272.162	96.38
272.394	91.38
272.626	87.38
272.858	91.38
273.09	90.38
273.322	93.38
273.553	95.38
273.785	88.38
274.017	82.38
274.249	85.38
274.481	82.38
274.713	81.38
274.945	88.38
275.176	88.38
275.408	91.38
275.64	79.38
275.872	93.38
276.104	92.38
276.335	98.38
276.567	109.38
276.799	98.38
277.031	108.38
277.262	103.38
277.494	91.38
277.726	98.38
277.957	83.38
278.189	86.38
278.421	97.38
278.652	98.38
278.884	79.38
279.115	86.38
279.347	78.38
279.579	67.38
279.81	84.38
280.042	73.38
280.273	89.38
280.505	91.38
280.736	95.38
280.968	87.38
281.199	90.38
281.431	95.38
281.662	94.38
281.894	98.38
282.125	99.38
282.356	115.38
282.588	129.38
282.819	110.38
283.051	92.38
283.282	87.38
283.513	91.38
283.745	82.38
283.976	90.38
284.207	94.38
284.439	96.38
284.67	93.38
284.901	98.38
285.132	91.38
285.364	82.38
285.595	90.38
285.826	80.38
286.057	96.38
286.288	103.38
286.52	89.38
286.751	78.38
286.982	82.38
287.213	86.38
287.444	98.38
287.675	98.38
287.906	98.38
288.138	92.38
288.369	86.38
288.6	108.38
288.831	74.38
289.062	97.38
289.293	82.38
289.524	81.38
289.755	90.38
289.986	86.38
290.217	83.38
290.448	104.38
290.679	93.38
290.91	88.38
291.141	87.38
291.371	84.38
291.602	91.38
291.833	86.38
292.064	86.38
292.295	94.38
292.526	80.38
292.757	89.38
292.987	94.38
293.218	93.38
293.449	89.38
293.68	92.38
293.91	87.38
294.141	98.38
294.372	102.38
294.603	89.38
294.833	86.38
295.064	102.38
295.295	108.38
295.525	96.38
295.756	101.38
295.987	93.38
296.217	121.38
296.448	113.38
296.679	110.38
296.909	104.38
297.14	89.38
297.37	94.38
297.601	95.38
297.831	83.38
298.062	94.38
298.292	78.38
298.523	93.38
298.753	87.38
298.984	91.38
299.214	74.38
299.445	87.38
299.675	104.38
299.905	95.38
300.136	90.38
300.366	96.38
300.597	90.38
300.827	84.38
301.057	87.38
301.288	109.38
301.518	106.38
301.748	95.38
301.979	103.38
302.209	95.38
302.439	96.38
302.669	94.38
302.9	86.38
303.13	93.38
303.36	92.38
303.59	94.38
303.82	105.38
304.051	100.38
304.281	88.38
304.511	85.38
304.741	91.38
304.971	88.38
305.201	87.38
305.431	98.38
305.661	82.38
305.891	89.38
306.121	109.38
306.352	104.38
306.582	117.38
306.812	97.38
307.042	88.38
307.272	87.38
307.502	94.38
307.731	102.38
307.961	95.38
308.191	93.38
308.421	103.38
308.651	93.38
308.881	97.38
309.111	114.38
309.341	96.38
309.571	101.38
309.8	94.38
310.03	101.38
310.26	95.38
310.49	102.38
310.72	100.38
310.949	104.38
311.179	120.38
311.409	108.38
311.639	70.38
311.868	94.38
312.098	96.38
312.328	117.38
312.557	107.38
312.787	98.38
313.017	100.38
313.246	88.38
313.476	99.38
313.706	96.38
313.935	106.38
314.165	96.38
314.394	97.38
314.624	97.38
314.853	102.38
315.083	101.38
315.312	99.38
315.542	97.38
315.771	94.38
316.001	103.38
316.23	104.38
316.46	86.38
316.689	86.38
316.919	113.38
317.148	86.38
317.377	107.38
317.607	101.38
317.836	86.38
318.065	92.38
318.295	102.38
318.524	93.38
318.753	100.38
318.983	102.38
319.212	82.38
319.441	100.38
319.67	91.38
319.9	97.38
320.129	101.38
320.358	105.38
320.587	95.38
320.816	94.38
321.046	94.38
321.275	104.38
321.504	101.38
321.733	101.38
321.962	82.38
322.191	96.38
322.42	109.38
322.649	118.38
322.878	117.38
323.108	96.38
323.337	122.38
323.566	141.38
323.795	142.38
324.024	190.38
324.253	367.38
324.482	767.38
324.71	1548.38
324.939	2023.38
325.168	755.38
325.397	238.38
325.626	149.38
325.855	146.38
326.084	126.38
326.313	140.38
326.542	155.38
326.77	227.38
326.999	419.38
327.228	899.38
327.457	1610.38
327.686	1282.38
327.914	353.38
328.143	193.38
328.372	140.38
328.6	122.38
328.829	117.38
329.058	120.38
329.287	121.38
329.515	106.38
329.744	105.38
329.972	99.38
330.201	102.38
330.43	95.38
330.658	96.38
330.887	136.38
331.115	126.38
331.344	114.38
331.572	99.38
331.801	115.38
332.03	106.38
332.258	97.38
332.486	87.38
332.715	98.38
332.943	93.38
333.172	98.38
333.4	96.38
333.629	111.38
333.857	104.38
334.085	107.38
334.314	78.38
334.542	83.38
334.771	103.38
334.999	120.38
335.227	114.38
335.455	102.38
335.684	113.38
335.912	91.38
336.14	108.38
336.369	108.38
336.597	92.38
336.825	114.38
337.053	96.38
337.281	98.38
337.51	87.38
337.738	93.38
337.966	90.38
338.194	94.38
338.422	103.38
338.65	96.38
338.878	91.38
339.106	106.38
339.334	88.38
339.562	93.38
339.79	93.38
340.018	91.38
340.246	107.38
340.474	97.38
340.702	97.38
340.93	97.38
341.158	94.38
341.386	94.38
341.614	92.38
341.842	108.38
342.07	93.38
342.298	103.38
342.526	90.38
342.754	93.38
342.981	95.38
343.209	93.38
343.437	103.38
343.665	102.38
343.893	88.38
344.12	89.38
344.348	95.38
344.576	99.38
344.804	102.38
345.031	102.38
345.259	109.38
345.487	105.38
345.714	90.38
345.942	101.38
346.17	87.38
346.397	95.38
346.625	102.38
346.853	81.38
347.08	95.38
347.308	101.38
347.535	103.38
347.763	91.38
347.99	100.38
348.218	96.38
348.445	90.38
348.673	90.38
348.9	89.38
349.128	88.38
349.355	107.38
349.583	98.38
349.81	103.38
350.037	92.38
350.265	110.38
350.492	103.38
350.72	107.38
350.947	107.38
351.174	115.38
351.402	119.38
351.629	94.38
351.856	115.38
352.083	96.38
352.311	99.38
352.538	119.38
352.765	114.38
352.992	119.38
353.22	115.38
353.447	110.38
353.674	100.38
353.901	105.38
354.128	112.38
354.355	112.38
354.583	114.38
354.81	95.38
355.037	108.38
355.264	119.38
355.491	92.38
355.718	85.38
355.945	102.38
356.172	101.38
356.399	103.38
356.626	112.38
356.853	95.38
357.08	110.38
357.307	94.38
357.534	107.38
357.761	97.38
357.988	90.38
358.215	86.38
358.441	82.38
358.668	95.38
358.895	111.38
359.122	95.38
359.349	97.38
359.576	84.38
359.802	106.38
360.029	95.38
360.256	107.38
360.483	104.38
360.709	82.38
360.936	99.38
361.163	98.38
361.39	102.38
361.616	99.38
361.843	95.38
362.07	91.38
362.296	97.38
362.523	94.38
362.749	77.38
362.976	93.38
363.203	106.38
363.429	91.38
363.656	104.38
363.882	97.38
364.109	92.38
364.335	90.38
364.562	83.38
364.788	114.38
365.015	99.38
365.241	109.38
365.468	118.38
365.694	110.38
365.92	97.38
366.147	88.38
366.373	92.38
366.599	97.38
366.826	87.38
367.052	82.38
367.278	97.38
367.505	102.38
367.731	90.38
367.957	88.38
368.184	98.38
368.41	108.38
368.636	119.38
368.862	127.38
369.089	119.38
369.315	104.38
369.541	92.38
369.767	100.38
369.993	89.38
370.219	90.38
370.445	94.38
370.672	93.38
370.898	100.38
371.124	102.38
371.35	93.38
371.576	80.38
371.802	101.38
372.028	85.38
372.254	85.38
372.48	87.38
372.706	83.38
372.932	95.38
373.158	95.38
373.384	104.38
373.61	102.38
373.835	88.38
374.061	89.38
374.287	105.38
374.513	90.38
374.739	80.38
374.965	101.38
375.191	85.38
375.416	103.38
375.642	94.38
375.868	108.38
376.094	86.38
376.319	89.38
376.545	97.38
376.771	84.38
376.997	90.38
377.222	87.38
377.448	95.38
377.674	85.38
377.899	89.38
378.125	109.38
378.35	92.38
378.576	97.38
378.802	98.38
379.027	83.38
379.253	85.38
379.478	104.38
379.704	98.38
379.929	90.38
380.155	93.38
380.38	111.38
380.606	97.38
380.831	83.38
381.057	103.38
381.282	102.38
381.507	79.38
381.733	82.38
381.958	102.38
382.184	98.38
382.409	98.38
382.634	113.38
382.86	109.38
383.085	103.38
383.31	103.38
383.535	112.38
383.761	100.38
383.986	94.38
384.211	103.38
384.436	117.38
384.662	92.38
384.887	92.38
385.112	106.38
385.337	108.38
385.562	107.38
385.787	111.38
386.013	114.38
386.238	112.38
386.463	102.38
386.688	113.38
386.913	111.38
387.138	111.38
387.363	117.38
387.588	122.38
387.813	91.38
388.038	111.38
388.263	104.38
388.488	122.38
388.713	91.38
388.938	104.38
389.163	95.38
389.387	99.38
389.612	111.38
389.837	96.38
390.062	103.38
390.287	92.38
390.512	96.38
390.736	99.38
390.961	83.38
391.186	86.38
391.411	103.38
391.636	103.38
391.86	92.38
392.085	90.38
392.31	83.38
392.534	84.38
392.759	90.38
392.984	80.38
393.208	94.38
393.433	96.38
393.658	90.38
393.882	101.38
394.107	93.38
394.331	95.38
394.556	104.38
394.78	93.38
395.005	89.38
395.229	82.38
395.454	87.38
395.678	71.38
395.903	97.38
396.127	85.38
396.352	93.38
396.576	104.38
396.801	94.38
397.025	96.38
397.249	98.38
397.474	104.38
397.698	87.38
397.922	85.38
398.147	94.38
398.371	80.38
398.595	102.38
398.82	93.38
399.044	95.38
399.268	83.38
399.492	85.38
399.717	91.38
399.941	89.38
400.165	102.38
400.389	88.38
400.613	91.38
400.837	83.38
401.062	86.38
401.286	80.38
401.51	97.38
401.734	117.38
401.958	109.38
402.182	131.38
402.406	141.38
402.63	112.38
402.854	90.38
403.078	102.38
403.302	96.38
403.526	88.38
403.75	94.38
403.974	98.38
404.198	91.38
404.422	96.38
404.645	82.38
404.869	94.38
405.093	105.38
405.317	88.38
405.541	96.38
405.765	98.38
405.988	102.38
406.212	156.38
406.436	206.38
406.66	133.38
406.883	98.38
407.107	104.38
407.331	97.38
407.555	104.38
407.778	97.38
408.002	108.38
408.226	93.38
408.449	99.38
408.673	96.38
408.896	88.38
409.12	94.38
409.344	93.38
409.567	108.38
409.791	111.38
410.014	114.38
410.238	93.38
410.461	98.38
410.685	117.38
410.908	111.38
411.132	114.38
411.355	105.38
411.578	104.38
411.802	100.38
412.025	97.38
412.249	94.38
412.472	87.38
412.695	85.38
412.919	90.38
413.142	88.38
413.365	92.38
413.589	80.38
413.812	93.38
414.035	106.38
414.258	96.38
414.482	87.38
414.705	101.38
414.928	91.38
415.151	91.38
415.374	110.38
415.597	90.38
415.821	91.38
416.044	97.38
416.267	94.38
416.49	100.38
416.713	99.38
416.936	91.38
417.159	92.38
417.382	106.38
417.605	90.38
417.828	89.38
418.051	100.38
418.274	92.38
418.497	83.38
418.72	87.38
418.943	84.38
419.166	93.38
419.389	94.38
419.611	99.38
419.834	95.38
420.057	99.38
420.28	101.38
420.503	90.38
420.726	96.38
420.948	93.38
421.171	100.38
421.394	96.38
421.617	91.38
421.839	110.38
422.062	103.38
422.285	115.38
422.507	98.38
422.73	103.38
422.953	102.38
423.175	95.38
423.398	96.38
423.621	98.38
423.843	86.38
424.066	99.38
424.288	85.38
424.511	92.38
424.733	109.38
424.956	108.38
425.178	92.38
425.401	114.38
425.623	94.38
425.846	92.38
426.068	100.38
426.291	94.38
426.513	90.38
426.735	89.38
426.958	94.38
427.18	101.38
427.402	112.38
427.625	157.38
427.847	117.38
428.069	113.38
428.292	94.38
428.514	102.38
428.736	101.38
428.958	69.38
429.181	83.38
429.403	87.38
429.625	84.38
429.847	94.38
430.069	98.38
430.292	103.38
430.514	76.38
430.736	82.38
430.958	83.38
431.18	87.38
431.402	96.38
431.624	87.38
431.846	93.38
432.068	94.38
432.29	103.38
432.512	95.38
432.734	77.38
432.956	98.38
433.178	94.38
433.4	95.38
433.622	96.38
433.844	104.38
434.066	93.38
434.287	77.38
434.509	99.38
434.731	99.38
434.953	96.38
435.175	103.38
435.397	103.38
435.618	103.38
435.84	104.38
436.062	119.38
436.284	109.38
436.505	101.38
436.727	88.38
436.949	100.38
437.17	87.38
437.392	91.38
437.614	98.38
437.835	111.38
438.057	124.38
438.278	114.38
438.5	108.38
438.721	103.38
438.943	90.38
439.165	90.38
439.386	81.38
439.608	92.38
439.829	96.38
440.05	123.38
440.272	134.38
440.493	93.38
440.715	96.38
440.936	116.38
441.158	96.38
441.379	87.38
441.6	93.38
441.822	104.38
442.043	96.38
442.264	95.38
442.486	94.38
442.707	86.38
442.928	107.38
443.149	111.38
443.371	113.38
443.592	108.38
443.813	91.38
444.034	104.38
444.255	95.38
444.476	91.38
444.698	79.38
444.919	95.38
445.14	129.38
445.361	121.38
445.582	117.38
445.803	132.38
446.024	116.38
446.245	127.38
446.466	109.38
446.687	88.38
446.908	111.38
447.129	99.38
447.35	101.38
447.571	82.38
447.792	107.38
448.013	103.38
448.234	110.38
448.455	103.38
448.675	115.38
448.896	111.38
449.117	107.38
449.338	100.38
449.559	118.38
449.779	129.38
450	98.38
450.221	102.38
450.442	95.38
450.662	103.38
450.883	88.38
451.104	102.38
451.324	95.38
451.545	80.38
451.766	96.38
451.986	81.38
452.207	100.38
452.428	108.38
452.648	96.38
452.869	116.38
453.089	118.38
453.31	112.38
453.53	95.38
453.751	102.38
453.971	114.38
454.192	107.38
454.412	85.38
454.633	68.38
454.853	90.38
455.073	90.38
455.294	92.38
455.514	94.38
455.734	93.38
455.955	99.38
456.175	102.38
456.395	90.38
456.616	97.38
456.836	93.38
457.056	100.38
457.276	84.38
457.497	81.38
457.717	81.38
457.937	84.38
458.157	91.38
458.377	101.38
458.598	104.38
458.818	142.38
459.038	151.38
459.258	115.38
459.478	93.38
459.698	78.38
459.918	88.38
460.138	94.38
460.358	86.38
460.578	95.38
460.798	94.38
461.018	88.38
461.238	84.38
461.458	81.38
461.678	87.38
461.898	86.38
462.118	85.38
462.338	91.38
462.558	99.38
462.777	88.38
462.997	83.38
463.217	100.38
463.437	91.38
463.657	91.38
463.876	104.38
464.096	90.38
464.316	83.38
464.536	102.38
464.755	111.38
464.975	104.38
465.195	160.38
465.414	130.38
465.634	104.38
465.854	88.38
466.073	87.38
466.293	95.38
466.512	94.38
466.732	94.38
466.951	94.38
467.171	103.38
467.391	99.38
467.61	96.38
467.829	95.38
468.049	84.38
468.268	92.38
468.488	102.38
468.707	102.38
468.927	90.38
469.146	90.38
469.365	82.38
469.585	82.38
469.804	96.38
470.023	96.38
470.243	95.38
470.462	104.38
470.681	114.38
470.901	90.38
471.12	81.38
471.339	79.38
471.558	101.38
471.777	88.38
471.997	98.38
472.216	82.38
472.435	97.38
472.654	100.38
472.873	93.38
473.092	86.38
473.311	81.38
473.53	84.38
473.749	99.38
473.968	87.38
474.187	100.38
474.406	90.38
474.625	109.38
474.844	81.38
475.063	94.38
475.282	97.38
475.501	90.38
475.72	88.38
475.939	78.38
476.158	67.38
476.377	96.38
476.596	85.38
476.814	102.38
477.033	90.38
477.252	97.38
477.471	91.38
477.69	102.38
477.908	102.38
478.127	83.38
478.346	94.38
478.564	102.38
478.783	101.38
479.002	95.38
479.22	98.38
479.439	115.38
479.658	92.38
479.876	91.38
480.095	89.38
480.313	82.38
480.532	106.38
480.751	99.38
480.969	103.38
481.188	114.38
481.406	101.38
481.624	93.38
481.843	98.38
482.061	97.38
482.28	87.38
482.498	95.38
482.717	104.38
482.935	82.38
483.153	90.38
483.372	86.38
483.59	88.38
483.808	81.38
484.027	92.38
484.245	76.38
484.463	98.38
484.681	99.38
484.9	93.38
485.118	85.38
485.336	101.38
485.554	90.38
485.772	102.38
485.99	113.38
486.209	105.38
486.427	105.38
486.645	113.38
486.863	109.38
487.081	100.38
487.299	109.38
487.517	90.38
487.735	106.38
487.953	97.38
488.171	103.38
488.389	96.38
488.607	91.38
488.825	86.38
489.043	87.38
489.261	95.38
489.479	94.38
489.696	96.38
489.914	88.38
490.132	91.38
490.35	105.38
490.568	95.38
490.786	99.38
491.003	83.38
491.221	102.38
491.439	92.38
491.657	99.38
491.874	95.38
492.092	99.38
492.31	94.38
492.527	98.38
492.745	104.38
492.963	94.38
493.18	96.38
493.398	80.38
493.615	104.38
493.833	100.38
494.05	86.38
494.268	109.38
494.485	104.38
494.703	90.38
494.92	85.38
495.138	92.38
495.355	87.38
495.573	88.38
495.79	87.38
496.008	93.38
496.225	87.38
496.442	86.38
496.66	104.38
496.877	106.38
497.094	102.38
497.312	90.38
497.529	104.38
497.746	100.38
497.963	88.38
498.181	83.38
498.398	87.38
498.615	112.38
498.832	111.38
499.049	100.38
499.267	111.38
499.484	95.38
499.701	100.38
499.918	92.38
500.135	97.38
500.352	82.38
500.569	93.38
500.786	101.38
501.003	94.38
501.22	98.38
501.437	92.38
501.654	96.38
501.871	109.38
502.088	91.38
502.305	90.38
502.522	85.38
502.739	104.38
502.956	98.38
503.172	87.38
503.389	103.38
503.606	103.38
503.823	84.38
504.04	106.38
504.256	97.38
504.473	102.38
504.69	112.38
504.907	90.38
505.123	92.38
505.34	86.38
505.557	93.38
505.773	88.38
505.99	99.38
506.207	94.38
506.423	94.38
506.64	97.38
506.856	99.38
507.073	106.38
507.289	96.38
507.506	100.38
507.722	118.38
507.939	127.38
508.155	101.38
508.372	89.38
508.588	96.38
508.805	111.38
509.021	89.38
509.238	108.38
509.454	99.38
509.67	102.38
509.887	107.38
510.103	138.38
510.319	210.38
510.536	759.38
510.752	2339.38
510.968	646.38
511.184	157.38
511.401	121.38
511.617	99.38
511.833	103.38
512.049	106.38
512.265	91.38
512.481	83.38
512.698	82.38
512.914	100.38
513.13	86.38
513.346	85.38
513.562	91.38
513.778	95.38
513.994	99.38
514.21	99.38
