Data from Uncirc_1995_H10_HRD10591_00036.txt Node
Date: Wed Jan 03 11:35:41 EST 2024
User: Yrep
Spectrometer: HR+D1059
Trigger mode: 1
Integration Time (sec): 1.000000E-1
Scans to average: 1
Electric dark correction enabled: true
Nonlinearity correction enabled: false
Boxcar width: 0
XAxis mode: Wavelengths
Number of Pixels in Spectrum: 2048
>>>>>Begin Spectral Data<<<<<
223.165	-22.44
223.4	-22.44
223.635	-22.44
223.869	-19.44
224.104	-28.44
224.338	-16.44
224.573	0.56
224.808	-33.44
225.042	-2.44
225.277	-9.44
225.511	3.56
225.746	7.56
225.98	3.56
226.215	1.56
226.449	27.56
226.683	20.56
226.918	31.56
227.152	35.56
227.387	39.56
227.621	34.56
227.856	45.56
228.09	45.56
228.324	56.56
228.559	58.56
228.793	63.56
229.027	55.56
229.262	63.56
229.496	70.56
229.73	81.56
229.964	77.56
230.199	74.56
230.433	65.56
230.667	75.56
230.901	79.56
231.136	75.56
231.37	80.56
231.604	72.56
231.838	64.56
232.072	58.56
232.306	66.56
232.541	84.56
232.775	73.56
233.009	78.56
233.243	81.56
233.477	61.56
233.711	70.56
233.945	74.56
234.179	94.56
234.413	77.56
234.647	80.56
234.881	78.56
235.115	94.56
235.349	86.56
235.583	81.56
235.817	76.56
236.051	81.56
236.285	84.56
236.519	60.56
236.753	78.56
236.987	91.56
237.221	87.56
237.455	80.56
237.689	71.56
237.922	78.56
238.156	78.56
238.39	78.56
238.624	87.56
238.858	71.56
239.091	64.56
239.325	73.56
239.559	69.56
239.793	81.56
240.027	82.56
240.26	70.56
240.494	58.56
240.728	85.56
240.961	87.56
241.195	69.56
241.429	73.56
241.662	73.56
241.896	73.56
242.13	82.56
242.363	69.56
242.597	70.56
242.83	72.56
243.064	80.56
243.298	82.56
243.531	69.56
243.765	86.56
243.998	71.56
244.232	75.56
244.465	76.56
244.699	64.56
244.932	87.56
245.166	70.56
245.399	90.56
245.633	83.56
245.866	73.56
246.099	60.56
246.333	64.56
246.566	71.56
246.8	71.56
247.033	70.56
247.266	73.56
247.5	80.56
247.733	76.56
247.966	80.56
248.2	89.56
248.433	87.56
248.666	81.56
248.899	85.56
249.133	96.56
249.366	96.56
249.599	82.56
249.832	72.56
250.066	74.56
250.299	94.56
250.532	82.56
250.765	74.56
250.998	70.56
251.231	84.56
251.465	81.56
251.698	74.56
251.931	72.56
252.164	93.56
252.397	71.56
252.63	79.56
252.863	74.56
253.096	86.56
253.329	90.56
253.562	84.56
253.795	74.56
254.028	72.56
254.261	91.56
254.494	87.56
254.727	65.56
254.96	79.56
255.193	63.56
255.426	85.56
255.659	83.56
255.892	74.56
256.124	70.56
256.357	79.56
256.59	88.56
256.823	74.56
257.056	73.56
257.289	81.56
257.521	85.56
257.754	81.56
257.987	80.56
258.22	77.56
258.452	85.56
258.685	78.56
258.918	89.56
259.151	80.56
259.383	78.56
259.616	90.56
259.849	80.56
260.081	76.56
260.314	86.56
260.547	82.56
260.779	70.56
261.012	78.56
261.244	88.56
261.477	77.56
261.71	87.56
261.942	105.56
262.175	119.56
262.407	97.56
262.64	85.56
262.872	83.56
263.105	76.56
263.337	100.56
263.57	80.56
263.802	93.56
264.035	94.56
264.267	85.56
264.499	78.56
264.732	81.56
264.964	79.56
265.197	83.56
265.429	84.56
265.661	89.56
265.894	76.56
266.126	77.56
266.358	80.56
266.591	73.56
266.823	83.56
267.055	87.56
267.287	78.56
267.52	72.56
267.752	96.56
267.984	76.56
268.216	75.56
268.448	80.56
268.681	75.56
268.913	81.56
269.145	72.56
269.377	72.56
269.609	92.56
269.841	70.56
270.073	86.56
270.306	80.56
270.538	83.56
270.77	89.56
271.002	82.56
271.234	78.56
271.466	89.56
271.698	74.56
271.93	85.56
272.162	91.56
272.394	92.56
272.626	87.56
272.858	73.56
273.09	89.56
273.322	83.56
273.553	87.56
273.785	94.56
274.017	87.56
274.249	71.56
274.481	81.56
274.713	86.56
274.945	67.56
275.176	86.56
275.408	92.56
275.64	88.56
275.872	89.56
276.104	104.56
276.335	81.56
276.567	82.56
276.799	108.56
277.031	93.56
277.262	81.56
277.494	77.56
277.726	93.56
277.957	83.56
278.189	83.56
278.421	87.56
278.652	75.56
278.884	91.56
279.115	86.56
279.347	82.56
279.579	91.56
279.81	79.56
280.042	77.56
280.273	90.56
280.505	89.56
280.736	80.56
280.968	87.56
281.199	83.56
281.431	70.56
281.662	75.56
281.894	86.56
282.125	110.56
282.356	95.56
282.588	136.56
282.819	105.56
283.051	84.56
283.282	73.56
283.513	85.56
283.745	70.56
283.976	90.56
284.207	78.56
284.439	90.56
284.67	98.56
284.901	86.56
285.132	74.56
285.364	88.56
285.595	74.56
285.826	78.56
286.057	90.56
286.288	87.56
286.52	85.56
286.751	92.56
286.982	95.56
287.213	86.56
287.444	80.56
287.675	79.56
287.906	87.56
288.138	93.56
288.369	81.56
288.6	90.56
288.831	76.56
289.062	70.56
289.293	83.56
289.524	90.56
289.755	86.56
289.986	82.56
290.217	85.56
290.448	77.56
290.679	78.56
290.91	88.56
291.141	105.56
291.371	86.56
291.602	85.56
291.833	96.56
292.064	81.56
292.295	79.56
292.526	83.56
292.757	61.56
292.987	88.56
293.218	80.56
293.449	84.56
293.68	84.56
293.91	93.56
294.141	101.56
294.372	83.56
294.603	89.56
294.833	81.56
295.064	97.56
295.295	94.56
295.525	81.56
295.756	95.56
295.987	110.56
296.217	128.56
296.448	129.56
296.679	101.56
296.909	84.56
297.14	90.56
297.37	93.56
297.601	85.56
297.831	92.56
298.062	69.56
298.292	82.56
298.523	71.56
298.753	85.56
298.984	88.56
299.214	80.56
299.445	105.56
299.675	105.56
299.905	84.56
300.136	73.56
300.366	82.56
300.597	88.56
300.827	89.56
301.057	81.56
301.288	107.56
301.518	97.56
301.748	79.56
301.979	99.56
302.209	77.56
302.439	83.56
302.669	88.56
302.9	93.56
303.13	86.56
303.36	98.56
303.59	77.56
303.82	114.56
304.051	78.56
304.281	101.56
304.511	100.56
304.741	96.56
304.971	95.56
305.201	87.56
305.431	74.56
305.661	102.56
305.891	88.56
306.121	96.56
306.352	88.56
306.582	94.56
306.812	90.56
307.042	87.56
307.272	89.56
307.502	88.56
307.731	77.56
307.961	89.56
308.191	91.56
308.421	102.56
308.651	78.56
308.881	76.56
309.111	79.56
309.341	95.56
309.571	97.56
309.8	90.56
310.03	82.56
310.26	76.56
310.49	98.56
310.72	100.56
310.949	75.56
311.179	97.56
311.409	80.56
311.639	76.56
311.868	92.56
312.098	103.56
312.328	87.56
312.557	102.56
312.787	98.56
313.017	95.56
313.246	87.56
313.476	80.56
313.706	93.56
313.935	96.56
314.165	95.56
314.394	105.56
314.624	97.56
314.853	84.56
315.083	89.56
315.312	79.56
315.542	86.56
315.771	86.56
316.001	96.56
316.23	89.56
316.46	89.56
316.689	91.56
316.919	93.56
317.148	90.56
317.377	87.56
317.607	91.56
317.836	95.56
318.065	99.56
318.295	92.56
318.524	88.56
318.753	90.56
318.983	96.56
319.212	94.56
319.441	95.56
319.67	109.56
319.9	101.56
320.129	103.56
320.358	96.56
320.587	98.56
320.816	97.56
321.046	91.56
321.275	76.56
321.504	95.56
321.733	84.56
321.962	95.56
322.191	106.56
322.42	110.56
322.649	103.56
322.878	108.56
323.108	117.56
323.337	112.56
323.566	113.56
323.795	136.56
324.024	189.56
324.253	383.56
324.482	820.56
324.71	1641.56
324.939	2139.56
325.168	771.56
325.397	238.56
325.626	144.56
325.855	133.56
326.084	119.56
326.313	123.56
326.542	152.56
326.77	215.56
326.999	426.56
327.228	897.56
327.457	1640.56
327.686	1323.56
327.914	373.56
328.143	184.56
328.372	145.56
328.6	112.56
328.829	105.56
329.058	118.56
329.287	123.56
329.515	111.56
329.744	88.56
329.972	92.56
330.201	91.56
330.43	90.56
330.658	109.56
330.887	130.56
331.115	117.56
331.344	90.56
331.572	105.56
331.801	93.56
332.03	100.56
332.258	92.56
332.486	105.56
332.715	91.56
332.943	96.56
333.172	93.56
333.4	90.56
333.629	94.56
333.857	107.56
334.085	94.56
334.314	89.56
334.542	91.56
334.771	92.56
334.999	95.56
335.227	94.56
335.455	98.56
335.684	106.56
335.912	95.56
336.14	106.56
336.369	95.56
336.597	105.56
336.825	97.56
337.053	95.56
337.281	89.56
337.51	91.56
337.738	93.56
337.966	93.56
338.194	90.56
338.422	98.56
338.65	95.56
338.878	89.56
339.106	83.56
339.334	86.56
339.562	86.56
339.79	97.56
340.018	100.56
340.246	85.56
340.474	75.56
340.702	84.56
340.93	87.56
341.158	97.56
341.386	90.56
341.614	95.56
341.842	85.56
342.07	85.56
342.298	99.56
342.526	81.56
342.754	89.56
342.981	86.56
343.209	71.56
343.437	85.56
343.665	87.56
343.893	80.56
344.12	90.56
344.348	96.56
344.576	66.56
344.804	88.56
345.031	100.56
345.259	111.56
345.487	107.56
345.714	105.56
345.942	95.56
346.17	81.56
346.397	91.56
346.625	80.56
346.853	77.56
347.08	76.56
347.308	101.56
347.535	113.56
347.763	95.56
347.99	88.56
348.218	94.56
348.445	109.56
348.673	95.56
348.9	88.56
349.128	92.56
349.355	103.56
349.583	85.56
349.81	98.56
350.037	83.56
350.265	83.56
350.492	104.56
350.72	97.56
350.947	104.56
351.174	103.56
351.402	114.56
351.629	94.56
351.856	109.56
352.083	104.56
352.311	103.56
352.538	99.56
352.765	114.56
352.992	119.56
353.22	122.56
353.447	96.56
353.674	94.56
353.901	96.56
354.128	77.56
354.355	103.56
354.583	119.56
354.81	95.56
355.037	112.56
355.264	82.56
355.491	88.56
355.718	101.56
355.945	103.56
356.172	94.56
356.399	93.56
356.626	92.56
356.853	93.56
357.08	96.56
357.307	85.56
357.534	85.56
357.761	91.56
357.988	105.56
358.215	97.56
358.441	93.56
358.668	90.56
358.895	94.56
359.122	106.56
359.349	93.56
359.576	81.56
359.802	97.56
360.029	103.56
360.256	102.56
360.483	88.56
360.709	89.56
360.936	101.56
361.163	81.56
361.39	90.56
361.616	87.56
361.843	92.56
362.07	102.56
362.296	103.56
362.523	90.56
362.749	81.56
362.976	92.56
363.203	89.56
363.429	77.56
363.656	89.56
363.882	79.56
364.109	74.56
364.335	86.56
364.562	87.56
364.788	83.56
365.015	70.56
365.241	92.56
365.468	103.56
365.694	96.56
365.92	92.56
366.147	85.56
366.373	87.56
366.599	89.56
366.826	88.56
367.052	103.56
367.278	95.56
367.505	92.56
367.731	91.56
367.957	87.56
368.184	73.56
368.41	94.56
368.636	98.56
368.862	113.56
369.089	106.56
369.315	83.56
369.541	95.56
369.767	99.56
369.993	85.56
370.219	97.56
370.445	79.56
370.672	75.56
370.898	94.56
371.124	85.56
371.35	85.56
371.576	73.56
371.802	72.56
372.028	85.56
372.254	79.56
372.48	96.56
372.706	88.56
372.932	85.56
373.158	60.56
373.384	76.56
373.61	96.56
373.835	73.56
374.061	75.56
374.287	80.56
374.513	97.56
374.739	74.56
374.965	95.56
375.191	101.56
375.416	81.56
375.642	89.56
375.868	114.56
376.094	85.56
376.319	81.56
376.545	96.56
376.771	96.56
376.997	99.56
377.222	89.56
377.448	98.56
377.674	91.56
377.899	86.56
378.125	81.56
378.35	97.56
378.576	82.56
378.802	97.56
379.027	81.56
379.253	93.56
379.478	100.56
379.704	104.56
379.929	84.56
380.155	84.56
380.38	91.56
380.606	82.56
380.831	96.56
381.057	99.56
381.282	98.56
381.507	91.56
381.733	103.56
381.958	89.56
382.184	89.56
382.409	104.56
382.634	98.56
382.86	99.56
383.085	100.56
383.31	108.56
383.535	87.56
383.761	102.56
383.986	97.56
384.211	100.56
384.436	95.56
384.662	106.56
384.887	96.56
385.112	104.56
385.337	105.56
385.562	113.56
385.787	106.56
386.013	114.56
386.238	104.56
386.463	98.56
386.688	106.56
386.913	99.56
387.138	105.56
387.363	95.56
387.588	100.56
387.813	116.56
388.038	97.56
388.263	107.56
388.488	94.56
388.713	98.56
388.938	98.56
389.163	99.56
389.387	94.56
389.612	93.56
389.837	97.56
390.062	101.56
390.287	110.56
390.512	89.56
390.736	82.56
390.961	95.56
391.186	104.56
391.411	93.56
391.636	90.56
391.86	92.56
392.085	86.56
392.31	79.56
392.534	97.56
392.759	86.56
392.984	105.56
393.208	90.56
393.433	85.56
393.658	82.56
393.882	73.56
394.107	81.56
394.331	93.56
394.556	79.56
394.78	82.56
395.005	97.56
395.229	88.56
395.454	95.56
395.678	98.56
395.903	78.56
396.127	89.56
396.352	82.56
396.576	85.56
396.801	92.56
397.025	76.56
397.249	98.56
397.474	85.56
397.698	94.56
397.922	86.56
398.147	79.56
398.371	85.56
398.595	91.56
398.82	79.56
399.044	76.56
399.268	70.56
399.492	75.56
399.717	89.56
399.941	97.56
400.165	84.56
400.389	98.56
400.613	83.56
400.837	89.56
401.062	88.56
401.286	87.56
401.51	92.56
401.734	98.56
401.958	97.56
402.182	111.56
402.406	153.56
402.63	109.56
402.854	77.56
403.078	83.56
403.302	93.56
403.526	85.56
403.75	81.56
403.974	87.56
404.198	98.56
404.422	77.56
404.645	94.56
404.869	89.56
405.093	81.56
405.317	93.56
405.541	94.56
405.765	95.56
405.988	99.56
406.212	161.56
406.436	202.56
406.66	140.56
406.883	95.56
407.107	75.56
407.331	90.56
407.555	93.56
407.778	105.56
408.002	84.56
408.226	76.56
408.449	89.56
408.673	89.56
408.896	88.56
409.12	80.56
409.344	89.56
409.567	94.56
409.791	91.56
410.014	95.56
410.238	96.56
410.461	89.56
410.685	94.56
410.908	91.56
411.132	106.56
411.355	103.56
411.578	82.56
411.802	81.56
412.025	81.56
412.249	85.56
412.472	103.56
412.695	100.56
412.919	97.56
413.142	87.56
413.365	85.56
413.589	80.56
413.812	91.56
414.035	97.56
414.258	73.56
414.482	89.56
414.705	89.56
414.928	74.56
415.151	103.56
415.374	104.56
415.597	91.56
415.821	82.56
416.044	82.56
416.267	79.56
416.49	83.56
416.713	92.56
416.936	97.56
417.159	97.56
417.382	89.56
417.605	81.56
417.828	81.56
418.051	99.56
418.274	90.56
418.497	70.56
418.72	85.56
418.943	85.56
419.166	87.56
419.389	90.56
419.611	82.56
419.834	96.56
420.057	91.56
420.28	75.56
420.503	94.56
420.726	88.56
420.948	82.56
421.171	82.56
421.394	98.56
421.617	89.56
421.839	104.56
422.062	88.56
422.285	104.56
422.507	91.56
422.73	112.56
422.953	101.56
423.175	100.56
423.398	95.56
423.621	98.56
423.843	94.56
424.066	76.56
424.288	85.56
424.511	89.56
424.733	88.56
424.956	102.56
425.178	82.56
425.401	92.56
425.623	85.56
425.846	86.56
426.068	85.56
426.291	97.56
426.513	94.56
426.735	92.56
426.958	109.56
427.18	102.56
427.402	127.56
427.625	153.56
427.847	103.56
428.069	90.56
428.292	91.56
428.514	98.56
428.736	83.56
428.958	74.56
429.181	102.56
429.403	86.56
429.625	92.56
429.847	99.56
430.069	82.56
430.292	97.56
430.514	93.56
430.736	78.56
430.958	81.56
431.18	64.56
431.402	95.56
431.624	87.56
431.846	81.56
432.068	73.56
432.29	88.56
432.512	77.56
432.734	76.56
432.956	92.56
433.178	102.56
433.4	81.56
433.622	79.56
433.844	98.56
434.066	92.56
434.287	92.56
434.509	99.56
434.731	98.56
434.953	89.56
435.175	93.56
435.397	88.56
435.618	100.56
435.84	89.56
436.062	111.56
436.284	108.56
436.505	91.56
436.727	89.56
436.949	97.56
437.17	88.56
437.392	84.56
437.614	82.56
437.835	95.56
438.057	113.56
438.278	116.56
438.5	111.56
438.721	116.56
438.943	96.56
439.165	95.56
439.386	73.56
439.608	93.56
439.829	92.56
440.05	121.56
440.272	131.56
440.493	95.56
440.715	94.56
440.936	86.56
441.158	87.56
441.379	70.56
441.6	101.56
441.822	91.56
442.043	106.56
442.264	103.56
442.486	100.56
442.707	71.56
442.928	94.56
443.149	126.56
443.371	114.56
443.592	98.56
443.813	113.56
444.034	94.56
444.255	92.56
444.476	90.56
444.698	82.56
444.919	91.56
445.14	121.56
445.361	125.56
445.582	106.56
445.803	143.56
446.024	123.56
446.245	119.56
446.466	113.56
446.687	89.56
446.908	85.56
447.129	90.56
447.35	73.56
447.571	92.56
447.792	91.56
448.013	90.56
448.234	103.56
448.455	95.56
448.675	101.56
448.896	105.56
449.117	104.56
449.338	88.56
449.559	132.56
449.779	126.56
450	91.56
450.221	91.56
450.442	72.56
450.662	92.56
450.883	98.56
451.104	122.56
451.324	87.56
451.545	84.56
451.766	79.56
451.986	75.56
452.207	102.56
452.428	103.56
452.648	99.56
452.869	104.56
453.089	110.56
453.31	105.56
453.53	102.56
453.751	83.56
453.971	103.56
454.192	105.56
454.412	89.56
454.633	92.56
454.853	97.56
455.073	83.56
455.294	90.56
455.514	97.56
455.734	90.56
455.955	86.56
456.175	86.56
456.395	91.56
456.616	89.56
456.836	82.56
457.056	85.56
457.276	92.56
457.497	93.56
457.717	89.56
457.937	83.56
458.157	95.56
458.377	103.56
458.598	95.56
458.818	130.56
459.038	155.56
459.258	127.56
459.478	87.56
459.698	98.56
459.918	86.56
460.138	91.56
460.358	97.56
460.578	93.56
460.798	85.56
461.018	91.56
461.238	82.56
461.458	76.56
461.678	88.56
461.898	85.56
462.118	77.56
462.338	75.56
462.558	83.56
462.777	92.56
462.997	80.56
463.217	82.56
463.437	92.56
463.657	82.56
463.876	83.56
464.096	83.56
464.316	82.56
464.536	90.56
464.755	98.56
464.975	105.56
465.195	147.56
465.414	149.56
465.634	89.56
465.854	100.56
466.073	95.56
466.293	84.56
466.512	88.56
466.732	98.56
466.951	94.56
467.171	89.56
467.391	94.56
467.61	103.56
467.829	87.56
468.049	86.56
468.268	78.56
468.488	95.56
468.707	83.56
468.927	91.56
469.146	96.56
469.365	86.56
469.585	79.56
469.804	101.56
470.023	101.56
470.243	93.56
470.462	75.56
470.681	86.56
470.901	84.56
471.12	87.56
471.339	82.56
471.558	99.56
471.777	87.56
471.997	82.56
472.216	71.56
472.435	92.56
472.654	90.56
472.873	88.56
473.092	80.56
473.311	104.56
473.53	91.56
473.749	85.56
473.968	85.56
474.187	93.56
474.406	86.56
474.625	97.56
474.844	95.56
475.063	92.56
475.282	90.56
475.501	87.56
475.72	83.56
475.939	74.56
476.158	93.56
476.377	83.56
476.596	90.56
476.814	77.56
477.033	89.56
477.252	71.56
477.471	103.56
477.69	99.56
477.908	85.56
478.127	87.56
478.346	90.56
478.564	99.56
478.783	123.56
479.002	88.56
479.22	95.56
479.439	103.56
479.658	113.56
479.876	84.56
480.095	85.56
480.313	93.56
480.532	90.56
480.751	94.56
480.969	93.56
481.188	106.56
481.406	89.56
481.624	83.56
481.843	85.56
482.061	97.56
482.28	85.56
482.498	97.56
482.717	69.56
482.935	85.56
483.153	86.56
483.372	93.56
483.59	93.56
483.808	80.56
484.027	91.56
484.245	98.56
484.463	94.56
484.681	109.56
484.9	98.56
485.118	106.56
485.336	107.56
485.554	98.56
485.772	103.56
485.99	117.56
486.209	97.56
486.427	107.56
486.645	110.56
486.863	111.56
487.081	96.56
487.299	95.56
487.517	102.56
487.735	87.56
487.953	90.56
488.171	91.56
488.389	89.56
488.607	105.56
488.825	106.56
489.043	89.56
489.261	85.56
489.479	82.56
489.696	85.56
489.914	95.56
490.132	86.56
490.35	96.56
490.568	93.56
490.786	82.56
491.003	79.56
491.221	75.56
491.439	90.56
491.657	105.56
491.874	96.56
492.092	93.56
492.31	84.56
492.527	99.56
492.745	100.56
492.963	103.56
493.18	90.56
493.398	89.56
493.615	103.56
493.833	105.56
494.05	93.56
494.268	80.56
494.485	85.56
494.703	96.56
494.92	93.56
495.138	90.56
495.355	94.56
495.573	95.56
495.79	96.56
496.008	90.56
496.225	86.56
496.442	100.56
496.66	90.56
496.877	101.56
497.094	92.56
497.312	89.56
497.529	99.56
497.746	76.56
497.963	87.56
498.181	88.56
498.398	78.56
498.615	93.56
498.832	103.56
499.049	89.56
499.267	93.56
499.484	90.56
499.701	93.56
499.918	98.56
500.135	86.56
500.352	89.56
500.569	86.56
500.786	93.56
501.003	100.56
501.22	89.56
501.437	91.56
501.654	79.56
501.871	96.56
502.088	91.56
502.305	97.56
502.522	89.56
502.739	84.56
502.956	72.56
503.172	96.56
503.389	83.56
503.606	98.56
503.823	96.56
504.04	89.56
504.256	93.56
504.473	84.56
504.69	103.56
504.907	104.56
505.123	79.56
505.34	95.56
505.557	72.56
505.773	97.56
505.99	97.56
506.207	95.56
506.423	86.56
506.64	77.56
506.856	83.56
507.073	94.56
507.289	88.56
507.506	102.56
507.722	135.56
507.939	94.56
508.155	77.56
508.372	90.56
508.588	85.56
508.805	103.56
509.021	87.56
509.238	88.56
509.454	86.56
509.67	111.56
509.887	93.56
510.103	121.56
510.319	207.56
510.536	753.56
510.752	2351.56
510.968	634.56
511.184	153.56
511.401	104.56
511.617	101.56
511.833	97.56
512.049	93.56
512.265	91.56
512.481	106.56
512.698	112.56
512.914	86.56
513.13	83.56
513.346	86.56
513.562	98.56
513.778	86.56
513.994	82.56
514.21	102.56
514.426	108.56
514.642	138.56
514.858	125.56
515.074	171.56
515.29	417.56
515.506	1381.56
515.721	508.56
515.937	135.56
516.153	107.56
516.369	89.56
