Data from Uncirc_1995_H10_HRD10591_00078.txt Node
Date: Wed Jan 03 11:35:49 EST 2024
User: Yrep
Spectrometer: HR+D1059
Trigger mode: 1
Integration Time (sec): 1.000000E-1
Scans to average: 1
Electric dark correction enabled: true
Nonlinearity correction enabled: false
Boxcar width: 0
XAxis mode: Wavelengths
Number of Pixels in Spectrum: 2048
>>>>>Begin Spectral Data<<<<<
223.165	-16.12
223.4	-16.12
223.635	-16.12
223.869	-12.12
224.104	-15.12
224.338	-20.12
224.573	-14.12
224.808	-7.12
225.042	-13.12
225.277	-17.12
225.511	-7.12
225.746	8.88
225.98	9.88
226.215	27.88
226.449	15.88
226.683	17.88
226.918	26.88
227.152	14.88
227.387	39.88
227.621	53.88
227.856	61.88
228.09	52.88
228.324	59.88
228.559	50.88
228.793	60.88
229.027	69.88
229.262	66.88
229.496	70.88
229.73	73.88
229.964	79.88
230.199	63.88
230.433	77.88
230.667	86.88
230.901	86.88
231.136	63.88
231.37	65.88
231.604	76.88
231.838	70.88
232.072	63.88
232.306	75.88
232.541	84.88
232.775	81.88
233.009	83.88
233.243	76.88
233.477	81.88
233.711	82.88
233.945	75.88
234.179	96.88
234.413	85.88
234.647	72.88
234.881	76.88
235.115	88.88
235.349	73.88
235.583	66.88
235.817	81.88
236.051	78.88
236.285	81.88
236.519	84.88
236.753	103.88
236.987	82.88
237.221	81.88
237.455	77.88
237.689	79.88
237.922	90.88
238.156	73.88
238.39	79.88
238.624	73.88
238.858	81.88
239.091	74.88
239.325	73.88
239.559	84.88
239.793	49.88
240.027	81.88
240.26	79.88
240.494	73.88
240.728	82.88
240.961	88.88
241.195	79.88
241.429	71.88
241.662	61.88
241.896	77.88
242.13	69.88
242.363	78.88
242.597	64.88
242.83	82.88
243.064	66.88
243.298	72.88
243.531	83.88
243.765	75.88
243.998	73.88
244.232	77.88
244.465	89.88
244.699	79.88
244.932	81.88
245.166	77.88
245.399	74.88
245.633	79.88
245.866	78.88
246.099	75.88
246.333	73.88
246.566	86.88
246.8	85.88
247.033	72.88
247.266	83.88
247.5	89.88
247.733	87.88
247.966	73.88
248.2	65.88
248.433	75.88
248.666	85.88
248.899	81.88
249.133	77.88
249.366	111.88
249.599	107.88
249.832	95.88
250.066	80.88
250.299	77.88
250.532	75.88
250.765	76.88
250.998	75.88
251.231	76.88
251.465	75.88
251.698	70.88
251.931	89.88
252.164	85.88
252.397	80.88
252.63	77.88
252.863	74.88
253.096	87.88
253.329	90.88
253.562	96.88
253.795	78.88
254.028	73.88
254.261	74.88
254.494	63.88
254.727	88.88
254.96	73.88
255.193	78.88
255.426	75.88
255.659	73.88
255.892	82.88
256.124	78.88
256.357	76.88
256.59	81.88
256.823	79.88
257.056	82.88
257.289	84.88
257.521	87.88
257.754	66.88
257.987	82.88
258.22	83.88
258.452	79.88
258.685	91.88
258.918	85.88
259.151	97.88
259.383	79.88
259.616	69.88
259.849	89.88
260.081	81.88
260.314	92.88
260.547	92.88
260.779	90.88
261.012	90.88
261.244	92.88
261.477	78.88
261.71	87.88
261.942	94.88
262.175	120.88
262.407	83.88
262.64	83.88
262.872	80.88
263.105	80.88
263.337	79.88
263.57	81.88
263.802	79.88
264.035	78.88
264.267	80.88
264.499	75.88
264.732	75.88
264.964	86.88
265.197	77.88
265.429	83.88
265.661	86.88
265.894	90.88
266.126	80.88
266.358	74.88
266.591	88.88
266.823	76.88
267.055	94.88
267.287	77.88
267.52	76.88
267.752	85.88
267.984	64.88
268.216	73.88
268.448	74.88
268.681	103.88
268.913	87.88
269.145	96.88
269.377	75.88
269.609	75.88
269.841	87.88
270.073	61.88
270.306	78.88
270.538	84.88
270.77	91.88
271.002	74.88
271.234	94.88
271.466	79.88
271.698	84.88
271.93	83.88
272.162	96.88
272.394	83.88
272.626	94.88
272.858	86.88
273.09	86.88
273.322	96.88
273.553	84.88
273.785	66.88
274.017	77.88
274.249	81.88
274.481	97.88
274.713	83.88
274.945	75.88
275.176	84.88
275.408	76.88
275.64	90.88
275.872	88.88
276.104	78.88
276.335	92.88
276.567	102.88
276.799	107.88
277.031	83.88
277.262	92.88
277.494	83.88
277.726	81.88
277.957	85.88
278.189	79.88
278.421	80.88
278.652	83.88
278.884	91.88
279.115	86.88
279.347	89.88
279.579	77.88
279.81	88.88
280.042	80.88
280.273	79.88
280.505	75.88
280.736	85.88
280.968	91.88
281.199	91.88
281.431	101.88
281.662	94.88
281.894	100.88
282.125	94.88
282.356	122.88
282.588	139.88
282.819	91.88
283.051	91.88
283.282	77.88
283.513	89.88
283.745	77.88
283.976	87.88
284.207	84.88
284.439	88.88
284.67	89.88
284.901	81.88
285.132	85.88
285.364	99.88
285.595	89.88
285.826	89.88
286.057	75.88
286.288	80.88
286.52	73.88
286.751	88.88
286.982	89.88
287.213	79.88
287.444	97.88
287.675	79.88
287.906	82.88
288.138	94.88
288.369	93.88
288.6	96.88
288.831	80.88
289.062	86.88
289.293	92.88
289.524	82.88
289.755	90.88
289.986	77.88
290.217	81.88
290.448	90.88
290.679	85.88
290.91	86.88
291.141	90.88
291.371	73.88
291.602	88.88
291.833	98.88
292.064	79.88
292.295	85.88
292.526	79.88
292.757	85.88
292.987	91.88
293.218	86.88
293.449	84.88
293.68	84.88
293.91	92.88
294.141	83.88
294.372	85.88
294.603	88.88
294.833	81.88
295.064	66.88
295.295	91.88
295.525	94.88
295.756	92.88
295.987	116.88
296.217	144.88
296.448	127.88
296.679	99.88
296.909	89.88
297.14	85.88
297.37	97.88
297.601	87.88
297.831	83.88
298.062	84.88
298.292	79.88
298.523	89.88
298.753	85.88
298.984	91.88
299.214	75.88
299.445	95.88
299.675	87.88
299.905	102.88
300.136	83.88
300.366	84.88
300.597	79.88
300.827	91.88
301.057	94.88
301.288	98.88
301.518	88.88
301.748	81.88
301.979	87.88
302.209	87.88
302.439	88.88
302.669	80.88
302.9	92.88
303.13	94.88
303.36	75.88
303.59	99.88
303.82	97.88
304.051	91.88
304.281	87.88
304.511	89.88
304.741	80.88
304.971	87.88
305.201	81.88
305.431	75.88
305.661	96.88
305.891	93.88
306.121	97.88
306.352	93.88
306.582	108.88
306.812	91.88
307.042	77.88
307.272	91.88
307.502	89.88
307.731	88.88
307.961	102.88
308.191	99.88
308.421	92.88
308.651	96.88
308.881	83.88
309.111	111.88
309.341	87.88
309.571	96.88
309.8	94.88
310.03	98.88
310.26	87.88
310.49	90.88
310.72	86.88
310.949	85.88
311.179	74.88
311.409	88.88
311.639	94.88
311.868	91.88
312.098	80.88
312.328	89.88
312.557	77.88
312.787	97.88
313.017	94.88
313.246	83.88
313.476	103.88
313.706	102.88
313.935	102.88
314.165	99.88
314.394	94.88
314.624	79.88
314.853	94.88
315.083	89.88
315.312	98.88
315.542	85.88
315.771	87.88
316.001	81.88
316.23	98.88
316.46	79.88
316.689	94.88
316.919	99.88
317.148	99.88
317.377	89.88
317.607	91.88
317.836	101.88
318.065	94.88
318.295	89.88
318.524	98.88
318.753	82.88
318.983	85.88
319.212	101.88
319.441	108.88
319.67	118.88
319.9	101.88
320.129	98.88
320.358	96.88
320.587	96.88
320.816	97.88
321.046	105.88
321.275	94.88
321.504	94.88
321.733	98.88
321.962	103.88
322.191	106.88
322.42	104.88
322.649	97.88
322.878	88.88
323.108	105.88
323.337	102.88
323.566	135.88
323.795	155.88
324.024	208.88
324.253	408.88
324.482	853.88
324.71	1757.88
324.939	2374.88
325.168	843.88
325.397	260.88
325.626	139.88
325.855	121.88
326.084	124.88
326.313	127.88
326.542	143.88
326.77	237.88
326.999	465.88
327.228	1000.88
327.457	1805.88
327.686	1405.88
327.914	375.88
328.143	173.88
328.372	144.88
328.6	117.88
328.829	113.88
329.058	113.88
329.287	124.88
329.515	126.88
329.744	99.88
329.972	83.88
330.201	104.88
330.43	95.88
330.658	113.88
330.887	127.88
331.115	121.88
331.344	100.88
331.572	104.88
331.801	105.88
332.03	87.88
332.258	87.88
332.486	88.88
332.715	88.88
332.943	103.88
333.172	90.88
333.4	89.88
333.629	106.88
333.857	103.88
334.085	102.88
334.314	105.88
334.542	98.88
334.771	106.88
334.999	105.88
335.227	100.88
335.455	102.88
335.684	94.88
335.912	92.88
336.14	99.88
336.369	100.88
336.597	105.88
336.825	92.88
337.053	71.88
337.281	103.88
337.51	108.88
337.738	103.88
337.966	94.88
338.194	96.88
338.422	105.88
338.65	87.88
338.878	82.88
339.106	91.88
339.334	81.88
339.562	86.88
339.79	96.88
340.018	85.88
340.246	90.88
340.474	78.88
340.702	100.88
340.93	88.88
341.158	90.88
341.386	85.88
341.614	113.88
341.842	105.88
342.07	96.88
342.298	101.88
342.526	90.88
342.754	90.88
342.981	72.88
343.209	83.88
343.437	106.88
343.665	90.88
343.893	96.88
344.12	99.88
344.348	94.88
344.576	81.88
344.804	96.88
345.031	81.88
345.259	99.88
345.487	106.88
345.714	97.88
345.942	89.88
346.17	97.88
346.397	99.88
346.625	81.88
346.853	83.88
347.08	90.88
347.308	111.88
347.535	76.88
347.763	97.88
347.99	106.88
348.218	94.88
348.445	107.88
348.673	98.88
348.9	90.88
349.128	110.88
349.355	103.88
349.583	104.88
349.81	92.88
350.037	104.88
350.265	86.88
350.492	90.88
350.72	74.88
350.947	103.88
351.174	95.88
351.402	102.88
351.629	92.88
351.856	102.88
352.083	112.88
352.311	103.88
352.538	91.88
352.765	114.88
352.992	111.88
353.22	112.88
353.447	104.88
353.674	103.88
353.901	95.88
354.128	90.88
354.355	104.88
354.583	95.88
354.81	103.88
355.037	100.88
355.264	90.88
355.491	98.88
355.718	100.88
355.945	95.88
356.172	95.88
356.399	98.88
356.626	85.88
356.853	97.88
357.08	85.88
357.307	96.88
357.534	86.88
357.761	81.88
357.988	93.88
358.215	99.88
358.441	81.88
358.668	86.88
358.895	77.88
359.122	81.88
359.349	87.88
359.576	97.88
359.802	88.88
360.029	103.88
360.256	112.88
360.483	88.88
360.709	80.88
360.936	95.88
361.163	93.88
361.39	87.88
361.616	98.88
361.843	90.88
362.07	94.88
362.296	88.88
362.523	96.88
362.749	85.88
362.976	99.88
363.203	94.88
363.429	77.88
363.656	90.88
363.882	92.88
364.109	112.88
364.335	102.88
364.562	83.88
364.788	94.88
365.015	108.88
365.241	101.88
365.468	101.88
365.694	81.88
365.92	90.88
366.147	88.88
366.373	88.88
366.599	95.88
366.826	95.88
367.052	94.88
367.278	99.88
367.505	100.88
367.731	84.88
367.957	91.88
368.184	92.88
368.41	80.88
368.636	113.88
368.862	100.88
369.089	109.88
369.315	96.88
369.541	94.88
369.767	97.88
369.993	85.88
370.219	103.88
370.445	89.88
370.672	77.88
370.898	92.88
371.124	88.88
371.35	82.88
371.576	89.88
371.802	98.88
372.028	85.88
372.254	79.88
372.48	83.88
372.706	91.88
372.932	92.88
373.158	83.88
373.384	73.88
373.61	94.88
373.835	94.88
374.061	78.88
374.287	78.88
374.513	96.88
374.739	80.88
374.965	88.88
375.191	92.88
375.416	92.88
375.642	86.88
375.868	96.88
376.094	91.88
376.319	97.88
376.545	78.88
376.771	96.88
376.997	103.88
377.222	74.88
377.448	94.88
377.674	102.88
377.899	97.88
378.125	76.88
378.35	86.88
378.576	75.88
378.802	93.88
379.027	76.88
379.253	82.88
379.478	92.88
379.704	88.88
379.929	89.88
380.155	92.88
380.38	80.88
380.606	100.88
380.831	93.88
381.057	98.88
381.282	86.88
381.507	102.88
381.733	104.88
381.958	102.88
382.184	93.88
382.409	91.88
382.634	93.88
382.86	103.88
383.085	104.88
383.31	111.88
383.535	114.88
383.761	75.88
383.986	89.88
384.211	71.88
384.436	77.88
384.662	94.88
384.887	99.88
385.112	100.88
385.337	90.88
385.562	109.88
385.787	106.88
386.013	98.88
386.238	109.88
386.463	104.88
386.688	115.88
386.913	110.88
387.138	100.88
387.363	101.88
387.588	101.88
387.813	86.88
388.038	91.88
388.263	97.88
388.488	90.88
388.713	104.88
388.938	98.88
389.163	90.88
389.387	96.88
389.612	112.88
389.837	96.88
390.062	82.88
390.287	89.88
390.512	80.88
390.736	72.88
390.961	104.88
391.186	105.88
391.411	83.88
391.636	90.88
391.86	88.88
392.085	79.88
392.31	74.88
392.534	77.88
392.759	82.88
392.984	70.88
393.208	95.88
393.433	87.88
393.658	83.88
393.882	90.88
394.107	80.88
394.331	71.88
394.556	85.88
394.78	97.88
395.005	81.88
395.229	94.88
395.454	87.88
395.678	67.88
395.903	93.88
396.127	89.88
396.352	80.88
396.576	73.88
396.801	88.88
397.025	90.88
397.249	82.88
397.474	93.88
397.698	96.88
397.922	85.88
398.147	83.88
398.371	91.88
398.595	90.88
398.82	82.88
399.044	85.88
399.268	91.88
399.492	84.88
399.717	82.88
399.941	77.88
400.165	79.88
400.389	87.88
400.613	99.88
400.837	88.88
401.062	79.88
401.286	88.88
401.51	83.88
401.734	81.88
401.958	102.88
402.182	136.88
402.406	147.88
402.63	120.88
402.854	88.88
403.078	75.88
403.302	91.88
403.526	83.88
403.75	107.88
403.974	98.88
404.198	83.88
404.422	89.88
404.645	73.88
404.869	88.88
405.093	74.88
405.317	109.88
405.541	99.88
405.765	100.88
405.988	120.88
406.212	175.88
406.436	213.88
406.66	131.88
406.883	91.88
407.107	88.88
407.331	85.88
407.555	93.88
407.778	105.88
408.002	92.88
408.226	90.88
408.449	83.88
408.673	93.88
408.896	84.88
409.12	76.88
409.344	86.88
409.567	80.88
409.791	103.88
410.014	82.88
410.238	84.88
410.461	96.88
410.685	89.88
410.908	106.88
411.132	97.88
411.355	101.88
411.578	90.88
411.802	93.88
412.025	81.88
412.249	81.88
412.472	89.88
412.695	96.88
412.919	82.88
413.142	94.88
413.365	81.88
413.589	90.88
413.812	72.88
414.035	86.88
414.258	89.88
414.482	85.88
414.705	90.88
414.928	93.88
415.151	93.88
415.374	81.88
415.597	95.88
415.821	79.88
416.044	83.88
416.267	85.88
416.49	90.88
416.713	89.88
416.936	98.88
417.159	82.88
417.382	81.88
417.605	88.88
417.828	92.88
418.051	83.88
418.274	77.88
418.497	92.88
418.72	77.88
418.943	82.88
419.166	101.88
419.389	92.88
419.611	95.88
419.834	83.88
420.057	76.88
420.28	77.88
420.503	86.88
420.726	98.88
420.948	96.88
421.171	96.88
421.394	88.88
421.617	86.88
421.839	90.88
422.062	90.88
422.285	85.88
422.507	93.88
422.73	87.88
422.953	75.88
423.175	86.88
423.398	83.88
423.621	73.88
423.843	78.88
424.066	98.88
424.288	96.88
424.511	101.88
424.733	102.88
424.956	117.88
425.178	89.88
425.401	93.88
425.623	86.88
425.846	68.88
426.068	93.88
426.291	87.88
426.513	81.88
426.735	92.88
426.958	91.88
427.18	102.88
427.402	112.88
427.625	154.88
427.847	113.88
428.069	108.88
428.292	81.88
428.514	88.88
428.736	72.88
428.958	87.88
429.181	89.88
429.403	90.88
429.625	89.88
429.847	99.88
430.069	96.88
430.292	85.88
430.514	85.88
430.736	93.88
430.958	98.88
431.18	82.88
431.402	92.88
431.624	70.88
431.846	85.88
432.068	89.88
432.29	82.88
432.512	78.88
432.734	90.88
432.956	87.88
433.178	104.88
433.4	91.88
433.622	73.88
433.844	89.88
434.066	88.88
434.287	82.88
434.509	83.88
434.731	97.88
434.953	89.88
435.175	91.88
435.397	99.88
435.618	92.88
435.84	104.88
436.062	104.88
436.284	118.88
436.505	106.88
436.727	93.88
436.949	99.88
437.17	89.88
437.392	66.88
437.614	97.88
437.835	111.88
438.057	105.88
438.278	106.88
438.5	96.88
438.721	129.88
438.943	106.88
439.165	104.88
439.386	90.88
439.608	98.88
439.829	121.88
440.05	124.88
440.272	127.88
440.493	95.88
440.715	84.88
440.936	74.88
441.158	81.88
441.379	98.88
441.6	89.88
441.822	96.88
442.043	94.88
442.264	86.88
442.486	86.88
442.707	86.88
442.928	110.88
443.149	128.88
443.371	114.88
443.592	105.88
443.813	93.88
444.034	95.88
444.255	88.88
444.476	84.88
444.698	93.88
444.919	90.88
445.14	134.88
445.361	126.88
445.582	119.88
445.803	121.88
446.024	123.88
446.245	123.88
446.466	89.88
446.687	90.88
446.908	92.88
447.129	90.88
447.35	77.88
447.571	99.88
447.792	93.88
448.013	84.88
448.234	95.88
448.455	103.88
448.675	119.88
448.896	106.88
449.117	83.88
449.338	91.88
449.559	124.88
449.779	136.88
450	91.88
450.221	82.88
450.442	79.88
450.662	94.88
450.883	100.88
451.104	114.88
451.324	95.88
451.545	82.88
451.766	96.88
451.986	93.88
452.207	81.88
452.428	94.88
452.648	99.88
452.869	117.88
453.089	110.88
453.31	109.88
453.53	101.88
453.751	100.88
453.971	103.88
454.192	108.88
454.412	84.88
454.633	81.88
454.853	87.88
455.073	86.88
455.294	89.88
455.514	97.88
455.734	78.88
455.955	90.88
456.175	85.88
456.395	74.88
456.616	84.88
456.836	93.88
457.056	81.88
457.276	82.88
457.497	80.88
457.717	76.88
457.937	82.88
458.157	88.88
458.377	100.88
458.598	106.88
458.818	139.88
459.038	156.88
459.258	118.88
459.478	106.88
459.698	89.88
459.918	78.88
460.138	72.88
460.358	79.88
460.578	83.88
460.798	85.88
461.018	80.88
461.238	97.88
461.458	96.88
461.678	78.88
461.898	70.88
462.118	81.88
462.338	82.88
462.558	88.88
462.777	86.88
462.997	96.88
463.217	87.88
463.437	80.88
463.657	85.88
463.876	82.88
464.096	75.88
464.316	91.88
464.536	99.88
464.755	85.88
464.975	93.88
465.195	133.88
465.414	154.88
465.634	87.88
465.854	79.88
466.073	91.88
466.293	84.88
466.512	80.88
466.732	88.88
466.951	99.88
467.171	94.88
467.391	103.88
467.61	108.88
467.829	97.88
468.049	91.88
468.268	86.88
468.488	87.88
468.707	83.88
468.927	86.88
469.146	82.88
469.365	87.88
469.585	93.88
469.804	84.88
470.023	89.88
470.243	99.88
470.462	95.88
470.681	103.88
470.901	89.88
471.12	92.88
471.339	93.88
471.558	81.88
471.777	80.88
471.997	81.88
472.216	84.88
472.435	83.88
472.654	87.88
472.873	83.88
473.092	94.88
473.311	92.88
473.53	91.88
473.749	93.88
473.968	101.88
474.187	106.88
474.406	98.88
474.625	72.88
474.844	90.88
475.063	83.88
475.282	82.88
475.501	81.88
475.72	76.88
475.939	80.88
476.158	85.88
476.377	79.88
476.596	98.88
476.814	94.88
477.033	97.88
477.252	78.88
477.471	78.88
477.69	87.88
477.908	87.88
478.127	101.88
478.346	81.88
478.564	93.88
478.783	99.88
479.002	87.88
479.22	66.88
479.439	89.88
479.658	99.88
479.876	89.88
480.095	82.88
480.313	84.88
480.532	97.88
480.751	92.88
480.969	91.88
481.188	88.88
481.406	100.88
481.624	86.88
481.843	89.88
482.061	84.88
482.28	88.88
482.498	85.88
482.717	88.88
482.935	90.88
483.153	83.88
483.372	91.88
483.59	89.88
483.808	89.88
484.027	98.88
484.245	79.88
484.463	105.88
484.681	111.88
484.9	86.88
485.118	82.88
485.336	101.88
485.554	103.88
485.772	90.88
485.99	101.88
486.209	111.88
486.427	82.88
486.645	92.88
486.863	119.88
487.081	93.88
487.299	93.88
487.517	113.88
487.735	93.88
487.953	90.88
488.171	89.88
488.389	91.88
488.607	95.88
488.825	89.88
489.043	95.88
489.261	98.88
489.479	94.88
489.696	91.88
489.914	92.88
490.132	89.88
490.35	85.88
490.568	86.88
490.786	78.88
491.003	69.88
491.221	89.88
491.439	82.88
491.657	90.88
491.874	87.88
492.092	88.88
492.31	91.88
492.527	85.88
492.745	85.88
492.963	87.88
493.18	85.88
493.398	93.88
493.615	90.88
493.833	86.88
494.05	97.88
494.268	85.88
494.485	89.88
494.703	74.88
494.92	97.88
495.138	75.88
495.355	102.88
495.573	96.88
495.79	80.88
496.008	79.88
496.225	94.88
496.442	93.88
496.66	104.88
496.877	91.88
497.094	96.88
497.312	77.88
497.529	83.88
497.746	108.88
497.963	95.88
498.181	92.88
498.398	102.88
498.615	109.88
498.832	105.88
499.049	88.88
499.267	82.88
499.484	87.88
499.701	81.88
499.918	97.88
500.135	97.88
500.352	85.88
500.569	95.88
500.786	96.88
501.003	93.88
501.22	81.88
501.437	97.88
501.654	81.88
501.871	95.88
502.088	82.88
502.305	82.88
502.522	85.88
502.739	79.88
502.956	98.88
503.172	85.88
503.389	84.88
503.606	101.88
503.823	98.88
504.04	97.88
504.256	96.88
504.473	86.88
504.69	92.88
504.907	80.88
505.123	82.88
505.34	102.88
505.557	102.88
505.773	111.88
505.99	92.88
506.207	85.88
506.423	89.88
506.64	83.88
506.856	84.88
507.073	85.88
507.289	89.88
507.506	102.88
507.722	107.88
507.939	107.88
508.155	108.88
508.372	93.88
508.588	91.88
508.805	83.88
509.021	83.88
509.238	103.88
509.454	94.88
509.67	104.88
509.887	115.88
510.103	140.88
510.319	216.88
510.536	814.88
510.752	2475.88
510.968	681.88
511.184	158.88
511.401	110.88
511.617	94.88
511.833	84.88
512.049	84.88
512.265	103.88
512.481	98.88
512.698	89.88
512.914	97.88
513.13	81.88
513.346	101.88
513.562	103.88
513.778	93.88
513.994	98.88
514.21	90.88
514.426	114.88
514.642	120.88
514.858	128.88
515.074	170.88
515.29	445.88
515.506	1431.88
515.721	511.88
515.937	149.88
516.153	117.88
