Data from Uncirc_1995_H10_HRD10591_00032.txt Node
Date: Wed Jan 03 11:35:40 EST 2024
User: Yrep
Spectrometer: HR+D1059
Trigger mode: 1
Integration Time (sec): 1.000000E-1
Scans to average: 1
Electric dark correction enabled: true
Nonlinearity correction enabled: false
Boxcar width: 0
XAxis mode: Wavelengths
Number of Pixels in Spectrum: 2048
>>>>>Begin Spectral Data<<<<<
223.165	-12.12
223.4	-12.12
223.635	-12.12
223.869	-21.12
224.104	-12.12
224.338	-26.12
224.573	-27.12
224.808	-15.12
225.042	-15.12
225.277	-18.12
225.511	5.88
225.746	19.88
225.98	10.88
226.215	12.88
226.449	21.88
226.683	20.88
226.918	21.88
227.152	32.88
227.387	37.88
227.621	29.88
227.856	45.88
228.09	45.88
228.324	45.88
228.559	63.88
228.793	57.88
229.027	62.88
229.262	70.88
229.496	64.88
229.73	91.88
229.964	90.88
230.199	85.88
230.433	76.88
230.667	86.88
230.901	88.88
231.136	78.88
231.37	80.88
231.604	77.88
231.838	77.88
232.072	76.88
232.306	103.88
232.541	84.88
232.775	77.88
233.009	76.88
233.243	70.88
233.477	77.88
233.711	75.88
233.945	86.88
234.179	85.88
234.413	82.88
234.647	76.88
234.881	72.88
235.115	79.88
235.349	82.88
235.583	70.88
235.817	72.88
236.051	88.88
236.285	79.88
236.519	72.88
236.753	82.88
236.987	80.88
237.221	89.88
237.455	78.88
237.689	78.88
237.922	80.88
238.156	74.88
238.39	73.88
238.624	72.88
238.858	66.88
239.091	76.88
239.325	74.88
239.559	83.88
239.793	88.88
240.027	80.88
240.26	83.88
240.494	69.88
240.728	65.88
240.961	67.88
241.195	85.88
241.429	84.88
241.662	63.88
241.896	88.88
242.13	76.88
242.363	81.88
242.597	81.88
242.83	86.88
243.064	86.88
243.298	68.88
243.531	72.88
243.765	60.88
243.998	78.88
244.232	80.88
244.465	96.88
244.699	72.88
244.932	74.88
245.166	78.88
245.399	77.88
245.633	75.88
245.866	83.88
246.099	69.88
246.333	72.88
246.566	76.88
246.8	69.88
247.033	81.88
247.266	76.88
247.5	68.88
247.733	81.88
247.966	84.88
248.2	86.88
248.433	91.88
248.666	82.88
248.899	83.88
249.133	84.88
249.366	103.88
249.599	103.88
249.832	85.88
250.066	91.88
250.299	91.88
250.532	83.88
250.765	69.88
250.998	84.88
251.231	63.88
251.465	85.88
251.698	80.88
251.931	94.88
252.164	79.88
252.397	78.88
252.63	83.88
252.863	88.88
253.096	69.88
253.329	90.88
253.562	77.88
253.795	93.88
254.028	89.88
254.261	83.88
254.494	85.88
254.727	85.88
254.96	70.88
255.193	72.88
255.426	92.88
255.659	88.88
255.892	81.88
256.124	64.88
256.357	83.88
256.59	72.88
256.823	83.88
257.056	74.88
257.289	95.88
257.521	97.88
257.754	89.88
257.987	83.88
258.22	93.88
258.452	67.88
258.685	84.88
258.918	84.88
259.151	92.88
259.383	93.88
259.616	78.88
259.849	68.88
260.081	95.88
260.314	80.88
260.547	79.88
260.779	75.88
261.012	66.88
261.244	84.88
261.477	84.88
261.71	89.88
261.942	104.88
262.175	114.88
262.407	96.88
262.64	83.88
262.872	83.88
263.105	85.88
263.337	99.88
263.57	89.88
263.802	84.88
264.035	75.88
264.267	67.88
264.499	97.88
264.732	88.88
264.964	77.88
265.197	79.88
265.429	86.88
265.661	92.88
265.894	76.88
266.126	83.88
266.358	101.88
266.591	73.88
266.823	88.88
267.055	79.88
267.287	90.88
267.52	84.88
267.752	82.88
267.984	98.88
268.216	89.88
268.448	98.88
268.681	96.88
268.913	74.88
269.145	82.88
269.377	76.88
269.609	87.88
269.841	82.88
270.073	78.88
270.306	88.88
270.538	80.88
270.77	87.88
271.002	91.88
271.234	80.88
271.466	86.88
271.698	86.88
271.93	84.88
272.162	74.88
272.394	76.88
272.626	87.88
272.858	75.88
273.09	97.88
273.322	94.88
273.553	84.88
273.785	100.88
274.017	78.88
274.249	100.88
274.481	77.88
274.713	92.88
274.945	77.88
275.176	72.88
275.408	79.88
275.64	74.88
275.872	89.88
276.104	108.88
276.335	92.88
276.567	97.88
276.799	103.88
277.031	108.88
277.262	88.88
277.494	77.88
277.726	85.88
277.957	87.88
278.189	102.88
278.421	80.88
278.652	79.88
278.884	90.88
279.115	97.88
279.347	83.88
279.579	94.88
279.81	86.88
280.042	96.88
280.273	94.88
280.505	92.88
280.736	78.88
280.968	88.88
281.199	83.88
281.431	101.88
281.662	91.88
281.894	100.88
282.125	105.88
282.356	89.88
282.588	128.88
282.819	112.88
283.051	90.88
283.282	89.88
283.513	82.88
283.745	84.88
283.976	76.88
284.207	93.88
284.439	85.88
284.67	81.88
284.901	83.88
285.132	89.88
285.364	84.88
285.595	88.88
285.826	92.88
286.057	92.88
286.288	84.88
286.52	87.88
286.751	76.88
286.982	100.88
287.213	88.88
287.444	82.88
287.675	78.88
287.906	98.88
288.138	86.88
288.369	108.88
288.6	98.88
288.831	88.88
289.062	83.88
289.293	80.88
289.524	92.88
289.755	88.88
289.986	92.88
290.217	89.88
290.448	89.88
290.679	91.88
290.91	86.88
291.141	95.88
291.371	94.88
291.602	85.88
291.833	96.88
292.064	84.88
292.295	91.88
292.526	86.88
292.757	83.88
292.987	98.88
293.218	97.88
293.449	79.88
293.68	96.88
293.91	82.88
294.141	84.88
294.372	101.88
294.603	99.88
294.833	76.88
295.064	100.88
295.295	99.88
295.525	99.88
295.756	100.88
295.987	113.88
296.217	129.88
296.448	116.88
296.679	99.88
296.909	102.88
297.14	109.88
297.37	95.88
297.601	81.88
297.831	84.88
298.062	87.88
298.292	93.88
298.523	90.88
298.753	108.88
298.984	73.88
299.214	101.88
299.445	83.88
299.675	85.88
299.905	109.88
300.136	80.88
300.366	90.88
300.597	88.88
300.827	94.88
301.057	96.88
301.288	94.88
301.518	102.88
301.748	94.88
301.979	105.88
302.209	68.88
302.439	96.88
302.669	90.88
302.9	84.88
303.13	89.88
303.36	91.88
303.59	102.88
303.82	106.88
304.051	76.88
304.281	96.88
304.511	102.88
304.741	108.88
304.971	86.88
305.201	85.88
305.431	98.88
305.661	94.88
305.891	81.88
306.121	106.88
306.352	105.88
306.582	100.88
306.812	81.88
307.042	97.88
307.272	103.88
307.502	76.88
307.731	85.88
307.961	101.88
308.191	96.88
308.421	91.88
308.651	84.88
308.881	108.88
309.111	99.88
309.341	94.88
309.571	93.88
309.8	84.88
310.03	90.88
310.26	89.88
310.49	94.88
310.72	94.88
310.949	101.88
311.179	89.88
311.409	90.88
311.639	85.88
311.868	85.88
312.098	97.88
312.328	101.88
312.557	89.88
312.787	102.88
313.017	95.88
313.246	93.88
313.476	105.88
313.706	94.88
313.935	105.88
314.165	101.88
314.394	94.88
314.624	93.88
314.853	96.88
315.083	99.88
315.312	82.88
315.542	82.88
315.771	83.88
316.001	91.88
316.23	101.88
316.46	101.88
316.689	99.88
316.919	97.88
317.148	91.88
317.377	95.88
317.607	100.88
317.836	108.88
318.065	76.88
318.295	92.88
318.524	92.88
318.753	96.88
318.983	101.88
319.212	103.88
319.441	101.88
319.67	97.88
319.9	99.88
320.129	97.88
320.358	95.88
320.587	89.88
320.816	98.88
321.046	98.88
321.275	102.88
321.504	106.88
321.733	101.88
321.962	106.88
322.191	97.88
322.42	99.88
322.649	92.88
322.878	107.88
323.108	123.88
323.337	112.88
323.566	150.88
323.795	168.88
324.024	227.88
324.253	420.88
324.482	854.88
324.71	1788.88
324.939	2277.88
325.168	829.88
325.397	234.88
325.626	162.88
325.855	144.88
326.084	123.88
326.313	144.88
326.542	152.88
326.77	228.88
326.999	449.88
327.228	997.88
327.457	1807.88
327.686	1420.88
327.914	403.88
328.143	205.88
328.372	141.88
328.6	128.88
328.829	109.88
329.058	122.88
329.287	128.88
329.515	114.88
329.744	93.88
329.972	98.88
330.201	97.88
330.43	98.88
330.658	106.88
330.887	122.88
331.115	132.88
331.344	101.88
331.572	101.88
331.801	110.88
332.03	98.88
332.258	104.88
332.486	80.88
332.715	100.88
332.943	100.88
333.172	102.88
333.4	105.88
333.629	112.88
333.857	112.88
334.085	110.88
334.314	88.88
334.542	88.88
334.771	84.88
334.999	101.88
335.227	106.88
335.455	92.88
335.684	104.88
335.912	88.88
336.14	104.88
336.369	113.88
336.597	108.88
336.825	85.88
337.053	96.88
337.281	91.88
337.51	108.88
337.738	82.88
337.966	94.88
338.194	87.88
338.422	105.88
338.65	100.88
338.878	93.88
339.106	97.88
339.334	87.88
339.562	72.88
339.79	90.88
340.018	78.88
340.246	99.88
340.474	92.88
340.702	97.88
340.93	93.88
341.158	89.88
341.386	92.88
341.614	102.88
341.842	105.88
342.07	90.88
342.298	80.88
342.526	92.88
342.754	95.88
342.981	90.88
343.209	77.88
343.437	97.88
343.665	84.88
343.893	86.88
344.12	93.88
344.348	100.88
344.576	92.88
344.804	106.88
345.031	92.88
345.259	97.88
345.487	106.88
345.714	89.88
345.942	87.88
346.17	85.88
346.397	86.88
346.625	103.88
346.853	97.88
347.08	74.88
347.308	96.88
347.535	97.88
347.763	102.88
347.99	101.88
348.218	105.88
348.445	93.88
348.673	109.88
348.9	94.88
349.128	99.88
349.355	99.88
349.583	86.88
349.81	100.88
350.037	94.88
350.265	94.88
350.492	103.88
350.72	92.88
350.947	98.88
351.174	99.88
351.402	108.88
351.629	105.88
351.856	88.88
352.083	109.88
352.311	104.88
352.538	100.88
352.765	113.88
352.992	120.88
353.22	117.88
353.447	112.88
353.674	82.88
353.901	93.88
354.128	89.88
354.355	84.88
354.583	102.88
354.81	100.88
355.037	111.88
355.264	101.88
355.491	91.88
355.718	94.88
355.945	113.88
356.172	90.88
356.399	105.88
356.626	91.88
356.853	88.88
357.08	98.88
357.307	96.88
357.534	95.88
357.761	108.88
357.988	90.88
358.215	113.88
358.441	97.88
358.668	110.88
358.895	87.88
359.122	95.88
359.349	86.88
359.576	84.88
359.802	98.88
360.029	102.88
360.256	106.88
360.483	99.88
360.709	102.88
360.936	100.88
361.163	89.88
361.39	104.88
361.616	81.88
361.843	86.88
362.07	88.88
362.296	96.88
362.523	87.88
362.749	93.88
362.976	85.88
363.203	97.88
363.429	97.88
363.656	93.88
363.882	99.88
364.109	84.88
364.335	86.88
364.562	99.88
364.788	106.88
365.015	85.88
365.241	91.88
365.468	98.88
365.694	102.88
365.92	88.88
366.147	85.88
366.373	79.88
366.599	89.88
366.826	86.88
367.052	92.88
367.278	90.88
367.505	100.88
367.731	85.88
367.957	93.88
368.184	98.88
368.41	111.88
368.636	107.88
368.862	111.88
369.089	109.88
369.315	97.88
369.541	97.88
369.767	76.88
369.993	89.88
370.219	88.88
370.445	89.88
370.672	95.88
370.898	92.88
371.124	60.88
371.35	87.88
371.576	101.88
371.802	92.88
372.028	96.88
372.254	89.88
372.48	94.88
372.706	98.88
372.932	100.88
373.158	95.88
373.384	100.88
373.61	95.88
373.835	83.88
374.061	94.88
374.287	92.88
374.513	89.88
374.739	84.88
374.965	86.88
375.191	97.88
375.416	80.88
375.642	99.88
375.868	87.88
376.094	89.88
376.319	96.88
376.545	98.88
376.771	92.88
376.997	95.88
377.222	90.88
377.448	86.88
377.674	97.88
377.899	84.88
378.125	79.88
378.35	92.88
378.576	101.88
378.802	96.88
379.027	101.88
379.253	105.88
379.478	82.88
379.704	82.88
379.929	102.88
380.155	90.88
380.38	98.88
380.606	116.88
380.831	98.88
381.057	110.88
381.282	102.88
381.507	89.88
381.733	97.88
381.958	111.88
382.184	100.88
382.409	111.88
382.634	100.88
382.86	91.88
383.085	97.88
383.31	96.88
383.535	105.88
383.761	96.88
383.986	98.88
384.211	104.88
384.436	105.88
384.662	117.88
384.887	107.88
385.112	103.88
385.337	99.88
385.562	88.88
385.787	90.88
386.013	121.88
386.238	99.88
386.463	99.88
386.688	115.88
386.913	112.88
387.138	105.88
387.363	122.88
387.588	96.88
387.813	102.88
388.038	121.88
388.263	113.88
388.488	115.88
388.713	101.88
388.938	103.88
389.163	98.88
389.387	85.88
389.612	95.88
389.837	107.88
390.062	88.88
390.287	89.88
390.512	95.88
390.736	84.88
390.961	92.88
391.186	90.88
391.411	96.88
391.636	87.88
391.86	86.88
392.085	90.88
392.31	90.88
392.534	79.88
392.759	84.88
392.984	90.88
393.208	76.88
393.433	92.88
393.658	95.88
393.882	97.88
394.107	85.88
394.331	88.88
394.556	101.88
394.78	98.88
395.005	99.88
395.229	100.88
395.454	88.88
395.678	83.88
395.903	73.88
396.127	83.88
396.352	92.88
396.576	99.88
396.801	88.88
397.025	83.88
397.249	90.88
397.474	85.88
397.698	81.88
397.922	86.88
398.147	92.88
398.371	82.88
398.595	80.88
398.82	88.88
399.044	86.88
399.268	88.88
399.492	82.88
399.717	82.88
399.941	86.88
400.165	85.88
400.389	101.88
400.613	91.88
400.837	87.88
401.062	87.88
401.286	91.88
401.51	94.88
401.734	109.88
401.958	103.88
402.182	127.88
402.406	153.88
402.63	114.88
402.854	82.88
403.078	88.88
403.302	101.88
403.526	100.88
403.75	98.88
403.974	74.88
404.198	80.88
404.422	96.88
404.645	103.88
404.869	91.88
405.093	93.88
405.317	102.88
405.541	98.88
405.765	111.88
405.988	103.88
406.212	170.88
406.436	212.88
406.66	119.88
406.883	85.88
407.107	89.88
407.331	95.88
407.555	104.88
407.778	90.88
408.002	79.88
408.226	75.88
408.449	88.88
408.673	92.88
408.896	97.88
409.12	88.88
409.344	96.88
409.567	94.88
409.791	93.88
410.014	113.88
410.238	90.88
410.461	83.88
410.685	94.88
410.908	84.88
411.132	107.88
411.355	100.88
411.578	91.88
411.802	99.88
412.025	90.88
412.249	88.88
412.472	103.88
412.695	87.88
412.919	92.88
413.142	87.88
413.365	77.88
413.589	84.88
413.812	85.88
414.035	108.88
414.258	103.88
414.482	98.88
414.705	97.88
414.928	89.88
415.151	75.88
415.374	84.88
415.597	85.88
415.821	78.88
416.044	100.88
416.267	90.88
416.49	88.88
416.713	93.88
416.936	101.88
417.159	89.88
417.382	94.88
417.605	95.88
417.828	110.88
418.051	102.88
418.274	102.88
418.497	71.88
418.72	83.88
418.943	76.88
419.166	90.88
419.389	83.88
419.611	93.88
419.834	104.88
420.057	91.88
420.28	104.88
420.503	83.88
420.726	81.88
420.948	81.88
421.171	92.88
421.394	83.88
421.617	85.88
421.839	89.88
422.062	93.88
422.285	92.88
422.507	97.88
422.73	105.88
422.953	88.88
423.175	86.88
423.398	65.88
423.621	88.88
423.843	96.88
424.066	73.88
424.288	98.88
424.511	59.88
424.733	92.88
424.956	106.88
425.178	109.88
425.401	94.88
425.623	104.88
425.846	94.88
426.068	93.88
426.291	94.88
426.513	74.88
426.735	90.88
426.958	87.88
427.18	101.88
427.402	128.88
427.625	164.88
427.847	127.88
428.069	105.88
428.292	92.88
428.514	82.88
428.736	91.88
428.958	84.88
429.181	98.88
429.403	80.88
429.625	94.88
429.847	95.88
430.069	97.88
430.292	98.88
430.514	89.88
430.736	79.88
430.958	94.88
431.18	92.88
431.402	89.88
431.624	88.88
431.846	81.88
432.068	83.88
432.29	88.88
432.512	76.88
432.734	77.88
432.956	91.88
433.178	98.88
433.4	97.88
433.622	89.88
433.844	89.88
434.066	89.88
434.287	92.88
434.509	101.88
434.731	92.88
434.953	81.88
435.175	95.88
435.397	80.88
435.618	90.88
435.84	107.88
436.062	113.88
436.284	111.88
436.505	97.88
436.727	109.88
436.949	109.88
437.17	95.88
437.392	95.88
437.614	94.88
437.835	102.88
438.057	115.88
438.278	112.88
438.5	101.88
438.721	108.88
438.943	90.88
439.165	90.88
439.386	73.88
439.608	99.88
439.829	118.88
440.05	124.88
440.272	131.88
440.493	105.88
440.715	83.88
440.936	93.88
441.158	95.88
441.379	85.88
441.6	81.88
441.822	90.88
442.043	101.88
442.264	90.88
442.486	106.88
442.707	93.88
442.928	109.88
443.149	111.88
443.371	125.88
443.592	105.88
443.813	105.88
444.034	110.88
444.255	92.88
444.476	102.88
444.698	89.88
444.919	91.88
445.14	133.88
445.361	122.88
445.582	120.88
445.803	116.88
446.024	128.88
446.245	121.88
446.466	109.88
446.687	84.88
446.908	89.88
447.129	98.88
447.35	89.88
447.571	101.88
447.792	103.88
448.013	86.88
448.234	103.88
448.455	96.88
448.675	102.88
448.896	97.88
449.117	88.88
449.338	109.88
449.559	124.88
449.779	128.88
450	90.88
450.221	88.88
450.442	93.88
450.662	106.88
450.883	92.88
451.104	113.88
451.324	89.88
451.545	84.88
451.766	90.88
451.986	89.88
452.207	88.88
452.428	88.88
452.648	93.88
452.869	119.88
453.089	100.88
453.31	124.88
453.53	90.88
453.751	82.88
453.971	90.88
454.192	121.88
454.412	106.88
454.633	100.88
454.853	97.88
455.073	91.88
455.294	83.88
455.514	83.88
455.734	89.88
455.955	80.88
456.175	88.88
456.395	85.88
456.616	85.88
456.836	84.88
457.056	87.88
457.276	91.88
457.497	83.88
457.717	76.88
457.937	73.88
458.157	84.88
458.377	90.88
458.598	105.88
458.818	148.88
459.038	142.88
459.258	108.88
459.478	83.88
459.698	89.88
459.918	88.88
460.138	84.88
460.358	90.88
460.578	99.88
460.798	86.88
461.018	99.88
461.238	100.88
461.458	96.88
461.678	84.88
461.898	82.88
462.118	87.88
462.338	84.88
462.558	92.88
462.777	90.88
462.997	88.88
463.217	84.88
463.437	85.88
463.657	83.88
463.876	74.88
464.096	92.88
464.316	94.88
464.536	102.88
464.755	97.88
464.975	95.88
465.195	156.88
465.414	158.88
465.634	109.88
465.854	93.88
466.073	98.88
466.293	94.88
466.512	93.88
466.732	103.88
466.951	74.88
467.171	105.88
467.391	86.88
467.61	110.88
467.829	99.88
468.049	88.88
468.268	86.88
468.488	90.88
468.707	91.88
468.927	85.88
469.146	89.88
469.365	81.88
469.585	111.88
469.804	94.88
470.023	104.88
470.243	82.88
470.462	101.88
470.681	115.88
470.901	85.88
471.12	86.88
471.339	93.88
471.558	86.88
471.777	83.88
471.997	82.88
472.216	87.88
472.435	97.88
472.654	75.88
472.873	90.88
473.092	86.88
473.311	82.88
473.53	80.88
473.749	96.88
473.968	86.88
474.187	102.88
474.406	98.88
474.625	82.88
474.844	86.88
475.063	97.88
475.282	88.88
475.501	100.88
475.72	85.88
475.939	96.88
476.158	84.88
476.377	78.88
476.596	89.88
476.814	85.88
477.033	89.88
477.252	93.88
477.471	87.88
477.69	94.88
477.908	91.88
478.127	92.88
478.346	85.88
478.564	84.88
478.783	77.88
479.002	93.88
479.22	92.88
479.439	102.88
479.658	101.88
479.876	92.88
480.095	88.88
480.313	89.88
480.532	92.88
480.751	75.88
480.969	81.88
481.188	90.88
481.406	91.88
481.624	82.88
481.843	94.88
482.061	82.88
482.28	92.88
482.498	91.88
482.717	94.88
482.935	94.88
483.153	86.88
483.372	97.88
483.59	104.88
483.808	99.88
484.027	106.88
484.245	99.88
484.463	78.88
484.681	96.88
484.9	90.88
485.118	101.88
485.336	100.88
485.554	93.88
485.772	104.88
485.99	94.88
486.209	97.88
486.427	92.88
486.645	114.88
486.863	95.88
487.081	98.88
487.299	97.88
487.517	85.88
487.735	84.88
487.953	93.88
488.171	93.88
488.389	98.88
488.607	94.88
488.825	89.88
489.043	86.88
489.261	98.88
489.479	95.88
489.696	98.88
489.914	90.88
490.132	89.88
490.35	77.88
490.568	81.88
490.786	88.88
491.003	93.88
491.221	100.88
491.439	89.88
491.657	84.88
491.874	85.88
492.092	93.88
492.31	83.88
492.527	93.88
492.745	90.88
492.963	83.88
493.18	92.88
493.398	74.88
493.615	97.88
493.833	100.88
494.05	90.88
494.268	92.88
494.485	89.88
494.703	86.88
494.92	94.88
495.138	81.88
495.355	86.88
495.573	95.88
495.79	101.88
496.008	105.88
496.225	88.88
496.442	100.88
496.66	84.88
496.877	88.88
497.094	93.88
497.312	85.88
497.529	88.88
497.746	92.88
497.963	89.88
498.181	94.88
498.398	96.88
498.615	116.88
498.832	106.88
499.049	84.88
499.267	90.88
499.484	92.88
499.701	90.88
499.918	99.88
500.135	109.88
500.352	84.88
500.569	95.88
500.786	96.88
501.003	96.88
501.22	95.88
501.437	83.88
501.654	103.88
501.871	123.88
502.088	85.88
502.305	75.88
502.522	100.88
502.739	92.88
502.956	89.88
503.172	106.88
503.389	99.88
503.606	106.88
503.823	97.88
504.04	97.88
504.256	109.88
504.473	97.88
504.69	90.88
504.907	84.88
505.123	98.88
505.34	84.88
505.557	95.88
505.773	88.88
505.99	97.88
506.207	83.88
506.423	97.88
506.64	89.88
506.856	97.88
507.073	81.88
507.289	89.88
507.506	101.88
507.722	114.88
507.939	128.88
508.155	98.88
508.372	120.88
508.588	102.88
508.805	91.88
509.021	102.88
509.238	104.88
509.454	100.88
509.67	104.88
509.887	113.88
510.103	134.88
510.319	241.88
510.536	782.88
510.752	2409.88
510.968	675.88
511.184	158.88
511.401	101.88
511.617	105.88
511.833	96.88
512.049	104.88
512.265	102.88
512.481	86.88
512.698	96.88
512.914	92.88
513.13	90.88
513.346	96.88
513.562	95.88
513.778	88.88
513.994	103.88
514.21	112.88
514.426	101.88
514.642	119.88
514.858	114.88
515.074	170.88
515.29	444.88
