Data from Uncirc_1995_H10_HRD10591_00002.txt Node
Date: Wed Jan 03 11:35:34 EST 2024
User: Yrep
Spectrometer: HR+D1059
Trigger mode: 1
Integration Time (sec): 1.000000E-1
Scans to average: 1
Electric dark correction enabled: true
Nonlinearity correction enabled: false
Boxcar width: 0
XAxis mode: Wavelengths
Number of Pixels in Spectrum: 2048
>>>>>Begin Spectral Data<<<<<
223.165	-16.94
223.4	-16.94
223.635	-16.94
223.869	-18.94
224.104	-14.94
224.338	-6.94
224.573	-8.94
224.808	-22.94
225.042	-5.94
225.277	-2.94
225.511	2.06
225.746	0.06
225.98	5.06
226.215	-1.94
226.449	19.06
226.683	15.06
226.918	27.06
227.152	32.06
227.387	37.06
227.621	37.06
227.856	51.06
228.09	47.06
228.324	56.06
228.559	67.06
228.793	64.06
229.027	56.06
229.262	77.06
229.496	66.06
229.73	83.06
229.964	67.06
230.199	75.06
230.433	79.06
230.667	73.06
230.901	83.06
231.136	91.06
231.37	73.06
231.604	99.06
231.838	81.06
232.072	93.06
232.306	72.06
232.541	92.06
232.775	65.06
233.009	84.06
233.243	87.06
233.477	87.06
233.711	80.06
233.945	73.06
234.179	89.06
234.413	91.06
234.647	86.06
234.881	87.06
235.115	73.06
235.349	83.06
235.583	82.06
235.817	74.06
236.051	61.06
236.285	83.06
236.519	81.06
236.753	79.06
236.987	73.06
237.221	82.06
237.455	86.06
237.689	76.06
237.922	76.06
238.156	68.06
238.39	57.06
238.624	78.06
238.858	72.06
239.091	71.06
239.325	73.06
239.559	69.06
239.793	78.06
240.027	77.06
240.26	82.06
240.494	82.06
240.728	84.06
240.961	88.06
241.195	82.06
241.429	81.06
241.662	79.06
241.896	60.06
242.13	79.06
242.363	87.06
242.597	83.06
242.83	68.06
243.064	55.06
243.298	79.06
243.531	83.06
243.765	74.06
243.998	72.06
244.232	82.06
244.465	79.06
244.699	80.06
244.932	66.06
245.166	68.06
245.399	81.06
245.633	77.06
245.866	80.06
246.099	87.06
246.333	85.06
246.566	79.06
246.8	67.06
247.033	59.06
247.266	79.06
247.5	79.06
247.733	76.06
247.966	77.06
248.2	84.06
248.433	87.06
248.666	82.06
248.899	90.06
249.133	78.06
249.366	99.06
249.599	97.06
249.832	89.06
250.066	91.06
250.299	84.06
250.532	92.06
250.765	64.06
250.998	77.06
251.231	89.06
251.465	81.06
251.698	74.06
251.931	69.06
252.164	75.06
252.397	88.06
252.63	86.06
252.863	78.06
253.096	81.06
253.329	92.06
253.562	91.06
253.795	72.06
254.028	88.06
254.261	74.06
254.494	77.06
254.727	84.06
254.96	68.06
255.193	73.06
255.426	77.06
255.659	92.06
255.892	98.06
256.124	92.06
256.357	85.06
256.59	78.06
256.823	98.06
257.056	77.06
257.289	84.06
257.521	75.06
257.754	86.06
257.987	75.06
258.22	89.06
258.452	68.06
258.685	83.06
258.918	83.06
259.151	86.06
259.383	91.06
259.616	73.06
259.849	88.06
260.081	74.06
260.314	82.06
260.547	76.06
260.779	92.06
261.012	84.06
261.244	95.06
261.477	96.06
261.71	95.06
261.942	112.06
262.175	107.06
262.407	74.06
262.64	85.06
262.872	88.06
263.105	78.06
263.337	91.06
263.57	79.06
263.802	90.06
264.035	80.06
264.267	82.06
264.499	81.06
264.732	80.06
264.964	81.06
265.197	78.06
265.429	90.06
265.661	98.06
265.894	87.06
266.126	91.06
266.358	96.06
266.591	78.06
266.823	83.06
267.055	93.06
267.287	84.06
267.52	79.06
267.752	95.06
267.984	83.06
268.216	80.06
268.448	84.06
268.681	79.06
268.913	77.06
269.145	83.06
269.377	64.06
269.609	69.06
269.841	66.06
270.073	84.06
270.306	100.06
270.538	81.06
270.77	83.06
271.002	76.06
271.234	92.06
271.466	87.06
271.698	88.06
271.93	71.06
272.162	94.06
272.394	84.06
272.626	90.06
272.858	83.06
273.09	98.06
273.322	94.06
273.553	78.06
273.785	82.06
274.017	85.06
274.249	90.06
274.481	93.06
274.713	88.06
274.945	92.06
275.176	93.06
275.408	97.06
275.64	87.06
275.872	84.06
276.104	93.06
276.335	91.06
276.567	84.06
276.799	95.06
277.031	91.06
277.262	87.06
277.494	88.06
277.726	80.06
277.957	79.06
278.189	83.06
278.421	90.06
278.652	81.06
278.884	76.06
279.115	86.06
279.347	84.06
279.579	85.06
279.81	76.06
280.042	82.06
280.273	82.06
280.505	79.06
280.736	93.06
280.968	82.06
281.199	93.06
281.431	80.06
281.662	84.06
281.894	84.06
282.125	97.06
282.356	116.06
282.588	141.06
282.819	107.06
283.051	92.06
283.282	91.06
283.513	83.06
283.745	83.06
283.976	90.06
284.207	98.06
284.439	102.06
284.67	75.06
284.901	81.06
285.132	89.06
285.364	88.06
285.595	81.06
285.826	91.06
286.057	107.06
286.288	96.06
286.52	77.06
286.751	81.06
286.982	100.06
287.213	86.06
287.444	87.06
287.675	97.06
287.906	83.06
288.138	90.06
288.369	108.06
288.6	98.06
288.831	88.06
289.062	84.06
289.293	99.06
289.524	87.06
289.755	76.06
289.986	89.06
290.217	93.06
290.448	90.06
290.679	90.06
290.91	73.06
291.141	82.06
291.371	87.06
291.602	99.06
291.833	88.06
292.064	90.06
292.295	88.06
292.526	79.06
292.757	93.06
292.987	79.06
293.218	82.06
293.449	87.06
293.68	90.06
293.91	91.06
294.141	94.06
294.372	93.06
294.603	87.06
294.833	83.06
295.064	92.06
295.295	90.06
295.525	86.06
295.756	92.06
295.987	91.06
296.217	122.06
296.448	115.06
296.679	90.06
296.909	87.06
297.14	88.06
297.37	88.06
297.601	80.06
297.831	85.06
298.062	84.06
298.292	88.06
298.523	89.06
298.753	95.06
298.984	82.06
299.214	87.06
299.445	79.06
299.675	98.06
299.905	100.06
300.136	82.06
300.366	93.06
300.597	90.06
300.827	95.06
301.057	87.06
301.288	87.06
301.518	84.06
301.748	67.06
301.979	102.06
302.209	96.06
302.439	104.06
302.669	85.06
302.9	98.06
303.13	94.06
303.36	88.06
303.59	101.06
303.82	95.06
304.051	90.06
304.281	94.06
304.511	92.06
304.741	101.06
304.971	90.06
305.201	92.06
305.431	76.06
305.661	92.06
305.891	77.06
306.121	100.06
306.352	99.06
306.582	100.06
306.812	97.06
307.042	101.06
307.272	84.06
307.502	91.06
307.731	98.06
307.961	79.06
308.191	100.06
308.421	98.06
308.651	89.06
308.881	92.06
309.111	100.06
309.341	92.06
309.571	93.06
309.8	89.06
310.03	83.06
310.26	91.06
310.49	75.06
310.72	104.06
310.949	98.06
311.179	94.06
311.409	88.06
311.639	81.06
311.868	89.06
312.098	99.06
312.328	93.06
312.557	84.06
312.787	95.06
313.017	101.06
313.246	93.06
313.476	98.06
313.706	104.06
313.935	92.06
314.165	90.06
314.394	114.06
314.624	97.06
314.853	93.06
315.083	95.06
315.312	91.06
315.542	81.06
315.771	80.06
316.001	84.06
316.23	92.06
316.46	92.06
316.689	93.06
316.919	88.06
317.148	97.06
317.377	83.06
317.607	93.06
317.836	82.06
318.065	80.06
318.295	81.06
318.524	85.06
318.753	89.06
318.983	99.06
319.212	90.06
319.441	111.06
319.67	109.06
319.9	100.06
320.129	107.06
320.358	103.06
320.587	101.06
320.816	103.06
321.046	95.06
321.275	80.06
321.504	89.06
321.733	93.06
321.962	83.06
322.191	109.06
322.42	92.06
322.649	105.06
322.878	104.06
323.108	106.06
323.337	111.06
323.566	120.06
323.795	143.06
324.024	201.06
324.253	340.06
324.482	705.06
324.71	1449.06
324.939	1888.06
325.168	706.06
325.397	205.06
325.626	126.06
325.855	121.06
326.084	119.06
326.313	112.06
326.542	130.06
326.77	207.06
326.999	419.06
327.228	823.06
327.457	1507.06
327.686	1167.06
327.914	331.06
328.143	182.06
328.372	127.06
328.6	124.06
328.829	117.06
329.058	129.06
329.287	103.06
329.515	105.06
329.744	96.06
329.972	95.06
330.201	84.06
330.43	89.06
330.658	100.06
330.887	118.06
331.115	121.06
331.344	94.06
331.572	89.06
331.801	81.06
332.03	96.06
332.258	101.06
332.486	96.06
332.715	90.06
332.943	108.06
333.172	91.06
333.4	86.06
333.629	96.06
333.857	96.06
334.085	113.06
334.314	94.06
334.542	91.06
334.771	98.06
334.999	88.06
335.227	101.06
335.455	92.06
335.684	96.06
335.912	101.06
336.14	100.06
336.369	106.06
336.597	106.06
336.825	95.06
337.053	91.06
337.281	96.06
337.51	85.06
337.738	89.06
337.966	71.06
338.194	84.06
338.422	98.06
338.65	103.06
338.878	93.06
339.106	96.06
339.334	97.06
339.562	91.06
339.79	87.06
340.018	89.06
340.246	96.06
340.474	85.06
340.702	97.06
340.93	73.06
341.158	94.06
341.386	90.06
341.614	101.06
341.842	82.06
342.07	86.06
342.298	97.06
342.526	98.06
342.754	94.06
342.981	82.06
343.209	81.06
343.437	102.06
343.665	90.06
343.893	92.06
344.12	98.06
344.348	80.06
344.576	92.06
344.804	92.06
345.031	78.06
345.259	88.06
345.487	88.06
345.714	83.06
345.942	83.06
346.17	97.06
346.397	87.06
346.625	92.06
346.853	92.06
347.08	91.06
347.308	87.06
347.535	95.06
347.763	82.06
347.99	95.06
348.218	97.06
348.445	90.06
348.673	108.06
348.9	96.06
349.128	89.06
349.355	77.06
349.583	89.06
349.81	93.06
350.037	95.06
350.265	100.06
350.492	84.06
350.72	102.06
350.947	102.06
351.174	106.06
351.402	111.06
351.629	105.06
351.856	100.06
352.083	105.06
352.311	103.06
352.538	101.06
352.765	98.06
352.992	111.06
353.22	106.06
353.447	99.06
353.674	107.06
353.901	96.06
354.128	109.06
354.355	101.06
354.583	99.06
354.81	98.06
355.037	112.06
355.264	100.06
355.491	100.06
355.718	85.06
355.945	87.06
356.172	97.06
356.399	90.06
356.626	111.06
356.853	91.06
357.08	110.06
357.307	82.06
357.534	90.06
357.761	101.06
357.988	102.06
358.215	100.06
358.441	99.06
358.668	92.06
358.895	84.06
359.122	97.06
359.349	85.06
359.576	96.06
359.802	100.06
360.029	107.06
360.256	93.06
360.483	106.06
360.709	101.06
360.936	100.06
361.163	101.06
361.39	93.06
361.616	73.06
361.843	96.06
362.07	90.06
362.296	77.06
362.523	107.06
362.749	97.06
362.976	92.06
363.203	101.06
363.429	92.06
363.656	90.06
363.882	94.06
364.109	91.06
364.335	92.06
364.562	105.06
364.788	100.06
365.015	97.06
365.241	84.06
365.468	96.06
365.694	98.06
365.92	82.06
366.147	87.06
366.373	91.06
366.599	81.06
366.826	94.06
367.052	89.06
367.278	90.06
367.505	88.06
367.731	91.06
367.957	90.06
368.184	82.06
368.41	82.06
368.636	94.06
368.862	102.06
369.089	103.06
369.315	96.06
369.541	91.06
369.767	84.06
369.993	97.06
370.219	93.06
370.445	98.06
370.672	98.06
370.898	88.06
371.124	83.06
371.35	80.06
371.576	90.06
371.802	85.06
372.028	89.06
372.254	95.06
372.48	84.06
372.706	83.06
372.932	95.06
373.158	88.06
373.384	94.06
373.61	87.06
373.835	88.06
374.061	91.06
374.287	96.06
374.513	95.06
374.739	91.06
374.965	99.06
375.191	85.06
375.416	91.06
375.642	94.06
375.868	89.06
376.094	85.06
376.319	88.06
376.545	92.06
376.771	87.06
376.997	88.06
377.222	95.06
377.448	107.06
377.674	100.06
377.899	92.06
378.125	99.06
378.35	95.06
378.576	100.06
378.802	100.06
379.027	94.06
379.253	91.06
379.478	87.06
379.704	80.06
379.929	85.06
380.155	96.06
380.38	101.06
380.606	109.06
380.831	90.06
381.057	105.06
381.282	91.06
381.507	91.06
381.733	106.06
381.958	109.06
382.184	111.06
382.409	105.06
382.634	112.06
382.86	94.06
383.085	103.06
383.31	121.06
383.535	99.06
383.761	107.06
383.986	109.06
384.211	94.06
384.436	121.06
384.662	125.06
384.887	108.06
385.112	116.06
385.337	106.06
385.562	110.06
385.787	128.06
386.013	129.06
386.238	104.06
386.463	118.06
386.688	116.06
386.913	118.06
387.138	115.06
387.363	117.06
387.588	112.06
387.813	108.06
388.038	144.06
388.263	131.06
388.488	134.06
388.713	101.06
388.938	96.06
389.163	90.06
389.387	105.06
389.612	91.06
389.837	95.06
390.062	96.06
390.287	95.06
390.512	97.06
390.736	101.06
390.961	94.06
391.186	87.06
391.411	105.06
391.636	98.06
391.86	81.06
392.085	100.06
392.31	78.06
392.534	75.06
392.759	90.06
392.984	77.06
393.208	78.06
393.433	85.06
393.658	84.06
393.882	79.06
394.107	85.06
394.331	111.06
394.556	90.06
394.78	96.06
395.005	114.06
395.229	90.06
395.454	91.06
395.678	84.06
395.903	90.06
396.127	94.06
396.352	82.06
396.576	97.06
396.801	90.06
397.025	92.06
397.249	81.06
397.474	90.06
397.698	75.06
397.922	93.06
398.147	87.06
398.371	89.06
398.595	85.06
398.82	74.06
399.044	85.06
399.268	89.06
399.492	81.06
399.717	92.06
399.941	80.06
400.165	83.06
400.389	88.06
400.613	79.06
400.837	86.06
401.062	83.06
401.286	89.06
401.51	91.06
401.734	109.06
401.958	95.06
402.182	91.06
402.406	136.06
402.63	97.06
402.854	92.06
403.078	81.06
403.302	75.06
403.526	79.06
403.75	90.06
403.974	92.06
404.198	91.06
404.422	90.06
404.645	90.06
404.869	84.06
405.093	84.06
405.317	101.06
405.541	91.06
405.765	91.06
405.988	114.06
406.212	152.06
406.436	178.06
406.66	120.06
406.883	73.06
407.107	97.06
407.331	100.06
407.555	88.06
407.778	93.06
408.002	84.06
408.226	87.06
408.449	84.06
408.673	85.06
408.896	86.06
409.12	85.06
409.344	82.06
409.567	99.06
409.791	87.06
410.014	95.06
410.238	106.06
410.461	99.06
410.685	111.06
410.908	99.06
411.132	99.06
411.355	82.06
411.578	99.06
411.802	92.06
412.025	105.06
412.249	91.06
412.472	94.06
412.695	80.06
412.919	90.06
413.142	87.06
413.365	93.06
413.589	96.06
413.812	89.06
414.035	92.06
414.258	95.06
414.482	90.06
414.705	101.06
414.928	109.06
415.151	83.06
415.374	106.06
415.597	92.06
415.821	87.06
416.044	80.06
416.267	96.06
416.49	80.06
416.713	76.06
416.936	88.06
417.159	85.06
417.382	81.06
417.605	78.06
417.828	90.06
418.051	94.06
418.274	83.06
418.497	92.06
418.72	95.06
418.943	91.06
419.166	80.06
419.389	91.06
419.611	103.06
419.834	105.06
420.057	75.06
420.28	84.06
420.503	84.06
420.726	86.06
420.948	81.06
421.171	93.06
421.394	84.06
421.617	99.06
421.839	88.06
422.062	98.06
422.285	95.06
422.507	91.06
422.73	112.06
422.953	96.06
423.175	86.06
423.398	97.06
423.621	97.06
423.843	91.06
424.066	80.06
424.288	88.06
424.511	89.06
424.733	91.06
424.956	99.06
425.178	109.06
425.401	105.06
425.623	91.06
425.846	91.06
426.068	99.06
426.291	100.06
426.513	85.06
426.735	89.06
426.958	91.06
427.18	91.06
427.402	117.06
427.625	136.06
427.847	109.06
428.069	98.06
428.292	85.06
428.514	94.06
428.736	77.06
428.958	88.06
429.181	81.06
429.403	82.06
429.625	93.06
429.847	92.06
430.069	94.06
430.292	100.06
430.514	75.06
430.736	81.06
430.958	83.06
431.18	90.06
431.402	92.06
431.624	90.06
431.846	100.06
432.068	80.06
432.29	78.06
432.512	92.06
432.734	68.06
432.956	77.06
433.178	113.06
433.4	93.06
433.622	97.06
433.844	104.06
434.066	84.06
434.287	99.06
434.509	89.06
434.731	83.06
434.953	83.06
435.175	86.06
435.397	111.06
435.618	89.06
435.84	95.06
436.062	101.06
436.284	115.06
436.505	87.06
436.727	103.06
436.949	95.06
437.17	88.06
437.392	92.06
437.614	88.06
437.835	93.06
438.057	82.06
438.278	84.06
438.5	96.06
438.721	117.06
438.943	87.06
439.165	98.06
439.386	82.06
439.608	84.06
439.829	100.06
440.05	117.06
440.272	117.06
440.493	90.06
440.715	85.06
440.936	93.06
441.158	82.06
441.379	77.06
441.6	75.06
441.822	89.06
442.043	91.06
442.264	100.06
442.486	103.06
442.707	95.06
442.928	99.06
443.149	117.06
443.371	126.06
443.592	110.06
443.813	105.06
444.034	115.06
444.255	91.06
444.476	82.06
444.698	81.06
444.919	99.06
445.14	144.06
445.361	114.06
445.582	102.06
445.803	127.06
446.024	112.06
446.245	116.06
446.466	108.06
446.687	88.06
446.908	89.06
447.129	81.06
447.35	85.06
447.571	76.06
447.792	83.06
448.013	92.06
448.234	113.06
448.455	84.06
448.675	105.06
448.896	99.06
449.117	102.06
449.338	96.06
449.559	117.06
449.779	120.06
450	85.06
450.221	87.06
450.442	93.06
450.662	95.06
450.883	88.06
451.104	93.06
451.324	96.06
451.545	82.06
451.766	99.06
451.986	87.06
452.207	74.06
452.428	104.06
452.648	92.06
452.869	105.06
453.089	99.06
453.31	96.06
453.53	96.06
453.751	88.06
453.971	80.06
454.192	110.06
454.412	92.06
454.633	69.06
454.853	87.06
455.073	81.06
455.294	89.06
455.514	93.06
455.734	84.06
455.955	89.06
456.175	102.06
456.395	90.06
456.616	74.06
456.836	84.06
457.056	85.06
457.276	87.06
457.497	77.06
457.717	88.06
457.937	89.06
458.157	85.06
458.377	83.06
458.598	111.06
458.818	121.06
459.038	136.06
459.258	117.06
459.478	84.06
459.698	97.06
459.918	85.06
460.138	92.06
460.358	71.06
460.578	89.06
460.798	82.06
461.018	72.06
461.238	82.06
461.458	81.06
461.678	95.06
461.898	86.06
462.118	89.06
462.338	91.06
462.558	87.06
462.777	90.06
462.997	92.06
463.217	98.06
463.437	83.06
463.657	87.06
463.876	89.06
464.096	85.06
464.316	81.06
464.536	94.06
464.755	95.06
464.975	99.06
465.195	132.06
465.414	139.06
465.634	87.06
465.854	86.06
466.073	90.06
466.293	89.06
466.512	89.06
466.732	88.06
466.951	98.06
467.171	101.06
467.391	98.06
467.61	92.06
467.829	102.06
468.049	98.06
468.268	83.06
468.488	88.06
468.707	92.06
468.927	80.06
469.146	72.06
469.365	91.06
469.585	64.06
469.804	93.06
470.023	83.06
470.243	90.06
470.462	101.06
470.681	105.06
470.901	84.06
471.12	82.06
471.339	99.06
471.558	85.06
471.777	92.06
471.997	96.06
472.216	102.06
472.435	85.06
472.654	101.06
472.873	87.06
473.092	94.06
473.311	82.06
473.53	88.06
473.749	94.06
473.968	98.06
474.187	110.06
474.406	90.06
474.625	77.06
474.844	82.06
475.063	89.06
475.282	89.06
475.501	81.06
475.72	88.06
475.939	77.06
476.158	89.06
476.377	82.06
476.596	92.06
476.814	89.06
477.033	99.06
477.252	100.06
477.471	83.06
477.69	79.06
477.908	96.06
478.127	79.06
478.346	91.06
478.564	100.06
478.783	100.06
479.002	90.06
479.22	94.06
479.439	84.06
479.658	99.06
479.876	98.06
480.095	82.06
480.313	95.06
480.532	101.06
480.751	101.06
480.969	84.06
481.188	89.06
481.406	92.06
481.624	95.06
481.843	73.06
482.061	88.06
482.28	72.06
482.498	88.06
482.717	101.06
482.935	96.06
483.153	98.06
483.372	95.06
483.59	85.06
483.808	83.06
484.027	78.06
484.245	98.06
484.463	96.06
484.681	94.06
484.9	94.06
485.118	102.06
485.336	112.06
485.554	113.06
485.772	104.06
485.99	98.06
486.209	112.06
486.427	111.06
486.645	113.06
486.863	125.06
487.081	100.06
487.299	94.06
487.517	87.06
487.735	96.06
487.953	96.06
488.171	85.06
488.389	88.06
488.607	104.06
488.825	83.06
489.043	83.06
489.261	97.06
489.479	104.06
489.696	87.06
489.914	78.06
490.132	96.06
490.35	89.06
490.568	82.06
490.786	105.06
491.003	91.06
491.221	93.06
491.439	96.06
491.657	88.06
491.874	94.06
492.092	88.06
492.31	97.06
492.527	98.06
492.745	96.06
492.963	103.06
493.18	92.06
493.398	92.06
493.615	99.06
493.833	111.06
494.05	93.06
494.268	89.06
494.485	98.06
494.703	108.06
494.92	104.06
495.138	92.06
495.355	90.06
495.573	89.06
495.79	81.06
496.008	113.06
496.225	99.06
496.442	86.06
496.66	95.06
496.877	100.06
497.094	104.06
497.312	83.06
497.529	88.06
497.746	103.06
497.963	87.06
498.181	82.06
498.398	84.06
498.615	108.06
498.832	94.06
499.049	96.06
499.267	90.06
499.484	66.06
499.701	86.06
499.918	88.06
500.135	79.06
500.352	93.06
500.569	93.06
500.786	90.06
501.003	96.06
501.22	85.06
501.437	96.06
501.654	99.06
501.871	100.06
502.088	87.06
502.305	102.06
502.522	106.06
502.739	77.06
502.956	89.06
503.172	115.06
503.389	97.06
503.606	93.06
503.823	110.06
504.04	103.06
504.256	88.06
504.473	77.06
504.69	95.06
504.907	92.06
505.123	87.06
505.34	101.06
505.557	98.06
505.773	88.06
505.99	93.06
506.207	98.06
506.423	104.06
506.64	84.06
506.856	83.06
507.073	77.06
507.289	93.06
507.506	96.06
507.722	93.06
507.939	95.06
508.155	90.06
508.372	97.06
508.588	89.06
508.805	105.06
509.021	89.06
509.238	98.06
509.454	91.06
509.67	91.06
509.887	93.06
510.103	114.06
510.319	188.06
510.536	608.06
510.752	1741.06
510.968	485.06
511.184	128.06
511.401	106.06
511.617	88.06
511.833	104.06
512.049	78.06
512.265	94.06
512.481	105.06
512.698	87.06
512.914	99.06
513.13	76.06
513.346	95.06
513.562	100.06
513.778	98.06
513.994	98.06
514.21	86.06
514.426	98.06
514.642	114.06
514.858	122.06
515.074	148.06
515.29	346.06
515.506	991.06
515.721	387.06
515.937	134.06
516.153	103.06
