Data from Uncirc_1995_H10_HRD10591_00062.txt Node
Date: Wed Jan 03 11:35:46 EST 2024
User: Yrep
Spectrometer: HR+D1059
Trigger mode: 1
Integration Time (sec): 1.000000E-1
Scans to average: 1
Electric dark correction enabled: true
Nonlinearity correction enabled: false
Boxcar width: 0
XAxis mode: Wavelengths
Number of Pixels in Spectrum: 2048
>>>>>Begin Spectral Data<<<<<
223.165	-19.88
223.4	-19.88
223.635	-19.88
223.869	-26.88
224.104	-22.88
224.338	-6.88
224.573	-17.88
224.808	-7.88
225.042	-0.88
225.277	-1.88
225.511	5.12
225.746	9.12
225.98	6.12
226.215	9.12
226.449	14.12
226.683	14.12
226.918	11.12
227.152	36.12
227.387	23.12
227.621	42.12
227.856	31.12
228.09	38.12
228.324	59.12
228.559	62.12
228.793	55.12
229.027	60.12
229.262	76.12
229.496	64.12
229.73	78.12
229.964	77.12
230.199	87.12
230.433	86.12
230.667	79.12
230.901	71.12
231.136	76.12
231.37	84.12
231.604	89.12
231.838	89.12
232.072	97.12
232.306	75.12
232.541	74.12
232.775	65.12
233.009	91.12
233.243	79.12
233.477	75.12
233.711	84.12
233.945	94.12
234.179	72.12
234.413	74.12
234.647	70.12
234.881	80.12
235.115	77.12
235.349	73.12
235.583	75.12
235.817	74.12
236.051	70.12
236.285	73.12
236.519	75.12
236.753	72.12
236.987	86.12
237.221	72.12
237.455	84.12
237.689	81.12
237.922	81.12
238.156	76.12
238.39	69.12
238.624	62.12
238.858	87.12
239.091	76.12
239.325	77.12
239.559	71.12
239.793	65.12
240.027	73.12
240.26	69.12
240.494	93.12
240.728	69.12
240.961	78.12
241.195	75.12
241.429	78.12
241.662	82.12
241.896	73.12
242.13	67.12
242.363	57.12
242.597	84.12
242.83	75.12
243.064	73.12
243.298	79.12
243.531	75.12
243.765	62.12
243.998	83.12
244.232	75.12
244.465	64.12
244.699	82.12
244.932	72.12
245.166	90.12
245.399	65.12
245.633	87.12
245.866	72.12
246.099	86.12
246.333	85.12
246.566	77.12
246.8	67.12
247.033	70.12
247.266	72.12
247.5	80.12
247.733	74.12
247.966	73.12
248.2	73.12
248.433	86.12
248.666	91.12
248.899	77.12
249.133	90.12
249.366	91.12
249.599	90.12
249.832	76.12
250.066	70.12
250.299	62.12
250.532	75.12
250.765	69.12
250.998	64.12
251.231	92.12
251.465	68.12
251.698	78.12
251.931	71.12
252.164	79.12
252.397	74.12
252.63	62.12
252.863	83.12
253.096	75.12
253.329	87.12
253.562	90.12
253.795	88.12
254.028	88.12
254.261	90.12
254.494	79.12
254.727	80.12
254.96	93.12
255.193	76.12
255.426	62.12
255.659	84.12
255.892	86.12
256.124	75.12
256.357	73.12
256.59	69.12
256.823	67.12
257.056	92.12
257.289	79.12
257.521	74.12
257.754	78.12
257.987	80.12
258.22	91.12
258.452	71.12
258.685	77.12
258.918	87.12
259.151	82.12
259.383	75.12
259.616	74.12
259.849	85.12
260.081	78.12
260.314	77.12
260.547	72.12
260.779	72.12
261.012	72.12
261.244	70.12
261.477	69.12
261.71	101.12
261.942	109.12
262.175	102.12
262.407	82.12
262.64	92.12
262.872	71.12
263.105	78.12
263.337	80.12
263.57	77.12
263.802	84.12
264.035	87.12
264.267	80.12
264.499	75.12
264.732	75.12
264.964	79.12
265.197	76.12
265.429	85.12
265.661	77.12
265.894	64.12
266.126	78.12
266.358	94.12
266.591	69.12
266.823	87.12
267.055	79.12
267.287	77.12
267.52	85.12
267.752	76.12
267.984	79.12
268.216	80.12
268.448	77.12
268.681	90.12
268.913	76.12
269.145	75.12
269.377	74.12
269.609	70.12
269.841	80.12
270.073	88.12
270.306	100.12
270.538	101.12
270.77	84.12
271.002	92.12
271.234	69.12
271.466	93.12
271.698	83.12
271.93	73.12
272.162	67.12
272.394	83.12
272.626	83.12
272.858	81.12
273.09	79.12
273.322	81.12
273.553	93.12
273.785	75.12
274.017	84.12
274.249	82.12
274.481	84.12
274.713	79.12
274.945	80.12
275.176	82.12
275.408	91.12
275.64	85.12
275.872	86.12
276.104	100.12
276.335	84.12
276.567	91.12
276.799	94.12
277.031	94.12
277.262	84.12
277.494	75.12
277.726	74.12
277.957	72.12
278.189	91.12
278.421	78.12
278.652	91.12
278.884	83.12
279.115	78.12
279.347	84.12
279.579	67.12
279.81	80.12
280.042	96.12
280.273	93.12
280.505	82.12
280.736	74.12
280.968	73.12
281.199	77.12
281.431	84.12
281.662	78.12
281.894	88.12
282.125	90.12
282.356	105.12
282.588	138.12
282.819	121.12
283.051	86.12
283.282	95.12
283.513	92.12
283.745	81.12
283.976	79.12
284.207	73.12
284.439	91.12
284.67	91.12
284.901	77.12
285.132	91.12
285.364	69.12
285.595	75.12
285.826	89.12
286.057	94.12
286.288	87.12
286.52	87.12
286.751	84.12
286.982	80.12
287.213	79.12
287.444	77.12
287.675	86.12
287.906	73.12
288.138	88.12
288.369	96.12
288.6	96.12
288.831	94.12
289.062	75.12
289.293	79.12
289.524	80.12
289.755	89.12
289.986	73.12
290.217	99.12
290.448	97.12
290.679	90.12
290.91	77.12
291.141	67.12
291.371	86.12
291.602	86.12
291.833	90.12
292.064	79.12
292.295	93.12
292.526	76.12
292.757	77.12
292.987	79.12
293.218	92.12
293.449	81.12
293.68	83.12
293.91	81.12
294.141	85.12
294.372	96.12
294.603	84.12
294.833	84.12
295.064	77.12
295.295	82.12
295.525	81.12
295.756	96.12
295.987	105.12
296.217	126.12
296.448	119.12
296.679	100.12
296.909	98.12
297.14	74.12
297.37	86.12
297.601	74.12
297.831	73.12
298.062	79.12
298.292	85.12
298.523	87.12
298.753	80.12
298.984	94.12
299.214	77.12
299.445	104.12
299.675	104.12
299.905	101.12
300.136	94.12
300.366	79.12
300.597	73.12
300.827	84.12
301.057	97.12
301.288	94.12
301.518	93.12
301.748	93.12
301.979	104.12
302.209	82.12
302.439	98.12
302.669	85.12
302.9	85.12
303.13	71.12
303.36	100.12
303.59	104.12
303.82	102.12
304.051	76.12
304.281	97.12
304.511	83.12
304.741	89.12
304.971	93.12
305.201	86.12
305.431	78.12
305.661	82.12
305.891	73.12
306.121	83.12
306.352	97.12
306.582	101.12
306.812	99.12
307.042	88.12
307.272	81.12
307.502	70.12
307.731	77.12
307.961	92.12
308.191	74.12
308.421	81.12
308.651	88.12
308.881	88.12
309.111	82.12
309.341	94.12
309.571	112.12
309.8	95.12
310.03	102.12
310.26	89.12
310.49	76.12
310.72	104.12
310.949	99.12
311.179	108.12
311.409	79.12
311.639	96.12
311.868	92.12
312.098	93.12
312.328	103.12
312.557	101.12
312.787	100.12
313.017	91.12
313.246	94.12
313.476	92.12
313.706	97.12
313.935	87.12
314.165	81.12
314.394	92.12
314.624	92.12
314.853	90.12
315.083	77.12
315.312	73.12
315.542	94.12
315.771	111.12
316.001	86.12
316.23	96.12
316.46	89.12
316.689	106.12
316.919	85.12
317.148	90.12
317.377	114.12
317.607	88.12
317.836	95.12
318.065	87.12
318.295	95.12
318.524	85.12
318.753	80.12
318.983	84.12
319.212	91.12
319.441	96.12
319.67	93.12
319.9	83.12
320.129	88.12
320.358	102.12
320.587	100.12
320.816	87.12
321.046	110.12
321.275	92.12
321.504	101.12
321.733	105.12
321.962	91.12
322.191	95.12
322.42	110.12
322.649	103.12
322.878	105.12
323.108	102.12
323.337	113.12
323.566	126.12
323.795	136.12
324.024	222.12
324.253	430.12
324.482	901.12
324.71	1874.12
324.939	2529.12
325.168	911.12
325.397	254.12
325.626	151.12
325.855	150.12
326.084	129.12
326.313	130.12
326.542	168.12
326.77	219.12
326.999	499.12
327.228	1055.12
327.457	1910.12
327.686	1492.12
327.914	388.12
328.143	206.12
328.372	141.12
328.6	116.12
328.829	113.12
329.058	98.12
329.287	125.12
329.515	95.12
329.744	109.12
329.972	87.12
330.201	100.12
330.43	105.12
330.658	106.12
330.887	119.12
331.115	115.12
331.344	103.12
331.572	93.12
331.801	100.12
332.03	94.12
332.258	91.12
332.486	85.12
332.715	91.12
332.943	78.12
333.172	93.12
333.4	112.12
333.629	108.12
333.857	108.12
334.085	92.12
334.314	93.12
334.542	87.12
334.771	88.12
334.999	87.12
335.227	93.12
335.455	83.12
335.684	91.12
335.912	81.12
336.14	103.12
336.369	96.12
336.597	95.12
336.825	89.12
337.053	87.12
337.281	84.12
337.51	81.12
337.738	79.12
337.966	94.12
338.194	81.12
338.422	94.12
338.65	80.12
338.878	101.12
339.106	96.12
339.334	83.12
339.562	81.12
339.79	78.12
340.018	89.12
340.246	85.12
340.474	81.12
340.702	85.12
340.93	94.12
341.158	83.12
341.386	87.12
341.614	85.12
341.842	95.12
342.07	85.12
342.298	92.12
342.526	83.12
342.754	84.12
342.981	83.12
343.209	85.12
343.437	101.12
343.665	79.12
343.893	84.12
344.12	78.12
344.348	86.12
344.576	84.12
344.804	99.12
345.031	82.12
345.259	95.12
345.487	91.12
345.714	80.12
345.942	86.12
346.17	96.12
346.397	97.12
346.625	80.12
346.853	71.12
347.08	90.12
347.308	97.12
347.535	83.12
347.763	82.12
347.99	87.12
348.218	96.12
348.445	106.12
348.673	101.12
348.9	90.12
349.128	100.12
349.355	90.12
349.583	80.12
349.81	96.12
350.037	104.12
350.265	100.12
350.492	90.12
350.72	105.12
350.947	95.12
351.174	107.12
351.402	111.12
351.629	103.12
351.856	87.12
352.083	105.12
352.311	103.12
352.538	101.12
352.765	111.12
352.992	108.12
353.22	91.12
353.447	95.12
353.674	104.12
353.901	107.12
354.128	108.12
354.355	94.12
354.583	109.12
354.81	103.12
355.037	103.12
355.264	98.12
355.491	92.12
355.718	89.12
355.945	96.12
356.172	89.12
356.399	82.12
356.626	79.12
356.853	93.12
357.08	87.12
357.307	93.12
357.534	92.12
357.761	98.12
357.988	77.12
358.215	93.12
358.441	87.12
358.668	96.12
358.895	90.12
359.122	77.12
359.349	81.12
359.576	98.12
359.802	101.12
360.029	101.12
360.256	85.12
360.483	93.12
360.709	68.12
360.936	84.12
361.163	93.12
361.39	75.12
361.616	79.12
361.843	92.12
362.07	95.12
362.296	98.12
362.523	84.12
362.749	86.12
362.976	86.12
363.203	85.12
363.429	87.12
363.656	66.12
363.882	92.12
364.109	88.12
364.335	75.12
364.562	93.12
364.788	93.12
365.015	98.12
365.241	97.12
365.468	107.12
365.694	84.12
365.92	87.12
366.147	95.12
366.373	95.12
366.599	93.12
366.826	90.12
367.052	83.12
367.278	86.12
367.505	87.12
367.731	79.12
367.957	73.12
368.184	94.12
368.41	94.12
368.636	110.12
368.862	106.12
369.089	95.12
369.315	86.12
369.541	93.12
369.767	84.12
369.993	93.12
370.219	94.12
370.445	87.12
370.672	89.12
370.898	92.12
371.124	93.12
371.35	94.12
371.576	92.12
371.802	91.12
372.028	81.12
372.254	93.12
372.48	88.12
372.706	75.12
372.932	89.12
373.158	77.12
373.384	84.12
373.61	82.12
373.835	90.12
374.061	71.12
374.287	70.12
374.513	75.12
374.739	91.12
374.965	91.12
375.191	86.12
375.416	94.12
375.642	80.12
375.868	73.12
376.094	80.12
376.319	66.12
376.545	87.12
376.771	78.12
376.997	95.12
377.222	96.12
377.448	88.12
377.674	82.12
377.899	84.12
378.125	72.12
378.35	98.12
378.576	93.12
378.802	90.12
379.027	87.12
379.253	90.12
379.478	100.12
379.704	75.12
379.929	88.12
380.155	81.12
380.38	97.12
380.606	106.12
380.831	85.12
381.057	94.12
381.282	83.12
381.507	83.12
381.733	90.12
381.958	99.12
382.184	91.12
382.409	104.12
382.634	99.12
382.86	67.12
383.085	91.12
383.31	93.12
383.535	104.12
383.761	94.12
383.986	102.12
384.211	99.12
384.436	90.12
384.662	86.12
384.887	96.12
385.112	93.12
385.337	93.12
385.562	94.12
385.787	110.12
386.013	106.12
386.238	116.12
386.463	102.12
386.688	105.12
386.913	88.12
387.138	104.12
387.363	91.12
387.588	107.12
387.813	74.12
388.038	109.12
388.263	96.12
388.488	111.12
388.713	103.12
388.938	91.12
389.163	90.12
389.387	88.12
389.612	75.12
389.837	78.12
390.062	89.12
390.287	92.12
390.512	101.12
390.736	87.12
390.961	85.12
391.186	92.12
391.411	93.12
391.636	95.12
391.86	95.12
392.085	84.12
392.31	89.12
392.534	78.12
392.759	72.12
392.984	79.12
393.208	71.12
393.433	105.12
393.658	90.12
393.882	83.12
394.107	85.12
394.331	84.12
394.556	92.12
394.78	78.12
395.005	93.12
395.229	78.12
395.454	62.12
395.678	83.12
395.903	97.12
396.127	79.12
396.352	72.12
396.576	85.12
396.801	87.12
397.025	90.12
397.249	81.12
397.474	76.12
397.698	74.12
397.922	91.12
398.147	94.12
398.371	79.12
398.595	89.12
398.82	87.12
399.044	79.12
399.268	85.12
399.492	94.12
399.717	92.12
399.941	84.12
400.165	93.12
400.389	81.12
400.613	81.12
400.837	84.12
401.062	84.12
401.286	76.12
401.51	82.12
401.734	90.12
401.958	94.12
402.182	121.12
402.406	173.12
402.63	128.12
402.854	79.12
403.078	94.12
403.302	88.12
403.526	89.12
403.75	83.12
403.974	88.12
404.198	86.12
404.422	95.12
404.645	87.12
404.869	94.12
405.093	79.12
405.317	85.12
405.541	85.12
405.765	97.12
405.988	120.12
406.212	173.12
406.436	231.12
406.66	146.12
406.883	92.12
407.107	105.12
407.331	89.12
407.555	96.12
407.778	95.12
408.002	83.12
408.226	84.12
408.449	92.12
408.673	87.12
408.896	91.12
409.12	100.12
409.344	97.12
409.567	94.12
409.791	96.12
410.014	107.12
410.238	103.12
410.461	83.12
410.685	97.12
410.908	102.12
411.132	97.12
411.355	93.12
411.578	100.12
411.802	86.12
412.025	92.12
412.249	75.12
412.472	88.12
412.695	85.12
412.919	89.12
413.142	110.12
413.365	88.12
413.589	88.12
413.812	92.12
414.035	95.12
414.258	89.12
414.482	76.12
414.705	92.12
414.928	79.12
415.151	82.12
415.374	94.12
415.597	93.12
415.821	91.12
416.044	86.12
416.267	87.12
416.49	83.12
416.713	87.12
416.936	87.12
417.159	88.12
417.382	89.12
417.605	89.12
417.828	80.12
418.051	87.12
418.274	86.12
418.497	82.12
418.72	87.12
418.943	91.12
419.166	91.12
419.389	84.12
419.611	87.12
419.834	80.12
420.057	97.12
420.28	95.12
420.503	84.12
420.726	78.12
420.948	85.12
421.171	80.12
421.394	104.12
421.617	74.12
421.839	84.12
422.062	95.12
422.285	99.12
422.507	86.12
422.73	91.12
422.953	101.12
423.175	75.12
423.398	87.12
423.621	86.12
423.843	69.12
424.066	97.12
424.288	91.12
424.511	96.12
424.733	94.12
424.956	102.12
425.178	98.12
425.401	96.12
425.623	96.12
425.846	93.12
426.068	84.12
426.291	82.12
426.513	87.12
426.735	88.12
426.958	92.12
427.18	101.12
427.402	132.12
427.625	162.12
427.847	123.12
428.069	98.12
428.292	88.12
428.514	79.12
428.736	83.12
428.958	75.12
429.181	75.12
429.403	77.12
429.625	86.12
429.847	76.12
430.069	94.12
430.292	91.12
430.514	86.12
430.736	86.12
430.958	78.12
431.18	85.12
431.402	78.12
431.624	89.12
431.846	83.12
432.068	91.12
432.29	77.12
432.512	87.12
432.734	79.12
432.956	77.12
433.178	93.12
433.4	98.12
433.622	82.12
433.844	94.12
434.066	83.12
434.287	96.12
434.509	92.12
434.731	87.12
434.953	72.12
435.175	79.12
435.397	87.12
435.618	101.12
435.84	99.12
436.062	105.12
436.284	107.12
436.505	97.12
436.727	94.12
436.949	86.12
437.17	72.12
437.392	84.12
437.614	87.12
437.835	103.12
438.057	105.12
438.278	115.12
438.5	93.12
438.721	117.12
438.943	113.12
439.165	84.12
439.386	73.12
439.608	96.12
439.829	78.12
440.05	123.12
440.272	137.12
440.493	103.12
440.715	74.12
440.936	74.12
441.158	72.12
441.379	79.12
441.6	89.12
441.822	97.12
442.043	90.12
442.264	90.12
442.486	96.12
442.707	87.12
442.928	104.12
443.149	109.12
443.371	119.12
443.592	99.12
443.813	99.12
444.034	108.12
444.255	89.12
444.476	91.12
444.698	78.12
444.919	76.12
445.14	120.12
445.361	117.12
445.582	108.12
445.803	126.12
446.024	145.12
446.245	136.12
446.466	121.12
446.687	78.12
446.908	86.12
447.129	94.12
447.35	84.12
447.571	84.12
447.792	93.12
448.013	95.12
448.234	103.12
448.455	88.12
448.675	112.12
448.896	101.12
449.117	95.12
449.338	94.12
449.559	133.12
449.779	131.12
450	103.12
450.221	94.12
450.442	82.12
450.662	103.12
450.883	106.12
451.104	112.12
451.324	99.12
451.545	86.12
451.766	84.12
451.986	86.12
452.207	92.12
452.428	90.12
452.648	98.12
452.869	101.12
453.089	114.12
453.31	118.12
453.53	94.12
453.751	90.12
453.971	89.12
454.192	102.12
454.412	95.12
454.633	94.12
454.853	77.12
455.073	87.12
455.294	88.12
455.514	96.12
455.734	85.12
455.955	87.12
456.175	76.12
456.395	74.12
456.616	95.12
456.836	90.12
457.056	79.12
457.276	87.12
457.497	77.12
457.717	72.12
457.937	89.12
458.157	72.12
458.377	91.12
458.598	95.12
458.818	117.12
459.038	147.12
459.258	109.12
459.478	97.12
459.698	97.12
459.918	88.12
460.138	88.12
460.358	76.12
460.578	79.12
460.798	85.12
461.018	97.12
461.238	71.12
461.458	79.12
461.678	71.12
461.898	79.12
462.118	82.12
462.338	77.12
462.558	90.12
462.777	94.12
462.997	85.12
463.217	80.12
463.437	71.12
463.657	74.12
463.876	100.12
464.096	82.12
464.316	97.12
464.536	96.12
464.755	88.12
464.975	101.12
465.195	160.12
465.414	153.12
465.634	97.12
465.854	79.12
466.073	80.12
466.293	88.12
466.512	91.12
466.732	91.12
466.951	76.12
467.171	97.12
467.391	94.12
467.61	96.12
467.829	91.12
468.049	80.12
468.268	90.12
468.488	76.12
468.707	91.12
468.927	75.12
469.146	85.12
469.365	92.12
469.585	94.12
469.804	93.12
470.023	88.12
470.243	97.12
470.462	98.12
470.681	101.12
470.901	77.12
471.12	90.12
471.339	87.12
471.558	82.12
471.777	84.12
471.997	79.12
472.216	83.12
472.435	85.12
472.654	90.12
472.873	87.12
473.092	78.12
473.311	93.12
473.53	86.12
473.749	84.12
473.968	84.12
474.187	105.12
474.406	100.12
474.625	97.12
474.844	85.12
475.063	82.12
475.282	95.12
475.501	78.12
475.72	81.12
475.939	88.12
476.158	87.12
476.377	80.12
476.596	91.12
476.814	84.12
477.033	88.12
477.252	87.12
477.471	80.12
477.69	79.12
477.908	96.12
478.127	87.12
478.346	74.12
478.564	91.12
478.783	89.12
479.002	96.12
479.22	99.12
479.439	96.12
479.658	82.12
479.876	90.12
480.095	82.12
480.313	77.12
480.532	91.12
480.751	74.12
480.969	78.12
481.188	98.12
481.406	101.12
481.624	83.12
481.843	94.12
482.061	65.12
482.28	79.12
482.498	100.12
482.717	78.12
482.935	85.12
483.153	93.12
483.372	85.12
483.59	77.12
483.808	92.12
484.027	88.12
484.245	99.12
484.463	81.12
484.681	96.12
484.9	93.12
485.118	81.12
485.336	87.12
485.554	88.12
485.772	97.12
485.99	108.12
486.209	101.12
486.427	95.12
486.645	117.12
486.863	103.12
487.081	97.12
487.299	95.12
487.517	84.12
487.735	107.12
487.953	99.12
488.171	99.12
488.389	92.12
488.607	92.12
488.825	80.12
489.043	80.12
489.261	92.12
489.479	85.12
489.696	107.12
489.914	94.12
490.132	92.12
490.35	99.12
490.568	94.12
490.786	81.12
491.003	104.12
491.221	82.12
491.439	94.12
491.657	84.12
491.874	85.12
492.092	87.12
492.31	90.12
492.527	95.12
492.745	94.12
492.963	83.12
493.18	95.12
493.398	81.12
493.615	99.12
493.833	100.12
494.05	87.12
494.268	93.12
494.485	99.12
494.703	87.12
494.92	95.12
495.138	63.12
495.355	73.12
495.573	80.12
495.79	98.12
496.008	88.12
496.225	84.12
496.442	79.12
496.66	74.12
496.877	81.12
497.094	103.12
497.312	74.12
497.529	86.12
497.746	87.12
497.963	80.12
498.181	78.12
498.398	100.12
498.615	92.12
498.832	101.12
499.049	86.12
499.267	89.12
499.484	84.12
499.701	95.12
499.918	88.12
500.135	94.12
500.352	100.12
500.569	93.12
500.786	80.12
501.003	94.12
501.22	71.12
501.437	91.12
501.654	104.12
501.871	116.12
502.088	103.12
502.305	83.12
502.522	80.12
502.739	81.12
502.956	77.12
503.172	97.12
503.389	84.12
503.606	95.12
503.823	92.12
504.04	85.12
504.256	88.12
504.473	78.12
504.69	78.12
504.907	95.12
505.123	88.12
505.34	84.12
505.557	97.12
505.773	96.12
505.99	106.12
506.207	89.12
506.423	97.12
506.64	89.12
506.856	89.12
507.073	91.12
507.289	86.12
507.506	104.12
507.722	102.12
507.939	116.12
508.155	111.12
508.372	99.12
508.588	85.12
508.805	91.12
509.021	87.12
509.238	97.12
509.454	93.12
509.67	97.12
509.887	111.12
510.103	132.12
510.319	235.12
510.536	835.12
510.752	2657.12
510.968	685.12
511.184	165.12
511.401	112.12
511.617	103.12
511.833	91.12
512.049	86.12
512.265	93.12
512.481	71.12
512.698	81.12
512.914	92.12
513.13	83.12
513.346	93.12
513.562	97.12
513.778	100.12
513.994	89.12
514.21	91.12
514.426	111.12
514.642	123.12
514.858	124.12
515.074	162.12
515.29	489.12
515.506	1574.12
515.721	550.12
515.937	142.12
516.153	105.12
516.369	97.12
516.585	102.12
516.801	100.12
