Data from Uncirc_1995_H10_HRD10591_00082.txt Node
Date: Wed Jan 03 11:35:50 EST 2024
User: Yrep
Spectrometer: HR+D1059
Trigger mode: 1
Integration Time (sec): 1.000000E-1
Scans to average: 1
Electric dark correction enabled: true
Nonlinearity correction enabled: false
Boxcar width: 0
XAxis mode: Wavelengths
Number of Pixels in Spectrum: 2048
>>>>>Begin Spectral Data<<<<<
223.165	-6.38
223.4	-6.38
223.635	-6.38
223.869	-33.38
224.104	-18.38
224.338	-18.38
224.573	-10.38
224.808	-16.38
225.042	-11.38
225.277	-6.38
225.511	-10.38
225.746	17.62
225.98	6.62
226.215	18.62
226.449	24.62
226.683	22.62
226.918	15.62
227.152	25.62
227.387	17.62
227.621	32.62
227.856	40.62
228.09	50.62
228.324	52.62
228.559	50.62
228.793	66.62
229.027	56.62
229.262	63.62
229.496	85.62
229.73	68.62
229.964	62.62
230.199	68.62
230.433	76.62
230.667	74.62
230.901	83.62
231.136	68.62
231.37	79.62
231.604	74.62
231.838	77.62
232.072	86.62
232.306	79.62
232.541	84.62
232.775	88.62
233.009	93.62
233.243	90.62
233.477	80.62
233.711	84.62
233.945	76.62
234.179	77.62
234.413	84.62
234.647	73.62
234.881	89.62
235.115	81.62
235.349	71.62
235.583	65.62
235.817	76.62
236.051	80.62
236.285	74.62
236.519	83.62
236.753	84.62
236.987	70.62
237.221	80.62
237.455	102.62
237.689	77.62
237.922	81.62
238.156	77.62
238.39	74.62
238.624	56.62
238.858	81.62
239.091	74.62
239.325	84.62
239.559	88.62
239.793	81.62
240.027	78.62
240.26	64.62
240.494	71.62
240.728	75.62
240.961	81.62
241.195	77.62
241.429	77.62
241.662	71.62
241.896	79.62
242.13	84.62
242.363	81.62
242.597	61.62
242.83	81.62
243.064	72.62
243.298	77.62
243.531	71.62
243.765	71.62
243.998	85.62
244.232	66.62
244.465	74.62
244.699	85.62
244.932	84.62
245.166	69.62
245.399	75.62
245.633	72.62
245.866	70.62
246.099	70.62
246.333	60.62
246.566	84.62
246.8	64.62
247.033	74.62
247.266	88.62
247.5	79.62
247.733	68.62
247.966	73.62
248.2	76.62
248.433	85.62
248.666	87.62
248.899	79.62
249.133	70.62
249.366	89.62
249.599	96.62
249.832	78.62
250.066	76.62
250.299	76.62
250.532	86.62
250.765	81.62
250.998	78.62
251.231	69.62
251.465	68.62
251.698	82.62
251.931	82.62
252.164	80.62
252.397	78.62
252.63	89.62
252.863	77.62
253.096	71.62
253.329	88.62
253.562	75.62
253.795	80.62
254.028	81.62
254.261	73.62
254.494	77.62
254.727	88.62
254.96	73.62
255.193	83.62
255.426	71.62
255.659	75.62
255.892	72.62
256.124	85.62
256.357	81.62
256.59	82.62
256.823	71.62
257.056	82.62
257.289	78.62
257.521	75.62
257.754	84.62
257.987	75.62
258.22	76.62
258.452	71.62
258.685	79.62
258.918	78.62
259.151	76.62
259.383	71.62
259.616	86.62
259.849	71.62
260.081	80.62
260.314	87.62
260.547	76.62
260.779	82.62
261.012	84.62
261.244	62.62
261.477	87.62
261.71	89.62
261.942	101.62
262.175	109.62
262.407	82.62
262.64	82.62
262.872	79.62
263.105	69.62
263.337	90.62
263.57	84.62
263.802	78.62
264.035	75.62
264.267	80.62
264.499	84.62
264.732	78.62
264.964	69.62
265.197	89.62
265.429	79.62
265.661	72.62
265.894	83.62
266.126	80.62
266.358	97.62
266.591	97.62
266.823	91.62
267.055	77.62
267.287	89.62
267.52	92.62
267.752	82.62
267.984	79.62
268.216	89.62
268.448	87.62
268.681	66.62
268.913	86.62
269.145	73.62
269.377	90.62
269.609	78.62
269.841	85.62
270.073	95.62
270.306	98.62
270.538	86.62
270.77	82.62
271.002	80.62
271.234	81.62
271.466	81.62
271.698	78.62
271.93	84.62
272.162	79.62
272.394	86.62
272.626	87.62
272.858	84.62
273.09	78.62
273.322	86.62
273.553	84.62
273.785	88.62
274.017	73.62
274.249	81.62
274.481	62.62
274.713	81.62
274.945	88.62
275.176	76.62
275.408	89.62
275.64	100.62
275.872	89.62
276.104	89.62
276.335	82.62
276.567	112.62
276.799	96.62
277.031	95.62
277.262	87.62
277.494	81.62
277.726	82.62
277.957	77.62
278.189	85.62
278.421	90.62
278.652	91.62
278.884	92.62
279.115	92.62
279.347	81.62
279.579	72.62
279.81	84.62
280.042	86.62
280.273	76.62
280.505	79.62
280.736	81.62
280.968	75.62
281.199	77.62
281.431	93.62
281.662	77.62
281.894	93.62
282.125	102.62
282.356	123.62
282.588	134.62
282.819	113.62
283.051	92.62
283.282	95.62
283.513	85.62
283.745	78.62
283.976	77.62
284.207	87.62
284.439	86.62
284.67	87.62
284.901	85.62
285.132	75.62
285.364	75.62
285.595	80.62
285.826	80.62
286.057	94.62
286.288	84.62
286.52	93.62
286.751	81.62
286.982	92.62
287.213	93.62
287.444	92.62
287.675	95.62
287.906	89.62
288.138	88.62
288.369	100.62
288.6	87.62
288.831	89.62
289.062	93.62
289.293	94.62
289.524	73.62
289.755	72.62
289.986	83.62
290.217	97.62
290.448	87.62
290.679	90.62
290.91	78.62
291.141	84.62
291.371	97.62
291.602	78.62
291.833	88.62
292.064	93.62
292.295	93.62
292.526	88.62
292.757	82.62
292.987	84.62
293.218	87.62
293.449	83.62
293.68	81.62
293.91	81.62
294.141	88.62
294.372	89.62
294.603	103.62
294.833	87.62
295.064	81.62
295.295	96.62
295.525	87.62
295.756	100.62
295.987	118.62
296.217	134.62
296.448	109.62
296.679	92.62
296.909	82.62
297.14	101.62
297.37	87.62
297.601	100.62
297.831	97.62
298.062	98.62
298.292	85.62
298.523	86.62
298.753	78.62
298.984	93.62
299.214	89.62
299.445	82.62
299.675	93.62
299.905	95.62
300.136	83.62
300.366	89.62
300.597	91.62
300.827	98.62
301.057	104.62
301.288	108.62
301.518	98.62
301.748	95.62
301.979	100.62
302.209	80.62
302.439	91.62
302.669	86.62
302.9	95.62
303.13	94.62
303.36	91.62
303.59	98.62
303.82	103.62
304.051	86.62
304.281	102.62
304.511	85.62
304.741	84.62
304.971	83.62
305.201	76.62
305.431	94.62
305.661	86.62
305.891	87.62
306.121	95.62
306.352	93.62
306.582	104.62
306.812	83.62
307.042	109.62
307.272	95.62
307.502	101.62
307.731	80.62
307.961	79.62
308.191	89.62
308.421	111.62
308.651	84.62
308.881	104.62
309.111	92.62
309.341	81.62
309.571	99.62
309.8	107.62
310.03	96.62
310.26	83.62
310.49	97.62
310.72	99.62
310.949	110.62
311.179	106.62
311.409	84.62
311.639	84.62
311.868	102.62
312.098	87.62
312.328	97.62
312.557	81.62
312.787	103.62
313.017	102.62
313.246	90.62
313.476	90.62
313.706	94.62
313.935	95.62
314.165	102.62
314.394	99.62
314.624	96.62
314.853	102.62
315.083	87.62
315.312	108.62
315.542	105.62
315.771	90.62
316.001	92.62
316.23	94.62
316.46	86.62
316.689	95.62
316.919	87.62
317.148	75.62
317.377	91.62
317.607	89.62
317.836	92.62
318.065	84.62
318.295	96.62
318.524	95.62
318.753	90.62
318.983	92.62
319.212	101.62
319.441	100.62
319.67	106.62
319.9	92.62
320.129	89.62
320.358	89.62
320.587	93.62
320.816	82.62
321.046	86.62
321.275	94.62
321.504	104.62
321.733	92.62
321.962	87.62
322.191	104.62
322.42	113.62
322.649	115.62
322.878	115.62
323.108	110.62
323.337	116.62
323.566	121.62
323.795	154.62
324.024	224.62
324.253	409.62
324.482	879.62
324.71	1812.62
324.939	2456.62
325.168	875.62
325.397	246.62
325.626	163.62
325.855	130.62
326.084	118.62
326.313	118.62
326.542	169.62
326.77	236.62
326.999	490.62
327.228	1048.62
327.457	1887.62
327.686	1454.62
327.914	379.62
328.143	191.62
328.372	130.62
328.6	109.62
328.829	106.62
329.058	125.62
329.287	99.62
329.515	104.62
329.744	96.62
329.972	98.62
330.201	101.62
330.43	103.62
330.658	121.62
330.887	141.62
331.115	121.62
331.344	99.62
331.572	98.62
331.801	108.62
332.03	94.62
332.258	98.62
332.486	98.62
332.715	88.62
332.943	86.62
333.172	94.62
333.4	92.62
333.629	105.62
333.857	108.62
334.085	104.62
334.314	106.62
334.542	111.62
334.771	107.62
334.999	95.62
335.227	72.62
335.455	93.62
335.684	89.62
335.912	98.62
336.14	102.62
336.369	106.62
336.597	114.62
336.825	95.62
337.053	77.62
337.281	83.62
337.51	88.62
337.738	91.62
337.966	91.62
338.194	93.62
338.422	100.62
338.65	89.62
338.878	106.62
339.106	100.62
339.334	99.62
339.562	97.62
339.79	80.62
340.018	85.62
340.246	97.62
340.474	75.62
340.702	111.62
340.93	87.62
341.158	87.62
341.386	96.62
341.614	81.62
341.842	78.62
342.07	80.62
342.298	90.62
342.526	87.62
342.754	88.62
342.981	93.62
343.209	88.62
343.437	103.62
343.665	93.62
343.893	84.62
344.12	103.62
344.348	86.62
344.576	79.62
344.804	80.62
345.031	84.62
345.259	88.62
345.487	89.62
345.714	88.62
345.942	88.62
346.17	84.62
346.397	93.62
346.625	92.62
346.853	81.62
347.08	95.62
347.308	86.62
347.535	89.62
347.763	81.62
347.99	90.62
348.218	95.62
348.445	104.62
348.673	105.62
348.9	104.62
349.128	85.62
349.355	75.62
349.583	88.62
349.81	85.62
350.037	90.62
350.265	82.62
350.492	96.62
350.72	93.62
350.947	89.62
351.174	117.62
351.402	95.62
351.629	103.62
351.856	110.62
352.083	98.62
352.311	103.62
352.538	103.62
352.765	103.62
352.992	104.62
353.22	108.62
353.447	108.62
353.674	99.62
353.901	110.62
354.128	98.62
354.355	89.62
354.583	112.62
354.81	109.62
355.037	97.62
355.264	92.62
355.491	94.62
355.718	97.62
355.945	87.62
356.172	97.62
356.399	91.62
356.626	88.62
356.853	95.62
357.08	95.62
357.307	82.62
357.534	83.62
357.761	85.62
357.988	96.62
358.215	100.62
358.441	101.62
358.668	71.62
358.895	90.62
359.122	89.62
359.349	88.62
359.576	92.62
359.802	108.62
360.029	105.62
360.256	117.62
360.483	104.62
360.709	86.62
360.936	103.62
361.163	83.62
361.39	97.62
361.616	100.62
361.843	94.62
362.07	94.62
362.296	109.62
362.523	94.62
362.749	79.62
362.976	94.62
363.203	82.62
363.429	75.62
363.656	93.62
363.882	85.62
364.109	80.62
364.335	96.62
364.562	95.62
364.788	81.62
365.015	86.62
365.241	97.62
365.468	115.62
365.694	111.62
365.92	102.62
366.147	90.62
366.373	83.62
366.599	83.62
366.826	100.62
367.052	94.62
367.278	111.62
367.505	82.62
367.731	89.62
367.957	93.62
368.184	98.62
368.41	95.62
368.636	115.62
368.862	141.62
369.089	108.62
369.315	97.62
369.541	89.62
369.767	80.62
369.993	93.62
370.219	80.62
370.445	85.62
370.672	78.62
370.898	75.62
371.124	95.62
371.35	87.62
371.576	92.62
371.802	99.62
372.028	95.62
372.254	82.62
372.48	99.62
372.706	93.62
372.932	71.62
373.158	84.62
373.384	106.62
373.61	100.62
373.835	86.62
374.061	90.62
374.287	92.62
374.513	87.62
374.739	87.62
374.965	88.62
375.191	96.62
375.416	83.62
375.642	90.62
375.868	87.62
376.094	60.62
376.319	85.62
376.545	95.62
376.771	96.62
376.997	84.62
377.222	90.62
377.448	84.62
377.674	77.62
377.899	84.62
378.125	92.62
378.35	85.62
378.576	80.62
378.802	98.62
379.027	87.62
379.253	100.62
379.478	90.62
379.704	80.62
379.929	90.62
380.155	107.62
380.38	89.62
380.606	92.62
380.831	91.62
381.057	88.62
381.282	76.62
381.507	93.62
381.733	97.62
381.958	92.62
382.184	100.62
382.409	105.62
382.634	94.62
382.86	80.62
383.085	93.62
383.31	89.62
383.535	103.62
383.761	110.62
383.986	101.62
384.211	102.62
384.436	92.62
384.662	88.62
384.887	93.62
385.112	90.62
385.337	105.62
385.562	97.62
385.787	103.62
386.013	88.62
386.238	108.62
386.463	96.62
386.688	101.62
386.913	86.62
387.138	92.62
387.363	106.62
387.588	94.62
387.813	107.62
388.038	87.62
388.263	100.62
388.488	121.62
388.713	93.62
388.938	86.62
389.163	87.62
389.387	89.62
389.612	95.62
389.837	94.62
390.062	85.62
390.287	93.62
390.512	92.62
390.736	105.62
390.961	102.62
391.186	85.62
391.411	108.62
391.636	73.62
391.86	88.62
392.085	85.62
392.31	90.62
392.534	76.62
392.759	90.62
392.984	84.62
393.208	82.62
393.433	81.62
393.658	92.62
393.882	71.62
394.107	86.62
394.331	89.62
394.556	110.62
394.78	78.62
395.005	97.62
395.229	80.62
395.454	90.62
395.678	85.62
395.903	76.62
396.127	82.62
396.352	84.62
396.576	86.62
396.801	79.62
397.025	90.62
397.249	84.62
397.474	97.62
397.698	83.62
397.922	77.62
398.147	99.62
398.371	103.62
398.595	101.62
398.82	87.62
399.044	68.62
399.268	93.62
399.492	96.62
399.717	84.62
399.941	89.62
400.165	85.62
400.389	84.62
400.613	93.62
400.837	77.62
401.062	96.62
401.286	80.62
401.51	93.62
401.734	86.62
401.958	106.62
402.182	126.62
402.406	165.62
402.63	109.62
402.854	96.62
403.078	89.62
403.302	80.62
403.526	69.62
403.75	94.62
403.974	78.62
404.198	90.62
404.422	93.62
404.645	96.62
404.869	84.62
405.093	96.62
405.317	101.62
405.541	89.62
405.765	102.62
405.988	110.62
406.212	172.62
406.436	216.62
406.66	150.62
406.883	99.62
407.107	93.62
407.331	90.62
407.555	96.62
407.778	112.62
408.002	93.62
408.226	92.62
408.449	85.62
408.673	91.62
408.896	101.62
409.12	89.62
409.344	86.62
409.567	100.62
409.791	92.62
410.014	89.62
410.238	71.62
410.461	89.62
410.685	95.62
410.908	107.62
411.132	101.62
411.355	83.62
411.578	94.62
411.802	90.62
412.025	95.62
412.249	82.62
412.472	95.62
412.695	90.62
412.919	85.62
413.142	74.62
413.365	78.62
413.589	65.62
413.812	96.62
414.035	85.62
414.258	104.62
414.482	90.62
414.705	88.62
414.928	94.62
415.151	82.62
415.374	92.62
415.597	99.62
415.821	80.62
416.044	84.62
416.267	84.62
416.49	93.62
416.713	84.62
416.936	80.62
417.159	78.62
417.382	93.62
417.605	80.62
417.828	98.62
418.051	84.62
418.274	95.62
418.497	89.62
418.72	83.62
418.943	88.62
419.166	99.62
419.389	80.62
419.611	80.62
419.834	85.62
420.057	93.62
420.28	81.62
420.503	76.62
420.726	84.62
420.948	87.62
421.171	105.62
421.394	93.62
421.617	73.62
421.839	99.62
422.062	96.62
422.285	77.62
422.507	92.62
422.73	114.62
422.953	90.62
423.175	87.62
423.398	105.62
423.621	89.62
423.843	97.62
424.066	79.62
424.288	81.62
424.511	98.62
424.733	82.62
424.956	104.62
425.178	103.62
425.401	104.62
425.623	117.62
425.846	97.62
426.068	95.62
426.291	91.62
426.513	89.62
426.735	94.62
426.958	102.62
427.18	105.62
427.402	146.62
427.625	132.62
427.847	121.62
428.069	91.62
428.292	80.62
428.514	91.62
428.736	93.62
428.958	72.62
429.181	79.62
429.403	94.62
429.625	81.62
429.847	90.62
430.069	87.62
430.292	93.62
430.514	100.62
430.736	74.62
430.958	81.62
431.18	89.62
431.402	81.62
431.624	81.62
431.846	83.62
432.068	78.62
432.29	88.62
432.512	85.62
432.734	95.62
432.956	87.62
433.178	92.62
433.4	78.62
433.622	78.62
433.844	89.62
434.066	98.62
434.287	85.62
434.509	82.62
434.731	84.62
434.953	95.62
435.175	94.62
435.397	85.62
435.618	96.62
435.84	105.62
436.062	119.62
436.284	117.62
436.505	92.62
436.727	106.62
436.949	85.62
437.17	85.62
437.392	80.62
437.614	103.62
437.835	111.62
438.057	116.62
438.278	111.62
438.5	114.62
438.721	111.62
438.943	105.62
439.165	98.62
439.386	101.62
439.608	96.62
439.829	96.62
440.05	119.62
440.272	142.62
440.493	86.62
440.715	98.62
440.936	96.62
441.158	82.62
441.379	91.62
441.6	87.62
441.822	83.62
442.043	85.62
442.264	88.62
442.486	91.62
442.707	93.62
442.928	102.62
443.149	127.62
443.371	121.62
443.592	108.62
443.813	102.62
444.034	107.62
444.255	93.62
444.476	82.62
444.698	77.62
444.919	80.62
445.14	136.62
445.361	130.62
445.582	109.62
445.803	132.62
446.024	138.62
446.245	121.62
446.466	93.62
446.687	84.62
446.908	90.62
447.129	88.62
447.35	65.62
447.571	87.62
447.792	73.62
448.013	87.62
448.234	92.62
448.455	86.62
448.675	109.62
448.896	117.62
449.117	109.62
449.338	84.62
449.559	121.62
449.779	121.62
450	90.62
450.221	79.62
450.442	88.62
450.662	96.62
450.883	104.62
451.104	105.62
451.324	93.62
451.545	79.62
451.766	74.62
451.986	78.62
452.207	81.62
452.428	102.62
452.648	97.62
452.869	125.62
453.089	106.62
453.31	121.62
453.53	110.62
453.751	90.62
453.971	93.62
454.192	98.62
454.412	74.62
454.633	94.62
454.853	93.62
455.073	78.62
455.294	98.62
455.514	99.62
455.734	89.62
455.955	80.62
456.175	82.62
456.395	85.62
456.616	89.62
456.836	73.62
457.056	82.62
457.276	72.62
457.497	86.62
457.717	77.62
457.937	86.62
458.157	77.62
458.377	88.62
458.598	104.62
458.818	141.62
459.038	158.62
459.258	109.62
459.478	87.62
459.698	100.62
459.918	77.62
460.138	79.62
460.358	93.62
460.578	75.62
460.798	87.62
461.018	95.62
461.238	82.62
461.458	87.62
461.678	80.62
461.898	89.62
462.118	87.62
462.338	83.62
462.558	80.62
462.777	86.62
462.997	86.62
463.217	80.62
463.437	88.62
463.657	78.62
463.876	95.62
464.096	80.62
464.316	73.62
464.536	103.62
464.755	97.62
464.975	104.62
465.195	150.62
465.414	143.62
465.634	92.62
465.854	84.62
466.073	87.62
466.293	93.62
466.512	82.62
466.732	83.62
466.951	88.62
467.171	101.62
467.391	96.62
467.61	91.62
467.829	91.62
468.049	91.62
468.268	92.62
468.488	79.62
468.707	84.62
468.927	91.62
469.146	93.62
469.365	92.62
469.585	111.62
469.804	91.62
470.023	85.62
470.243	93.62
470.462	95.62
470.681	101.62
470.901	80.62
471.12	94.62
471.339	94.62
471.558	79.62
471.777	81.62
471.997	58.62
472.216	92.62
472.435	87.62
472.654	83.62
472.873	83.62
473.092	74.62
473.311	72.62
473.53	75.62
473.749	83.62
473.968	84.62
474.187	96.62
474.406	99.62
474.625	77.62
474.844	86.62
475.063	77.62
475.282	90.62
475.501	90.62
475.72	87.62
475.939	80.62
476.158	81.62
476.377	82.62
476.596	87.62
476.814	96.62
477.033	90.62
477.252	75.62
477.471	77.62
477.69	87.62
477.908	94.62
478.127	101.62
478.346	78.62
478.564	84.62
478.783	79.62
479.002	91.62
479.22	96.62
479.439	84.62
479.658	104.62
479.876	81.62
480.095	90.62
480.313	101.62
480.532	82.62
480.751	92.62
480.969	97.62
481.188	94.62
481.406	87.62
481.624	92.62
481.843	79.62
482.061	97.62
482.28	84.62
482.498	92.62
482.717	86.62
482.935	92.62
483.153	88.62
483.372	83.62
483.59	95.62
483.808	84.62
484.027	76.62
484.245	94.62
484.463	85.62
484.681	90.62
484.9	83.62
485.118	92.62
485.336	98.62
485.554	108.62
485.772	92.62
485.99	110.62
486.209	95.62
486.427	97.62
486.645	97.62
486.863	107.62
487.081	112.62
487.299	104.62
487.517	98.62
487.735	94.62
487.953	96.62
488.171	94.62
488.389	100.62
488.607	102.62
488.825	88.62
489.043	77.62
489.261	97.62
489.479	83.62
489.696	79.62
489.914	82.62
490.132	96.62
490.35	84.62
490.568	80.62
490.786	80.62
491.003	93.62
491.221	92.62
491.439	99.62
491.657	91.62
491.874	98.62
492.092	79.62
492.31	77.62
492.527	98.62
492.745	89.62
492.963	85.62
493.18	81.62
493.398	86.62
493.615	102.62
493.833	86.62
494.05	92.62
494.268	89.62
494.485	86.62
494.703	98.62
494.92	95.62
495.138	86.62
495.355	87.62
495.573	91.62
495.79	96.62
496.008	81.62
496.225	86.62
496.442	103.62
496.66	90.62
496.877	102.62
497.094	83.62
497.312	82.62
497.529	84.62
497.746	86.62
497.963	104.62
498.181	90.62
498.398	97.62
498.615	95.62
498.832	113.62
499.049	92.62
499.267	83.62
499.484	95.62
499.701	92.62
499.918	80.62
500.135	97.62
500.352	86.62
500.569	87.62
500.786	84.62
501.003	85.62
501.22	84.62
501.437	84.62
501.654	85.62
501.871	105.62
502.088	89.62
502.305	94.62
502.522	76.62
502.739	88.62
502.956	92.62
503.172	98.62
503.389	101.62
503.606	104.62
503.823	104.62
504.04	104.62
504.256	107.62
504.473	90.62
504.69	105.62
504.907	98.62
505.123	84.62
505.34	93.62
505.557	95.62
505.773	79.62
505.99	74.62
506.207	105.62
506.423	89.62
506.64	79.62
506.856	88.62
507.073	81.62
507.289	88.62
507.506	80.62
507.722	87.62
507.939	105.62
508.155	95.62
508.372	83.62
508.588	76.62
508.805	89.62
509.021	77.62
509.238	97.62
509.454	96.62
509.67	101.62
509.887	117.62
510.103	137.62
510.319	225.62
510.536	861.62
510.752	2726.62
510.968	696.62
511.184	164.62
511.401	132.62
511.617	98.62
511.833	81.62
512.049	93.62
512.265	94.62
512.481	91.62
512.698	85.62
512.914	75.62
513.13	92.62
513.346	73.62
513.562	92.62
513.778	93.62
513.994	84.62
514.21	95.62
514.426	111.62
514.642	148.62
514.858	129.62
515.074	174.62
515.29	470.62
515.506	1566.62
515.721	558.62
515.937	156.62
516.153	111.62
