Data from Uncirc_1995_H10_HRD10591_00083.txt Node
Date: Wed Jan 03 11:35:50 EST 2024
User: Yrep
Spectrometer: HR+D1059
Trigger mode: 1
Integration Time (sec): 1.000000E-1
Scans to average: 1
Electric dark correction enabled: true
Nonlinearity correction enabled: false
Boxcar width: 0
XAxis mode: Wavelengths
Number of Pixels in Spectrum: 2048
>>>>>Begin Spectral Data<<<<<
223.165	-5.62
223.4	-5.62
223.635	-5.62
223.869	-11.62
224.104	-19.62
224.338	-18.62
224.573	-17.62
224.808	-4.62
225.042	-4.62
225.277	-12.62
225.511	6.38
225.746	5.38
225.98	5.38
226.215	16.38
226.449	8.38
226.683	11.38
226.918	12.38
227.152	29.38
227.387	18.38
227.621	63.38
227.856	36.38
228.09	46.38
228.324	48.38
228.559	58.38
228.793	54.38
229.027	50.38
229.262	61.38
229.496	66.38
229.73	101.38
229.964	78.38
230.199	73.38
230.433	79.38
230.667	81.38
230.901	85.38
231.136	77.38
231.37	78.38
231.604	75.38
231.838	85.38
232.072	79.38
232.306	84.38
232.541	71.38
232.775	79.38
233.009	72.38
233.243	78.38
233.477	80.38
233.711	82.38
233.945	83.38
234.179	82.38
234.413	81.38
234.647	72.38
234.881	77.38
235.115	74.38
235.349	91.38
235.583	72.38
235.817	89.38
236.051	92.38
236.285	76.38
236.519	79.38
236.753	74.38
236.987	87.38
237.221	86.38
237.455	78.38
237.689	85.38
237.922	72.38
238.156	79.38
238.39	89.38
238.624	64.38
238.858	77.38
239.091	68.38
239.325	76.38
239.559	84.38
239.793	80.38
240.027	88.38
240.26	76.38
240.494	81.38
240.728	86.38
240.961	75.38
241.195	75.38
241.429	80.38
241.662	79.38
241.896	87.38
242.13	84.38
242.363	79.38
242.597	67.38
242.83	82.38
243.064	69.38
243.298	86.38
243.531	83.38
243.765	79.38
243.998	81.38
244.232	75.38
244.465	76.38
244.699	89.38
244.932	77.38
245.166	81.38
245.399	86.38
245.633	84.38
245.866	64.38
246.099	64.38
246.333	65.38
246.566	75.38
246.8	76.38
247.033	77.38
247.266	80.38
247.5	84.38
247.733	91.38
247.966	76.38
248.2	76.38
248.433	81.38
248.666	79.38
248.899	79.38
249.133	89.38
249.366	94.38
249.599	89.38
249.832	68.38
250.066	85.38
250.299	79.38
250.532	74.38
250.765	78.38
250.998	89.38
251.231	83.38
251.465	73.38
251.698	75.38
251.931	69.38
252.164	89.38
252.397	96.38
252.63	84.38
252.863	78.38
253.096	77.38
253.329	91.38
253.562	82.38
253.795	66.38
254.028	78.38
254.261	85.38
254.494	80.38
254.727	83.38
254.96	81.38
255.193	88.38
255.426	91.38
255.659	87.38
255.892	68.38
256.124	83.38
256.357	84.38
256.59	84.38
256.823	81.38
257.056	84.38
257.289	73.38
257.521	83.38
257.754	76.38
257.987	87.38
258.22	98.38
258.452	87.38
258.685	88.38
258.918	80.38
259.151	81.38
259.383	71.38
259.616	75.38
259.849	80.38
260.081	92.38
260.314	80.38
260.547	81.38
260.779	92.38
261.012	91.38
261.244	95.38
261.477	75.38
261.71	91.38
261.942	103.38
262.175	107.38
262.407	82.38
262.64	77.38
262.872	96.38
263.105	80.38
263.337	85.38
263.57	87.38
263.802	75.38
264.035	91.38
264.267	92.38
264.499	79.38
264.732	87.38
264.964	84.38
265.197	76.38
265.429	79.38
265.661	81.38
265.894	94.38
266.126	99.38
266.358	76.38
266.591	95.38
266.823	94.38
267.055	77.38
267.287	73.38
267.52	76.38
267.752	87.38
267.984	93.38
268.216	87.38
268.448	79.38
268.681	88.38
268.913	95.38
269.145	84.38
269.377	92.38
269.609	74.38
269.841	79.38
270.073	90.38
270.306	90.38
270.538	88.38
270.77	98.38
271.002	95.38
271.234	88.38
271.466	92.38
271.698	92.38
271.93	96.38
272.162	98.38
272.394	94.38
272.626	76.38
272.858	80.38
273.09	89.38
273.322	91.38
273.553	80.38
273.785	88.38
274.017	87.38
274.249	86.38
274.481	87.38
274.713	95.38
274.945	76.38
275.176	83.38
275.408	99.38
275.64	81.38
275.872	90.38
276.104	82.38
276.335	83.38
276.567	89.38
276.799	101.38
277.031	104.38
277.262	79.38
277.494	82.38
277.726	93.38
277.957	78.38
278.189	75.38
278.421	87.38
278.652	83.38
278.884	93.38
279.115	100.38
279.347	71.38
279.579	88.38
279.81	67.38
280.042	92.38
280.273	91.38
280.505	80.38
280.736	88.38
280.968	79.38
281.199	85.38
281.431	78.38
281.662	89.38
281.894	101.38
282.125	103.38
282.356	126.38
282.588	137.38
282.819	112.38
283.051	89.38
283.282	89.38
283.513	91.38
283.745	87.38
283.976	78.38
284.207	91.38
284.439	91.38
284.67	84.38
284.901	92.38
285.132	82.38
285.364	85.38
285.595	84.38
285.826	80.38
286.057	75.38
286.288	87.38
286.52	92.38
286.751	87.38
286.982	89.38
287.213	82.38
287.444	94.38
287.675	89.38
287.906	87.38
288.138	90.38
288.369	86.38
288.6	95.38
288.831	100.38
289.062	89.38
289.293	88.38
289.524	85.38
289.755	75.38
289.986	80.38
290.217	82.38
290.448	93.38
290.679	103.38
290.91	99.38
291.141	85.38
291.371	82.38
291.602	74.38
291.833	83.38
292.064	81.38
292.295	99.38
292.526	84.38
292.757	89.38
292.987	90.38
293.218	96.38
293.449	76.38
293.68	82.38
293.91	76.38
294.141	101.38
294.372	66.38
294.603	89.38
294.833	85.38
295.064	95.38
295.295	90.38
295.525	95.38
295.756	103.38
295.987	117.38
296.217	129.38
296.448	113.38
296.679	96.38
296.909	82.38
297.14	91.38
297.37	84.38
297.601	88.38
297.831	80.38
298.062	95.38
298.292	81.38
298.523	76.38
298.753	92.38
298.984	91.38
299.214	108.38
299.445	84.38
299.675	98.38
299.905	90.38
300.136	92.38
300.366	102.38
300.597	92.38
300.827	95.38
301.057	100.38
301.288	99.38
301.518	80.38
301.748	98.38
301.979	113.38
302.209	96.38
302.439	81.38
302.669	89.38
302.9	99.38
303.13	100.38
303.36	111.38
303.59	101.38
303.82	93.38
304.051	95.38
304.281	96.38
304.511	91.38
304.741	91.38
304.971	93.38
305.201	93.38
305.431	85.38
305.661	83.38
305.891	87.38
306.121	81.38
306.352	96.38
306.582	100.38
306.812	92.38
307.042	96.38
307.272	99.38
307.502	99.38
307.731	89.38
307.961	90.38
308.191	80.38
308.421	79.38
308.651	103.38
308.881	105.38
309.111	96.38
309.341	90.38
309.571	97.38
309.8	98.38
310.03	79.38
310.26	97.38
310.49	86.38
310.72	101.38
310.949	108.38
311.179	115.38
311.409	93.38
311.639	92.38
311.868	96.38
312.098	97.38
312.328	100.38
312.557	94.38
312.787	106.38
313.017	92.38
313.246	96.38
313.476	80.38
313.706	94.38
313.935	74.38
314.165	108.38
314.394	106.38
314.624	84.38
314.853	93.38
315.083	100.38
315.312	87.38
315.542	101.38
315.771	94.38
316.001	73.38
316.23	86.38
316.46	89.38
316.689	88.38
316.919	82.38
317.148	87.38
317.377	107.38
317.607	81.38
317.836	82.38
318.065	83.38
318.295	81.38
318.524	84.38
318.753	85.38
318.983	92.38
319.212	96.38
319.441	101.38
319.67	111.38
319.9	98.38
320.129	99.38
320.358	91.38
320.587	100.38
320.816	91.38
321.046	108.38
321.275	103.38
321.504	96.38
321.733	95.38
321.962	90.38
322.191	108.38
322.42	100.38
322.649	104.38
322.878	111.38
323.108	123.38
323.337	129.38
323.566	126.38
323.795	152.38
324.024	204.38
324.253	416.38
324.482	847.38
324.71	1759.38
324.939	2292.38
325.168	824.38
325.397	247.38
325.626	143.38
325.855	131.38
326.084	119.38
326.313	132.38
326.542	152.38
326.77	239.38
326.999	469.38
327.228	970.38
327.457	1793.38
327.686	1391.38
327.914	356.38
328.143	202.38
328.372	142.38
328.6	117.38
328.829	105.38
329.058	123.38
329.287	130.38
329.515	103.38
329.744	102.38
329.972	96.38
330.201	90.38
330.43	96.38
330.658	114.38
330.887	125.38
331.115	111.38
331.344	103.38
331.572	109.38
331.801	100.38
332.03	109.38
332.258	105.38
332.486	101.38
332.715	101.38
332.943	97.38
333.172	101.38
333.4	89.38
333.629	100.38
333.857	102.38
334.085	102.38
334.314	99.38
334.542	91.38
334.771	109.38
334.999	101.38
335.227	96.38
335.455	87.38
335.684	92.38
335.912	109.38
336.14	86.38
336.369	91.38
336.597	91.38
336.825	99.38
337.053	100.38
337.281	104.38
337.51	84.38
337.738	95.38
337.966	103.38
338.194	96.38
338.422	96.38
338.65	93.38
338.878	109.38
339.106	93.38
339.334	101.38
339.562	78.38
339.79	95.38
340.018	76.38
340.246	105.38
340.474	93.38
340.702	90.38
340.93	89.38
341.158	88.38
341.386	88.38
341.614	97.38
341.842	104.38
342.07	88.38
342.298	95.38
342.526	86.38
342.754	87.38
342.981	74.38
343.209	100.38
343.437	109.38
343.665	94.38
343.893	80.38
344.12	106.38
344.348	95.38
344.576	92.38
344.804	77.38
345.031	93.38
345.259	96.38
345.487	100.38
345.714	104.38
345.942	100.38
346.17	87.38
346.397	89.38
346.625	94.38
346.853	93.38
347.08	80.38
347.308	85.38
347.535	90.38
347.763	90.38
347.99	86.38
348.218	104.38
348.445	103.38
348.673	99.38
348.9	97.38
349.128	91.38
349.355	84.38
349.583	82.38
349.81	77.38
350.037	100.38
350.265	87.38
350.492	97.38
350.72	92.38
350.947	113.38
351.174	101.38
351.402	106.38
351.629	96.38
351.856	103.38
352.083	109.38
352.311	104.38
352.538	97.38
352.765	102.38
352.992	107.38
353.22	96.38
353.447	116.38
353.674	109.38
353.901	91.38
354.128	104.38
354.355	93.38
354.583	93.38
354.81	96.38
355.037	96.38
355.264	109.38
355.491	92.38
355.718	92.38
355.945	89.38
356.172	96.38
356.399	98.38
356.626	85.38
356.853	83.38
357.08	106.38
357.307	90.38
357.534	77.38
357.761	96.38
357.988	96.38
358.215	90.38
358.441	100.38
358.668	80.38
358.895	82.38
359.122	103.38
359.349	86.38
359.576	87.38
359.802	99.38
360.029	98.38
360.256	118.38
360.483	101.38
360.709	107.38
360.936	85.38
361.163	105.38
361.39	100.38
361.616	90.38
361.843	92.38
362.07	102.38
362.296	81.38
362.523	95.38
362.749	99.38
362.976	102.38
363.203	101.38
363.429	90.38
363.656	97.38
363.882	81.38
364.109	101.38
364.335	97.38
364.562	93.38
364.788	90.38
365.015	96.38
365.241	107.38
365.468	99.38
365.694	114.38
365.92	102.38
366.147	83.38
366.373	85.38
366.599	94.38
366.826	82.38
367.052	97.38
367.278	97.38
367.505	88.38
367.731	82.38
367.957	88.38
368.184	87.38
368.41	93.38
368.636	96.38
368.862	107.38
369.089	89.38
369.315	101.38
369.541	93.38
369.767	83.38
369.993	83.38
370.219	100.38
370.445	91.38
370.672	91.38
370.898	93.38
371.124	85.38
371.35	87.38
371.576	99.38
371.802	75.38
372.028	92.38
372.254	80.38
372.48	98.38
372.706	85.38
372.932	83.38
373.158	76.38
373.384	91.38
373.61	88.38
373.835	98.38
374.061	88.38
374.287	98.38
374.513	92.38
374.739	86.38
374.965	82.38
375.191	88.38
375.416	82.38
375.642	97.38
375.868	95.38
376.094	81.38
376.319	81.38
376.545	86.38
376.771	76.38
376.997	83.38
377.222	81.38
377.448	113.38
377.674	100.38
377.899	91.38
378.125	83.38
378.35	92.38
378.576	80.38
378.802	88.38
379.027	103.38
379.253	81.38
379.478	90.38
379.704	89.38
379.929	100.38
380.155	81.38
380.38	76.38
380.606	82.38
380.831	90.38
381.057	97.38
381.282	91.38
381.507	107.38
381.733	87.38
381.958	87.38
382.184	92.38
382.409	86.38
382.634	106.38
382.86	91.38
383.085	96.38
383.31	102.38
383.535	114.38
383.761	93.38
383.986	93.38
384.211	98.38
384.436	98.38
384.662	94.38
384.887	94.38
385.112	104.38
385.337	111.38
385.562	98.38
385.787	98.38
386.013	97.38
386.238	114.38
386.463	101.38
386.688	108.38
386.913	94.38
387.138	100.38
387.363	114.38
387.588	103.38
387.813	97.38
388.038	102.38
388.263	107.38
388.488	112.38
388.713	104.38
388.938	113.38
389.163	84.38
389.387	90.38
389.612	91.38
389.837	96.38
390.062	93.38
390.287	84.38
390.512	90.38
390.736	98.38
390.961	95.38
391.186	96.38
391.411	84.38
391.636	82.38
391.86	87.38
392.085	82.38
392.31	83.38
392.534	77.38
392.759	92.38
392.984	82.38
393.208	87.38
393.433	80.38
393.658	91.38
393.882	90.38
394.107	97.38
394.331	96.38
394.556	98.38
394.78	100.38
395.005	85.38
395.229	77.38
395.454	88.38
395.678	85.38
395.903	89.38
396.127	85.38
396.352	81.38
396.576	84.38
396.801	87.38
397.025	87.38
397.249	93.38
397.474	95.38
397.698	104.38
397.922	98.38
398.147	85.38
398.371	93.38
398.595	93.38
398.82	83.38
399.044	75.38
399.268	79.38
399.492	80.38
399.717	97.38
399.941	87.38
400.165	95.38
400.389	91.38
400.613	95.38
400.837	103.38
401.062	87.38
401.286	80.38
401.51	85.38
401.734	89.38
401.958	89.38
402.182	114.38
402.406	155.38
402.63	113.38
402.854	77.38
403.078	70.38
403.302	81.38
403.526	87.38
403.75	89.38
403.974	92.38
404.198	83.38
404.422	87.38
404.645	92.38
404.869	98.38
405.093	92.38
405.317	104.38
405.541	104.38
405.765	96.38
405.988	114.38
406.212	169.38
406.436	233.38
406.66	145.38
406.883	96.38
407.107	93.38
407.331	84.38
407.555	94.38
407.778	91.38
408.002	93.38
408.226	96.38
408.449	95.38
408.673	92.38
408.896	92.38
409.12	93.38
409.344	85.38
409.567	75.38
409.791	88.38
410.014	79.38
410.238	95.38
410.461	96.38
410.685	95.38
410.908	102.38
411.132	103.38
411.355	87.38
411.578	99.38
411.802	95.38
412.025	82.38
412.249	93.38
412.472	85.38
412.695	96.38
412.919	96.38
413.142	98.38
413.365	86.38
413.589	94.38
413.812	79.38
414.035	94.38
414.258	96.38
414.482	89.38
414.705	93.38
414.928	89.38
415.151	94.38
415.374	93.38
415.597	92.38
415.821	95.38
416.044	81.38
416.267	95.38
416.49	85.38
416.713	77.38
416.936	83.38
417.159	96.38
417.382	84.38
417.605	83.38
417.828	99.38
418.051	95.38
418.274	82.38
418.497	101.38
418.72	77.38
418.943	90.38
419.166	90.38
419.389	76.38
419.611	83.38
419.834	89.38
420.057	103.38
420.28	82.38
420.503	101.38
420.726	95.38
420.948	83.38
421.171	91.38
421.394	105.38
421.617	103.38
421.839	98.38
422.062	96.38
422.285	92.38
422.507	87.38
422.73	96.38
422.953	91.38
423.175	97.38
423.398	83.38
423.621	84.38
423.843	84.38
424.066	86.38
424.288	76.38
424.511	94.38
424.733	89.38
424.956	104.38
425.178	96.38
425.401	99.38
425.623	98.38
425.846	93.38
426.068	98.38
426.291	89.38
426.513	83.38
426.735	95.38
426.958	101.38
427.18	105.38
427.402	129.38
427.625	140.38
427.847	116.38
428.069	102.38
428.292	93.38
428.514	86.38
428.736	86.38
428.958	75.38
429.181	71.38
429.403	90.38
429.625	90.38
429.847	89.38
430.069	87.38
430.292	92.38
430.514	100.38
430.736	75.38
430.958	83.38
431.18	82.38
431.402	90.38
431.624	88.38
431.846	66.38
432.068	78.38
432.29	89.38
432.512	79.38
432.734	92.38
432.956	85.38
433.178	94.38
433.4	98.38
433.622	98.38
433.844	85.38
434.066	108.38
434.287	87.38
434.509	82.38
434.731	97.38
434.953	94.38
435.175	96.38
435.397	93.38
435.618	88.38
435.84	117.38
436.062	117.38
436.284	107.38
436.505	111.38
436.727	105.38
436.949	85.38
437.17	83.38
437.392	86.38
437.614	95.38
437.835	107.38
438.057	108.38
438.278	98.38
438.5	100.38
438.721	129.38
438.943	89.38
439.165	83.38
439.386	91.38
439.608	77.38
439.829	90.38
440.05	116.38
440.272	126.38
440.493	96.38
440.715	94.38
440.936	83.38
441.158	85.38
441.379	82.38
441.6	95.38
441.822	98.38
442.043	89.38
442.264	107.38
442.486	83.38
442.707	99.38
442.928	99.38
443.149	120.38
443.371	121.38
443.592	98.38
443.813	98.38
444.034	104.38
444.255	99.38
444.476	77.38
444.698	96.38
444.919	100.38
445.14	126.38
445.361	136.38
445.582	117.38
445.803	128.38
446.024	123.38
446.245	107.38
446.466	105.38
446.687	75.38
446.908	86.38
447.129	90.38
447.35	100.38
447.571	85.38
447.792	83.38
448.013	77.38
448.234	105.38
448.455	98.38
448.675	96.38
448.896	94.38
449.117	107.38
449.338	103.38
449.559	111.38
449.779	132.38
450	96.38
450.221	95.38
450.442	86.38
450.662	91.38
450.883	102.38
451.104	107.38
451.324	87.38
451.545	88.38
451.766	92.38
451.986	99.38
452.207	90.38
452.428	92.38
452.648	106.38
452.869	111.38
453.089	125.38
453.31	104.38
453.53	96.38
453.751	86.38
453.971	105.38
454.192	92.38
454.412	100.38
454.633	79.38
454.853	89.38
455.073	83.38
455.294	95.38
455.514	97.38
455.734	88.38
455.955	91.38
456.175	81.38
456.395	96.38
456.616	97.38
456.836	86.38
457.056	89.38
457.276	95.38
457.497	89.38
457.717	103.38
457.937	74.38
458.157	96.38
458.377	93.38
458.598	105.38
458.818	138.38
459.038	138.38
459.258	105.38
459.478	89.38
459.698	87.38
459.918	87.38
460.138	86.38
460.358	95.38
460.578	91.38
460.798	82.38
461.018	89.38
461.238	89.38
461.458	76.38
461.678	83.38
461.898	80.38
462.118	87.38
462.338	98.38
462.558	73.38
462.777	77.38
462.997	92.38
463.217	83.38
463.437	96.38
463.657	79.38
463.876	97.38
464.096	89.38
464.316	84.38
464.536	84.38
464.755	101.38
464.975	105.38
465.195	168.38
465.414	136.38
465.634	91.38
465.854	75.38
466.073	89.38
466.293	92.38
466.512	84.38
466.732	83.38
466.951	77.38
467.171	98.38
467.391	103.38
467.61	106.38
467.829	100.38
468.049	100.38
468.268	98.38
468.488	90.38
468.707	87.38
468.927	103.38
469.146	87.38
469.365	79.38
469.585	79.38
469.804	98.38
470.023	93.38
470.243	91.38
470.462	94.38
470.681	96.38
470.901	93.38
471.12	96.38
471.339	86.38
471.558	77.38
471.777	103.38
471.997	83.38
472.216	81.38
472.435	97.38
472.654	81.38
472.873	93.38
473.092	101.38
473.311	98.38
473.53	83.38
473.749	94.38
473.968	84.38
474.187	100.38
474.406	106.38
474.625	83.38
474.844	80.38
475.063	91.38
475.282	86.38
475.501	84.38
475.72	94.38
475.939	80.38
476.158	84.38
476.377	91.38
476.596	92.38
476.814	88.38
477.033	89.38
477.252	87.38
477.471	92.38
477.69	91.38
477.908	94.38
478.127	88.38
478.346	89.38
478.564	104.38
478.783	99.38
479.002	87.38
479.22	85.38
479.439	105.38
479.658	99.38
479.876	95.38
480.095	88.38
480.313	76.38
480.532	80.38
480.751	81.38
480.969	92.38
481.188	93.38
481.406	97.38
481.624	98.38
481.843	85.38
482.061	90.38
482.28	84.38
482.498	88.38
482.717	78.38
482.935	88.38
483.153	96.38
483.372	92.38
483.59	88.38
483.808	97.38
484.027	85.38
484.245	105.38
484.463	95.38
484.681	90.38
484.9	95.38
485.118	94.38
485.336	100.38
485.554	98.38
485.772	108.38
485.99	96.38
486.209	101.38
486.427	108.38
486.645	99.38
486.863	105.38
487.081	89.38
487.299	101.38
487.517	104.38
487.735	87.38
487.953	94.38
488.171	93.38
488.389	95.38
488.607	95.38
488.825	95.38
489.043	104.38
489.261	87.38
489.479	87.38
489.696	90.38
489.914	92.38
490.132	83.38
490.35	100.38
490.568	86.38
490.786	99.38
491.003	98.38
491.221	100.38
491.439	92.38
491.657	100.38
491.874	96.38
492.092	80.38
492.31	101.38
492.527	93.38
492.745	100.38
492.963	92.38
493.18	84.38
493.398	76.38
493.615	88.38
493.833	106.38
494.05	81.38
494.268	95.38
494.485	100.38
494.703	99.38
494.92	80.38
495.138	94.38
495.355	95.38
495.573	90.38
495.79	80.38
496.008	92.38
496.225	87.38
496.442	87.38
496.66	76.38
496.877	97.38
497.094	105.38
497.312	91.38
497.529	102.38
497.746	89.38
497.963	89.38
498.181	94.38
498.398	94.38
498.615	101.38
498.832	97.38
499.049	90.38
499.267	101.38
499.484	116.38
499.701	92.38
499.918	92.38
500.135	93.38
500.352	92.38
500.569	104.38
500.786	100.38
501.003	96.38
501.22	83.38
501.437	92.38
501.654	97.38
501.871	125.38
502.088	100.38
502.305	84.38
502.522	95.38
502.739	89.38
502.956	95.38
503.172	89.38
503.389	96.38
503.606	109.38
503.823	97.38
504.04	79.38
504.256	90.38
504.473	89.38
504.69	78.38
504.907	98.38
505.123	92.38
505.34	111.38
505.557	96.38
505.773	96.38
505.99	91.38
506.207	94.38
506.423	90.38
506.64	105.38
506.856	87.38
507.073	95.38
507.289	100.38
507.506	107.38
507.722	102.38
507.939	113.38
508.155	100.38
508.372	110.38
508.588	96.38
508.805	90.38
509.021	108.38
509.238	95.38
509.454	99.38
509.67	98.38
509.887	103.38
510.103	133.38
510.319	226.38
510.536	784.38
510.752	2463.38
510.968	680.38
511.184	153.38
511.401	111.38
511.617	100.38
511.833	84.38
512.049	86.38
512.265	96.38
512.481	100.38
512.698	89.38
512.914	89.38
513.13	100.38
513.346	93.38
513.562	112.38
513.778	98.38
513.994	93.38
514.21	116.38
514.426	115.38
514.642	135.38
514.858	130.38
515.074	161.38
515.29	443.38
515.506	1434.38
515.721	524.38
