Data from Uncirc_1995_H10_HRD10591_00020.txt Node
Date: Wed Jan 03 11:35:37 EST 2024
User: Yrep
Spectrometer: HR+D1059
Trigger mode: 1
Integration Time (sec): 1.000000E-1
Scans to average: 1
Electric dark correction enabled: true
Nonlinearity correction enabled: false
Boxcar width: 0
XAxis mode: Wavelengths
Number of Pixels in Spectrum: 2048
>>>>>Begin Spectral Data<<<<<
223.165	-11.69
223.4	-11.69
223.635	-11.69
223.869	-15.69
224.104	-19.69
224.338	-28.69
224.573	-19.69
224.808	-14.69
225.042	-6.69
225.277	-15.69
225.511	8.31
225.746	-1.69
225.98	15.31
226.215	17.31
226.449	20.31
226.683	19.31
226.918	21.31
227.152	32.31
227.387	43.31
227.621	50.31
227.856	53.31
228.09	44.31
228.324	44.31
228.559	57.31
228.793	66.31
229.027	74.31
229.262	78.31
229.496	86.31
229.73	85.31
229.964	71.31
230.199	75.31
230.433	78.31
230.667	88.31
230.901	78.31
231.136	78.31
231.37	73.31
231.604	89.31
231.838	74.31
232.072	80.31
232.306	85.31
232.541	90.31
232.775	91.31
233.009	78.31
233.243	84.31
233.477	67.31
233.711	86.31
233.945	70.31
234.179	91.31
234.413	96.31
234.647	82.31
234.881	75.31
235.115	74.31
235.349	82.31
235.583	84.31
235.817	77.31
236.051	90.31
236.285	70.31
236.519	81.31
236.753	84.31
236.987	80.31
237.221	77.31
237.455	81.31
237.689	72.31
237.922	89.31
238.156	92.31
238.39	72.31
238.624	82.31
238.858	92.31
239.091	69.31
239.325	95.31
239.559	79.31
239.793	76.31
240.027	88.31
240.26	79.31
240.494	82.31
240.728	84.31
240.961	88.31
241.195	74.31
241.429	74.31
241.662	75.31
241.896	81.31
242.13	94.31
242.363	96.31
242.597	88.31
242.83	57.31
243.064	78.31
243.298	82.31
243.531	72.31
243.765	83.31
243.998	82.31
244.232	82.31
244.465	88.31
244.699	85.31
244.932	84.31
245.166	90.31
245.399	83.31
245.633	77.31
245.866	85.31
246.099	72.31
246.333	88.31
246.566	73.31
246.8	96.31
247.033	85.31
247.266	83.31
247.5	70.31
247.733	58.31
247.966	88.31
248.2	94.31
248.433	81.31
248.666	93.31
248.899	88.31
249.133	78.31
249.366	91.31
249.599	102.31
249.832	88.31
250.066	91.31
250.299	89.31
250.532	77.31
250.765	88.31
250.998	83.31
251.231	78.31
251.465	76.31
251.698	86.31
251.931	80.31
252.164	81.31
252.397	93.31
252.63	88.31
252.863	88.31
253.096	83.31
253.329	76.31
253.562	80.31
253.795	84.31
254.028	78.31
254.261	99.31
254.494	73.31
254.727	88.31
254.96	88.31
255.193	82.31
255.426	83.31
255.659	67.31
255.892	84.31
256.124	80.31
256.357	80.31
256.59	68.31
256.823	91.31
257.056	81.31
257.289	99.31
257.521	75.31
257.754	72.31
257.987	76.31
258.22	100.31
258.452	88.31
258.685	86.31
258.918	82.31
259.151	85.31
259.383	78.31
259.616	78.31
259.849	76.31
260.081	64.31
260.314	79.31
260.547	88.31
260.779	90.31
261.012	82.31
261.244	98.31
261.477	109.31
261.71	99.31
261.942	113.31
262.175	113.31
262.407	88.31
262.64	87.31
262.872	72.31
263.105	93.31
263.337	88.31
263.57	82.31
263.802	89.31
264.035	85.31
264.267	76.31
264.499	98.31
264.732	78.31
264.964	94.31
265.197	94.31
265.429	82.31
265.661	83.31
265.894	86.31
266.126	85.31
266.358	87.31
266.591	76.31
266.823	67.31
267.055	82.31
267.287	88.31
267.52	83.31
267.752	88.31
267.984	86.31
268.216	80.31
268.448	86.31
268.681	79.31
268.913	82.31
269.145	106.31
269.377	94.31
269.609	88.31
269.841	82.31
270.073	79.31
270.306	88.31
270.538	75.31
270.77	76.31
271.002	85.31
271.234	82.31
271.466	80.31
271.698	93.31
271.93	98.31
272.162	82.31
272.394	84.31
272.626	83.31
272.858	82.31
273.09	90.31
273.322	74.31
273.553	82.31
273.785	93.31
274.017	69.31
274.249	85.31
274.481	90.31
274.713	95.31
274.945	82.31
275.176	82.31
275.408	102.31
275.64	85.31
275.872	77.31
276.104	105.31
276.335	102.31
276.567	106.31
276.799	113.31
277.031	102.31
277.262	95.31
277.494	88.31
277.726	83.31
277.957	74.31
278.189	89.31
278.421	85.31
278.652	106.31
278.884	85.31
279.115	81.31
279.347	93.31
279.579	87.31
279.81	97.31
280.042	74.31
280.273	88.31
280.505	83.31
280.736	95.31
280.968	83.31
281.199	93.31
281.431	91.31
281.662	94.31
281.894	100.31
282.125	101.31
282.356	105.31
282.588	121.31
282.819	97.31
283.051	100.31
283.282	92.31
283.513	91.31
283.745	84.31
283.976	79.31
284.207	90.31
284.439	83.31
284.67	78.31
284.901	85.31
285.132	82.31
285.364	93.31
285.595	84.31
285.826	93.31
286.057	96.31
286.288	90.31
286.52	82.31
286.751	78.31
286.982	84.31
287.213	88.31
287.444	97.31
287.675	98.31
287.906	83.31
288.138	90.31
288.369	93.31
288.6	105.31
288.831	85.31
289.062	81.31
289.293	85.31
289.524	85.31
289.755	92.31
289.986	82.31
290.217	97.31
290.448	85.31
290.679	90.31
290.91	80.31
291.141	103.31
291.371	90.31
291.602	97.31
291.833	111.31
292.064	83.31
292.295	86.31
292.526	77.31
292.757	100.31
292.987	95.31
293.218	83.31
293.449	90.31
293.68	98.31
293.91	83.31
294.141	82.31
294.372	83.31
294.603	84.31
294.833	94.31
295.064	93.31
295.295	97.31
295.525	93.31
295.756	112.31
295.987	106.31
296.217	125.31
296.448	120.31
296.679	96.31
296.909	77.31
297.14	102.31
297.37	100.31
297.601	91.31
297.831	103.31
298.062	93.31
298.292	104.31
298.523	88.31
298.753	90.31
298.984	89.31
299.214	81.31
299.445	91.31
299.675	85.31
299.905	97.31
300.136	86.31
300.366	94.31
300.597	90.31
300.827	88.31
301.057	108.31
301.288	98.31
301.518	96.31
301.748	90.31
301.979	100.31
302.209	93.31
302.439	92.31
302.669	78.31
302.9	100.31
303.13	97.31
303.36	91.31
303.59	94.31
303.82	104.31
304.051	96.31
304.281	77.31
304.511	106.31
304.741	96.31
304.971	79.31
305.201	91.31
305.431	90.31
305.661	90.31
305.891	79.31
306.121	88.31
306.352	97.31
306.582	87.31
306.812	93.31
307.042	98.31
307.272	98.31
307.502	96.31
307.731	89.31
307.961	84.31
308.191	80.31
308.421	101.31
308.651	92.31
308.881	96.31
309.111	97.31
309.341	84.31
309.571	105.31
309.8	111.31
310.03	85.31
310.26	95.31
310.49	75.31
310.72	84.31
310.949	96.31
311.179	103.31
311.409	106.31
311.639	84.31
311.868	102.31
312.098	113.31
312.328	92.31
312.557	110.31
312.787	101.31
313.017	94.31
313.246	85.31
313.476	85.31
313.706	97.31
313.935	98.31
314.165	90.31
314.394	111.31
314.624	86.31
314.853	92.31
315.083	104.31
315.312	99.31
315.542	93.31
315.771	95.31
316.001	83.31
316.23	68.31
316.46	84.31
316.689	98.31
316.919	88.31
317.148	104.31
317.377	96.31
317.607	109.31
317.836	87.31
318.065	102.31
318.295	97.31
318.524	74.31
318.753	79.31
318.983	75.31
319.212	103.31
319.441	101.31
319.67	100.31
319.9	93.31
320.129	92.31
320.358	95.31
320.587	96.31
320.816	101.31
321.046	101.31
321.275	105.31
321.504	97.31
321.733	97.31
321.962	114.31
322.191	99.31
322.42	108.31
322.649	109.31
322.878	118.31
323.108	129.31
323.337	117.31
323.566	124.31
323.795	132.31
324.024	196.31
324.253	366.31
324.482	764.31
324.71	1527.31
324.939	2009.31
325.168	749.31
325.397	217.31
325.626	146.31
325.855	129.31
326.084	122.31
326.313	148.31
326.542	139.31
326.77	220.31
326.999	424.31
327.228	889.31
327.457	1554.31
327.686	1251.31
327.914	341.31
328.143	197.31
328.372	145.31
328.6	113.31
328.829	114.31
329.058	119.31
329.287	117.31
329.515	114.31
329.744	94.31
329.972	96.31
330.201	100.31
330.43	100.31
330.658	114.31
330.887	119.31
331.115	108.31
331.344	97.31
331.572	89.31
331.801	110.31
332.03	100.31
332.258	102.31
332.486	86.31
332.715	88.31
332.943	89.31
333.172	77.31
333.4	109.31
333.629	110.31
333.857	105.31
334.085	107.31
334.314	98.31
334.542	95.31
334.771	97.31
334.999	97.31
335.227	88.31
335.455	85.31
335.684	101.31
335.912	105.31
336.14	92.31
336.369	96.31
336.597	104.31
336.825	92.31
337.053	86.31
337.281	104.31
337.51	97.31
337.738	94.31
337.966	104.31
338.194	90.31
338.422	96.31
338.65	96.31
338.878	86.31
339.106	89.31
339.334	98.31
339.562	90.31
339.79	96.31
340.018	86.31
340.246	94.31
340.474	81.31
340.702	99.31
340.93	92.31
341.158	94.31
341.386	97.31
341.614	97.31
341.842	106.31
342.07	99.31
342.298	96.31
342.526	78.31
342.754	105.31
342.981	90.31
343.209	88.31
343.437	109.31
343.665	94.31
343.893	88.31
344.12	79.31
344.348	100.31
344.576	83.31
344.804	88.31
345.031	86.31
345.259	90.31
345.487	92.31
345.714	90.31
345.942	101.31
346.17	88.31
346.397	99.31
346.625	92.31
346.853	97.31
347.08	99.31
347.308	90.31
347.535	101.31
347.763	116.31
347.99	112.31
348.218	113.31
348.445	88.31
348.673	88.31
348.9	102.31
349.128	101.31
349.355	96.31
349.583	102.31
349.81	97.31
350.037	109.31
350.265	98.31
350.492	93.31
350.72	98.31
350.947	112.31
351.174	94.31
351.402	98.31
351.629	106.31
351.856	108.31
352.083	85.31
352.311	82.31
352.538	102.31
352.765	101.31
352.992	108.31
353.22	105.31
353.447	114.31
353.674	89.31
353.901	107.31
354.128	113.31
354.355	101.31
354.583	112.31
354.81	102.31
355.037	99.31
355.264	93.31
355.491	104.31
355.718	113.31
355.945	111.31
356.172	100.31
356.399	98.31
356.626	96.31
356.853	85.31
357.08	86.31
357.307	105.31
357.534	80.31
357.761	81.31
357.988	92.31
358.215	103.31
358.441	103.31
358.668	80.31
358.895	90.31
359.122	86.31
359.349	82.31
359.576	93.31
359.802	92.31
360.029	106.31
360.256	105.31
360.483	85.31
360.709	96.31
360.936	94.31
361.163	102.31
361.39	96.31
361.616	113.31
361.843	89.31
362.07	94.31
362.296	98.31
362.523	86.31
362.749	85.31
362.976	81.31
363.203	78.31
363.429	100.31
363.656	112.31
363.882	91.31
364.109	94.31
364.335	93.31
364.562	91.31
364.788	86.31
365.015	88.31
365.241	95.31
365.468	98.31
365.694	107.31
365.92	101.31
366.147	94.31
366.373	80.31
366.599	94.31
366.826	80.31
367.052	98.31
367.278	99.31
367.505	88.31
367.731	96.31
367.957	92.31
368.184	84.31
368.41	84.31
368.636	107.31
368.862	127.31
369.089	97.31
369.315	84.31
369.541	104.31
369.767	107.31
369.993	89.31
370.219	99.31
370.445	94.31
370.672	96.31
370.898	102.31
371.124	89.31
371.35	94.31
371.576	74.31
371.802	92.31
372.028	82.31
372.254	80.31
372.48	85.31
372.706	90.31
372.932	100.31
373.158	99.31
373.384	89.31
373.61	88.31
373.835	93.31
374.061	89.31
374.287	74.31
374.513	91.31
374.739	86.31
374.965	95.31
375.191	84.31
375.416	90.31
375.642	96.31
375.868	97.31
376.094	82.31
376.319	93.31
376.545	90.31
376.771	105.31
376.997	101.31
377.222	92.31
377.448	67.31
377.674	108.31
377.899	96.31
378.125	98.31
378.35	80.31
378.576	90.31
378.802	92.31
379.027	85.31
379.253	104.31
379.478	100.31
379.704	76.31
379.929	82.31
380.155	109.31
380.38	99.31
380.606	80.31
380.831	105.31
381.057	101.31
381.282	99.31
381.507	94.31
381.733	98.31
381.958	92.31
382.184	113.31
382.409	110.31
382.634	104.31
382.86	88.31
383.085	96.31
383.31	105.31
383.535	108.31
383.761	100.31
383.986	113.31
384.211	96.31
384.436	113.31
384.662	107.31
384.887	110.31
385.112	98.31
385.337	98.31
385.562	111.31
385.787	109.31
386.013	116.31
386.238	117.31
386.463	98.31
386.688	108.31
386.913	111.31
387.138	99.31
387.363	111.31
387.588	112.31
387.813	91.31
388.038	117.31
388.263	125.31
388.488	95.31
388.713	94.31
388.938	108.31
389.163	102.31
389.387	102.31
389.612	101.31
389.837	100.31
390.062	97.31
390.287	96.31
390.512	108.31
390.736	94.31
390.961	98.31
391.186	106.31
391.411	102.31
391.636	98.31
391.86	82.31
392.085	79.31
392.31	90.31
392.534	87.31
392.759	90.31
392.984	83.31
393.208	94.31
393.433	98.31
393.658	84.31
393.882	88.31
394.107	88.31
394.331	91.31
394.556	97.31
394.78	100.31
395.005	89.31
395.229	101.31
395.454	77.31
395.678	91.31
395.903	92.31
396.127	92.31
396.352	82.31
396.576	98.31
396.801	96.31
397.025	99.31
397.249	90.31
397.474	94.31
397.698	94.31
397.922	93.31
398.147	86.31
398.371	105.31
398.595	109.31
398.82	99.31
399.044	93.31
399.268	105.31
399.492	90.31
399.717	85.31
399.941	94.31
400.165	85.31
400.389	84.31
400.613	99.31
400.837	82.31
401.062	81.31
401.286	90.31
401.51	101.31
401.734	85.31
401.958	91.31
402.182	128.31
402.406	137.31
402.63	122.31
402.854	99.31
403.078	88.31
403.302	88.31
403.526	85.31
403.75	80.31
403.974	92.31
404.198	83.31
404.422	94.31
404.645	92.31
404.869	94.31
405.093	93.31
405.317	108.31
405.541	91.31
405.765	89.31
405.988	101.31
406.212	133.31
406.436	196.31
406.66	143.31
406.883	104.31
407.107	90.31
407.331	95.31
407.555	105.31
407.778	101.31
408.002	88.31
408.226	89.31
408.449	90.31
408.673	80.31
408.896	95.31
409.12	99.31
409.344	95.31
409.567	77.31
409.791	100.31
410.014	106.31
410.238	94.31
410.461	89.31
410.685	99.31
410.908	98.31
411.132	93.31
411.355	103.31
411.578	94.31
411.802	92.31
412.025	85.31
412.249	97.31
412.472	96.31
412.695	96.31
412.919	95.31
413.142	103.31
413.365	91.31
413.589	91.31
413.812	82.31
414.035	85.31
414.258	93.31
414.482	77.31
414.705	95.31
414.928	92.31
415.151	90.31
415.374	88.31
415.597	90.31
415.821	86.31
416.044	102.31
416.267	91.31
416.49	90.31
416.713	99.31
416.936	88.31
417.159	94.31
417.382	100.31
417.605	89.31
417.828	98.31
418.051	90.31
418.274	90.31
418.497	87.31
418.72	98.31
418.943	93.31
419.166	98.31
419.389	89.31
419.611	100.31
419.834	96.31
420.057	88.31
420.28	100.31
420.503	85.31
420.726	76.31
420.948	84.31
421.171	88.31
421.394	91.31
421.617	90.31
421.839	84.31
422.062	97.31
422.285	109.31
422.507	106.31
422.73	103.31
422.953	97.31
423.175	91.31
423.398	73.31
423.621	92.31
423.843	81.31
424.066	90.31
424.288	90.31
424.511	93.31
424.733	99.31
424.956	98.31
425.178	98.31
425.401	110.31
425.623	104.31
425.846	94.31
426.068	83.31
426.291	87.31
426.513	82.31
426.735	97.31
426.958	94.31
427.18	115.31
427.402	132.31
427.625	152.31
427.847	109.31
428.069	85.31
428.292	92.31
428.514	86.31
428.736	76.31
428.958	86.31
429.181	80.31
429.403	100.31
429.625	90.31
429.847	92.31
430.069	71.31
430.292	84.31
430.514	90.31
430.736	101.31
430.958	82.31
431.18	82.31
431.402	99.31
431.624	88.31
431.846	90.31
432.068	86.31
432.29	89.31
432.512	74.31
432.734	91.31
432.956	108.31
433.178	99.31
433.4	88.31
433.622	90.31
433.844	93.31
434.066	91.31
434.287	89.31
434.509	98.31
434.731	95.31
434.953	79.31
435.175	104.31
435.397	102.31
435.618	85.31
435.84	112.31
436.062	138.31
436.284	108.31
436.505	91.31
436.727	97.31
436.949	80.31
437.17	84.31
437.392	91.31
437.614	84.31
437.835	107.31
438.057	110.31
438.278	105.31
438.5	99.31
438.721	121.31
438.943	107.31
439.165	93.31
439.386	91.31
439.608	93.31
439.829	109.31
440.05	108.31
440.272	131.31
440.493	98.31
440.715	84.31
440.936	88.31
441.158	75.31
441.379	100.31
441.6	101.31
441.822	90.31
442.043	94.31
442.264	102.31
442.486	106.31
442.707	96.31
442.928	84.31
443.149	109.31
443.371	112.31
443.592	109.31
443.813	115.31
444.034	109.31
444.255	89.31
444.476	76.31
444.698	82.31
444.919	99.31
445.14	137.31
445.361	124.31
445.582	112.31
445.803	120.31
446.024	111.31
446.245	130.31
446.466	92.31
446.687	88.31
446.908	84.31
447.129	88.31
447.35	95.31
447.571	94.31
447.792	101.31
448.013	102.31
448.234	104.31
448.455	101.31
448.675	104.31
448.896	118.31
449.117	93.31
449.338	89.31
449.559	122.31
449.779	127.31
450	84.31
450.221	82.31
450.442	64.31
450.662	120.31
450.883	94.31
451.104	96.31
451.324	97.31
451.545	89.31
451.766	83.31
451.986	84.31
452.207	96.31
452.428	76.31
452.648	98.31
452.869	102.31
453.089	108.31
453.31	98.31
453.53	92.31
453.751	94.31
453.971	103.31
454.192	113.31
454.412	98.31
454.633	110.31
454.853	91.31
455.073	110.31
455.294	102.31
455.514	96.31
455.734	81.31
455.955	75.31
456.175	84.31
456.395	88.31
456.616	89.31
456.836	84.31
457.056	79.31
457.276	70.31
457.497	93.31
457.717	89.31
457.937	90.31
458.157	85.31
458.377	74.31
458.598	97.31
458.818	136.31
459.038	141.31
459.258	101.31
459.478	94.31
459.698	89.31
459.918	82.31
460.138	98.31
460.358	82.31
460.578	78.31
460.798	86.31
461.018	74.31
461.238	77.31
461.458	75.31
461.678	77.31
461.898	97.31
462.118	72.31
462.338	88.31
462.558	83.31
462.777	90.31
462.997	101.31
463.217	89.31
463.437	81.31
463.657	89.31
463.876	79.31
464.096	90.31
464.316	83.31
464.536	92.31
464.755	105.31
464.975	108.31
465.195	161.31
465.414	139.31
465.634	106.31
465.854	80.31
466.073	90.31
466.293	87.31
466.512	92.31
466.732	84.31
466.951	90.31
467.171	86.31
467.391	89.31
467.61	98.31
467.829	86.31
468.049	96.31
468.268	83.31
468.488	89.31
468.707	80.31
468.927	80.31
469.146	93.31
469.365	78.31
469.585	87.31
469.804	89.31
470.023	95.31
470.243	88.31
470.462	103.31
470.681	89.31
470.901	82.31
471.12	82.31
471.339	80.31
471.558	75.31
471.777	86.31
471.997	92.31
472.216	76.31
472.435	91.31
472.654	87.31
472.873	93.31
473.092	75.31
473.311	97.31
473.53	86.31
473.749	88.31
473.968	90.31
474.187	100.31
474.406	101.31
474.625	90.31
474.844	85.31
475.063	90.31
475.282	90.31
475.501	76.31
475.72	83.31
475.939	88.31
476.158	97.31
476.377	93.31
476.596	96.31
476.814	94.31
477.033	92.31
477.252	90.31
477.471	90.31
477.69	86.31
477.908	93.31
478.127	85.31
478.346	88.31
478.564	83.31
478.783	90.31
479.002	98.31
479.22	97.31
479.439	110.31
479.658	108.31
479.876	96.31
480.095	93.31
480.313	89.31
480.532	96.31
480.751	95.31
480.969	96.31
481.188	93.31
481.406	95.31
481.624	93.31
481.843	96.31
482.061	98.31
482.28	76.31
482.498	92.31
482.717	91.31
482.935	92.31
483.153	96.31
483.372	78.31
483.59	84.31
483.808	95.31
484.027	94.31
484.245	100.31
484.463	117.31
484.681	81.31
484.9	90.31
485.118	94.31
485.336	106.31
485.554	104.31
485.772	81.31
485.99	99.31
486.209	112.31
486.427	97.31
486.645	106.31
486.863	105.31
487.081	112.31
487.299	104.31
487.517	84.31
487.735	98.31
487.953	82.31
488.171	100.31
488.389	104.31
488.607	109.31
488.825	92.31
489.043	88.31
489.261	96.31
489.479	90.31
489.696	88.31
489.914	115.31
490.132	100.31
490.35	83.31
490.568	107.31
490.786	90.31
491.003	90.31
491.221	84.31
491.439	96.31
491.657	102.31
491.874	91.31
492.092	90.31
492.31	95.31
492.527	95.31
492.745	95.31
492.963	100.31
493.18	96.31
493.398	85.31
493.615	90.31
493.833	94.31
494.05	108.31
494.268	86.31
494.485	81.31
494.703	82.31
494.92	92.31
495.138	81.31
495.355	96.31
495.573	101.31
495.79	84.31
496.008	101.31
496.225	99.31
496.442	85.31
496.66	96.31
496.877	90.31
497.094	113.31
497.312	100.31
497.529	99.31
497.746	97.31
497.963	94.31
498.181	102.31
498.398	86.31
498.615	105.31
498.832	104.31
499.049	85.31
499.267	94.31
499.484	98.31
499.701	93.31
499.918	95.31
500.135	92.31
500.352	96.31
500.569	85.31
500.786	91.31
501.003	89.31
501.22	99.31
501.437	95.31
501.654	88.31
501.871	122.31
502.088	89.31
502.305	95.31
502.522	93.31
502.739	77.31
502.956	94.31
503.172	93.31
503.389	93.31
503.606	108.31
503.823	98.31
504.04	98.31
504.256	95.31
504.473	92.31
504.69	77.31
504.907	100.31
505.123	85.31
505.34	95.31
505.557	90.31
505.773	98.31
505.99	97.31
506.207	73.31
506.423	78.31
506.64	89.31
506.856	97.31
507.073	92.31
507.289	89.31
507.506	113.31
507.722	101.31
507.939	112.31
508.155	103.31
508.372	96.31
508.588	113.31
508.805	90.31
509.021	88.31
509.238	97.31
509.454	98.31
509.67	99.31
509.887	102.31
510.103	131.31
510.319	217.31
510.536	690.31
510.752	2100.31
510.968	561.31
511.184	136.31
511.401	91.31
511.617	88.31
511.833	101.31
512.049	89.31
512.265	84.31
512.481	86.31
512.698	95.31
512.914	88.31
513.13	99.31
513.346	85.31
513.562	93.31
513.778	114.31
513.994	94.31
514.21	102.31
514.426	104.31
514.642	122.31
514.858	121.31
515.074	151.31
515.29	381.31
