Data from Uncirc_1995_H10_HRD10591_00058.txt Node
Date: Wed Jan 03 11:35:45 EST 2024
User: Yrep
Spectrometer: HR+D1059
Trigger mode: 1
Integration Time (sec): 1.000000E-1
Scans to average: 1
Electric dark correction enabled: true
Nonlinearity correction enabled: false
Boxcar width: 0
XAxis mode: Wavelengths
Number of Pixels in Spectrum: 2048
>>>>>Begin Spectral Data<<<<<
223.165	-9.88
223.4	-9.88
223.635	-9.88
223.869	-2.88
224.104	-23.88
224.338	-13.88
224.573	-14.88
224.808	-8.88
225.042	-11.88
225.277	6.12
225.511	-19.88
225.746	1.12
225.98	-5.88
226.215	7.12
226.449	33.12
226.683	25.12
226.918	21.12
227.152	18.12
227.387	33.12
227.621	34.12
227.856	38.12
228.09	39.12
228.324	47.12
228.559	60.12
228.793	61.12
229.027	53.12
229.262	74.12
229.496	69.12
229.73	86.12
229.964	80.12
230.199	79.12
230.433	82.12
230.667	67.12
230.901	73.12
231.136	78.12
231.37	81.12
231.604	82.12
231.838	86.12
232.072	83.12
232.306	91.12
232.541	79.12
232.775	85.12
233.009	79.12
233.243	87.12
233.477	79.12
233.711	85.12
233.945	73.12
234.179	77.12
234.413	90.12
234.647	70.12
234.881	85.12
235.115	66.12
235.349	62.12
235.583	88.12
235.817	76.12
236.051	62.12
236.285	81.12
236.519	70.12
236.753	81.12
236.987	85.12
237.221	79.12
237.455	94.12
237.689	74.12
237.922	72.12
238.156	79.12
238.39	78.12
238.624	65.12
238.858	63.12
239.091	72.12
239.325	65.12
239.559	93.12
239.793	75.12
240.027	97.12
240.26	73.12
240.494	75.12
240.728	72.12
240.961	74.12
241.195	64.12
241.429	77.12
241.662	78.12
241.896	82.12
242.13	74.12
242.363	79.12
242.597	82.12
242.83	70.12
243.064	73.12
243.298	65.12
243.531	66.12
243.765	70.12
243.998	78.12
244.232	79.12
244.465	65.12
244.699	78.12
244.932	85.12
245.166	76.12
245.399	72.12
245.633	80.12
245.866	74.12
246.099	65.12
246.333	80.12
246.566	74.12
246.8	76.12
247.033	99.12
247.266	82.12
247.5	72.12
247.733	83.12
247.966	78.12
248.2	69.12
248.433	82.12
248.666	79.12
248.899	76.12
249.133	80.12
249.366	95.12
249.599	93.12
249.832	73.12
250.066	75.12
250.299	80.12
250.532	75.12
250.765	89.12
250.998	82.12
251.231	80.12
251.465	73.12
251.698	86.12
251.931	69.12
252.164	81.12
252.397	73.12
252.63	66.12
252.863	97.12
253.096	82.12
253.329	79.12
253.562	81.12
253.795	69.12
254.028	71.12
254.261	73.12
254.494	84.12
254.727	82.12
254.96	85.12
255.193	76.12
255.426	69.12
255.659	72.12
255.892	73.12
256.124	77.12
256.357	81.12
256.59	69.12
256.823	60.12
257.056	80.12
257.289	92.12
257.521	86.12
257.754	89.12
257.987	77.12
258.22	78.12
258.452	87.12
258.685	80.12
258.918	69.12
259.151	73.12
259.383	90.12
259.616	77.12
259.849	91.12
260.081	87.12
260.314	83.12
260.547	85.12
260.779	75.12
261.012	97.12
261.244	80.12
261.477	76.12
261.71	86.12
261.942	104.12
262.175	114.12
262.407	85.12
262.64	89.12
262.872	76.12
263.105	91.12
263.337	78.12
263.57	73.12
263.802	81.12
264.035	77.12
264.267	80.12
264.499	60.12
264.732	81.12
264.964	83.12
265.197	80.12
265.429	77.12
265.661	91.12
265.894	71.12
266.126	83.12
266.358	81.12
266.591	80.12
266.823	80.12
267.055	104.12
267.287	79.12
267.52	81.12
267.752	77.12
267.984	82.12
268.216	84.12
268.448	87.12
268.681	91.12
268.913	90.12
269.145	76.12
269.377	87.12
269.609	94.12
269.841	73.12
270.073	66.12
270.306	86.12
270.538	87.12
270.77	78.12
271.002	73.12
271.234	69.12
271.466	76.12
271.698	81.12
271.93	86.12
272.162	61.12
272.394	81.12
272.626	75.12
272.858	80.12
273.09	85.12
273.322	80.12
273.553	79.12
273.785	71.12
274.017	97.12
274.249	79.12
274.481	88.12
274.713	81.12
274.945	87.12
275.176	73.12
275.408	96.12
275.64	85.12
275.872	102.12
276.104	82.12
276.335	81.12
276.567	91.12
276.799	104.12
277.031	103.12
277.262	94.12
277.494	90.12
277.726	94.12
277.957	90.12
278.189	89.12
278.421	95.12
278.652	98.12
278.884	81.12
279.115	82.12
279.347	84.12
279.579	94.12
279.81	87.12
280.042	100.12
280.273	88.12
280.505	86.12
280.736	68.12
280.968	86.12
281.199	94.12
281.431	94.12
281.662	94.12
281.894	92.12
282.125	88.12
282.356	93.12
282.588	136.12
282.819	109.12
283.051	79.12
283.282	89.12
283.513	92.12
283.745	77.12
283.976	80.12
284.207	78.12
284.439	78.12
284.67	73.12
284.901	80.12
285.132	88.12
285.364	86.12
285.595	88.12
285.826	89.12
286.057	79.12
286.288	90.12
286.52	92.12
286.751	87.12
286.982	83.12
287.213	89.12
287.444	87.12
287.675	94.12
287.906	87.12
288.138	82.12
288.369	88.12
288.6	99.12
288.831	89.12
289.062	82.12
289.293	96.12
289.524	86.12
289.755	94.12
289.986	92.12
290.217	94.12
290.448	86.12
290.679	74.12
290.91	76.12
291.141	78.12
291.371	90.12
291.602	91.12
291.833	96.12
292.064	88.12
292.295	89.12
292.526	75.12
292.757	82.12
292.987	81.12
293.218	91.12
293.449	81.12
293.68	83.12
293.91	94.12
294.141	84.12
294.372	83.12
294.603	95.12
294.833	79.12
295.064	90.12
295.295	91.12
295.525	93.12
295.756	105.12
295.987	110.12
296.217	131.12
296.448	126.12
296.679	82.12
296.909	90.12
297.14	81.12
297.37	86.12
297.601	73.12
297.831	103.12
298.062	92.12
298.292	80.12
298.523	87.12
298.753	99.12
298.984	85.12
299.214	73.12
299.445	88.12
299.675	78.12
299.905	100.12
300.136	85.12
300.366	79.12
300.597	99.12
300.827	80.12
301.057	100.12
301.288	117.12
301.518	95.12
301.748	103.12
301.979	93.12
302.209	91.12
302.439	81.12
302.669	110.12
302.9	87.12
303.13	88.12
303.36	80.12
303.59	105.12
303.82	97.12
304.051	95.12
304.281	80.12
304.511	92.12
304.741	94.12
304.971	88.12
305.201	104.12
305.431	95.12
305.661	85.12
305.891	87.12
306.121	87.12
306.352	92.12
306.582	98.12
306.812	78.12
307.042	82.12
307.272	97.12
307.502	97.12
307.731	88.12
307.961	79.12
308.191	83.12
308.421	98.12
308.651	89.12
308.881	86.12
309.111	98.12
309.341	98.12
309.571	95.12
309.8	95.12
310.03	88.12
310.26	85.12
310.49	89.12
310.72	103.12
310.949	90.12
311.179	95.12
311.409	93.12
311.639	94.12
311.868	88.12
312.098	97.12
312.328	94.12
312.557	114.12
312.787	90.12
313.017	97.12
313.246	90.12
313.476	106.12
313.706	89.12
313.935	94.12
314.165	94.12
314.394	95.12
314.624	90.12
314.853	105.12
315.083	90.12
315.312	80.12
315.542	93.12
315.771	106.12
316.001	83.12
316.23	99.12
316.46	90.12
316.689	86.12
316.919	78.12
317.148	90.12
317.377	94.12
317.607	90.12
317.836	93.12
318.065	71.12
318.295	92.12
318.524	97.12
318.753	95.12
318.983	81.12
319.212	95.12
319.441	111.12
319.67	125.12
319.9	99.12
320.129	94.12
320.358	91.12
320.587	97.12
320.816	102.12
321.046	99.12
321.275	79.12
321.504	93.12
321.733	102.12
321.962	90.12
322.191	101.12
322.42	113.12
322.649	92.12
322.878	108.12
323.108	110.12
323.337	119.12
323.566	131.12
323.795	150.12
324.024	197.12
324.253	394.12
324.482	859.12
324.71	1782.12
324.939	2454.12
325.168	880.12
325.397	248.12
325.626	149.12
325.855	133.12
326.084	126.12
326.313	149.12
326.542	156.12
326.77	232.12
326.999	450.12
327.228	993.12
327.457	1816.12
327.686	1449.12
327.914	386.12
328.143	185.12
328.372	156.12
328.6	123.12
328.829	112.12
329.058	123.12
329.287	113.12
329.515	107.12
329.744	108.12
329.972	107.12
330.201	96.12
330.43	103.12
330.658	102.12
330.887	131.12
331.115	113.12
331.344	90.12
331.572	117.12
331.801	105.12
332.03	96.12
332.258	103.12
332.486	87.12
332.715	94.12
332.943	87.12
333.172	102.12
333.4	103.12
333.629	109.12
333.857	116.12
334.085	107.12
334.314	87.12
334.542	93.12
334.771	85.12
334.999	93.12
335.227	80.12
335.455	105.12
335.684	100.12
335.912	114.12
336.14	87.12
336.369	87.12
336.597	104.12
336.825	98.12
337.053	89.12
337.281	90.12
337.51	92.12
337.738	96.12
337.966	88.12
338.194	99.12
338.422	109.12
338.65	100.12
338.878	89.12
339.106	81.12
339.334	104.12
339.562	91.12
339.79	87.12
340.018	81.12
340.246	91.12
340.474	82.12
340.702	92.12
340.93	90.12
341.158	84.12
341.386	94.12
341.614	97.12
341.842	81.12
342.07	90.12
342.298	87.12
342.526	95.12
342.754	90.12
342.981	81.12
343.209	89.12
343.437	91.12
343.665	99.12
343.893	95.12
344.12	90.12
344.348	79.12
344.576	98.12
344.804	91.12
345.031	98.12
345.259	91.12
345.487	86.12
345.714	90.12
345.942	90.12
346.17	87.12
346.397	92.12
346.625	98.12
346.853	90.12
347.08	105.12
347.308	107.12
347.535	96.12
347.763	96.12
347.99	105.12
348.218	89.12
348.445	107.12
348.673	94.12
348.9	106.12
349.128	106.12
349.355	112.12
349.583	102.12
349.81	93.12
350.037	95.12
350.265	90.12
350.492	90.12
350.72	102.12
350.947	95.12
351.174	106.12
351.402	116.12
351.629	103.12
351.856	99.12
352.083	95.12
352.311	111.12
352.538	104.12
352.765	112.12
352.992	101.12
353.22	102.12
353.447	99.12
353.674	98.12
353.901	91.12
354.128	89.12
354.355	95.12
354.583	89.12
354.81	85.12
355.037	103.12
355.264	94.12
355.491	85.12
355.718	105.12
355.945	97.12
356.172	82.12
356.399	83.12
356.626	107.12
356.853	94.12
357.08	91.12
357.307	85.12
357.534	92.12
357.761	97.12
357.988	104.12
358.215	91.12
358.441	82.12
358.668	94.12
358.895	90.12
359.122	74.12
359.349	77.12
359.576	77.12
359.802	89.12
360.029	108.12
360.256	95.12
360.483	103.12
360.709	96.12
360.936	96.12
361.163	83.12
361.39	97.12
361.616	94.12
361.843	95.12
362.07	90.12
362.296	102.12
362.523	98.12
362.749	102.12
362.976	93.12
363.203	81.12
363.429	89.12
363.656	94.12
363.882	94.12
364.109	92.12
364.335	93.12
364.562	94.12
364.788	86.12
365.015	98.12
365.241	99.12
365.468	108.12
365.694	98.12
365.92	90.12
366.147	88.12
366.373	89.12
366.599	73.12
366.826	89.12
367.052	84.12
367.278	94.12
367.505	88.12
367.731	89.12
367.957	95.12
368.184	94.12
368.41	86.12
368.636	117.12
368.862	129.12
369.089	102.12
369.315	87.12
369.541	94.12
369.767	104.12
369.993	77.12
370.219	94.12
370.445	88.12
370.672	85.12
370.898	85.12
371.124	83.12
371.35	84.12
371.576	84.12
371.802	82.12
372.028	80.12
372.254	85.12
372.48	83.12
372.706	92.12
372.932	88.12
373.158	87.12
373.384	88.12
373.61	83.12
373.835	92.12
374.061	94.12
374.287	100.12
374.513	97.12
374.739	89.12
374.965	85.12
375.191	85.12
375.416	85.12
375.642	101.12
375.868	101.12
376.094	91.12
376.319	104.12
376.545	98.12
376.771	81.12
376.997	83.12
377.222	85.12
377.448	99.12
377.674	99.12
377.899	85.12
378.125	97.12
378.35	85.12
378.576	79.12
378.802	83.12
379.027	91.12
379.253	103.12
379.478	89.12
379.704	92.12
379.929	103.12
380.155	87.12
380.38	86.12
380.606	93.12
380.831	87.12
381.057	101.12
381.282	105.12
381.507	102.12
381.733	98.12
381.958	94.12
382.184	105.12
382.409	99.12
382.634	113.12
382.86	112.12
383.085	108.12
383.31	100.12
383.535	102.12
383.761	108.12
383.986	98.12
384.211	97.12
384.436	96.12
384.662	93.12
384.887	93.12
385.112	112.12
385.337	112.12
385.562	101.12
385.787	96.12
386.013	101.12
386.238	110.12
386.463	101.12
386.688	116.12
386.913	117.12
387.138	115.12
387.363	101.12
387.588	88.12
387.813	94.12
388.038	104.12
388.263	98.12
388.488	108.12
388.713	102.12
388.938	91.12
389.163	82.12
389.387	97.12
389.612	92.12
389.837	89.12
390.062	94.12
390.287	96.12
390.512	93.12
390.736	90.12
390.961	97.12
391.186	93.12
391.411	99.12
391.636	93.12
391.86	93.12
392.085	72.12
392.31	101.12
392.534	94.12
392.759	97.12
392.984	86.12
393.208	74.12
393.433	93.12
393.658	94.12
393.882	96.12
394.107	90.12
394.331	87.12
394.556	85.12
394.78	88.12
395.005	78.12
395.229	95.12
395.454	89.12
395.678	106.12
395.903	70.12
396.127	91.12
396.352	99.12
396.576	97.12
396.801	93.12
397.025	105.12
397.249	81.12
397.474	87.12
397.698	77.12
397.922	87.12
398.147	96.12
398.371	81.12
398.595	103.12
398.82	87.12
399.044	98.12
399.268	89.12
399.492	69.12
399.717	91.12
399.941	95.12
400.165	91.12
400.389	93.12
400.613	101.12
400.837	80.12
401.062	81.12
401.286	97.12
401.51	88.12
401.734	83.12
401.958	88.12
402.182	118.12
402.406	159.12
402.63	111.12
402.854	93.12
403.078	83.12
403.302	89.12
403.526	84.12
403.75	96.12
403.974	79.12
404.198	88.12
404.422	94.12
404.645	90.12
404.869	87.12
405.093	100.12
405.317	89.12
405.541	95.12
405.765	104.12
405.988	107.12
406.212	164.12
406.436	223.12
406.66	140.12
406.883	95.12
407.107	81.12
407.331	106.12
407.555	86.12
407.778	100.12
408.002	79.12
408.226	91.12
408.449	95.12
408.673	80.12
408.896	99.12
409.12	78.12
409.344	93.12
409.567	86.12
409.791	92.12
410.014	97.12
410.238	96.12
410.461	107.12
410.685	98.12
410.908	102.12
411.132	95.12
411.355	110.12
411.578	82.12
411.802	95.12
412.025	81.12
412.249	79.12
412.472	86.12
412.695	92.12
412.919	98.12
413.142	75.12
413.365	87.12
413.589	81.12
413.812	95.12
414.035	88.12
414.258	99.12
414.482	96.12
414.705	84.12
414.928	87.12
415.151	83.12
415.374	86.12
415.597	91.12
415.821	79.12
416.044	92.12
416.267	76.12
416.49	82.12
416.713	81.12
416.936	85.12
417.159	94.12
417.382	92.12
417.605	92.12
417.828	86.12
418.051	97.12
418.274	84.12
418.497	95.12
418.72	98.12
418.943	84.12
419.166	75.12
419.389	97.12
419.611	94.12
419.834	93.12
420.057	83.12
420.28	73.12
420.503	94.12
420.726	86.12
420.948	87.12
421.171	97.12
421.394	90.12
421.617	93.12
421.839	104.12
422.062	75.12
422.285	92.12
422.507	95.12
422.73	100.12
422.953	93.12
423.175	95.12
423.398	88.12
423.621	75.12
423.843	91.12
424.066	81.12
424.288	92.12
424.511	85.12
424.733	93.12
424.956	106.12
425.178	87.12
425.401	87.12
425.623	101.12
425.846	86.12
426.068	87.12
426.291	73.12
426.513	81.12
426.735	85.12
426.958	100.12
427.18	93.12
427.402	122.12
427.625	163.12
427.847	126.12
428.069	105.12
428.292	98.12
428.514	82.12
428.736	74.12
428.958	78.12
429.181	83.12
429.403	83.12
429.625	105.12
429.847	104.12
430.069	99.12
430.292	89.12
430.514	89.12
430.736	83.12
430.958	83.12
431.18	98.12
431.402	73.12
431.624	89.12
431.846	89.12
432.068	72.12
432.29	85.12
432.512	99.12
432.734	70.12
432.956	87.12
433.178	88.12
433.4	106.12
433.622	103.12
433.844	100.12
434.066	89.12
434.287	105.12
434.509	92.12
434.731	83.12
434.953	85.12
435.175	86.12
435.397	74.12
435.618	87.12
435.84	95.12
436.062	103.12
436.284	97.12
436.505	103.12
436.727	92.12
436.949	95.12
437.17	99.12
437.392	80.12
437.614	77.12
437.835	101.12
438.057	120.12
438.278	96.12
438.5	106.12
438.721	100.12
438.943	99.12
439.165	92.12
439.386	86.12
439.608	93.12
439.829	103.12
440.05	111.12
440.272	132.12
440.493	112.12
440.715	79.12
440.936	80.12
441.158	88.12
441.379	93.12
441.6	97.12
441.822	92.12
442.043	93.12
442.264	111.12
442.486	88.12
442.707	87.12
442.928	98.12
443.149	124.12
443.371	127.12
443.592	117.12
443.813	116.12
444.034	110.12
444.255	85.12
444.476	81.12
444.698	101.12
444.919	92.12
445.14	125.12
445.361	130.12
445.582	114.12
445.803	135.12
446.024	155.12
446.245	116.12
446.466	107.12
446.687	91.12
446.908	81.12
447.129	93.12
447.35	93.12
447.571	86.12
447.792	89.12
448.013	111.12
448.234	119.12
448.455	97.12
448.675	90.12
448.896	119.12
449.117	98.12
449.338	107.12
449.559	128.12
449.779	127.12
450	102.12
450.221	93.12
450.442	80.12
450.662	101.12
450.883	98.12
451.104	108.12
451.324	106.12
451.545	93.12
451.766	88.12
451.986	78.12
452.207	84.12
452.428	87.12
452.648	109.12
452.869	107.12
453.089	107.12
453.31	102.12
453.53	92.12
453.751	85.12
453.971	98.12
454.192	104.12
454.412	87.12
454.633	74.12
454.853	85.12
455.073	75.12
455.294	83.12
455.514	98.12
455.734	90.12
455.955	87.12
456.175	82.12
456.395	106.12
456.616	90.12
456.836	90.12
457.056	91.12
457.276	96.12
457.497	101.12
457.717	67.12
457.937	96.12
458.157	86.12
458.377	93.12
458.598	107.12
458.818	143.12
459.038	162.12
459.258	107.12
459.478	99.12
459.698	77.12
459.918	93.12
460.138	92.12
460.358	84.12
460.578	89.12
460.798	93.12
461.018	61.12
461.238	99.12
461.458	77.12
461.678	88.12
461.898	107.12
462.118	97.12
462.338	79.12
462.558	76.12
462.777	90.12
462.997	89.12
463.217	82.12
463.437	89.12
463.657	92.12
463.876	84.12
464.096	94.12
464.316	101.12
464.536	101.12
464.755	97.12
464.975	96.12
465.195	157.12
465.414	151.12
465.634	93.12
465.854	95.12
466.073	97.12
466.293	73.12
466.512	78.12
466.732	85.12
466.951	86.12
467.171	78.12
467.391	81.12
467.61	104.12
467.829	87.12
468.049	87.12
468.268	81.12
468.488	74.12
468.707	77.12
468.927	96.12
469.146	97.12
469.365	75.12
469.585	92.12
469.804	109.12
470.023	82.12
470.243	98.12
470.462	90.12
470.681	109.12
470.901	90.12
471.12	78.12
471.339	83.12
471.558	81.12
471.777	77.12
471.997	99.12
472.216	82.12
472.435	86.12
472.654	86.12
472.873	93.12
473.092	81.12
473.311	78.12
473.53	78.12
473.749	86.12
473.968	82.12
474.187	94.12
474.406	74.12
474.625	81.12
474.844	93.12
475.063	85.12
475.282	94.12
475.501	86.12
475.72	89.12
475.939	82.12
476.158	83.12
476.377	87.12
476.596	96.12
476.814	92.12
477.033	93.12
477.252	88.12
477.471	82.12
477.69	94.12
477.908	72.12
478.127	81.12
478.346	81.12
478.564	88.12
478.783	86.12
479.002	86.12
479.22	86.12
479.439	104.12
479.658	93.12
479.876	85.12
480.095	90.12
480.313	90.12
480.532	90.12
480.751	87.12
480.969	90.12
481.188	106.12
481.406	90.12
481.624	97.12
481.843	81.12
482.061	76.12
482.28	95.12
482.498	82.12
482.717	88.12
482.935	78.12
483.153	85.12
483.372	85.12
483.59	100.12
483.808	82.12
484.027	94.12
484.245	94.12
484.463	97.12
484.681	82.12
484.9	100.12
485.118	97.12
485.336	95.12
485.554	94.12
485.772	95.12
485.99	99.12
486.209	103.12
486.427	99.12
486.645	102.12
486.863	107.12
487.081	91.12
487.299	83.12
487.517	90.12
487.735	89.12
487.953	97.12
488.171	96.12
488.389	109.12
488.607	95.12
488.825	95.12
489.043	94.12
489.261	84.12
489.479	92.12
489.696	82.12
489.914	81.12
490.132	79.12
490.35	101.12
490.568	90.12
490.786	89.12
491.003	91.12
491.221	89.12
491.439	90.12
491.657	92.12
491.874	98.12
492.092	99.12
492.31	101.12
492.527	86.12
492.745	89.12
492.963	85.12
493.18	94.12
493.398	93.12
493.615	109.12
493.833	104.12
494.05	98.12
494.268	92.12
494.485	85.12
494.703	87.12
494.92	90.12
495.138	76.12
495.355	89.12
495.573	81.12
495.79	84.12
496.008	95.12
496.225	93.12
496.442	90.12
496.66	82.12
496.877	90.12
497.094	92.12
497.312	95.12
497.529	88.12
497.746	85.12
497.963	90.12
498.181	104.12
498.398	95.12
498.615	94.12
498.832	95.12
499.049	98.12
499.267	97.12
499.484	81.12
499.701	96.12
499.918	99.12
500.135	101.12
500.352	93.12
500.569	90.12
500.786	95.12
501.003	101.12
501.22	101.12
501.437	79.12
501.654	81.12
501.871	95.12
502.088	77.12
502.305	79.12
502.522	94.12
502.739	85.12
502.956	93.12
503.172	99.12
503.389	87.12
503.606	79.12
503.823	88.12
504.04	96.12
504.256	74.12
504.473	92.12
504.69	82.12
504.907	87.12
505.123	76.12
505.34	90.12
505.557	105.12
505.773	100.12
505.99	93.12
506.207	94.12
506.423	86.12
506.64	96.12
506.856	84.12
507.073	82.12
507.289	96.12
507.506	107.12
507.722	110.12
507.939	113.12
508.155	107.12
508.372	86.12
508.588	104.12
508.805	90.12
509.021	103.12
509.238	94.12
509.454	115.12
509.67	107.12
509.887	120.12
510.103	146.12
510.319	223.12
510.536	835.12
510.752	2696.12
510.968	729.12
511.184	172.12
511.401	115.12
511.617	100.12
511.833	89.12
512.049	97.12
512.265	97.12
512.481	86.12
512.698	84.12
512.914	95.12
513.13	98.12
513.346	96.12
513.562	82.12
513.778	94.12
513.994	92.12
514.21	99.12
514.426	125.12
514.642	153.12
514.858	128.12
515.074	192.12
515.29	498.12
515.506	1611.12
515.721	576.12
515.937	165.12
516.153	106.12
