Data from Uncirc_1995_H10_HRD10591_00061.txt Node
Date: Wed Jan 03 11:35:46 EST 2024
User: Yrep
Spectrometer: HR+D1059
Trigger mode: 1
Integration Time (sec): 1.000000E-1
Scans to average: 1
Electric dark correction enabled: true
Nonlinearity correction enabled: false
Boxcar width: 0
XAxis mode: Wavelengths
Number of Pixels in Spectrum: 2048
>>>>>Begin Spectral Data<<<<<
223.165	-11
223.4	-11
223.635	-11
223.869	-13
224.104	-23
224.338	-21
224.573	-23
224.808	-13
225.042	-6
225.277	-18
225.511	-5
225.746	21
225.98	19
226.215	15
226.449	17
226.683	22
226.918	17
227.152	22
227.387	35
227.621	32
227.856	57
228.09	57
228.324	62
228.559	61
228.793	50
229.027	65
229.262	60
229.496	74
229.73	86
229.964	78
230.199	68
230.433	95
230.667	77
230.901	81
231.136	81
231.37	76
231.604	83
231.838	73
232.072	79
232.306	94
232.541	78
232.775	67
233.009	83
233.243	76
233.477	77
233.711	77
233.945	70
234.179	80
234.413	82
234.647	83
234.881	77
235.115	82
235.349	81
235.583	83
235.817	67
236.051	92
236.285	81
236.519	75
236.753	100
236.987	82
237.221	86
237.455	64
237.689	83
237.922	87
238.156	81
238.39	67
238.624	82
238.858	69
239.091	73
239.325	83
239.559	83
239.793	77
240.027	85
240.26	77
240.494	78
240.728	66
240.961	82
241.195	76
241.429	82
241.662	71
241.896	82
242.13	83
242.363	87
242.597	66
242.83	76
243.064	84
243.298	68
243.531	80
243.765	81
243.998	96
244.232	90
244.465	84
244.699	70
244.932	84
245.166	70
245.399	84
245.633	93
245.866	96
246.099	90
246.333	78
246.566	73
246.8	94
247.033	73
247.266	80
247.5	77
247.733	95
247.966	89
248.2	95
248.433	98
248.666	92
248.899	76
249.133	73
249.366	97
249.599	104
249.832	93
250.066	74
250.299	68
250.532	86
250.765	85
250.998	74
251.231	81
251.465	84
251.698	91
251.931	83
252.164	95
252.397	81
252.63	85
252.863	90
253.096	87
253.329	70
253.562	87
253.795	89
254.028	100
254.261	86
254.494	92
254.727	85
254.96	69
255.193	78
255.426	95
255.659	89
255.892	92
256.124	80
256.357	79
256.59	76
256.823	74
257.056	81
257.289	92
257.521	81
257.754	77
257.987	89
258.22	87
258.452	79
258.685	89
258.918	85
259.151	85
259.383	85
259.616	77
259.849	70
260.081	89
260.314	88
260.547	85
260.779	86
261.012	92
261.244	97
261.477	90
261.71	76
261.942	106
262.175	109
262.407	91
262.64	83
262.872	77
263.105	103
263.337	91
263.57	92
263.802	76
264.035	72
264.267	89
264.499	83
264.732	75
264.964	91
265.197	93
265.429	86
265.661	89
265.894	81
266.126	87
266.358	81
266.591	86
266.823	85
267.055	78
267.287	81
267.52	70
267.752	94
267.984	89
268.216	92
268.448	98
268.681	80
268.913	90
269.145	82
269.377	89
269.609	70
269.841	97
270.073	74
270.306	83
270.538	89
270.77	93
271.002	96
271.234	87
271.466	95
271.698	81
271.93	85
272.162	75
272.394	78
272.626	88
272.858	85
273.09	79
273.322	82
273.553	75
273.785	93
274.017	85
274.249	77
274.481	83
274.713	84
274.945	89
275.176	84
275.408	93
275.64	98
275.872	87
276.104	95
276.335	101
276.567	100
276.799	96
277.031	97
277.262	93
277.494	100
277.726	91
277.957	97
278.189	85
278.421	93
278.652	71
278.884	86
279.115	97
279.347	89
279.579	106
279.81	88
280.042	82
280.273	77
280.505	71
280.736	88
280.968	99
281.199	99
281.431	84
281.662	80
281.894	101
282.125	105
282.356	114
282.588	118
282.819	111
283.051	81
283.282	95
283.513	93
283.745	75
283.976	87
284.207	80
284.439	83
284.67	85
284.901	81
285.132	76
285.364	87
285.595	85
285.826	94
286.057	90
286.288	93
286.52	83
286.751	75
286.982	101
287.213	90
287.444	85
287.675	85
287.906	97
288.138	83
288.369	91
288.6	94
288.831	88
289.062	98
289.293	96
289.524	92
289.755	86
289.986	106
290.217	91
290.448	81
290.679	85
290.91	89
291.141	87
291.371	85
291.602	92
291.833	100
292.064	88
292.295	85
292.526	84
292.757	100
292.987	86
293.218	93
293.449	84
293.68	106
293.91	87
294.141	81
294.372	91
294.603	106
294.833	92
295.064	82
295.295	86
295.525	94
295.756	107
295.987	120
296.217	130
296.448	118
296.679	88
296.909	93
297.14	92
297.37	101
297.601	81
297.831	109
298.062	90
298.292	105
298.523	105
298.753	92
298.984	94
299.214	96
299.445	92
299.675	86
299.905	90
300.136	103
300.366	92
300.597	95
300.827	97
301.057	91
301.288	108
301.518	100
301.748	89
301.979	100
302.209	85
302.439	93
302.669	105
302.9	86
303.13	109
303.36	114
303.59	114
303.82	121
304.051	102
304.281	87
304.511	94
304.741	81
304.971	85
305.201	89
305.431	106
305.661	92
305.891	97
306.121	102
306.352	131
306.582	96
306.812	93
307.042	102
307.272	102
307.502	91
307.731	90
307.961	84
308.191	89
308.421	102
308.651	111
308.881	102
309.111	86
309.341	110
309.571	91
309.8	100
310.03	92
310.26	101
310.49	91
310.72	101
310.949	106
311.179	97
311.409	97
311.639	109
311.868	82
312.098	97
312.328	103
312.557	102
312.787	101
313.017	98
313.246	78
313.476	84
313.706	89
313.935	93
314.165	107
314.394	93
314.624	95
314.853	101
315.083	110
315.312	91
315.542	95
315.771	96
316.001	66
316.23	88
316.46	86
316.689	89
316.919	97
317.148	91
317.377	93
317.607	92
317.836	121
318.065	93
318.295	81
318.524	89
318.753	108
318.983	95
319.212	107
319.441	107
319.67	93
319.9	92
320.129	101
320.358	97
320.587	93
320.816	100
321.046	85
321.275	105
321.504	93
321.733	104
321.962	100
322.191	96
322.42	101
322.649	107
322.878	112
323.108	110
323.337	129
323.566	131
323.795	143
324.024	203
324.253	371
324.482	780
324.71	1593
324.939	2109
325.168	780
325.397	231
325.626	128
325.855	128
326.084	122
326.313	118
326.542	155
326.77	239
326.999	432
327.228	897
327.457	1629
327.686	1299
327.914	357
328.143	192
328.372	153
328.6	120
328.829	122
329.058	122
329.287	124
329.515	102
329.744	94
329.972	82
330.201	104
330.43	118
330.658	112
330.887	130
331.115	113
331.344	107
331.572	95
331.801	107
332.03	105
332.258	94
332.486	94
332.715	95
332.943	97
333.172	90
333.4	104
333.629	105
333.857	108
334.085	100
334.314	98
334.542	95
334.771	108
334.999	88
335.227	100
335.455	101
335.684	103
335.912	93
336.14	116
336.369	99
336.597	100
336.825	89
337.053	87
337.281	85
337.51	98
337.738	111
337.966	102
338.194	94
338.422	89
338.65	97
338.878	94
339.106	96
339.334	97
339.562	86
339.79	86
340.018	86
340.246	87
340.474	89
340.702	102
340.93	101
341.158	80
341.386	114
341.614	115
341.842	96
342.07	93
342.298	92
342.526	91
342.754	106
342.981	103
343.209	82
343.437	96
343.665	93
343.893	93
344.12	100
344.348	94
344.576	95
344.804	73
345.031	99
345.259	100
345.487	95
345.714	114
345.942	90
346.17	109
346.397	85
346.625	96
346.853	102
347.08	94
347.308	93
347.535	99
347.763	83
347.99	90
348.218	103
348.445	110
348.673	96
348.9	99
349.128	98
349.355	84
349.583	79
349.81	102
350.037	89
350.265	92
350.492	110
350.72	94
350.947	92
351.174	110
351.402	111
351.629	95
351.856	88
352.083	107
352.311	110
352.538	113
352.765	109
352.992	105
353.22	109
353.447	100
353.674	105
353.901	99
354.128	109
354.355	107
354.583	103
354.81	108
355.037	93
355.264	88
355.491	89
355.718	96
355.945	105
356.172	87
356.399	104
356.626	91
356.853	104
357.08	99
357.307	107
357.534	92
357.761	99
357.988	98
358.215	103
358.441	102
358.668	107
358.895	81
359.122	100
359.349	92
359.576	100
359.802	98
360.029	119
360.256	97
360.483	99
360.709	99
360.936	98
361.163	101
361.39	94
361.616	100
361.843	68
362.07	107
362.296	102
362.523	97
362.749	101
362.976	88
363.203	93
363.429	91
363.656	96
363.882	93
364.109	106
364.335	86
364.562	103
364.788	83
365.015	102
365.241	99
365.468	91
365.694	107
365.92	95
366.147	100
366.373	97
366.599	94
366.826	96
367.052	92
367.278	89
367.505	77
367.731	93
367.957	85
368.184	84
368.41	94
368.636	106
368.862	121
369.089	102
369.315	93
369.541	92
369.767	95
369.993	97
370.219	86
370.445	94
370.672	102
370.898	84
371.124	92
371.35	82
371.576	103
371.802	84
372.028	90
372.254	80
372.48	97
372.706	100
372.932	91
373.158	92
373.384	94
373.61	95
373.835	92
374.061	80
374.287	98
374.513	80
374.739	98
374.965	101
375.191	95
375.416	89
375.642	90
375.868	98
376.094	89
376.319	94
376.545	81
376.771	87
376.997	103
377.222	102
377.448	90
377.674	91
377.899	91
378.125	99
378.35	104
378.576	91
378.802	87
379.027	93
379.253	109
379.478	107
379.704	94
379.929	107
380.155	98
380.38	99
380.606	105
380.831	100
381.057	96
381.282	110
381.507	88
381.733	98
381.958	103
382.184	91
382.409	107
382.634	94
382.86	111
383.085	94
383.31	113
383.535	102
383.761	105
383.986	110
384.211	93
384.436	94
384.662	103
384.887	110
385.112	108
385.337	110
385.562	101
385.787	110
386.013	110
386.238	113
386.463	92
386.688	110
386.913	97
387.138	113
387.363	113
387.588	109
387.813	113
388.038	124
388.263	105
388.488	109
388.713	97
388.938	105
389.163	98
389.387	85
389.612	94
389.837	92
390.062	98
390.287	99
390.512	101
390.736	89
390.961	101
391.186	94
391.411	97
391.636	91
391.86	86
392.085	102
392.31	82
392.534	93
392.759	93
392.984	102
393.208	91
393.433	94
393.658	83
393.882	93
394.107	82
394.331	96
394.556	90
394.78	92
395.005	97
395.229	87
395.454	101
395.678	83
395.903	92
396.127	99
396.352	90
396.576	92
396.801	93
397.025	96
397.249	102
397.474	91
397.698	91
397.922	85
398.147	98
398.371	90
398.595	113
398.82	70
399.044	79
399.268	77
399.492	86
399.717	91
399.941	88
400.165	99
400.389	100
400.613	98
400.837	74
401.062	79
401.286	72
401.51	87
401.734	99
401.958	114
402.182	131
402.406	138
402.63	123
402.854	97
403.078	86
403.302	97
403.526	106
403.75	98
403.974	88
404.198	98
404.422	94
404.645	85
404.869	91
405.093	93
405.317	110
405.541	104
405.765	95
405.988	116
406.212	180
406.436	212
406.66	129
406.883	107
407.107	82
407.331	93
407.555	102
407.778	103
408.002	92
408.226	78
408.449	92
408.673	87
408.896	92
409.12	91
409.344	101
409.567	92
409.791	86
410.014	111
410.238	93
410.461	102
410.685	102
410.908	113
411.132	116
411.355	101
411.578	78
411.802	79
412.025	98
412.249	91
412.472	102
412.695	83
412.919	85
413.142	92
413.365	102
413.589	91
413.812	87
414.035	96
414.258	86
414.482	88
414.705	95
414.928	92
415.151	93
415.374	94
415.597	97
415.821	104
416.044	85
416.267	101
416.49	93
416.713	75
416.936	105
417.159	96
417.382	88
417.605	88
417.828	90
418.051	100
418.274	98
418.497	108
418.72	89
418.943	103
419.166	87
419.389	79
419.611	93
419.834	100
420.057	84
420.28	90
420.503	95
420.726	98
420.948	77
421.171	104
421.394	105
421.617	95
421.839	95
422.062	82
422.285	95
422.507	95
422.73	96
422.953	85
423.175	86
423.398	97
423.621	89
423.843	93
424.066	81
424.288	94
424.511	92
424.733	90
424.956	102
425.178	90
425.401	102
425.623	106
425.846	108
426.068	78
426.291	108
426.513	85
426.735	99
426.958	105
427.18	111
427.402	129
427.625	171
427.847	117
428.069	106
428.292	101
428.514	84
428.736	85
428.958	84
429.181	89
429.403	78
429.625	90
429.847	91
430.069	110
430.292	80
430.514	85
430.736	99
430.958	86
431.18	80
431.402	79
431.624	98
431.846	95
432.068	101
432.29	78
432.512	93
432.734	91
432.956	91
433.178	97
433.4	83
433.622	89
433.844	89
434.066	101
434.287	82
434.509	97
434.731	92
434.953	94
435.175	91
435.397	82
435.618	82
435.84	100
436.062	127
436.284	103
436.505	121
436.727	116
436.949	94
437.17	88
437.392	86
437.614	89
437.835	96
438.057	110
438.278	106
438.5	90
438.721	118
438.943	95
439.165	93
439.386	84
439.608	97
439.829	110
440.05	110
440.272	132
440.493	87
440.715	91
440.936	95
441.158	79
441.379	95
441.6	100
441.822	98
442.043	87
442.264	97
442.486	91
442.707	86
442.928	99
443.149	129
443.371	124
443.592	106
443.813	111
444.034	102
444.255	89
444.476	85
444.698	97
444.919	87
445.14	117
445.361	121
445.582	118
445.803	131
446.024	124
446.245	141
446.466	103
446.687	81
446.908	89
447.129	79
447.35	84
447.571	105
447.792	103
448.013	118
448.234	126
448.455	108
448.675	98
448.896	118
449.117	92
449.338	99
449.559	126
449.779	128
450	98
450.221	90
450.442	84
450.662	97
450.883	98
451.104	117
451.324	102
451.545	89
451.766	86
451.986	80
452.207	96
452.428	80
452.648	99
452.869	120
453.089	114
453.31	105
453.53	93
453.751	85
453.971	89
454.192	111
454.412	95
454.633	83
454.853	89
455.073	95
455.294	89
455.514	93
455.734	88
455.955	95
456.175	93
456.395	87
456.616	85
456.836	92
457.056	81
457.276	92
457.497	74
457.717	84
457.937	109
458.157	94
458.377	110
458.598	114
458.818	134
459.038	144
459.258	114
459.478	93
459.698	91
459.918	90
460.138	94
460.358	93
460.578	94
460.798	97
461.018	88
461.238	95
461.458	101
461.678	95
461.898	94
462.118	108
462.338	94
462.558	87
462.777	85
462.997	98
463.217	89
463.437	97
463.657	95
463.876	86
464.096	85
464.316	96
464.536	94
464.755	99
464.975	99
465.195	135
465.414	147
465.634	98
465.854	104
466.073	86
466.293	91
466.512	94
466.732	91
466.951	90
467.171	89
467.391	100
467.61	90
467.829	82
468.049	86
468.268	84
468.488	91
468.707	96
468.927	92
469.146	91
469.365	91
469.585	86
469.804	110
470.023	109
470.243	97
470.462	94
470.681	105
470.901	87
471.12	86
471.339	86
471.558	92
471.777	85
471.997	98
472.216	96
472.435	86
472.654	88
472.873	101
473.092	83
473.311	89
473.53	83
473.749	87
473.968	102
474.187	110
474.406	96
474.625	66
474.844	89
475.063	78
475.282	77
475.501	95
475.72	101
475.939	85
476.158	70
476.377	96
476.596	89
476.814	94
477.033	100
477.252	95
477.471	80
477.69	86
477.908	85
478.127	103
478.346	91
478.564	80
478.783	86
479.002	92
479.22	93
479.439	111
479.658	109
479.876	107
480.095	91
480.313	98
480.532	109
480.751	95
480.969	94
481.188	94
481.406	87
481.624	101
481.843	80
482.061	103
482.28	79
482.498	87
482.717	88
482.935	83
483.153	95
483.372	94
483.59	91
483.808	77
484.027	94
484.245	95
484.463	100
484.681	105
484.9	91
485.118	98
485.336	102
485.554	102
485.772	101
485.99	106
486.209	109
486.427	117
486.645	103
486.863	100
487.081	112
487.299	106
487.517	85
487.735	93
487.953	92
488.171	84
488.389	107
488.607	104
488.825	89
489.043	100
489.261	92
489.479	101
489.696	97
489.914	80
490.132	103
490.35	89
490.568	89
490.786	98
491.003	93
491.221	97
491.439	97
491.657	90
491.874	66
492.092	85
492.31	101
492.527	104
492.745	107
492.963	97
493.18	84
493.398	95
493.615	99
493.833	111
494.05	101
494.268	88
494.485	99
494.703	92
494.92	91
495.138	92
495.355	82
495.573	84
495.79	93
496.008	94
496.225	97
496.442	99
496.66	88
496.877	105
497.094	89
497.312	88
497.529	94
497.746	89
497.963	96
498.181	104
498.398	89
498.615	122
498.832	115
499.049	93
499.267	100
499.484	103
499.701	104
499.918	89
500.135	96
500.352	94
500.569	105
500.786	97
501.003	109
501.22	84
501.437	95
501.654	85
501.871	108
502.088	102
502.305	100
502.522	88
502.739	82
502.956	90
503.172	99
503.389	95
503.606	98
503.823	102
504.04	92
504.256	91
504.473	98
504.69	101
504.907	107
505.123	103
505.34	96
505.557	100
505.773	99
505.99	97
506.207	98
506.423	87
506.64	90
506.856	110
507.073	89
507.289	89
507.506	111
507.722	117
507.939	120
508.155	102
508.372	100
508.588	96
508.805	97
509.021	86
509.238	98
509.454	89
509.67	98
509.887	93
510.103	138
510.319	222
510.536	750
510.752	2355
510.968	652
511.184	156
511.401	107
511.617	116
511.833	87
512.049	93
512.265	95
512.481	104
512.698	93
512.914	99
513.13	96
513.346	102
513.562	84
513.778	106
513.994	103
514.21	103
514.426	111
514.642	129
514.858	122
515.074	166
515.29	409
515.506	1346
515.721	486
515.937	148
516.153	119
516.369	102
516.585	113
516.801	96
517.016	97
517.232	97
517.448	99
517.664	91
517.879	95
518.095	101
518.311	96
518.527	88
518.742	107
518.958	96
519.173	90
519.389	100
519.605	94
519.82	98
520.036	93
520.251	111
520.467	109
520.682	108
520.898	91
521.113	102
521.329	134
521.544	191
521.76	512
521.975	2245
522.19	1312
522.406	289
522.621	118
522.836	93
523.052	93
523.267	95
523.482	102
523.698	102
523.913	130
524.128	111
524.343	93
524.559	94
524.774	100
524.989	98
525.204	106
525.419	98
525.634	88
525.849	90
526.064	87
526.28	82
526.495	96
526.71	95
526.925	84
527.14	94
527.355	95
527.57	87
527.785	86
527.999	97
528.214	98
528.429	101
528.644	86
528.859	92
529.074	89
529.289	114
529.503	166
529.718	108
529.933	91
530.148	101
530.363	95
530.577	86
530.792	109
531.007	91
531.221	91
531.436	110
531.651	75
531.865	90
532.08	98
532.295	88
532.509	94
532.724	95
532.938	114
533.153	100
533.367	102
533.582	92
533.796	88
534.011	86
534.225	92
534.44	85
534.654	92
534.868	99
535.083	93
535.297	92
535.511	113
535.726	79
535.94	111
536.154	82
536.369	89
536.583	89
536.797	106
537.011	93
537.225	91
537.44	102
537.654	83
537.868	89
538.082	87
538.296	85
538.51	102
538.724	100
538.938	85
539.153	88
539.367	96
539.581	111
539.795	91
540.009	99
540.222	99
540.436	91
540.65	93
540.864	103
541.078	93
541.292	93
541.506	96
541.72	89
541.934	91
542.147	88
542.361	100
542.575	104
542.789	92
543.002	89
543.216	89
543.43	93
543.644	102
543.857	97
544.071	92
544.285	111
544.498	105
544.712	109
544.925	93
545.139	98
545.352	95
545.566	101
545.779	85
545.993	96
546.206	95
546.42	92
546.633	105
546.847	91
547.06	76
547.274	95
547.487	90
547.7	98
547.914	96
548.127	101
548.34	87
548.554	89
548.767	98
548.98	95
549.193	100
549.407	112
549.62	98
549.833	109
550.046	94
550.259	91
550.473	111
550.686	99
550.899	105
551.112	103
551.325	100
551.538	94
551.751	94
551.964	90
552.177	78
552.39	82
552.603	93
552.816	109
553.029	93
553.242	101
553.455	103
553.667	94
553.88	115
554.093	110
554.306	90
554.519	99
554.732	90
554.944	89
555.157	94
555.37	91
555.583	96
555.795	105
556.008	89
556.221	97
556.433	95
556.646	86
556.859	85
557.071	110
557.284	96
557.496	102
557.709	98
557.921	81
558.134	98
558.346	99
558.559	100
558.771	91
558.984	101
559.196	91
559.409	107
559.621	89
559.833	92
560.046	92
560.258	98
560.47	95
560.683	97
560.895	84
561.107	87
561.32	86
561.532	92
561.744	104
561.956	91
562.168	94
562.381	98
562.593	92
562.805	81
563.017	84
563.229	91
563.441	96
563.653	85
563.865	94
564.077	101
564.289	84
564.501	97
564.713	93
564.925	93
565.137	93
565.349	93
565.561	94
565.773	91
565.985	96
566.197	102
566.408	87
566.62	88
566.832	81
567.044	73
567.255	94
567.467	88
567.679	98
567.891	106
568.102	82
568.314	92
568.526	85
568.737	93
568.949	73
569.161	86
569.372	81
569.584	98
569.795	101
570.007	121
570.218	245
570.43	138
570.641	105
570.853	99
571.064	89
571.276	87
571.487	81
571.698	84
571.91	110
572.121	102
572.333	94
572.544	92
572.755	108
572.966	94
573.178	83
573.389	95
573.6	80
573.811	100
574.023	107
574.234	97
574.445	97
574.656	91
574.867	95
575.078	100
575.289	93
575.501	94
575.712	92
575.923	93
576.134	86
576.345	87
576.556	101
576.767	101
576.978	110
577.188	99
577.399	109
577.61	89
577.821	103
578.032	113
578.243	275
578.454	802
578.665	231
578.875	103
579.086	97
579.297	109
579.508	95
579.718	94
579.929	105
580.14	93
580.35	98
580.561	85
580.772	89
580.982	91
581.193	73
581.403	86
581.614	97
581.825	77
582.035	103
