Data from Uncirc_1995_H10_HRD10591_00033.txt Node
Date: Wed Jan 03 11:35:40 EST 2024
User: Yrep
Spectrometer: HR+D1059
Trigger mode: 1
Integration Time (sec): 1.000000E-1
Scans to average: 1
Electric dark correction enabled: true
Nonlinearity correction enabled: false
Boxcar width: 0
XAxis mode: Wavelengths
Number of Pixels in Spectrum: 2048
>>>>>Begin Spectral Data<<<<<
223.165	-27.19
223.4	-27.19
223.635	-27.19
223.869	-8.19
224.104	-16.19
224.338	-19.19
224.573	-18.19
224.808	-4.19
225.042	-9.19
225.277	-12.19
225.511	-4.19
225.746	7.81
225.98	4.81
226.215	16.81
226.449	19.81
226.683	15.81
226.918	24.81
227.152	28.81
227.387	43.81
227.621	36.81
227.856	41.81
228.09	57.81
228.324	43.81
228.559	55.81
228.793	51.81
229.027	67.81
229.262	77.81
229.496	73.81
229.73	67.81
229.964	82.81
230.199	79.81
230.433	73.81
230.667	91.81
230.901	80.81
231.136	81.81
231.37	84.81
231.604	78.81
231.838	74.81
232.072	81.81
232.306	77.81
232.541	73.81
232.775	86.81
233.009	75.81
233.243	89.81
233.477	84.81
233.711	80.81
233.945	85.81
234.179	78.81
234.413	76.81
234.647	75.81
234.881	71.81
235.115	68.81
235.349	81.81
235.583	92.81
235.817	73.81
236.051	75.81
236.285	67.81
236.519	75.81
236.753	83.81
236.987	81.81
237.221	77.81
237.455	83.81
237.689	71.81
237.922	101.81
238.156	92.81
238.39	87.81
238.624	83.81
238.858	79.81
239.091	81.81
239.325	80.81
239.559	76.81
239.793	71.81
240.027	71.81
240.26	73.81
240.494	86.81
240.728	83.81
240.961	77.81
241.195	76.81
241.429	68.81
241.662	75.81
241.896	76.81
242.13	64.81
242.363	71.81
242.597	73.81
242.83	61.81
243.064	77.81
243.298	81.81
243.531	71.81
243.765	88.81
243.998	68.81
244.232	78.81
244.465	76.81
244.699	82.81
244.932	84.81
245.166	88.81
245.399	81.81
245.633	70.81
245.866	67.81
246.099	87.81
246.333	77.81
246.566	79.81
246.8	82.81
247.033	96.81
247.266	89.81
247.5	94.81
247.733	81.81
247.966	92.81
248.2	84.81
248.433	69.81
248.666	73.81
248.899	71.81
249.133	81.81
249.366	97.81
249.599	98.81
249.832	92.81
250.066	88.81
250.299	80.81
250.532	80.81
250.765	81.81
250.998	79.81
251.231	68.81
251.465	77.81
251.698	82.81
251.931	81.81
252.164	92.81
252.397	73.81
252.63	90.81
252.863	79.81
253.096	66.81
253.329	79.81
253.562	71.81
253.795	79.81
254.028	76.81
254.261	71.81
254.494	77.81
254.727	99.81
254.96	97.81
255.193	73.81
255.426	60.81
255.659	83.81
255.892	89.81
256.124	65.81
256.357	83.81
256.59	83.81
256.823	90.81
257.056	75.81
257.289	87.81
257.521	75.81
257.754	83.81
257.987	74.81
258.22	83.81
258.452	84.81
258.685	74.81
258.918	93.81
259.151	81.81
259.383	86.81
259.616	87.81
259.849	83.81
260.081	86.81
260.314	86.81
260.547	76.81
260.779	83.81
261.012	75.81
261.244	79.81
261.477	96.81
261.71	99.81
261.942	101.81
262.175	128.81
262.407	96.81
262.64	79.81
262.872	75.81
263.105	88.81
263.337	82.81
263.57	89.81
263.802	92.81
264.035	77.81
264.267	85.81
264.499	79.81
264.732	73.81
264.964	83.81
265.197	91.81
265.429	76.81
265.661	85.81
265.894	83.81
266.126	92.81
266.358	92.81
266.591	87.81
266.823	88.81
267.055	91.81
267.287	89.81
267.52	88.81
267.752	72.81
267.984	83.81
268.216	77.81
268.448	88.81
268.681	75.81
268.913	84.81
269.145	85.81
269.377	95.81
269.609	82.81
269.841	86.81
270.073	93.81
270.306	80.81
270.538	82.81
270.77	79.81
271.002	75.81
271.234	71.81
271.466	90.81
271.698	80.81
271.93	94.81
272.162	85.81
272.394	84.81
272.626	82.81
272.858	78.81
273.09	90.81
273.322	89.81
273.553	81.81
273.785	96.81
274.017	71.81
274.249	82.81
274.481	90.81
274.713	93.81
274.945	77.81
275.176	86.81
275.408	84.81
275.64	81.81
275.872	87.81
276.104	83.81
276.335	81.81
276.567	94.81
276.799	104.81
277.031	98.81
277.262	84.81
277.494	85.81
277.726	95.81
277.957	77.81
278.189	95.81
278.421	84.81
278.652	86.81
278.884	93.81
279.115	86.81
279.347	91.81
279.579	93.81
279.81	81.81
280.042	92.81
280.273	84.81
280.505	84.81
280.736	81.81
280.968	83.81
281.199	81.81
281.431	88.81
281.662	105.81
281.894	84.81
282.125	87.81
282.356	132.81
282.588	135.81
282.819	127.81
283.051	87.81
283.282	80.81
283.513	90.81
283.745	86.81
283.976	80.81
284.207	81.81
284.439	94.81
284.67	73.81
284.901	91.81
285.132	85.81
285.364	87.81
285.595	94.81
285.826	82.81
286.057	99.81
286.288	93.81
286.52	83.81
286.751	85.81
286.982	91.81
287.213	81.81
287.444	87.81
287.675	89.81
287.906	83.81
288.138	93.81
288.369	100.81
288.6	99.81
288.831	95.81
289.062	87.81
289.293	90.81
289.524	72.81
289.755	87.81
289.986	94.81
290.217	90.81
290.448	82.81
290.679	96.81
290.91	91.81
291.141	92.81
291.371	95.81
291.602	79.81
291.833	78.81
292.064	83.81
292.295	81.81
292.526	84.81
292.757	104.81
292.987	94.81
293.218	90.81
293.449	84.81
293.68	81.81
293.91	84.81
294.141	90.81
294.372	85.81
294.603	82.81
294.833	97.81
295.064	85.81
295.295	96.81
295.525	104.81
295.756	96.81
295.987	103.81
296.217	131.81
296.448	139.81
296.679	100.81
296.909	87.81
297.14	87.81
297.37	77.81
297.601	86.81
297.831	87.81
298.062	100.81
298.292	108.81
298.523	96.81
298.753	84.81
298.984	101.81
299.214	91.81
299.445	101.81
299.675	99.81
299.905	96.81
300.136	85.81
300.366	100.81
300.597	101.81
300.827	89.81
301.057	98.81
301.288	93.81
301.518	80.81
301.748	84.81
301.979	91.81
302.209	81.81
302.439	89.81
302.669	92.81
302.9	93.81
303.13	83.81
303.36	111.81
303.59	77.81
303.82	91.81
304.051	98.81
304.281	100.81
304.511	88.81
304.741	71.81
304.971	82.81
305.201	101.81
305.431	98.81
305.661	89.81
305.891	83.81
306.121	86.81
306.352	113.81
306.582	96.81
306.812	99.81
307.042	84.81
307.272	101.81
307.502	95.81
307.731	90.81
307.961	82.81
308.191	96.81
308.421	90.81
308.651	101.81
308.881	91.81
309.111	82.81
309.341	102.81
309.571	101.81
309.8	91.81
310.03	104.81
310.26	97.81
310.49	92.81
310.72	93.81
310.949	96.81
311.179	101.81
311.409	98.81
311.639	93.81
311.868	90.81
312.098	108.81
312.328	89.81
312.557	108.81
312.787	97.81
313.017	103.81
313.246	103.81
313.476	91.81
313.706	91.81
313.935	93.81
314.165	98.81
314.394	105.81
314.624	96.81
314.853	98.81
315.083	100.81
315.312	111.81
315.542	85.81
315.771	82.81
316.001	95.81
316.23	87.81
316.46	104.81
316.689	89.81
316.919	94.81
317.148	98.81
317.377	87.81
317.607	87.81
317.836	106.81
318.065	96.81
318.295	68.81
318.524	95.81
318.753	90.81
318.983	89.81
319.212	114.81
319.441	104.81
319.67	96.81
319.9	88.81
320.129	96.81
320.358	101.81
320.587	97.81
320.816	109.81
321.046	95.81
321.275	113.81
321.504	107.81
321.733	92.81
321.962	96.81
322.191	89.81
322.42	92.81
322.649	103.81
322.878	114.81
323.108	120.81
323.337	122.81
323.566	131.81
323.795	150.81
324.024	195.81
324.253	395.81
324.482	787.81
324.71	1665.81
324.939	2222.81
325.168	819.81
325.397	239.81
325.626	149.81
325.855	116.81
326.084	116.81
326.313	129.81
326.542	155.81
326.77	229.81
326.999	465.81
327.228	930.81
327.457	1683.81
327.686	1326.81
327.914	380.81
328.143	206.81
328.372	153.81
328.6	121.81
328.829	120.81
329.058	118.81
329.287	127.81
329.515	112.81
329.744	98.81
329.972	102.81
330.201	107.81
330.43	117.81
330.658	107.81
330.887	128.81
331.115	130.81
331.344	94.81
331.572	98.81
331.801	107.81
332.03	103.81
332.258	106.81
332.486	93.81
332.715	94.81
332.943	91.81
333.172	91.81
333.4	92.81
333.629	98.81
333.857	121.81
334.085	110.81
334.314	111.81
334.542	92.81
334.771	98.81
334.999	100.81
335.227	98.81
335.455	89.81
335.684	108.81
335.912	108.81
336.14	90.81
336.369	111.81
336.597	108.81
336.825	107.81
337.053	90.81
337.281	85.81
337.51	97.81
337.738	84.81
337.966	93.81
338.194	106.81
338.422	94.81
338.65	84.81
338.878	95.81
339.106	91.81
339.334	92.81
339.562	89.81
339.79	90.81
340.018	80.81
340.246	94.81
340.474	81.81
340.702	95.81
340.93	97.81
341.158	90.81
341.386	96.81
341.614	93.81
341.842	96.81
342.07	88.81
342.298	84.81
342.526	90.81
342.754	89.81
342.981	104.81
343.209	95.81
343.437	83.81
343.665	97.81
343.893	89.81
344.12	92.81
344.348	89.81
344.576	106.81
344.804	96.81
345.031	112.81
345.259	96.81
345.487	97.81
345.714	110.81
345.942	89.81
346.17	87.81
346.397	92.81
346.625	76.81
346.853	96.81
347.08	91.81
347.308	105.81
347.535	109.81
347.763	107.81
347.99	99.81
348.218	100.81
348.445	114.81
348.673	99.81
348.9	103.81
349.128	100.81
349.355	93.81
349.583	98.81
349.81	98.81
350.037	106.81
350.265	85.81
350.492	101.81
350.72	98.81
350.947	90.81
351.174	115.81
351.402	114.81
351.629	101.81
351.856	94.81
352.083	105.81
352.311	110.81
352.538	101.81
352.765	102.81
352.992	112.81
353.22	112.81
353.447	105.81
353.674	98.81
353.901	95.81
354.128	102.81
354.355	86.81
354.583	99.81
354.81	108.81
355.037	101.81
355.264	96.81
355.491	96.81
355.718	90.81
355.945	98.81
356.172	107.81
356.399	103.81
356.626	90.81
356.853	96.81
357.08	93.81
357.307	92.81
357.534	100.81
357.761	96.81
357.988	93.81
358.215	105.81
358.441	90.81
358.668	107.81
358.895	108.81
359.122	85.81
359.349	77.81
359.576	94.81
359.802	96.81
360.029	110.81
360.256	102.81
360.483	95.81
360.709	91.81
360.936	102.81
361.163	98.81
361.39	82.81
361.616	90.81
361.843	95.81
362.07	101.81
362.296	106.81
362.523	91.81
362.749	86.81
362.976	94.81
363.203	86.81
363.429	83.81
363.656	76.81
363.882	87.81
364.109	87.81
364.335	90.81
364.562	84.81
364.788	84.81
365.015	85.81
365.241	99.81
365.468	110.81
365.694	98.81
365.92	98.81
366.147	93.81
366.373	94.81
366.599	100.81
366.826	88.81
367.052	86.81
367.278	107.81
367.505	94.81
367.731	91.81
367.957	89.81
368.184	99.81
368.41	110.81
368.636	120.81
368.862	115.81
369.089	95.81
369.315	88.81
369.541	97.81
369.767	93.81
369.993	89.81
370.219	99.81
370.445	88.81
370.672	92.81
370.898	89.81
371.124	83.81
371.35	84.81
371.576	80.81
371.802	83.81
372.028	82.81
372.254	95.81
372.48	103.81
372.706	89.81
372.932	95.81
373.158	90.81
373.384	85.81
373.61	88.81
373.835	75.81
374.061	97.81
374.287	79.81
374.513	80.81
374.739	88.81
374.965	99.81
375.191	100.81
375.416	92.81
375.642	97.81
375.868	92.81
376.094	98.81
376.319	89.81
376.545	81.81
376.771	95.81
376.997	98.81
377.222	90.81
377.448	109.81
377.674	88.81
377.899	96.81
378.125	91.81
378.35	98.81
378.576	81.81
378.802	88.81
379.027	93.81
379.253	91.81
379.478	92.81
379.704	92.81
379.929	88.81
380.155	89.81
380.38	97.81
380.606	91.81
380.831	90.81
381.057	104.81
381.282	91.81
381.507	101.81
381.733	93.81
381.958	91.81
382.184	108.81
382.409	90.81
382.634	102.81
382.86	106.81
383.085	115.81
383.31	108.81
383.535	107.81
383.761	92.81
383.986	101.81
384.211	97.81
384.436	91.81
384.662	89.81
384.887	93.81
385.112	101.81
385.337	101.81
385.562	92.81
385.787	107.81
386.013	111.81
386.238	109.81
386.463	101.81
386.688	109.81
386.913	106.81
387.138	109.81
387.363	101.81
387.588	104.81
387.813	106.81
388.038	102.81
388.263	92.81
388.488	126.81
388.713	90.81
388.938	82.81
389.163	108.81
389.387	103.81
389.612	96.81
389.837	92.81
390.062	100.81
390.287	103.81
390.512	80.81
390.736	103.81
390.961	82.81
391.186	105.81
391.411	99.81
391.636	91.81
391.86	87.81
392.085	90.81
392.31	95.81
392.534	99.81
392.759	83.81
392.984	104.81
393.208	87.81
393.433	80.81
393.658	92.81
393.882	83.81
394.107	88.81
394.331	93.81
394.556	68.81
394.78	83.81
395.005	82.81
395.229	90.81
395.454	89.81
395.678	100.81
395.903	87.81
396.127	96.81
396.352	104.81
396.576	92.81
396.801	88.81
397.025	80.81
397.249	86.81
397.474	96.81
397.698	94.81
397.922	94.81
398.147	87.81
398.371	85.81
398.595	100.81
398.82	83.81
399.044	93.81
399.268	85.81
399.492	89.81
399.717	84.81
399.941	89.81
400.165	85.81
400.389	105.81
400.613	74.81
400.837	91.81
401.062	73.81
401.286	96.81
401.51	85.81
401.734	89.81
401.958	95.81
402.182	118.81
402.406	152.81
402.63	114.81
402.854	83.81
403.078	98.81
403.302	88.81
403.526	92.81
403.75	91.81
403.974	93.81
404.198	87.81
404.422	95.81
404.645	90.81
404.869	84.81
405.093	95.81
405.317	92.81
405.541	88.81
405.765	103.81
405.988	121.81
406.212	166.81
406.436	234.81
406.66	132.81
406.883	97.81
407.107	97.81
407.331	96.81
407.555	106.81
407.778	84.81
408.002	92.81
408.226	85.81
408.449	92.81
408.673	81.81
408.896	105.81
409.12	98.81
409.344	78.81
409.567	90.81
409.791	107.81
410.014	84.81
410.238	84.81
410.461	95.81
410.685	101.81
410.908	97.81
411.132	104.81
411.355	87.81
411.578	92.81
411.802	102.81
412.025	88.81
412.249	92.81
412.472	96.81
412.695	94.81
412.919	82.81
413.142	91.81
413.365	88.81
413.589	83.81
413.812	97.81
414.035	94.81
414.258	90.81
414.482	105.81
414.705	89.81
414.928	83.81
415.151	92.81
415.374	85.81
415.597	90.81
415.821	91.81
416.044	96.81
416.267	90.81
416.49	93.81
416.713	89.81
416.936	92.81
417.159	88.81
417.382	84.81
417.605	96.81
417.828	89.81
418.051	80.81
418.274	85.81
418.497	87.81
418.72	83.81
418.943	87.81
419.166	90.81
419.389	91.81
419.611	90.81
419.834	99.81
420.057	87.81
420.28	87.81
420.503	89.81
420.726	93.81
420.948	82.81
421.171	87.81
421.394	96.81
421.617	89.81
421.839	96.81
422.062	82.81
422.285	87.81
422.507	109.81
422.73	95.81
422.953	89.81
423.175	97.81
423.398	96.81
423.621	100.81
423.843	91.81
424.066	96.81
424.288	95.81
424.511	99.81
424.733	88.81
424.956	110.81
425.178	103.81
425.401	115.81
425.623	105.81
425.846	96.81
426.068	107.81
426.291	81.81
426.513	105.81
426.735	86.81
426.958	89.81
427.18	111.81
427.402	125.81
427.625	148.81
427.847	131.81
428.069	111.81
428.292	77.81
428.514	84.81
428.736	92.81
428.958	79.81
429.181	94.81
429.403	75.81
429.625	79.81
429.847	97.81
430.069	105.81
430.292	81.81
430.514	77.81
430.736	77.81
430.958	83.81
431.18	89.81
431.402	98.81
431.624	78.81
431.846	84.81
432.068	98.81
432.29	83.81
432.512	92.81
432.734	79.81
432.956	87.81
433.178	110.81
433.4	100.81
433.622	95.81
433.844	93.81
434.066	90.81
434.287	83.81
434.509	90.81
434.731	84.81
434.953	99.81
435.175	80.81
435.397	85.81
435.618	86.81
435.84	95.81
436.062	124.81
436.284	112.81
436.505	85.81
436.727	91.81
436.949	91.81
437.17	92.81
437.392	90.81
437.614	90.81
437.835	115.81
438.057	109.81
438.278	107.81
438.5	101.81
438.721	115.81
438.943	91.81
439.165	81.81
439.386	90.81
439.608	87.81
439.829	106.81
440.05	117.81
440.272	132.81
440.493	93.81
440.715	79.81
440.936	94.81
441.158	95.81
441.379	81.81
441.6	88.81
441.822	81.81
442.043	88.81
442.264	87.81
442.486	79.81
442.707	85.81
442.928	99.81
443.149	114.81
443.371	138.81
443.592	113.81
443.813	100.81
444.034	107.81
444.255	87.81
444.476	84.81
444.698	97.81
444.919	90.81
445.14	124.81
445.361	120.81
445.582	104.81
445.803	127.81
446.024	131.81
446.245	124.81
446.466	100.81
446.687	95.81
446.908	91.81
447.129	91.81
447.35	93.81
447.571	94.81
447.792	98.81
448.013	109.81
448.234	113.81
448.455	97.81
448.675	125.81
448.896	124.81
449.117	110.81
449.338	91.81
449.559	116.81
449.779	113.81
450	89.81
450.221	81.81
450.442	79.81
450.662	92.81
450.883	111.81
451.104	103.81
451.324	97.81
451.545	95.81
451.766	92.81
451.986	87.81
452.207	87.81
452.428	92.81
452.648	91.81
452.869	108.81
453.089	109.81
453.31	98.81
453.53	82.81
453.751	99.81
453.971	108.81
454.192	108.81
454.412	104.81
454.633	91.81
454.853	95.81
455.073	81.81
455.294	99.81
455.514	94.81
455.734	83.81
455.955	88.81
456.175	79.81
456.395	86.81
456.616	82.81
456.836	80.81
457.056	88.81
457.276	72.81
457.497	87.81
457.717	98.81
457.937	103.81
458.157	93.81
458.377	83.81
458.598	97.81
458.818	140.81
459.038	135.81
459.258	87.81
459.478	85.81
459.698	100.81
459.918	79.81
460.138	82.81
460.358	90.81
460.578	77.81
460.798	82.81
461.018	104.81
461.238	85.81
461.458	75.81
461.678	80.81
461.898	89.81
462.118	74.81
462.338	72.81
462.558	90.81
462.777	91.81
462.997	83.81
463.217	90.81
463.437	85.81
463.657	91.81
463.876	75.81
464.096	94.81
464.316	91.81
464.536	94.81
464.755	112.81
464.975	107.81
465.195	147.81
465.414	126.81
465.634	98.81
465.854	92.81
466.073	97.81
466.293	90.81
466.512	84.81
466.732	85.81
466.951	88.81
467.171	96.81
467.391	95.81
467.61	100.81
467.829	91.81
468.049	80.81
468.268	79.81
468.488	93.81
468.707	87.81
468.927	89.81
469.146	87.81
469.365	81.81
469.585	109.81
469.804	109.81
470.023	87.81
470.243	91.81
470.462	77.81
470.681	100.81
470.901	89.81
471.12	87.81
471.339	87.81
471.558	90.81
471.777	92.81
471.997	89.81
472.216	102.81
472.435	83.81
472.654	76.81
472.873	92.81
473.092	86.81
473.311	93.81
473.53	95.81
473.749	89.81
473.968	90.81
474.187	92.81
474.406	103.81
474.625	84.81
474.844	93.81
475.063	82.81
475.282	93.81
475.501	79.81
475.72	88.81
475.939	83.81
476.158	84.81
476.377	91.81
476.596	99.81
476.814	106.81
477.033	97.81
477.252	90.81
477.471	85.81
477.69	87.81
477.908	96.81
478.127	84.81
478.346	84.81
478.564	89.81
478.783	89.81
479.002	95.81
479.22	91.81
479.439	95.81
479.658	107.81
479.876	89.81
480.095	102.81
480.313	101.81
480.532	91.81
480.751	84.81
480.969	95.81
481.188	96.81
481.406	97.81
481.624	103.81
481.843	84.81
482.061	68.81
482.28	97.81
482.498	90.81
482.717	95.81
482.935	100.81
483.153	98.81
483.372	73.81
483.59	93.81
483.808	104.81
484.027	89.81
484.245	80.81
484.463	102.81
484.681	100.81
484.9	100.81
485.118	100.81
485.336	107.81
485.554	108.81
485.772	91.81
485.99	106.81
486.209	121.81
486.427	95.81
486.645	95.81
486.863	117.81
487.081	111.81
487.299	102.81
487.517	107.81
487.735	93.81
487.953	78.81
488.171	89.81
488.389	86.81
488.607	95.81
488.825	95.81
489.043	93.81
489.261	97.81
489.479	96.81
489.696	94.81
489.914	83.81
490.132	95.81
490.35	90.81
490.568	79.81
490.786	88.81
491.003	89.81
491.221	101.81
491.439	79.81
491.657	92.81
491.874	94.81
492.092	87.81
492.31	94.81
492.527	80.81
492.745	87.81
492.963	91.81
493.18	84.81
493.398	91.81
493.615	104.81
493.833	98.81
494.05	96.81
494.268	98.81
494.485	94.81
494.703	97.81
494.92	89.81
495.138	107.81
495.355	85.81
495.573	92.81
495.79	97.81
496.008	95.81
496.225	87.81
496.442	94.81
496.66	101.81
496.877	93.81
497.094	89.81
497.312	80.81
497.529	89.81
497.746	87.81
497.963	93.81
498.181	98.81
498.398	93.81
498.615	103.81
498.832	101.81
499.049	83.81
499.267	101.81
499.484	81.81
499.701	96.81
499.918	104.81
500.135	90.81
500.352	105.81
500.569	103.81
500.786	94.81
501.003	82.81
501.22	81.81
501.437	91.81
501.654	106.81
501.871	114.81
502.088	81.81
502.305	87.81
502.522	101.81
502.739	95.81
502.956	104.81
503.172	104.81
503.389	93.81
503.606	102.81
503.823	89.81
504.04	88.81
504.256	92.81
504.473	99.81
504.69	89.81
504.907	86.81
505.123	84.81
505.34	78.81
505.557	83.81
505.773	95.81
505.99	97.81
506.207	108.81
506.423	97.81
506.64	91.81
506.856	100.81
507.073	82.81
507.289	89.81
507.506	105.81
507.722	115.81
507.939	100.81
508.155	95.81
508.372	91.81
508.588	105.81
508.805	91.81
509.021	104.81
509.238	91.81
509.454	100.81
509.67	106.81
509.887	107.81
510.103	134.81
510.319	210.81
510.536	791.81
510.752	2391.81
510.968	648.81
511.184	167.81
511.401	101.81
511.617	98.81
511.833	99.81
512.049	113.81
512.265	97.81
512.481	90.81
512.698	92.81
512.914	101.81
513.13	96.81
513.346	108.81
513.562	98.81
513.778	105.81
513.994	85.81
514.21	101.81
514.426	116.81
514.642	136.81
514.858	118.81
515.074	182.81
515.29	427.81
515.506	1430.81
