Data from Uncirc_1995_H10_HRD10591_00055.txt Node
Date: Wed Jan 03 11:35:44 EST 2024
User: Yrep
Spectrometer: HR+D1059
Trigger mode: 1
Integration Time (sec): 1.000000E-1
Scans to average: 1
Electric dark correction enabled: true
Nonlinearity correction enabled: false
Boxcar width: 0
XAxis mode: Wavelengths
Number of Pixels in Spectrum: 2048
>>>>>Begin Spectral Data<<<<<
223.165	-26
223.4	-26
223.635	-26
223.869	-7
224.104	-7
224.338	-35
224.573	-17
224.808	-8
225.042	5
225.277	-3
225.511	1
225.746	11
225.98	-10
226.215	-1
226.449	11
226.683	30
226.918	20
227.152	36
227.387	37
227.621	53
227.856	49
228.09	41
228.324	43
228.559	48
228.793	50
229.027	61
229.262	63
229.496	71
229.73	85
229.964	71
230.199	76
230.433	69
230.667	67
230.901	69
231.136	74
231.37	77
231.604	81
231.838	80
232.072	111
232.306	74
232.541	82
232.775	72
233.009	85
233.243	81
233.477	88
233.711	75
233.945	96
234.179	79
234.413	88
234.647	76
234.881	84
235.115	66
235.349	77
235.583	74
235.817	59
236.051	73
236.285	64
236.519	85
236.753	82
236.987	77
237.221	86
237.455	61
237.689	73
237.922	81
238.156	79
238.39	86
238.624	85
238.858	72
239.091	60
239.325	76
239.559	72
239.793	90
240.027	78
240.26	78
240.494	65
240.728	70
240.961	60
241.195	74
241.429	75
241.662	77
241.896	76
242.13	69
242.363	75
242.597	59
242.83	71
243.064	73
243.298	79
243.531	80
243.765	79
243.998	84
244.232	82
244.465	102
244.699	77
244.932	61
245.166	73
245.399	73
245.633	74
245.866	73
246.099	70
246.333	94
246.566	76
246.8	70
247.033	77
247.266	67
247.5	82
247.733	70
247.966	78
248.2	86
248.433	85
248.666	64
248.899	70
249.133	78
249.366	89
249.599	83
249.832	92
250.066	84
250.299	87
250.532	64
250.765	77
250.998	78
251.231	70
251.465	90
251.698	68
251.931	76
252.164	78
252.397	86
252.63	81
252.863	77
253.096	69
253.329	89
253.562	72
253.795	73
254.028	77
254.261	87
254.494	84
254.727	72
254.96	77
255.193	77
255.426	72
255.659	62
255.892	87
256.124	88
256.357	75
256.59	99
256.823	86
257.056	65
257.289	71
257.521	85
257.754	64
257.987	82
258.22	96
258.452	71
258.685	83
258.918	79
259.151	83
259.383	78
259.616	73
259.849	74
260.081	83
260.314	87
260.547	80
260.779	91
261.012	72
261.244	78
261.477	82
261.71	88
261.942	96
262.175	104
262.407	93
262.64	80
262.872	92
263.105	79
263.337	79
263.57	81
263.802	75
264.035	88
264.267	87
264.499	83
264.732	77
264.964	92
265.197	69
265.429	80
265.661	82
265.894	75
266.126	84
266.358	81
266.591	81
266.823	73
267.055	89
267.287	85
267.52	83
267.752	83
267.984	71
268.216	94
268.448	79
268.681	74
268.913	78
269.145	92
269.377	71
269.609	72
269.841	81
270.073	75
270.306	75
270.538	84
270.77	86
271.002	87
271.234	94
271.466	80
271.698	75
271.93	81
272.162	71
272.394	87
272.626	94
272.858	88
273.09	88
273.322	89
273.553	67
273.785	84
274.017	88
274.249	69
274.481	80
274.713	75
274.945	98
275.176	76
275.408	98
275.64	81
275.872	84
276.104	89
276.335	89
276.567	96
276.799	98
277.031	95
277.262	65
277.494	77
277.726	89
277.957	90
278.189	88
278.421	89
278.652	80
278.884	91
279.115	87
279.347	74
279.579	90
279.81	77
280.042	81
280.273	98
280.505	81
280.736	78
280.968	77
281.199	85
281.431	85
281.662	87
281.894	81
282.125	99
282.356	105
282.588	117
282.819	102
283.051	94
283.282	94
283.513	88
283.745	81
283.976	84
284.207	68
284.439	82
284.67	80
284.901	81
285.132	82
285.364	84
285.595	76
285.826	76
286.057	80
286.288	77
286.52	77
286.751	72
286.982	87
287.213	79
287.444	89
287.675	90
287.906	88
288.138	79
288.369	92
288.6	103
288.831	88
289.062	99
289.293	88
289.524	87
289.755	84
289.986	70
290.217	73
290.448	74
290.679	79
290.91	94
291.141	84
291.371	88
291.602	98
291.833	81
292.064	91
292.295	96
292.526	90
292.757	87
292.987	98
293.218	84
293.449	89
293.68	96
293.91	89
294.141	89
294.372	82
294.603	88
294.833	82
295.064	81
295.295	96
295.525	88
295.756	78
295.987	104
296.217	129
296.448	129
296.679	90
296.909	82
297.14	87
297.37	89
297.601	92
297.831	75
298.062	87
298.292	85
298.523	72
298.753	92
298.984	86
299.214	85
299.445	82
299.675	82
299.905	88
300.136	84
300.366	92
300.597	90
300.827	86
301.057	78
301.288	101
301.518	86
301.748	77
301.979	105
302.209	77
302.439	75
302.669	84
302.9	80
303.13	101
303.36	90
303.59	96
303.82	90
304.051	91
304.281	78
304.511	82
304.741	82
304.971	89
305.201	92
305.431	79
305.661	90
305.891	91
306.121	89
306.352	108
306.582	102
306.812	82
307.042	90
307.272	93
307.502	93
307.731	86
307.961	81
308.191	77
308.421	98
308.651	93
308.881	91
309.111	86
309.341	84
309.571	85
309.8	100
310.03	107
310.26	92
310.49	104
310.72	100
310.949	102
311.179	111
311.409	89
311.639	96
311.868	105
312.098	98
312.328	88
312.557	97
312.787	88
313.017	86
313.246	93
313.476	93
313.706	82
313.935	90
314.165	94
314.394	89
314.624	100
314.853	98
315.083	86
315.312	89
315.542	93
315.771	72
316.001	90
316.23	89
316.46	76
316.689	86
316.919	78
317.148	103
317.377	98
317.607	97
317.836	93
318.065	94
318.295	94
318.524	78
318.753	78
318.983	79
319.212	85
319.441	108
319.67	84
319.9	92
320.129	79
320.358	86
320.587	87
320.816	100
321.046	95
321.275	86
321.504	99
321.733	94
321.962	111
322.191	81
322.42	92
322.649	108
322.878	120
323.108	95
323.337	116
323.566	117
323.795	157
324.024	188
324.253	368
324.482	820
324.71	1662
324.939	2194
325.168	805
325.397	228
325.626	133
325.855	122
326.084	122
326.313	145
326.542	150
326.77	235
326.999	450
327.228	941
327.457	1709
327.686	1341
327.914	361
328.143	189
328.372	150
328.6	116
328.829	104
329.058	107
329.287	119
329.515	111
329.744	111
329.972	103
330.201	94
330.43	96
330.658	106
330.887	132
331.115	105
331.344	110
331.572	91
331.801	97
332.03	100
332.258	93
332.486	96
332.715	89
332.943	82
333.172	94
333.4	96
333.629	105
333.857	103
334.085	106
334.314	84
334.542	85
334.771	87
334.999	79
335.227	104
335.455	93
335.684	98
335.912	82
336.14	98
336.369	90
336.597	99
336.825	86
337.053	102
337.281	89
337.51	77
337.738	87
337.966	84
338.194	110
338.422	101
338.65	101
338.878	94
339.106	90
339.334	91
339.562	74
339.79	97
340.018	93
340.246	93
340.474	95
340.702	82
340.93	84
341.158	76
341.386	82
341.614	94
341.842	81
342.07	82
342.298	78
342.526	93
342.754	90
342.981	76
343.209	101
343.437	91
343.665	87
343.893	91
344.12	89
344.348	75
344.576	85
344.804	91
345.031	96
345.259	93
345.487	89
345.714	88
345.942	73
346.17	101
346.397	90
346.625	87
346.853	85
347.08	82
347.308	100
347.535	102
347.763	104
347.99	84
348.218	93
348.445	85
348.673	101
348.9	95
349.128	106
349.355	82
349.583	93
349.81	99
350.037	90
350.265	98
350.492	92
350.72	93
350.947	86
351.174	111
351.402	97
351.629	103
351.856	94
352.083	102
352.311	101
352.538	86
352.765	104
352.992	106
353.22	117
353.447	100
353.674	91
353.901	102
354.128	92
354.355	103
354.583	94
354.81	96
355.037	103
355.264	94
355.491	88
355.718	85
355.945	97
356.172	101
356.399	98
356.626	86
356.853	82
357.08	101
357.307	99
357.534	89
357.761	108
357.988	97
358.215	79
358.441	107
358.668	80
358.895	90
359.122	88
359.349	82
359.576	95
359.802	98
360.029	98
360.256	115
360.483	93
360.709	86
360.936	88
361.163	96
361.39	89
361.616	86
361.843	90
362.07	81
362.296	86
362.523	80
362.749	90
362.976	79
363.203	90
363.429	75
363.656	88
363.882	86
364.109	85
364.335	79
364.562	87
364.788	88
365.015	89
365.241	92
365.468	89
365.694	110
365.92	97
366.147	92
366.373	71
366.599	92
366.826	97
367.052	74
367.278	99
367.505	85
367.731	105
367.957	85
368.184	84
368.41	94
368.636	116
368.862	105
369.089	92
369.315	96
369.541	87
369.767	89
369.993	87
370.219	92
370.445	90
370.672	82
370.898	88
371.124	97
371.35	87
371.576	105
371.802	83
372.028	63
372.254	82
372.48	87
372.706	85
372.932	80
373.158	76
373.384	72
373.61	90
373.835	82
374.061	89
374.287	81
374.513	75
374.739	81
374.965	92
375.191	104
375.416	76
375.642	95
375.868	91
376.094	75
376.319	87
376.545	81
376.771	93
376.997	80
377.222	103
377.448	93
377.674	77
377.899	83
378.125	77
378.35	81
378.576	92
378.802	84
379.027	91
379.253	98
379.478	77
379.704	82
379.929	89
380.155	81
380.38	103
380.606	95
380.831	88
381.057	97
381.282	97
381.507	91
381.733	108
381.958	87
382.184	90
382.409	109
382.634	97
382.86	89
383.085	97
383.31	94
383.535	93
383.761	102
383.986	93
384.211	88
384.436	89
384.662	105
384.887	96
385.112	95
385.337	102
385.562	107
385.787	87
386.013	114
386.238	107
386.463	119
386.688	102
386.913	92
387.138	99
387.363	115
387.588	85
387.813	101
388.038	103
388.263	109
388.488	108
388.713	98
388.938	95
389.163	90
389.387	93
389.612	95
389.837	73
390.062	93
390.287	96
390.512	85
390.736	88
390.961	90
391.186	80
391.411	95
391.636	77
391.86	84
392.085	89
392.31	90
392.534	88
392.759	83
392.984	92
393.208	91
393.433	80
393.658	82
393.882	75
394.107	87
394.331	96
394.556	81
394.78	89
395.005	75
395.229	86
395.454	94
395.678	77
395.903	101
396.127	83
396.352	95
396.576	96
396.801	88
397.025	90
397.249	83
397.474	70
397.698	88
397.922	91
398.147	85
398.371	91
398.595	95
398.82	77
399.044	80
399.268	81
399.492	82
399.717	90
399.941	85
400.165	95
400.389	97
400.613	102
400.837	97
401.062	88
401.286	88
401.51	89
401.734	90
401.958	100
402.182	117
402.406	128
402.63	103
402.854	86
403.078	89
403.302	69
403.526	88
403.75	82
403.974	83
404.198	86
404.422	88
404.645	80
404.869	75
405.093	91
405.317	90
405.541	82
405.765	97
405.988	108
406.212	160
406.436	206
406.66	130
406.883	86
407.107	94
407.331	92
407.555	99
407.778	97
408.002	95
408.226	83
408.449	91
408.673	85
408.896	96
409.12	84
409.344	89
409.567	71
409.791	88
410.014	84
410.238	88
410.461	92
410.685	100
410.908	117
411.132	85
411.355	105
411.578	89
411.802	87
412.025	82
412.249	88
412.472	88
412.695	81
412.919	88
413.142	85
413.365	89
413.589	81
413.812	99
414.035	97
414.258	82
414.482	92
414.705	91
414.928	96
415.151	80
415.374	80
415.597	83
415.821	86
416.044	72
416.267	97
416.49	87
416.713	87
416.936	97
417.159	97
417.382	90
417.605	85
417.828	91
418.051	76
418.274	79
418.497	84
418.72	90
418.943	84
419.166	80
419.389	81
419.611	98
419.834	81
420.057	90
420.28	87
420.503	77
420.726	81
420.948	83
421.171	86
421.394	85
421.617	78
421.839	84
422.062	83
422.285	75
422.507	93
422.73	101
422.953	105
423.175	88
423.398	84
423.621	85
423.843	86
424.066	102
424.288	72
424.511	79
424.733	93
424.956	87
425.178	87
425.401	91
425.623	87
425.846	86
426.068	92
426.291	87
426.513	89
426.735	84
426.958	88
427.18	93
427.402	132
427.625	138
427.847	122
428.069	97
428.292	89
428.514	87
428.736	93
428.958	79
429.181	83
429.403	94
429.625	85
429.847	80
430.069	96
430.292	95
430.514	88
430.736	78
430.958	78
431.18	86
431.402	85
431.624	86
431.846	82
432.068	84
432.29	90
432.512	89
432.734	70
432.956	92
433.178	115
433.4	89
433.622	112
433.844	96
434.066	92
434.287	90
434.509	75
434.731	102
434.953	101
435.175	91
435.397	101
435.618	100
435.84	117
436.062	112
436.284	109
436.505	106
436.727	101
436.949	92
437.17	88
437.392	90
437.614	84
437.835	105
438.057	115
438.278	107
438.5	97
438.721	104
438.943	95
439.165	84
439.386	91
439.608	80
439.829	102
440.05	114
440.272	125
440.493	107
440.715	87
440.936	83
441.158	75
441.379	90
441.6	87
441.822	97
442.043	96
442.264	82
442.486	100
442.707	93
442.928	95
443.149	117
443.371	108
443.592	105
443.813	89
444.034	93
444.255	80
444.476	89
444.698	80
444.919	91
445.14	125
445.361	108
445.582	108
445.803	134
446.024	124
446.245	118
446.466	96
446.687	93
446.908	87
447.129	85
447.35	89
447.571	85
447.792	96
448.013	96
448.234	98
448.455	90
448.675	99
448.896	113
449.117	101
449.338	104
449.559	117
449.779	129
450	85
450.221	98
450.442	82
450.662	84
450.883	85
451.104	95
451.324	105
451.545	88
451.766	80
451.986	65
452.207	71
452.428	97
452.648	94
452.869	117
453.089	112
453.31	118
453.53	94
453.751	77
453.971	85
454.192	108
454.412	93
454.633	77
454.853	84
455.073	77
455.294	98
455.514	94
455.734	88
455.955	81
456.175	76
456.395	86
456.616	78
456.836	80
457.056	86
457.276	75
457.497	76
457.717	86
457.937	85
458.157	87
458.377	92
458.598	104
458.818	129
459.038	155
459.258	106
459.478	92
459.698	94
459.918	87
460.138	78
460.358	86
460.578	82
460.798	101
461.018	96
461.238	100
461.458	98
461.678	80
461.898	79
462.118	81
462.338	85
462.558	89
462.777	73
462.997	92
463.217	85
463.437	81
463.657	81
463.876	82
464.096	79
464.316	82
464.536	93
464.755	91
464.975	109
465.195	161
465.414	144
465.634	79
465.854	76
466.073	86
466.293	80
466.512	88
466.732	84
466.951	88
467.171	93
467.391	86
467.61	92
467.829	88
468.049	91
468.268	87
468.488	87
468.707	85
468.927	94
469.146	85
469.365	87
469.585	92
469.804	80
470.023	84
470.243	88
470.462	101
470.681	98
470.901	92
471.12	93
471.339	85
471.558	100
471.777	80
471.997	87
472.216	92
472.435	103
472.654	77
472.873	80
473.092	84
473.311	89
473.53	76
473.749	89
473.968	92
474.187	110
474.406	93
474.625	80
474.844	89
475.063	88
475.282	88
475.501	67
475.72	94
475.939	80
476.158	68
476.377	94
476.596	103
476.814	86
477.033	85
477.252	83
477.471	84
477.69	88
477.908	95
478.127	89
478.346	81
478.564	89
478.783	93
479.002	93
479.22	90
479.439	98
479.658	90
479.876	99
480.095	85
480.313	95
480.532	91
480.751	83
480.969	87
481.188	84
481.406	89
481.624	79
481.843	86
482.061	84
482.28	86
482.498	86
482.717	80
482.935	86
483.153	83
483.372	83
483.59	88
483.808	90
484.027	89
484.245	87
484.463	84
484.681	100
484.9	92
485.118	98
485.336	84
485.554	117
485.772	89
485.99	102
486.209	106
486.427	101
486.645	111
486.863	109
487.081	98
487.299	103
487.517	92
487.735	84
487.953	101
488.171	83
488.389	85
488.607	99
488.825	90
489.043	78
489.261	91
489.479	86
489.696	88
489.914	79
490.132	81
490.35	73
490.568	94
490.786	78
491.003	85
491.221	93
491.439	95
491.657	109
491.874	90
492.092	93
492.31	92
492.527	95
492.745	89
492.963	87
493.18	93
493.398	87
493.615	96
493.833	92
494.05	76
494.268	70
494.485	82
494.703	99
494.92	92
495.138	74
495.355	89
495.573	76
495.79	95
496.008	103
496.225	78
496.442	94
496.66	88
496.877	95
497.094	91
497.312	85
497.529	85
497.746	84
497.963	95
498.181	91
498.398	89
498.615	96
498.832	100
499.049	79
499.267	77
499.484	87
499.701	89
499.918	90
500.135	92
500.352	79
500.569	84
500.786	97
501.003	95
501.22	100
501.437	93
501.654	84
501.871	104
502.088	91
502.305	86
502.522	82
502.739	78
502.956	95
503.172	97
503.389	85
503.606	105
503.823	92
504.04	84
504.256	97
504.473	84
504.69	81
504.907	90
505.123	96
505.34	87
505.557	92
505.773	108
505.99	80
506.207	80
506.423	97
506.64	85
506.856	89
507.073	93
507.289	92
507.506	89
507.722	98
507.939	110
508.155	79
508.372	108
508.588	96
508.805	102
509.021	94
509.238	84
509.454	82
509.67	85
509.887	102
510.103	135
510.319	218
510.536	748
510.752	2256
510.968	642
511.184	161
511.401	118
511.617	109
511.833	112
512.049	94
512.265	82
512.481	100
512.698	83
512.914	83
513.13	84
513.346	81
513.562	94
513.778	97
513.994	112
514.21	102
514.426	115
514.642	95
514.858	110
515.074	163
515.29	400
515.506	1304
515.721	494
515.937	145
516.153	125
516.369	98
516.585	98
516.801	79
517.016	89
517.232	98
517.448	97
517.664	85
517.879	84
518.095	93
518.311	99
518.527	81
518.742	85
518.958	80
519.173	94
519.389	88
519.605	102
519.82	102
520.036	78
520.251	104
520.467	106
520.682	103
520.898	94
521.113	109
521.329	122
521.544	204
521.76	518
521.975	2219
522.19	1341
522.406	288
522.621	110
522.836	106
523.052	97
523.267	100
523.482	94
523.698	104
523.913	117
524.128	97
524.343	87
524.559	104
524.774	93
524.989	99
525.204	96
525.419	84
525.634	87
525.849	86
526.064	94
526.28	96
526.495	77
526.71	88
526.925	92
527.14	92
527.355	91
527.57	95
527.785	86
527.999	88
528.214	96
528.429	93
528.644	94
528.859	90
529.074	101
529.289	119
529.503	157
529.718	106
529.933	95
530.148	83
530.363	95
530.577	95
530.792	87
531.007	95
531.221	88
531.436	94
531.651	91
531.865	70
532.08	74
532.295	105
532.509	87
532.724	81
532.938	99
533.153	88
533.367	101
533.582	100
533.796	98
534.011	89
534.225	93
534.44	90
534.654	100
534.868	87
535.083	83
535.297	106
535.511	99
535.726	73
535.94	82
536.154	91
536.369	84
536.583	91
536.797	86
537.011	94
537.225	94
537.44	95
537.654	95
537.868	100
538.082	99
538.296	95
538.51	89
538.724	94
538.938	89
539.153	105
539.367	87
539.581	93
539.795	82
540.009	101
540.222	80
540.436	96
540.65	82
540.864	73
541.078	88
541.292	92
541.506	75
541.72	90
541.934	84
542.147	92
542.361	86
542.575	76
542.789	89
543.002	95
543.216	94
543.43	97
543.644	103
543.857	95
544.071	87
544.285	99
544.498	107
544.712	87
544.925	77
545.139	96
545.352	90
545.566	90
545.779	80
545.993	87
546.206	80
546.42	90
546.633	82
546.847	88
547.06	90
547.274	70
547.487	90
547.7	72
547.914	93
548.127	83
548.34	98
548.554	91
548.767	89
548.98	88
549.193	87
549.407	84
549.62	92
549.833	85
550.046	96
550.259	82
550.473	77
550.686	97
550.899	90
551.112	89
551.325	95
551.538	90
551.751	78
551.964	96
552.177	89
552.39	79
552.603	84
552.816	94
553.029	91
553.242	86
553.455	93
553.667	95
553.88	102
554.093	97
554.306	92
554.519	95
554.732	106
554.944	96
555.157	87
555.37	93
555.583	82
555.795	87
556.008	88
556.221	88
556.433	86
556.646	92
556.859	97
557.071	102
557.284	94
557.496	83
557.709	94
557.921	86
558.134	93
558.346	89
558.559	91
558.771	92
558.984	90
559.196	100
559.409	88
559.621	75
559.833	101
560.046	89
560.258	69
560.47	98
560.683	106
560.895	92
561.107	88
561.32	91
561.532	90
561.744	86
561.956	90
562.168	96
562.381	93
562.593	89
562.805	94
563.017	88
563.229	86
563.441	81
563.653	87
563.865	88
564.077	80
564.289	94
564.501	88
564.713	96
564.925	87
565.137	93
565.349	96
565.561	80
565.773	88
565.985	82
566.197	72
566.408	84
566.62	89
566.832	99
567.044	96
567.255	92
567.467	83
567.679	68
567.891	73
568.102	88
568.314	100
568.526	98
568.737	85
568.949	92
569.161	94
569.372	86
569.584	73
569.795	98
570.007	115
570.218	245
570.43	125
570.641	82
570.853	76
571.064	85
571.276	89
571.487	91
571.698	75
571.91	77
572.121	87
572.333	80
572.544	87
572.755	85
572.966	102
573.178	95
573.389	88
573.6	74
573.811	90
574.023	86
574.234	85
574.445	82
574.656	71
574.867	80
575.078	84
575.289	92
575.501	97
575.712	93
575.923	83
576.134	102
576.345	97
576.556	103
576.767	110
576.978	88
577.188	85
577.399	101
577.61	111
577.821	108
578.032	122
578.243	265
578.454	752
578.665	223
578.875	108
579.086	90
579.297	82
579.508	90
579.718	77
579.929	83
580.14	96
580.35	85
580.561	94
580.772	86
580.982	86
581.193	73
581.403	91
581.614	93
581.825	76
582.035	92
582.246	83
582.456	91
582.667	80
582.877	87
583.087	96
583.298	83
583.508	85
583.719	91
583.929	92
584.139	79
584.35	98
584.56	93
584.77	97
584.981	80
585.191	87
585.401	86
585.611	92
585.821	91
