Data from Uncirc_1995_H10_HRD10591_00081.txt Node
Date: Wed Jan 03 11:35:50 EST 2024
User: Yrep
Spectrometer: HR+D1059
Trigger mode: 1
Integration Time (sec): 1.000000E-1
Scans to average: 1
Electric dark correction enabled: true
Nonlinearity correction enabled: false
Boxcar width: 0
XAxis mode: Wavelengths
Number of Pixels in Spectrum: 2048
>>>>>Begin Spectral Data<<<<<
223.165	-20.12
223.4	-20.12
223.635	-20.12
223.869	-25.12
224.104	-15.12
224.338	-27.12
224.573	-5.12
224.808	-6.12
225.042	-13.12
225.277	-11.12
225.511	-3.12
225.746	-5.12
225.98	5.88
226.215	3.88
226.449	28.88
226.683	20.88
226.918	33.88
227.152	37.88
227.387	43.88
227.621	35.88
227.856	45.88
228.09	46.88
228.324	66.88
228.559	60.88
228.793	54.88
229.027	62.88
229.262	73.88
229.496	62.88
229.73	74.88
229.964	104.88
230.199	77.88
230.433	81.88
230.667	79.88
230.901	73.88
231.136	68.88
231.37	84.88
231.604	74.88
231.838	89.88
232.072	79.88
232.306	90.88
232.541	74.88
232.775	85.88
233.009	83.88
233.243	75.88
233.477	89.88
233.711	83.88
233.945	91.88
234.179	82.88
234.413	85.88
234.647	77.88
234.881	93.88
235.115	77.88
235.349	80.88
235.583	88.88
235.817	83.88
236.051	87.88
236.285	74.88
236.519	79.88
236.753	80.88
236.987	78.88
237.221	93.88
237.455	86.88
237.689	77.88
237.922	79.88
238.156	81.88
238.39	73.88
238.624	85.88
238.858	68.88
239.091	82.88
239.325	79.88
239.559	77.88
239.793	82.88
240.027	78.88
240.26	68.88
240.494	63.88
240.728	65.88
240.961	91.88
241.195	59.88
241.429	77.88
241.662	89.88
241.896	72.88
242.13	74.88
242.363	76.88
242.597	76.88
242.83	77.88
243.064	84.88
243.298	82.88
243.531	65.88
243.765	69.88
243.998	86.88
244.232	77.88
244.465	86.88
244.699	72.88
244.932	76.88
245.166	77.88
245.399	84.88
245.633	80.88
245.866	85.88
246.099	82.88
246.333	70.88
246.566	86.88
246.8	92.88
247.033	82.88
247.266	85.88
247.5	72.88
247.733	88.88
247.966	86.88
248.2	78.88
248.433	84.88
248.666	78.88
248.899	77.88
249.133	94.88
249.366	88.88
249.599	108.88
249.832	88.88
250.066	85.88
250.299	77.88
250.532	81.88
250.765	91.88
250.998	78.88
251.231	78.88
251.465	79.88
251.698	82.88
251.931	77.88
252.164	83.88
252.397	80.88
252.63	69.88
252.863	82.88
253.096	83.88
253.329	88.88
253.562	82.88
253.795	94.88
254.028	76.88
254.261	102.88
254.494	78.88
254.727	101.88
254.96	68.88
255.193	82.88
255.426	72.88
255.659	90.88
255.892	86.88
256.124	81.88
256.357	87.88
256.59	84.88
256.823	74.88
257.056	85.88
257.289	88.88
257.521	85.88
257.754	90.88
257.987	77.88
258.22	83.88
258.452	84.88
258.685	75.88
258.918	93.88
259.151	82.88
259.383	92.88
259.616	80.88
259.849	85.88
260.081	77.88
260.314	89.88
260.547	97.88
260.779	83.88
261.012	82.88
261.244	90.88
261.477	94.88
261.71	92.88
261.942	120.88
262.175	101.88
262.407	106.88
262.64	91.88
262.872	91.88
263.105	79.88
263.337	78.88
263.57	85.88
263.802	92.88
264.035	91.88
264.267	94.88
264.499	97.88
264.732	90.88
264.964	76.88
265.197	85.88
265.429	82.88
265.661	83.88
265.894	84.88
266.126	88.88
266.358	71.88
266.591	85.88
266.823	86.88
267.055	89.88
267.287	74.88
267.52	78.88
267.752	88.88
267.984	76.88
268.216	98.88
268.448	85.88
268.681	97.88
268.913	81.88
269.145	84.88
269.377	90.88
269.609	80.88
269.841	88.88
270.073	80.88
270.306	96.88
270.538	95.88
270.77	97.88
271.002	72.88
271.234	90.88
271.466	83.88
271.698	85.88
271.93	83.88
272.162	77.88
272.394	96.88
272.626	77.88
272.858	93.88
273.09	93.88
273.322	82.88
273.553	82.88
273.785	84.88
274.017	81.88
274.249	77.88
274.481	77.88
274.713	85.88
274.945	87.88
275.176	90.88
275.408	94.88
275.64	89.88
275.872	77.88
276.104	74.88
276.335	79.88
276.567	92.88
276.799	102.88
277.031	85.88
277.262	85.88
277.494	105.88
277.726	96.88
277.957	85.88
278.189	88.88
278.421	87.88
278.652	81.88
278.884	96.88
279.115	104.88
279.347	94.88
279.579	94.88
279.81	91.88
280.042	79.88
280.273	81.88
280.505	95.88
280.736	99.88
280.968	87.88
281.199	94.88
281.431	80.88
281.662	86.88
281.894	95.88
282.125	96.88
282.356	116.88
282.588	148.88
282.819	102.88
283.051	89.88
283.282	92.88
283.513	91.88
283.745	90.88
283.976	83.88
284.207	79.88
284.439	96.88
284.67	89.88
284.901	78.88
285.132	88.88
285.364	99.88
285.595	88.88
285.826	67.88
286.057	80.88
286.288	96.88
286.52	99.88
286.751	93.88
286.982	93.88
287.213	82.88
287.444	97.88
287.675	88.88
287.906	84.88
288.138	86.88
288.369	100.88
288.6	92.88
288.831	88.88
289.062	84.88
289.293	85.88
289.524	92.88
289.755	84.88
289.986	91.88
290.217	79.88
290.448	94.88
290.679	90.88
290.91	96.88
291.141	92.88
291.371	105.88
291.602	77.88
291.833	91.88
292.064	84.88
292.295	93.88
292.526	78.88
292.757	80.88
292.987	91.88
293.218	84.88
293.449	80.88
293.68	84.88
293.91	87.88
294.141	96.88
294.372	101.88
294.603	100.88
294.833	101.88
295.064	89.88
295.295	89.88
295.525	93.88
295.756	105.88
295.987	125.88
296.217	130.88
296.448	128.88
296.679	90.88
296.909	91.88
297.14	91.88
297.37	96.88
297.601	89.88
297.831	89.88
298.062	84.88
298.292	99.88
298.523	92.88
298.753	85.88
298.984	101.88
299.214	87.88
299.445	102.88
299.675	90.88
299.905	100.88
300.136	94.88
300.366	88.88
300.597	105.88
300.827	104.88
301.057	96.88
301.288	93.88
301.518	96.88
301.748	92.88
301.979	100.88
302.209	100.88
302.439	97.88
302.669	93.88
302.9	91.88
303.13	85.88
303.36	85.88
303.59	97.88
303.82	108.88
304.051	82.88
304.281	79.88
304.511	82.88
304.741	98.88
304.971	84.88
305.201	89.88
305.431	95.88
305.661	93.88
305.891	92.88
306.121	103.88
306.352	100.88
306.582	78.88
306.812	87.88
307.042	85.88
307.272	90.88
307.502	96.88
307.731	104.88
307.961	97.88
308.191	101.88
308.421	86.88
308.651	98.88
308.881	99.88
309.111	99.88
309.341	96.88
309.571	100.88
309.8	101.88
310.03	95.88
310.26	101.88
310.49	94.88
310.72	91.88
310.949	88.88
311.179	103.88
311.409	87.88
311.639	101.88
311.868	88.88
312.098	97.88
312.328	109.88
312.557	96.88
312.787	95.88
313.017	104.88
313.246	90.88
313.476	80.88
313.706	90.88
313.935	96.88
314.165	90.88
314.394	106.88
314.624	89.88
314.853	93.88
315.083	84.88
315.312	96.88
315.542	84.88
315.771	90.88
316.001	93.88
316.23	87.88
316.46	93.88
316.689	94.88
316.919	95.88
317.148	100.88
317.377	90.88
317.607	90.88
317.836	97.88
318.065	89.88
318.295	92.88
318.524	102.88
318.753	94.88
318.983	97.88
319.212	110.88
319.441	125.88
319.67	102.88
319.9	84.88
320.129	99.88
320.358	105.88
320.587	116.88
320.816	91.88
321.046	87.88
321.275	109.88
321.504	103.88
321.733	102.88
321.962	101.88
322.191	105.88
322.42	89.88
322.649	113.88
322.878	117.88
323.108	121.88
323.337	120.88
323.566	125.88
323.795	149.88
324.024	218.88
324.253	413.88
324.482	848.88
324.71	1699.88
324.939	2275.88
325.168	840.88
325.397	243.88
325.626	148.88
325.855	134.88
326.084	142.88
326.313	121.88
326.542	176.88
326.77	221.88
326.999	450.88
327.228	991.88
327.457	1781.88
327.686	1393.88
327.914	370.88
328.143	170.88
328.372	149.88
328.6	125.88
328.829	110.88
329.058	121.88
329.287	123.88
329.515	111.88
329.744	118.88
329.972	113.88
330.201	98.88
330.43	99.88
330.658	115.88
330.887	127.88
331.115	135.88
331.344	93.88
331.572	103.88
331.801	97.88
332.03	106.88
332.258	104.88
332.486	92.88
332.715	88.88
332.943	93.88
333.172	101.88
333.4	94.88
333.629	112.88
333.857	136.88
334.085	113.88
334.314	88.88
334.542	92.88
334.771	110.88
334.999	94.88
335.227	94.88
335.455	94.88
335.684	99.88
335.912	114.88
336.14	100.88
336.369	85.88
336.597	107.88
336.825	100.88
337.053	96.88
337.281	98.88
337.51	85.88
337.738	106.88
337.966	93.88
338.194	102.88
338.422	106.88
338.65	86.88
338.878	92.88
339.106	85.88
339.334	84.88
339.562	101.88
339.79	85.88
340.018	99.88
340.246	93.88
340.474	101.88
340.702	107.88
340.93	90.88
341.158	85.88
341.386	92.88
341.614	102.88
341.842	85.88
342.07	93.88
342.298	100.88
342.526	99.88
342.754	97.88
342.981	88.88
343.209	91.88
343.437	104.88
343.665	82.88
343.893	93.88
344.12	107.88
344.348	103.88
344.576	91.88
344.804	93.88
345.031	96.88
345.259	92.88
345.487	89.88
345.714	91.88
345.942	86.88
346.17	102.88
346.397	99.88
346.625	95.88
346.853	97.88
347.08	101.88
347.308	102.88
347.535	101.88
347.763	107.88
347.99	87.88
348.218	109.88
348.445	99.88
348.673	76.88
348.9	90.88
349.128	108.88
349.355	89.88
349.583	97.88
349.81	95.88
350.037	89.88
350.265	89.88
350.492	91.88
350.72	94.88
350.947	116.88
351.174	105.88
351.402	106.88
351.629	118.88
351.856	80.88
352.083	112.88
352.311	102.88
352.538	97.88
352.765	107.88
352.992	122.88
353.22	108.88
353.447	97.88
353.674	107.88
353.901	101.88
354.128	102.88
354.355	98.88
354.583	95.88
354.81	111.88
355.037	106.88
355.264	111.88
355.491	96.88
355.718	96.88
355.945	95.88
356.172	103.88
356.399	111.88
356.626	88.88
356.853	93.88
357.08	90.88
357.307	79.88
357.534	92.88
357.761	102.88
357.988	96.88
358.215	90.88
358.441	97.88
358.668	86.88
358.895	91.88
359.122	82.88
359.349	103.88
359.576	77.88
359.802	92.88
360.029	116.88
360.256	105.88
360.483	98.88
360.709	85.88
360.936	95.88
361.163	90.88
361.39	102.88
361.616	109.88
361.843	86.88
362.07	92.88
362.296	106.88
362.523	90.88
362.749	97.88
362.976	88.88
363.203	99.88
363.429	100.88
363.656	102.88
363.882	89.88
364.109	93.88
364.335	95.88
364.562	108.88
364.788	88.88
365.015	102.88
365.241	96.88
365.468	117.88
365.694	97.88
365.92	97.88
366.147	92.88
366.373	88.88
366.599	98.88
366.826	99.88
367.052	92.88
367.278	86.88
367.505	90.88
367.731	87.88
367.957	88.88
368.184	88.88
368.41	98.88
368.636	98.88
368.862	120.88
369.089	107.88
369.315	108.88
369.541	96.88
369.767	97.88
369.993	81.88
370.219	102.88
370.445	94.88
370.672	90.88
370.898	94.88
371.124	104.88
371.35	84.88
371.576	95.88
371.802	87.88
372.028	76.88
372.254	90.88
372.48	81.88
372.706	86.88
372.932	103.88
373.158	85.88
373.384	76.88
373.61	96.88
373.835	89.88
374.061	91.88
374.287	88.88
374.513	82.88
374.739	89.88
374.965	82.88
375.191	97.88
375.416	82.88
375.642	100.88
375.868	103.88
376.094	99.88
376.319	94.88
376.545	86.88
376.771	89.88
376.997	94.88
377.222	87.88
377.448	93.88
377.674	86.88
377.899	87.88
378.125	84.88
378.35	89.88
378.576	95.88
378.802	100.88
379.027	88.88
379.253	103.88
379.478	81.88
379.704	89.88
379.929	101.88
380.155	95.88
380.38	107.88
380.606	98.88
380.831	106.88
381.057	111.88
381.282	98.88
381.507	93.88
381.733	99.88
381.958	98.88
382.184	91.88
382.409	102.88
382.634	107.88
382.86	95.88
383.085	98.88
383.31	102.88
383.535	103.88
383.761	99.88
383.986	101.88
384.211	105.88
384.436	90.88
384.662	113.88
384.887	93.88
385.112	105.88
385.337	97.88
385.562	104.88
385.787	113.88
386.013	100.88
386.238	113.88
386.463	108.88
386.688	105.88
386.913	92.88
387.138	96.88
387.363	105.88
387.588	98.88
387.813	115.88
388.038	112.88
388.263	106.88
388.488	110.88
388.713	95.88
388.938	106.88
389.163	107.88
389.387	107.88
389.612	99.88
389.837	86.88
390.062	77.88
390.287	91.88
390.512	94.88
390.736	100.88
390.961	101.88
391.186	97.88
391.411	108.88
391.636	106.88
391.86	99.88
392.085	89.88
392.31	85.88
392.534	89.88
392.759	90.88
392.984	88.88
393.208	82.88
393.433	90.88
393.658	78.88
393.882	84.88
394.107	88.88
394.331	81.88
394.556	84.88
394.78	77.88
395.005	94.88
395.229	92.88
395.454	111.88
395.678	96.88
395.903	88.88
396.127	78.88
396.352	98.88
396.576	90.88
396.801	77.88
397.025	72.88
397.249	81.88
397.474	88.88
397.698	83.88
397.922	93.88
398.147	83.88
398.371	80.88
398.595	107.88
398.82	88.88
399.044	96.88
399.268	92.88
399.492	82.88
399.717	99.88
399.941	102.88
400.165	89.88
400.389	89.88
400.613	79.88
400.837	83.88
401.062	89.88
401.286	101.88
401.51	93.88
401.734	84.88
401.958	92.88
402.182	112.88
402.406	170.88
402.63	117.88
402.854	97.88
403.078	86.88
403.302	93.88
403.526	81.88
403.75	84.88
403.974	99.88
404.198	83.88
404.422	99.88
404.645	105.88
404.869	88.88
405.093	99.88
405.317	96.88
405.541	90.88
405.765	112.88
405.988	107.88
406.212	162.88
406.436	220.88
406.66	124.88
406.883	116.88
407.107	87.88
407.331	86.88
407.555	100.88
407.778	108.88
408.002	82.88
408.226	84.88
408.449	92.88
408.673	72.88
408.896	107.88
409.12	95.88
409.344	105.88
409.567	89.88
409.791	86.88
410.014	103.88
410.238	88.88
410.461	80.88
410.685	75.88
410.908	103.88
411.132	97.88
411.355	105.88
411.578	95.88
411.802	102.88
412.025	88.88
412.249	85.88
412.472	83.88
412.695	101.88
412.919	89.88
413.142	86.88
413.365	81.88
413.589	95.88
413.812	95.88
414.035	99.88
414.258	93.88
414.482	82.88
414.705	88.88
414.928	88.88
415.151	93.88
415.374	107.88
415.597	82.88
415.821	90.88
416.044	111.88
416.267	89.88
416.49	84.88
416.713	98.88
416.936	85.88
417.159	92.88
417.382	86.88
417.605	93.88
417.828	105.88
418.051	90.88
418.274	76.88
418.497	76.88
418.72	75.88
418.943	97.88
419.166	91.88
419.389	110.88
419.611	82.88
419.834	98.88
420.057	99.88
420.28	100.88
420.503	90.88
420.726	100.88
420.948	102.88
421.171	93.88
421.394	91.88
421.617	102.88
421.839	90.88
422.062	98.88
422.285	93.88
422.507	85.88
422.73	85.88
422.953	89.88
423.175	98.88
423.398	96.88
423.621	82.88
423.843	87.88
424.066	92.88
424.288	94.88
424.511	84.88
424.733	85.88
424.956	108.88
425.178	102.88
425.401	92.88
425.623	95.88
425.846	97.88
426.068	93.88
426.291	92.88
426.513	86.88
426.735	96.88
426.958	88.88
427.18	112.88
427.402	128.88
427.625	158.88
427.847	121.88
428.069	101.88
428.292	100.88
428.514	100.88
428.736	86.88
428.958	87.88
429.181	92.88
429.403	84.88
429.625	106.88
429.847	96.88
430.069	105.88
430.292	82.88
430.514	88.88
430.736	91.88
430.958	105.88
431.18	99.88
431.402	89.88
431.624	83.88
431.846	91.88
432.068	89.88
432.29	77.88
432.512	87.88
432.734	84.88
432.956	93.88
433.178	118.88
433.4	106.88
433.622	92.88
433.844	81.88
434.066	87.88
434.287	94.88
434.509	96.88
434.731	102.88
434.953	82.88
435.175	86.88
435.397	98.88
435.618	90.88
435.84	108.88
436.062	106.88
436.284	102.88
436.505	94.88
436.727	96.88
436.949	102.88
437.17	84.88
437.392	83.88
437.614	109.88
437.835	97.88
438.057	99.88
438.278	101.88
438.5	101.88
438.721	114.88
438.943	92.88
439.165	95.88
439.386	92.88
439.608	91.88
439.829	92.88
440.05	126.88
440.272	137.88
440.493	93.88
440.715	77.88
440.936	90.88
441.158	99.88
441.379	75.88
441.6	101.88
441.822	91.88
442.043	89.88
442.264	96.88
442.486	96.88
442.707	93.88
442.928	101.88
443.149	122.88
443.371	120.88
443.592	94.88
443.813	102.88
444.034	106.88
444.255	96.88
444.476	98.88
444.698	98.88
444.919	87.88
445.14	129.88
445.361	107.88
445.582	115.88
445.803	131.88
446.024	145.88
446.245	137.88
446.466	108.88
446.687	95.88
446.908	82.88
447.129	100.88
447.35	93.88
447.571	90.88
447.792	97.88
448.013	108.88
448.234	97.88
448.455	90.88
448.675	125.88
448.896	108.88
449.117	95.88
449.338	99.88
449.559	115.88
449.779	129.88
450	111.88
450.221	97.88
450.442	104.88
450.662	81.88
450.883	106.88
451.104	111.88
451.324	85.88
451.545	94.88
451.766	94.88
451.986	101.88
452.207	76.88
452.428	80.88
452.648	110.88
452.869	110.88
453.089	113.88
453.31	105.88
453.53	77.88
453.751	93.88
453.971	101.88
454.192	94.88
454.412	91.88
454.633	97.88
454.853	97.88
455.073	92.88
455.294	96.88
455.514	90.88
455.734	89.88
455.955	96.88
456.175	84.88
456.395	89.88
456.616	94.88
456.836	85.88
457.056	82.88
457.276	90.88
457.497	88.88
457.717	75.88
457.937	95.88
458.157	102.88
458.377	100.88
458.598	112.88
458.818	144.88
459.038	143.88
459.258	96.88
459.478	94.88
459.698	87.88
459.918	101.88
460.138	89.88
460.358	77.88
460.578	96.88
460.798	97.88
461.018	72.88
461.238	91.88
461.458	107.88
461.678	81.88
461.898	98.88
462.118	93.88
462.338	99.88
462.558	88.88
462.777	97.88
462.997	69.88
463.217	84.88
463.437	83.88
463.657	90.88
463.876	88.88
464.096	100.88
464.316	88.88
464.536	86.88
464.755	96.88
464.975	102.88
465.195	160.88
465.414	152.88
465.634	77.88
465.854	96.88
466.073	89.88
466.293	89.88
466.512	84.88
466.732	83.88
466.951	87.88
467.171	111.88
467.391	97.88
467.61	110.88
467.829	86.88
468.049	87.88
468.268	93.88
468.488	101.88
468.707	102.88
468.927	103.88
469.146	99.88
469.365	90.88
469.585	88.88
469.804	105.88
470.023	77.88
470.243	101.88
470.462	101.88
470.681	109.88
470.901	89.88
471.12	94.88
471.339	85.88
471.558	79.88
471.777	88.88
471.997	78.88
472.216	94.88
472.435	84.88
472.654	90.88
472.873	90.88
473.092	89.88
473.311	93.88
473.53	80.88
473.749	85.88
473.968	100.88
474.187	113.88
474.406	95.88
474.625	94.88
474.844	88.88
475.063	99.88
475.282	99.88
475.501	97.88
475.72	109.88
475.939	99.88
476.158	94.88
476.377	95.88
476.596	79.88
476.814	90.88
477.033	95.88
477.252	98.88
477.471	92.88
477.69	87.88
477.908	86.88
478.127	86.88
478.346	77.88
478.564	92.88
478.783	95.88
479.002	92.88
479.22	93.88
479.439	114.88
479.658	97.88
479.876	97.88
480.095	96.88
480.313	77.88
480.532	86.88
480.751	88.88
480.969	91.88
481.188	112.88
481.406	98.88
481.624	92.88
481.843	106.88
482.061	93.88
482.28	76.88
482.498	84.88
482.717	88.88
482.935	92.88
483.153	98.88
483.372	86.88
483.59	97.88
483.808	87.88
484.027	85.88
484.245	86.88
484.463	89.88
484.681	95.88
484.9	93.88
485.118	104.88
485.336	107.88
485.554	114.88
485.772	107.88
485.99	108.88
486.209	112.88
486.427	114.88
486.645	106.88
486.863	111.88
487.081	98.88
487.299	103.88
487.517	92.88
487.735	82.88
487.953	89.88
488.171	100.88
488.389	101.88
488.607	105.88
488.825	95.88
489.043	99.88
489.261	102.88
489.479	94.88
489.696	78.88
489.914	89.88
490.132	90.88
490.35	84.88
490.568	106.88
490.786	106.88
491.003	86.88
491.221	97.88
491.439	96.88
491.657	92.88
491.874	100.88
492.092	106.88
492.31	93.88
492.527	102.88
492.745	86.88
492.963	99.88
493.18	84.88
493.398	93.88
493.615	88.88
493.833	100.88
494.05	93.88
494.268	99.88
494.485	84.88
494.703	91.88
494.92	85.88
495.138	98.88
495.355	89.88
495.573	87.88
495.79	92.88
496.008	113.88
496.225	88.88
496.442	86.88
496.66	101.88
496.877	88.88
497.094	98.88
497.312	96.88
497.529	84.88
497.746	111.88
497.963	104.88
498.181	85.88
498.398	99.88
498.615	105.88
498.832	105.88
499.049	88.88
499.267	88.88
499.484	102.88
499.701	102.88
499.918	90.88
500.135	84.88
500.352	93.88
500.569	93.88
500.786	100.88
501.003	81.88
501.22	99.88
501.437	98.88
501.654	86.88
501.871	102.88
502.088	102.88
502.305	85.88
502.522	97.88
502.739	81.88
502.956	98.88
503.172	97.88
503.389	95.88
503.606	101.88
503.823	97.88
504.04	97.88
504.256	96.88
504.473	98.88
504.69	106.88
504.907	88.88
505.123	101.88
505.34	97.88
505.557	91.88
505.773	91.88
505.99	98.88
506.207	95.88
506.423	100.88
506.64	105.88
506.856	95.88
507.073	100.88
507.289	90.88
507.506	99.88
507.722	105.88
507.939	115.88
508.155	102.88
508.372	100.88
508.588	92.88
508.805	101.88
509.021	95.88
509.238	93.88
509.454	94.88
509.67	94.88
509.887	116.88
510.103	130.88
510.319	221.88
510.536	770.88
510.752	2402.88
510.968	671.88
511.184	142.88
511.401	124.88
511.617	91.88
511.833	87.88
512.049	104.88
512.265	100.88
512.481	96.88
512.698	92.88
512.914	84.88
513.13	86.88
513.346	100.88
513.562	85.88
513.778	80.88
513.994	86.88
514.21	105.88
514.426	112.88
514.642	115.88
514.858	114.88
