Data from Uncirc_1995_H10_HRD10591_00003.txt Node
Date: Wed Jan 03 11:35:34 EST 2024
User: Yrep
Spectrometer: HR+D1059
Trigger mode: 1
Integration Time (sec): 1.000000E-1
Scans to average: 1
Electric dark correction enabled: true
Nonlinearity correction enabled: false
Boxcar width: 0
XAxis mode: Wavelengths
Number of Pixels in Spectrum: 2048
>>>>>Begin Spectral Data<<<<<
223.165	-30.12
223.4	-30.12
223.635	-30.12
223.869	-20.12
224.104	-20.12
224.338	-4.12
224.573	-10.12
224.808	-5.12
225.042	-7.12
225.277	-3.12
225.511	-7.12
225.746	7.88
225.98	9.88
226.215	15.88
226.449	15.88
226.683	7.88
226.918	24.88
227.152	24.88
227.387	34.88
227.621	40.88
227.856	45.88
228.09	50.88
228.324	50.88
228.559	66.88
228.793	58.88
229.027	46.88
229.262	67.88
229.496	79.88
229.73	97.88
229.964	76.88
230.199	76.88
230.433	78.88
230.667	72.88
230.901	96.88
231.136	74.88
231.37	89.88
231.604	84.88
231.838	82.88
232.072	77.88
232.306	95.88
232.541	75.88
232.775	67.88
233.009	88.88
233.243	79.88
233.477	61.88
233.711	68.88
233.945	89.88
234.179	82.88
234.413	86.88
234.647	87.88
234.881	65.88
235.115	76.88
235.349	80.88
235.583	80.88
235.817	84.88
236.051	93.88
236.285	87.88
236.519	76.88
236.753	76.88
236.987	69.88
237.221	89.88
237.455	91.88
237.689	79.88
237.922	77.88
238.156	72.88
238.39	77.88
238.624	77.88
238.858	88.88
239.091	65.88
239.325	87.88
239.559	60.88
239.793	78.88
240.027	75.88
240.26	85.88
240.494	86.88
240.728	90.88
240.961	70.88
241.195	90.88
241.429	80.88
241.662	89.88
241.896	82.88
242.13	71.88
242.363	77.88
242.597	65.88
242.83	77.88
243.064	81.88
243.298	65.88
243.531	66.88
243.765	72.88
243.998	68.88
244.232	82.88
244.465	87.88
244.699	77.88
244.932	90.88
245.166	81.88
245.399	90.88
245.633	71.88
245.866	87.88
246.099	76.88
246.333	75.88
246.566	87.88
246.8	70.88
247.033	85.88
247.266	72.88
247.5	83.88
247.733	84.88
247.966	87.88
248.2	84.88
248.433	79.88
248.666	78.88
248.899	87.88
249.133	81.88
249.366	84.88
249.599	96.88
249.832	102.88
250.066	88.88
250.299	66.88
250.532	73.88
250.765	78.88
250.998	68.88
251.231	89.88
251.465	88.88
251.698	60.88
251.931	74.88
252.164	91.88
252.397	88.88
252.63	65.88
252.863	75.88
253.096	91.88
253.329	84.88
253.562	79.88
253.795	82.88
254.028	80.88
254.261	73.88
254.494	83.88
254.727	86.88
254.96	79.88
255.193	74.88
255.426	81.88
255.659	79.88
255.892	87.88
256.124	73.88
256.357	77.88
256.59	77.88
256.823	66.88
257.056	90.88
257.289	66.88
257.521	68.88
257.754	84.88
257.987	72.88
258.22	91.88
258.452	82.88
258.685	78.88
258.918	84.88
259.151	77.88
259.383	83.88
259.616	82.88
259.849	87.88
260.081	85.88
260.314	71.88
260.547	92.88
260.779	82.88
261.012	87.88
261.244	93.88
261.477	85.88
261.71	99.88
261.942	83.88
262.175	106.88
262.407	83.88
262.64	75.88
262.872	82.88
263.105	77.88
263.337	79.88
263.57	88.88
263.802	85.88
264.035	86.88
264.267	88.88
264.499	75.88
264.732	94.88
264.964	84.88
265.197	76.88
265.429	90.88
265.661	82.88
265.894	72.88
266.126	73.88
266.358	86.88
266.591	84.88
266.823	71.88
267.055	85.88
267.287	87.88
267.52	83.88
267.752	88.88
267.984	81.88
268.216	80.88
268.448	87.88
268.681	93.88
268.913	90.88
269.145	76.88
269.377	82.88
269.609	83.88
269.841	79.88
270.073	96.88
270.306	93.88
270.538	93.88
270.77	96.88
271.002	83.88
271.234	83.88
271.466	84.88
271.698	82.88
271.93	90.88
272.162	85.88
272.394	90.88
272.626	89.88
272.858	64.88
273.09	81.88
273.322	85.88
273.553	79.88
273.785	83.88
274.017	78.88
274.249	94.88
274.481	82.88
274.713	87.88
274.945	80.88
275.176	91.88
275.408	85.88
275.64	87.88
275.872	87.88
276.104	76.88
276.335	87.88
276.567	105.88
276.799	91.88
277.031	106.88
277.262	86.88
277.494	78.88
277.726	84.88
277.957	92.88
278.189	81.88
278.421	90.88
278.652	92.88
278.884	84.88
279.115	87.88
279.347	73.88
279.579	83.88
279.81	87.88
280.042	93.88
280.273	79.88
280.505	84.88
280.736	79.88
280.968	83.88
281.199	76.88
281.431	83.88
281.662	87.88
281.894	89.88
282.125	76.88
282.356	113.88
282.588	112.88
282.819	111.88
283.051	82.88
283.282	91.88
283.513	95.88
283.745	86.88
283.976	98.88
284.207	101.88
284.439	89.88
284.67	82.88
284.901	75.88
285.132	74.88
285.364	98.88
285.595	87.88
285.826	85.88
286.057	81.88
286.288	94.88
286.52	93.88
286.751	93.88
286.982	89.88
287.213	84.88
287.444	87.88
287.675	97.88
287.906	91.88
288.138	84.88
288.369	91.88
288.6	81.88
288.831	88.88
289.062	89.88
289.293	98.88
289.524	85.88
289.755	83.88
289.986	80.88
290.217	83.88
290.448	85.88
290.679	93.88
290.91	98.88
291.141	83.88
291.371	80.88
291.602	88.88
291.833	89.88
292.064	92.88
292.295	88.88
292.526	88.88
292.757	99.88
292.987	84.88
293.218	84.88
293.449	102.88
293.68	90.88
293.91	89.88
294.141	81.88
294.372	84.88
294.603	91.88
294.833	86.88
295.064	85.88
295.295	92.88
295.525	88.88
295.756	104.88
295.987	104.88
296.217	123.88
296.448	111.88
296.679	103.88
296.909	80.88
297.14	90.88
297.37	94.88
297.601	82.88
297.831	97.88
298.062	93.88
298.292	91.88
298.523	99.88
298.753	84.88
298.984	89.88
299.214	98.88
299.445	96.88
299.675	92.88
299.905	94.88
300.136	95.88
300.366	84.88
300.597	94.88
300.827	103.88
301.057	74.88
301.288	109.88
301.518	84.88
301.748	81.88
301.979	104.88
302.209	89.88
302.439	96.88
302.669	97.88
302.9	87.88
303.13	81.88
303.36	90.88
303.59	93.88
303.82	103.88
304.051	99.88
304.281	101.88
304.511	79.88
304.741	96.88
304.971	98.88
305.201	95.88
305.431	98.88
305.661	101.88
305.891	101.88
306.121	92.88
306.352	93.88
306.582	90.88
306.812	91.88
307.042	95.88
307.272	103.88
307.502	91.88
307.731	83.88
307.961	79.88
308.191	78.88
308.421	91.88
308.651	92.88
308.881	104.88
309.111	89.88
309.341	98.88
309.571	89.88
309.8	81.88
310.03	91.88
310.26	108.88
310.49	89.88
310.72	95.88
310.949	91.88
311.179	81.88
311.409	100.88
311.639	97.88
311.868	100.88
312.098	96.88
312.328	100.88
312.557	100.88
312.787	93.88
313.017	94.88
313.246	97.88
313.476	82.88
313.706	84.88
313.935	90.88
314.165	102.88
314.394	96.88
314.624	89.88
314.853	103.88
315.083	97.88
315.312	93.88
315.542	93.88
315.771	83.88
316.001	84.88
316.23	87.88
316.46	88.88
316.689	93.88
316.919	97.88
317.148	93.88
317.377	92.88
317.607	96.88
317.836	99.88
318.065	85.88
318.295	93.88
318.524	88.88
318.753	84.88
318.983	96.88
319.212	107.88
319.441	107.88
319.67	100.88
319.9	89.88
320.129	99.88
320.358	96.88
320.587	97.88
320.816	105.88
321.046	97.88
321.275	98.88
321.504	107.88
321.733	106.88
321.962	105.88
322.191	108.88
322.42	108.88
322.649	120.88
322.878	116.88
323.108	112.88
323.337	112.88
323.566	123.88
323.795	141.88
324.024	175.88
324.253	349.88
324.482	659.88
324.71	1431.88
324.939	1826.88
325.168	679.88
325.397	210.88
325.626	121.88
325.855	120.88
326.084	116.88
326.313	113.88
326.542	142.88
326.77	223.88
326.999	405.88
327.228	809.88
327.457	1459.88
327.686	1163.88
327.914	332.88
328.143	196.88
328.372	131.88
328.6	120.88
328.829	100.88
329.058	130.88
329.287	112.88
329.515	102.88
329.744	107.88
329.972	102.88
330.201	107.88
330.43	106.88
330.658	105.88
330.887	116.88
331.115	104.88
331.344	80.88
331.572	92.88
331.801	105.88
332.03	98.88
332.258	103.88
332.486	94.88
332.715	90.88
332.943	94.88
333.172	99.88
333.4	98.88
333.629	104.88
333.857	110.88
334.085	98.88
334.314	103.88
334.542	92.88
334.771	88.88
334.999	94.88
335.227	98.88
335.455	90.88
335.684	101.88
335.912	104.88
336.14	100.88
336.369	112.88
336.597	97.88
336.825	82.88
337.053	95.88
337.281	97.88
337.51	89.88
337.738	89.88
337.966	101.88
338.194	103.88
338.422	111.88
338.65	97.88
338.878	91.88
339.106	100.88
339.334	81.88
339.562	96.88
339.79	87.88
340.018	84.88
340.246	84.88
340.474	88.88
340.702	97.88
340.93	81.88
341.158	97.88
341.386	90.88
341.614	88.88
341.842	81.88
342.07	104.88
342.298	98.88
342.526	88.88
342.754	95.88
342.981	85.88
343.209	93.88
343.437	101.88
343.665	78.88
343.893	101.88
344.12	100.88
344.348	89.88
344.576	89.88
344.804	86.88
345.031	92.88
345.259	98.88
345.487	94.88
345.714	89.88
345.942	106.88
346.17	95.88
346.397	92.88
346.625	92.88
346.853	87.88
347.08	101.88
347.308	83.88
347.535	100.88
347.763	98.88
347.99	116.88
348.218	107.88
348.445	113.88
348.673	91.88
348.9	101.88
349.128	104.88
349.355	89.88
349.583	91.88
349.81	90.88
350.037	88.88
350.265	91.88
350.492	95.88
350.72	93.88
350.947	120.88
351.174	97.88
351.402	117.88
351.629	100.88
351.856	90.88
352.083	100.88
352.311	90.88
352.538	115.88
352.765	116.88
352.992	101.88
353.22	116.88
353.447	111.88
353.674	90.88
353.901	99.88
354.128	88.88
354.355	100.88
354.583	108.88
354.81	115.88
355.037	94.88
355.264	93.88
355.491	95.88
355.718	90.88
355.945	97.88
356.172	112.88
356.399	115.88
356.626	91.88
356.853	104.88
357.08	95.88
357.307	95.88
357.534	83.88
357.761	102.88
357.988	106.88
358.215	99.88
358.441	100.88
358.668	96.88
358.895	87.88
359.122	92.88
359.349	98.88
359.576	101.88
359.802	93.88
360.029	91.88
360.256	112.88
360.483	94.88
360.709	87.88
360.936	106.88
361.163	94.88
361.39	98.88
361.616	98.88
361.843	93.88
362.07	96.88
362.296	92.88
362.523	90.88
362.749	83.88
362.976	89.88
363.203	101.88
363.429	91.88
363.656	81.88
363.882	95.88
364.109	103.88
364.335	90.88
364.562	71.88
364.788	100.88
365.015	87.88
365.241	85.88
365.468	93.88
365.694	96.88
365.92	100.88
366.147	89.88
366.373	90.88
366.599	88.88
366.826	81.88
367.052	93.88
367.278	74.88
367.505	76.88
367.731	91.88
367.957	101.88
368.184	82.88
368.41	98.88
368.636	88.88
368.862	110.88
369.089	88.88
369.315	99.88
369.541	96.88
369.767	91.88
369.993	87.88
370.219	99.88
370.445	88.88
370.672	83.88
370.898	96.88
371.124	91.88
371.35	95.88
371.576	84.88
371.802	84.88
372.028	89.88
372.254	88.88
372.48	100.88
372.706	99.88
372.932	99.88
373.158	85.88
373.384	88.88
373.61	90.88
373.835	116.88
374.061	75.88
374.287	88.88
374.513	77.88
374.739	74.88
374.965	93.88
375.191	90.88
375.416	89.88
375.642	100.88
375.868	85.88
376.094	75.88
376.319	91.88
376.545	94.88
376.771	75.88
376.997	95.88
377.222	96.88
377.448	91.88
377.674	88.88
377.899	88.88
378.125	88.88
378.35	95.88
378.576	94.88
378.802	87.88
379.027	94.88
379.253	87.88
379.478	102.88
379.704	99.88
379.929	95.88
380.155	99.88
380.38	89.88
380.606	110.88
380.831	95.88
381.057	99.88
381.282	112.88
381.507	107.88
381.733	88.88
381.958	111.88
382.184	115.88
382.409	112.88
382.634	114.88
382.86	109.88
383.085	124.88
383.31	122.88
383.535	114.88
383.761	113.88
383.986	108.88
384.211	100.88
384.436	103.88
384.662	97.88
384.887	122.88
385.112	112.88
385.337	124.88
385.562	109.88
385.787	127.88
386.013	122.88
386.238	122.88
386.463	120.88
386.688	116.88
386.913	108.88
387.138	113.88
387.363	114.88
387.588	122.88
387.813	101.88
388.038	107.88
388.263	109.88
388.488	123.88
388.713	90.88
388.938	108.88
389.163	108.88
389.387	107.88
389.612	95.88
389.837	98.88
390.062	75.88
390.287	101.88
390.512	86.88
390.736	103.88
390.961	92.88
391.186	101.88
391.411	104.88
391.636	90.88
391.86	98.88
392.085	87.88
392.31	83.88
392.534	82.88
392.759	88.88
392.984	101.88
393.208	103.88
393.433	101.88
393.658	89.88
393.882	90.88
394.107	90.88
394.331	92.88
394.556	90.88
394.78	90.88
395.005	90.88
395.229	100.88
395.454	89.88
395.678	87.88
395.903	88.88
396.127	88.88
396.352	93.88
396.576	80.88
396.801	92.88
397.025	87.88
397.249	106.88
397.474	99.88
397.698	78.88
397.922	94.88
398.147	92.88
398.371	89.88
398.595	89.88
398.82	95.88
399.044	88.88
399.268	93.88
399.492	90.88
399.717	93.88
399.941	92.88
400.165	112.88
400.389	111.88
400.613	94.88
400.837	80.88
401.062	98.88
401.286	84.88
401.51	80.88
401.734	96.88
401.958	109.88
402.182	113.88
402.406	138.88
402.63	105.88
402.854	95.88
403.078	84.88
403.302	91.88
403.526	92.88
403.75	81.88
403.974	90.88
404.198	89.88
404.422	96.88
404.645	81.88
404.869	98.88
405.093	98.88
405.317	85.88
405.541	82.88
405.765	107.88
405.988	118.88
406.212	146.88
406.436	176.88
406.66	114.88
406.883	103.88
407.107	87.88
407.331	91.88
407.555	103.88
407.778	81.88
408.002	100.88
408.226	82.88
408.449	88.88
408.673	87.88
408.896	89.88
409.12	92.88
409.344	99.88
409.567	96.88
409.791	105.88
410.014	97.88
410.238	99.88
410.461	98.88
410.685	105.88
410.908	94.88
411.132	107.88
411.355	96.88
411.578	103.88
411.802	92.88
412.025	73.88
412.249	91.88
412.472	96.88
412.695	79.88
412.919	84.88
413.142	85.88
413.365	79.88
413.589	88.88
413.812	78.88
414.035	98.88
414.258	99.88
414.482	91.88
414.705	84.88
414.928	92.88
415.151	95.88
415.374	99.88
415.597	99.88
415.821	91.88
416.044	84.88
416.267	96.88
416.49	87.88
416.713	95.88
416.936	102.88
417.159	96.88
417.382	95.88
417.605	103.88
417.828	107.88
418.051	89.88
418.274	95.88
418.497	91.88
418.72	93.88
418.943	100.88
419.166	94.88
419.389	84.88
419.611	86.88
419.834	83.88
420.057	100.88
420.28	93.88
420.503	96.88
420.726	87.88
420.948	83.88
421.171	91.88
421.394	85.88
421.617	99.88
421.839	92.88
422.062	88.88
422.285	93.88
422.507	104.88
422.73	96.88
422.953	95.88
423.175	92.88
423.398	82.88
423.621	89.88
423.843	91.88
424.066	74.88
424.288	93.88
424.511	94.88
424.733	97.88
424.956	92.88
425.178	103.88
425.401	102.88
425.623	100.88
425.846	101.88
426.068	107.88
426.291	96.88
426.513	93.88
426.735	98.88
426.958	82.88
427.18	105.88
427.402	131.88
427.625	137.88
427.847	108.88
428.069	98.88
428.292	103.88
428.514	101.88
428.736	96.88
428.958	78.88
429.181	87.88
429.403	85.88
429.625	91.88
429.847	103.88
430.069	89.88
430.292	83.88
430.514	87.88
430.736	84.88
430.958	91.88
431.18	91.88
431.402	84.88
431.624	98.88
431.846	75.88
432.068	81.88
432.29	79.88
432.512	92.88
432.734	81.88
432.956	73.88
433.178	81.88
433.4	100.88
433.622	91.88
433.844	88.88
434.066	88.88
434.287	84.88
434.509	79.88
434.731	90.88
434.953	73.88
435.175	98.88
435.397	92.88
435.618	93.88
435.84	99.88
436.062	111.88
436.284	108.88
436.505	91.88
436.727	98.88
436.949	98.88
437.17	91.88
437.392	84.88
437.614	100.88
437.835	101.88
438.057	109.88
438.278	99.88
438.5	108.88
438.721	111.88
438.943	102.88
439.165	78.88
439.386	88.88
439.608	86.88
439.829	83.88
440.05	109.88
440.272	126.88
440.493	89.88
440.715	73.88
440.936	88.88
441.158	86.88
441.379	88.88
441.6	99.88
441.822	96.88
442.043	89.88
442.264	96.88
442.486	94.88
442.707	88.88
442.928	101.88
443.149	112.88
443.371	112.88
443.592	109.88
443.813	101.88
444.034	111.88
444.255	87.88
444.476	80.88
444.698	88.88
444.919	89.88
445.14	136.88
445.361	134.88
445.582	109.88
445.803	110.88
446.024	119.88
446.245	109.88
446.466	110.88
446.687	93.88
446.908	103.88
447.129	109.88
447.35	111.88
447.571	87.88
447.792	95.88
448.013	94.88
448.234	97.88
448.455	85.88
448.675	112.88
448.896	108.88
449.117	105.88
449.338	106.88
449.559	119.88
449.779	129.88
450	87.88
450.221	102.88
450.442	102.88
450.662	86.88
450.883	99.88
451.104	99.88
451.324	93.88
451.545	81.88
451.766	85.88
451.986	81.88
452.207	87.88
452.428	71.88
452.648	92.88
452.869	105.88
453.089	120.88
453.31	102.88
453.53	100.88
453.751	97.88
453.971	90.88
454.192	112.88
454.412	80.88
454.633	79.88
454.853	88.88
455.073	77.88
455.294	90.88
455.514	100.88
455.734	89.88
455.955	87.88
456.175	78.88
456.395	73.88
456.616	78.88
456.836	85.88
457.056	100.88
457.276	75.88
457.497	78.88
457.717	73.88
457.937	92.88
458.157	82.88
458.377	85.88
458.598	91.88
458.818	128.88
459.038	136.88
459.258	102.88
459.478	82.88
459.698	96.88
459.918	98.88
460.138	96.88
460.358	83.88
460.578	99.88
460.798	87.88
461.018	96.88
461.238	86.88
461.458	88.88
461.678	83.88
461.898	80.88
462.118	89.88
462.338	79.88
462.558	101.88
462.777	97.88
462.997	69.88
463.217	89.88
463.437	93.88
463.657	89.88
463.876	90.88
464.096	95.88
464.316	99.88
464.536	97.88
464.755	95.88
464.975	108.88
465.195	124.88
465.414	117.88
465.634	97.88
465.854	78.88
466.073	82.88
466.293	85.88
466.512	84.88
466.732	91.88
466.951	92.88
467.171	86.88
467.391	87.88
467.61	87.88
467.829	83.88
468.049	74.88
468.268	82.88
468.488	98.88
468.707	77.88
468.927	73.88
469.146	88.88
469.365	95.88
469.585	91.88
469.804	102.88
470.023	97.88
470.243	90.88
470.462	104.88
470.681	96.88
470.901	88.88
471.12	90.88
471.339	94.88
471.558	84.88
471.777	88.88
471.997	97.88
472.216	93.88
472.435	79.88
472.654	64.88
472.873	88.88
473.092	92.88
473.311	81.88
473.53	109.88
473.749	89.88
473.968	97.88
474.187	97.88
474.406	91.88
474.625	88.88
474.844	92.88
475.063	80.88
475.282	76.88
475.501	76.88
475.72	100.88
475.939	97.88
476.158	85.88
476.377	92.88
476.596	84.88
476.814	83.88
477.033	104.88
477.252	80.88
477.471	85.88
477.69	85.88
477.908	92.88
478.127	98.88
478.346	79.88
478.564	96.88
478.783	88.88
479.002	88.88
479.22	84.88
479.439	94.88
479.658	94.88
479.876	88.88
480.095	98.88
480.313	93.88
480.532	91.88
480.751	92.88
480.969	89.88
481.188	98.88
481.406	82.88
481.624	88.88
481.843	86.88
482.061	92.88
482.28	80.88
482.498	112.88
482.717	93.88
482.935	82.88
483.153	85.88
483.372	88.88
483.59	81.88
483.808	93.88
484.027	95.88
484.245	91.88
484.463	92.88
484.681	123.88
484.9	101.88
485.118	105.88
485.336	92.88
485.554	100.88
485.772	106.88
485.99	93.88
486.209	118.88
486.427	103.88
486.645	100.88
486.863	129.88
487.081	113.88
487.299	97.88
487.517	88.88
487.735	93.88
487.953	82.88
488.171	85.88
488.389	88.88
488.607	96.88
488.825	87.88
489.043	98.88
489.261	97.88
489.479	88.88
489.696	95.88
489.914	83.88
490.132	94.88
490.35	102.88
490.568	80.88
490.786	86.88
491.003	82.88
491.221	95.88
491.439	92.88
491.657	104.88
491.874	96.88
492.092	100.88
492.31	95.88
492.527	93.88
492.745	100.88
492.963	89.88
493.18	76.88
493.398	86.88
493.615	105.88
493.833	100.88
494.05	95.88
494.268	87.88
494.485	91.88
494.703	85.88
494.92	91.88
495.138	93.88
495.355	102.88
495.573	100.88
495.79	99.88
496.008	90.88
496.225	111.88
496.442	87.88
496.66	99.88
496.877	76.88
497.094	87.88
497.312	101.88
497.529	96.88
497.746	91.88
497.963	99.88
498.181	92.88
498.398	109.88
498.615	116.88
498.832	99.88
499.049	92.88
499.267	95.88
499.484	94.88
499.701	92.88
499.918	86.88
500.135	76.88
500.352	87.88
500.569	88.88
500.786	87.88
501.003	93.88
501.22	81.88
501.437	99.88
501.654	90.88
501.871	103.88
502.088	91.88
502.305	99.88
502.522	92.88
502.739	100.88
502.956	96.88
503.172	97.88
503.389	94.88
503.606	102.88
503.823	99.88
504.04	107.88
504.256	99.88
504.473	88.88
504.69	101.88
504.907	100.88
505.123	77.88
505.34	96.88
505.557	98.88
505.773	101.88
505.99	90.88
506.207	98.88
506.423	91.88
506.64	88.88
506.856	102.88
507.073	84.88
507.289	99.88
507.506	91.88
507.722	103.88
507.939	91.88
508.155	99.88
508.372	87.88
508.588	99.88
508.805	109.88
509.021	95.88
509.238	104.88
509.454	94.88
509.67	88.88
509.887	108.88
510.103	126.88
510.319	178.88
510.536	608.88
510.752	1761.88
510.968	503.88
511.184	136.88
511.401	100.88
511.617	106.88
511.833	89.88
512.049	95.88
512.265	91.88
512.481	101.88
512.698	93.88
512.914	84.88
513.13	79.88
513.346	94.88
513.562	80.88
513.778	92.88
513.994	104.88
514.21	106.88
514.426	99.88
514.642	119.88
514.858	119.88
515.074	154.88
515.29	331.88
515.506	997.88
