Data from Uncirc_1995_H10_HRD10591_00030.txt Node
Date: Wed Jan 03 11:35:39 EST 2024
User: Yrep
Spectrometer: HR+D1059
Trigger mode: 1
Integration Time (sec): 1.000000E-1
Scans to average: 1
Electric dark correction enabled: true
Nonlinearity correction enabled: false
Boxcar width: 0
XAxis mode: Wavelengths
Number of Pixels in Spectrum: 2048
>>>>>Begin Spectral Data<<<<<
223.165	-12.44
223.4	-12.44
223.635	-12.44
223.869	-18.44
224.104	0.56
224.338	-20.44
224.573	-28.44
224.808	-3.44
225.042	-13.44
225.277	-9.44
225.511	8.56
225.746	-0.44
225.98	7.56
226.215	4.56
226.449	15.56
226.683	19.56
226.918	20.56
227.152	29.56
227.387	34.56
227.621	47.56
227.856	47.56
228.09	42.56
228.324	49.56
228.559	42.56
228.793	58.56
229.027	71.56
229.262	57.56
229.496	71.56
229.73	88.56
229.964	83.56
230.199	78.56
230.433	68.56
230.667	73.56
230.901	61.56
231.136	89.56
231.37	70.56
231.604	83.56
231.838	83.56
232.072	75.56
232.306	87.56
232.541	76.56
232.775	96.56
233.009	75.56
233.243	76.56
233.477	94.56
233.711	83.56
233.945	91.56
234.179	76.56
234.413	77.56
234.647	69.56
234.881	92.56
235.115	75.56
235.349	76.56
235.583	78.56
235.817	66.56
236.051	80.56
236.285	72.56
236.519	81.56
236.753	85.56
236.987	87.56
237.221	78.56
237.455	81.56
237.689	74.56
237.922	81.56
238.156	80.56
238.39	75.56
238.624	55.56
238.858	74.56
239.091	73.56
239.325	88.56
239.559	70.56
239.793	74.56
240.027	85.56
240.26	73.56
240.494	74.56
240.728	83.56
240.961	71.56
241.195	67.56
241.429	70.56
241.662	82.56
241.896	90.56
242.13	78.56
242.363	64.56
242.597	81.56
242.83	91.56
243.064	81.56
243.298	90.56
243.531	78.56
243.765	76.56
243.998	77.56
244.232	70.56
244.465	77.56
244.699	84.56
244.932	78.56
245.166	79.56
245.399	66.56
245.633	70.56
245.866	78.56
246.099	86.56
246.333	90.56
246.566	71.56
246.8	68.56
247.033	75.56
247.266	91.56
247.5	68.56
247.733	84.56
247.966	91.56
248.2	83.56
248.433	82.56
248.666	65.56
248.899	82.56
249.133	77.56
249.366	95.56
249.599	99.56
249.832	97.56
250.066	83.56
250.299	80.56
250.532	84.56
250.765	80.56
250.998	56.56
251.231	82.56
251.465	84.56
251.698	87.56
251.931	81.56
252.164	83.56
252.397	82.56
252.63	90.56
252.863	78.56
253.096	71.56
253.329	71.56
253.562	84.56
253.795	88.56
254.028	93.56
254.261	83.56
254.494	84.56
254.727	82.56
254.96	85.56
255.193	86.56
255.426	93.56
255.659	83.56
255.892	88.56
256.124	84.56
256.357	93.56
256.59	95.56
256.823	79.56
257.056	69.56
257.289	83.56
257.521	83.56
257.754	75.56
257.987	76.56
258.22	91.56
258.452	84.56
258.685	82.56
258.918	70.56
259.151	77.56
259.383	75.56
259.616	89.56
259.849	85.56
260.081	70.56
260.314	81.56
260.547	78.56
260.779	82.56
261.012	85.56
261.244	91.56
261.477	78.56
261.71	90.56
261.942	108.56
262.175	134.56
262.407	96.56
262.64	79.56
262.872	76.56
263.105	82.56
263.337	82.56
263.57	90.56
263.802	84.56
264.035	88.56
264.267	88.56
264.499	83.56
264.732	74.56
264.964	90.56
265.197	92.56
265.429	93.56
265.661	96.56
265.894	76.56
266.126	89.56
266.358	93.56
266.591	95.56
266.823	92.56
267.055	75.56
267.287	79.56
267.52	90.56
267.752	105.56
267.984	81.56
268.216	83.56
268.448	80.56
268.681	82.56
268.913	90.56
269.145	98.56
269.377	100.56
269.609	86.56
269.841	70.56
270.073	102.56
270.306	78.56
270.538	100.56
270.77	75.56
271.002	81.56
271.234	82.56
271.466	85.56
271.698	79.56
271.93	76.56
272.162	86.56
272.394	86.56
272.626	93.56
272.858	83.56
273.09	81.56
273.322	75.56
273.553	87.56
273.785	75.56
274.017	68.56
274.249	86.56
274.481	91.56
274.713	95.56
274.945	70.56
275.176	84.56
275.408	80.56
275.64	76.56
275.872	91.56
276.104	95.56
276.335	79.56
276.567	118.56
276.799	100.56
277.031	112.56
277.262	88.56
277.494	81.56
277.726	95.56
277.957	76.56
278.189	83.56
278.421	82.56
278.652	87.56
278.884	88.56
279.115	94.56
279.347	78.56
279.579	73.56
279.81	92.56
280.042	90.56
280.273	88.56
280.505	73.56
280.736	88.56
280.968	88.56
281.199	91.56
281.431	84.56
281.662	101.56
281.894	102.56
282.125	104.56
282.356	115.56
282.588	136.56
282.819	125.56
283.051	94.56
283.282	90.56
283.513	86.56
283.745	82.56
283.976	86.56
284.207	94.56
284.439	90.56
284.67	81.56
284.901	98.56
285.132	88.56
285.364	84.56
285.595	79.56
285.826	87.56
286.057	94.56
286.288	69.56
286.52	92.56
286.751	88.56
286.982	87.56
287.213	88.56
287.444	90.56
287.675	79.56
287.906	76.56
288.138	96.56
288.369	92.56
288.6	95.56
288.831	94.56
289.062	96.56
289.293	88.56
289.524	60.56
289.755	86.56
289.986	64.56
290.217	96.56
290.448	80.56
290.679	86.56
290.91	88.56
291.141	79.56
291.371	93.56
291.602	87.56
291.833	89.56
292.064	99.56
292.295	93.56
292.526	97.56
292.757	94.56
292.987	95.56
293.218	89.56
293.449	77.56
293.68	83.56
293.91	80.56
294.141	92.56
294.372	82.56
294.603	87.56
294.833	69.56
295.064	71.56
295.295	84.56
295.525	91.56
295.756	98.56
295.987	121.56
296.217	129.56
296.448	124.56
296.679	110.56
296.909	92.56
297.14	96.56
297.37	89.56
297.601	91.56
297.831	84.56
298.062	93.56
298.292	98.56
298.523	98.56
298.753	78.56
298.984	101.56
299.214	78.56
299.445	82.56
299.675	96.56
299.905	96.56
300.136	89.56
300.366	96.56
300.597	97.56
300.827	91.56
301.057	100.56
301.288	106.56
301.518	91.56
301.748	78.56
301.979	102.56
302.209	80.56
302.439	82.56
302.669	95.56
302.9	83.56
303.13	81.56
303.36	94.56
303.59	99.56
303.82	98.56
304.051	94.56
304.281	82.56
304.511	95.56
304.741	87.56
304.971	81.56
305.201	99.56
305.431	102.56
305.661	84.56
305.891	105.56
306.121	101.56
306.352	106.56
306.582	98.56
306.812	98.56
307.042	91.56
307.272	88.56
307.502	95.56
307.731	79.56
307.961	90.56
308.191	99.56
308.421	97.56
308.651	90.56
308.881	97.56
309.111	99.56
309.341	95.56
309.571	100.56
309.8	86.56
310.03	88.56
310.26	88.56
310.49	119.56
310.72	88.56
310.949	111.56
311.179	93.56
311.409	97.56
311.639	90.56
311.868	107.56
312.098	105.56
312.328	89.56
312.557	108.56
312.787	110.56
313.017	106.56
313.246	94.56
313.476	86.56
313.706	97.56
313.935	91.56
314.165	103.56
314.394	102.56
314.624	108.56
314.853	98.56
315.083	86.56
315.312	90.56
315.542	83.56
315.771	98.56
316.001	88.56
316.23	99.56
316.46	72.56
316.689	85.56
316.919	79.56
317.148	109.56
317.377	99.56
317.607	98.56
317.836	108.56
318.065	90.56
318.295	102.56
318.524	93.56
318.753	80.56
318.983	107.56
319.212	123.56
319.441	115.56
319.67	104.56
319.9	98.56
320.129	98.56
320.358	103.56
320.587	104.56
320.816	111.56
321.046	116.56
321.275	106.56
321.504	87.56
321.733	93.56
321.962	87.56
322.191	106.56
322.42	115.56
322.649	92.56
322.878	117.56
323.108	104.56
323.337	125.56
323.566	119.56
323.795	158.56
324.024	221.56
324.253	435.56
324.482	922.56
324.71	1990.56
324.939	2628.56
325.168	940.56
325.397	274.56
325.626	143.56
325.855	125.56
326.084	139.56
326.313	139.56
326.542	160.56
326.77	228.56
326.999	496.56
327.228	1048.56
327.457	2001.56
327.686	1564.56
327.914	420.56
328.143	218.56
328.372	156.56
328.6	126.56
328.829	111.56
329.058	119.56
329.287	130.56
329.515	120.56
329.744	110.56
329.972	94.56
330.201	93.56
330.43	99.56
330.658	117.56
330.887	138.56
331.115	118.56
331.344	95.56
331.572	91.56
331.801	93.56
332.03	111.56
332.258	103.56
332.486	102.56
332.715	84.56
332.943	79.56
333.172	87.56
333.4	83.56
333.629	107.56
333.857	100.56
334.085	105.56
334.314	92.56
334.542	108.56
334.771	103.56
334.999	103.56
335.227	84.56
335.455	92.56
335.684	87.56
335.912	94.56
336.14	100.56
336.369	99.56
336.597	101.56
336.825	87.56
337.053	100.56
337.281	85.56
337.51	83.56
337.738	88.56
337.966	102.56
338.194	100.56
338.422	97.56
338.65	97.56
338.878	94.56
339.106	94.56
339.334	83.56
339.562	95.56
339.79	83.56
340.018	91.56
340.246	92.56
340.474	76.56
340.702	89.56
340.93	112.56
341.158	100.56
341.386	114.56
341.614	104.56
341.842	96.56
342.07	98.56
342.298	88.56
342.526	87.56
342.754	97.56
342.981	93.56
343.209	94.56
343.437	98.56
343.665	94.56
343.893	89.56
344.12	100.56
344.348	88.56
344.576	92.56
344.804	99.56
345.031	92.56
345.259	93.56
345.487	74.56
345.714	88.56
345.942	92.56
346.17	93.56
346.397	107.56
346.625	96.56
346.853	88.56
347.08	88.56
347.308	91.56
347.535	89.56
347.763	100.56
347.99	91.56
348.218	96.56
348.445	115.56
348.673	98.56
348.9	82.56
349.128	98.56
349.355	89.56
349.583	91.56
349.81	91.56
350.037	90.56
350.265	100.56
350.492	93.56
350.72	93.56
350.947	97.56
351.174	108.56
351.402	116.56
351.629	92.56
351.856	96.56
352.083	91.56
352.311	78.56
352.538	98.56
352.765	107.56
352.992	122.56
353.22	123.56
353.447	114.56
353.674	97.56
353.901	113.56
354.128	92.56
354.355	95.56
354.583	86.56
354.81	93.56
355.037	85.56
355.264	86.56
355.491	91.56
355.718	90.56
355.945	100.56
356.172	88.56
356.399	82.56
356.626	96.56
356.853	99.56
357.08	91.56
357.307	90.56
357.534	96.56
357.761	96.56
357.988	90.56
358.215	91.56
358.441	103.56
358.668	86.56
358.895	86.56
359.122	94.56
359.349	87.56
359.576	92.56
359.802	91.56
360.029	109.56
360.256	114.56
360.483	88.56
360.709	84.56
360.936	90.56
361.163	83.56
361.39	90.56
361.616	101.56
361.843	92.56
362.07	93.56
362.296	98.56
362.523	95.56
362.749	80.56
362.976	86.56
363.203	86.56
363.429	84.56
363.656	91.56
363.882	76.56
364.109	97.56
364.335	92.56
364.562	98.56
364.788	83.56
365.015	100.56
365.241	98.56
365.468	111.56
365.694	100.56
365.92	95.56
366.147	104.56
366.373	105.56
366.599	94.56
366.826	99.56
367.052	84.56
367.278	90.56
367.505	85.56
367.731	90.56
367.957	113.56
368.184	92.56
368.41	92.56
368.636	108.56
368.862	119.56
369.089	105.56
369.315	97.56
369.541	98.56
369.767	94.56
369.993	92.56
370.219	89.56
370.445	82.56
370.672	83.56
370.898	87.56
371.124	85.56
371.35	88.56
371.576	87.56
371.802	78.56
372.028	85.56
372.254	83.56
372.48	89.56
372.706	102.56
372.932	97.56
373.158	86.56
373.384	103.56
373.61	98.56
373.835	90.56
374.061	81.56
374.287	79.56
374.513	96.56
374.739	94.56
374.965	86.56
375.191	92.56
375.416	92.56
375.642	87.56
375.868	88.56
376.094	95.56
376.319	81.56
376.545	83.56
376.771	87.56
376.997	91.56
377.222	82.56
377.448	89.56
377.674	79.56
377.899	92.56
378.125	95.56
378.35	92.56
378.576	110.56
378.802	90.56
379.027	99.56
379.253	85.56
379.478	101.56
379.704	99.56
379.929	88.56
380.155	98.56
380.38	99.56
380.606	90.56
380.831	87.56
381.057	80.56
381.282	84.56
381.507	75.56
381.733	103.56
381.958	98.56
382.184	99.56
382.409	97.56
382.634	91.56
382.86	89.56
383.085	92.56
383.31	104.56
383.535	92.56
383.761	102.56
383.986	85.56
384.211	94.56
384.436	99.56
384.662	107.56
384.887	92.56
385.112	91.56
385.337	103.56
385.562	109.56
385.787	102.56
386.013	116.56
386.238	119.56
386.463	90.56
386.688	110.56
386.913	96.56
387.138	122.56
387.363	110.56
387.588	105.56
387.813	94.56
388.038	108.56
388.263	104.56
388.488	127.56
388.713	90.56
388.938	86.56
389.163	97.56
389.387	99.56
389.612	110.56
389.837	88.56
390.062	94.56
390.287	89.56
390.512	99.56
390.736	79.56
390.961	82.56
391.186	93.56
391.411	83.56
391.636	92.56
391.86	104.56
392.085	99.56
392.31	92.56
392.534	95.56
392.759	86.56
392.984	85.56
393.208	87.56
393.433	87.56
393.658	93.56
393.882	88.56
394.107	97.56
394.331	93.56
394.556	86.56
394.78	88.56
395.005	87.56
395.229	95.56
395.454	81.56
395.678	71.56
395.903	92.56
396.127	78.56
396.352	74.56
396.576	88.56
396.801	95.56
397.025	82.56
397.249	80.56
397.474	98.56
397.698	94.56
397.922	80.56
398.147	110.56
398.371	82.56
398.595	86.56
398.82	93.56
399.044	72.56
399.268	98.56
399.492	84.56
399.717	94.56
399.941	93.56
400.165	86.56
400.389	102.56
400.613	94.56
400.837	90.56
401.062	98.56
401.286	86.56
401.51	94.56
401.734	90.56
401.958	85.56
402.182	146.56
402.406	158.56
402.63	119.56
402.854	74.56
403.078	89.56
403.302	94.56
403.526	86.56
403.75	83.56
403.974	104.56
404.198	96.56
404.422	90.56
404.645	81.56
404.869	94.56
405.093	90.56
405.317	92.56
405.541	96.56
405.765	88.56
405.988	113.56
406.212	170.56
406.436	247.56
406.66	149.56
406.883	96.56
407.107	90.56
407.331	106.56
407.555	99.56
407.778	93.56
408.002	103.56
408.226	94.56
408.449	79.56
408.673	86.56
408.896	95.56
409.12	104.56
409.344	99.56
409.567	87.56
409.791	83.56
410.014	88.56
410.238	88.56
410.461	82.56
410.685	94.56
410.908	84.56
411.132	96.56
411.355	111.56
411.578	92.56
411.802	81.56
412.025	91.56
412.249	91.56
412.472	83.56
412.695	88.56
412.919	79.56
413.142	108.56
413.365	99.56
413.589	93.56
413.812	96.56
414.035	76.56
414.258	90.56
414.482	95.56
414.705	84.56
414.928	94.56
415.151	95.56
415.374	95.56
415.597	93.56
415.821	83.56
416.044	90.56
416.267	74.56
416.49	87.56
416.713	86.56
416.936	93.56
417.159	82.56
417.382	103.56
417.605	96.56
417.828	90.56
418.051	92.56
418.274	90.56
418.497	92.56
418.72	92.56
418.943	90.56
419.166	87.56
419.389	86.56
419.611	93.56
419.834	86.56
420.057	88.56
420.28	86.56
420.503	92.56
420.726	70.56
420.948	87.56
421.171	87.56
421.394	81.56
421.617	92.56
421.839	92.56
422.062	87.56
422.285	81.56
422.507	84.56
422.73	98.56
422.953	86.56
423.175	95.56
423.398	84.56
423.621	94.56
423.843	82.56
424.066	96.56
424.288	90.56
424.511	84.56
424.733	100.56
424.956	109.56
425.178	111.56
425.401	97.56
425.623	102.56
425.846	96.56
426.068	89.56
426.291	103.56
426.513	104.56
426.735	89.56
426.958	99.56
427.18	112.56
427.402	119.56
427.625	160.56
427.847	137.56
428.069	102.56
428.292	83.56
428.514	97.56
428.736	78.56
428.958	99.56
429.181	87.56
429.403	92.56
429.625	80.56
429.847	101.56
430.069	94.56
430.292	83.56
430.514	80.56
430.736	98.56
430.958	78.56
431.18	95.56
431.402	84.56
431.624	88.56
431.846	94.56
432.068	86.56
432.29	75.56
432.512	76.56
432.734	94.56
432.956	99.56
433.178	96.56
433.4	97.56
433.622	108.56
433.844	84.56
434.066	82.56
434.287	81.56
434.509	73.56
434.731	78.56
434.953	88.56
435.175	82.56
435.397	90.56
435.618	97.56
435.84	106.56
436.062	135.56
436.284	114.56
436.505	102.56
436.727	110.56
436.949	80.56
437.17	96.56
437.392	91.56
437.614	93.56
437.835	113.56
438.057	111.56
438.278	115.56
438.5	111.56
438.721	108.56
438.943	112.56
439.165	97.56
439.386	111.56
439.608	98.56
439.829	95.56
440.05	112.56
440.272	136.56
440.493	88.56
440.715	95.56
440.936	99.56
441.158	88.56
441.379	97.56
441.6	87.56
441.822	97.56
442.043	95.56
442.264	96.56
442.486	95.56
442.707	98.56
442.928	97.56
443.149	146.56
443.371	122.56
443.592	114.56
443.813	99.56
444.034	105.56
444.255	101.56
444.476	77.56
444.698	91.56
444.919	92.56
445.14	128.56
445.361	130.56
445.582	120.56
445.803	137.56
446.024	127.56
446.245	144.56
446.466	116.56
446.687	89.56
446.908	84.56
447.129	76.56
447.35	85.56
447.571	103.56
447.792	92.56
448.013	94.56
448.234	115.56
448.455	95.56
448.675	113.56
448.896	105.56
449.117	114.56
449.338	99.56
449.559	129.56
449.779	154.56
450	93.56
450.221	92.56
450.442	94.56
450.662	107.56
450.883	99.56
451.104	113.56
451.324	82.56
451.545	76.56
451.766	80.56
451.986	94.56
452.207	93.56
452.428	108.56
452.648	109.56
452.869	100.56
453.089	111.56
453.31	104.56
453.53	104.56
453.751	92.56
453.971	98.56
454.192	116.56
454.412	94.56
454.633	75.56
454.853	82.56
455.073	73.56
455.294	84.56
455.514	106.56
455.734	92.56
455.955	93.56
456.175	78.56
456.395	98.56
456.616	90.56
456.836	96.56
457.056	89.56
457.276	83.56
457.497	79.56
457.717	93.56
457.937	90.56
458.157	85.56
458.377	95.56
458.598	103.56
458.818	141.56
459.038	167.56
459.258	115.56
459.478	87.56
459.698	88.56
459.918	93.56
460.138	87.56
460.358	87.56
460.578	97.56
460.798	106.56
461.018	84.56
461.238	97.56
461.458	87.56
461.678	83.56
461.898	84.56
462.118	87.56
462.338	84.56
462.558	77.56
462.777	87.56
462.997	88.56
463.217	78.56
463.437	83.56
463.657	93.56
463.876	78.56
464.096	87.56
464.316	88.56
464.536	83.56
464.755	90.56
464.975	108.56
465.195	165.56
465.414	157.56
465.634	111.56
465.854	82.56
466.073	90.56
466.293	94.56
466.512	85.56
466.732	77.56
466.951	104.56
467.171	102.56
467.391	91.56
467.61	98.56
467.829	105.56
468.049	87.56
468.268	98.56
468.488	91.56
468.707	90.56
468.927	82.56
469.146	84.56
469.365	84.56
469.585	100.56
469.804	110.56
470.023	112.56
470.243	83.56
470.462	103.56
470.681	111.56
470.901	87.56
471.12	80.56
471.339	81.56
471.558	78.56
471.777	79.56
471.997	67.56
472.216	101.56
472.435	99.56
472.654	84.56
472.873	93.56
473.092	79.56
473.311	81.56
473.53	82.56
473.749	86.56
473.968	107.56
474.187	105.56
474.406	88.56
474.625	71.56
474.844	80.56
475.063	70.56
475.282	97.56
475.501	104.56
475.72	100.56
475.939	85.56
476.158	89.56
476.377	84.56
476.596	77.56
476.814	97.56
477.033	90.56
477.252	92.56
477.471	85.56
477.69	94.56
477.908	86.56
478.127	90.56
478.346	92.56
478.564	79.56
478.783	97.56
479.002	85.56
479.22	104.56
479.439	111.56
479.658	101.56
479.876	89.56
480.095	98.56
480.313	94.56
480.532	79.56
480.751	87.56
480.969	90.56
481.188	90.56
481.406	92.56
481.624	100.56
481.843	93.56
482.061	90.56
482.28	94.56
482.498	66.56
482.717	86.56
482.935	95.56
483.153	87.56
483.372	92.56
483.59	86.56
483.808	80.56
484.027	93.56
484.245	88.56
484.463	99.56
484.681	93.56
484.9	96.56
485.118	100.56
485.336	73.56
485.554	104.56
485.772	89.56
485.99	101.56
486.209	87.56
486.427	97.56
486.645	100.56
486.863	107.56
487.081	97.56
487.299	90.56
487.517	89.56
487.735	89.56
487.953	97.56
488.171	100.56
488.389	96.56
488.607	97.56
488.825	88.56
489.043	76.56
489.261	92.56
489.479	84.56
489.696	80.56
489.914	90.56
490.132	97.56
490.35	95.56
490.568	91.56
490.786	96.56
491.003	87.56
491.221	95.56
491.439	102.56
491.657	89.56
491.874	77.56
492.092	90.56
492.31	90.56
492.527	95.56
492.745	98.56
492.963	99.56
493.18	88.56
493.398	92.56
493.615	106.56
493.833	98.56
494.05	95.56
494.268	97.56
494.485	87.56
494.703	94.56
494.92	97.56
495.138	96.56
495.355	86.56
495.573	89.56
495.79	81.56
496.008	110.56
496.225	106.56
496.442	91.56
496.66	91.56
496.877	82.56
497.094	93.56
497.312	86.56
497.529	88.56
497.746	95.56
497.963	86.56
498.181	97.56
498.398	91.56
498.615	103.56
498.832	110.56
499.049	92.56
499.267	102.56
499.484	80.56
499.701	105.56
499.918	83.56
500.135	108.56
500.352	91.56
500.569	98.56
500.786	83.56
501.003	91.56
501.22	89.56
501.437	109.56
501.654	96.56
501.871	117.56
502.088	99.56
502.305	102.56
502.522	99.56
502.739	99.56
502.956	87.56
503.172	79.56
503.389	92.56
503.606	100.56
503.823	112.56
504.04	88.56
504.256	106.56
504.473	91.56
504.69	84.56
504.907	92.56
505.123	90.56
505.34	92.56
505.557	89.56
505.773	98.56
505.99	88.56
506.207	92.56
506.423	94.56
506.64	97.56
506.856	90.56
507.073	97.56
507.289	94.56
507.506	105.56
507.722	114.56
507.939	118.56
508.155	94.56
508.372	103.56
508.588	89.56
508.805	86.56
509.021	86.56
509.238	104.56
509.454	111.56
509.67	83.56
509.887	123.56
510.103	140.56
510.319	238.56
510.536	877.56
510.752	2766.56
510.968	746.56
511.184	173.56
511.401	118.56
511.617	95.56
511.833	95.56
512.049	98.56
512.265	102.56
512.481	92.56
512.698	94.56
512.914	111.56
513.13	93.56
513.346	81.56
513.562	97.56
513.778	91.56
513.994	81.56
514.21	84.56
514.426	107.56
514.642	146.56
514.858	127.56
515.074	158.56
515.29	497.56
515.506	1718.56
515.721	598.56
515.937	169.56
