Data from Uncirc_1995_H10_HRD10591_00095.txt Node
Date: Wed Jan 03 11:35:52 EST 2024
User: Yrep
Spectrometer: HR+D1059
Trigger mode: 1
Integration Time (sec): 1.000000E-1
Scans to average: 1
Electric dark correction enabled: true
Nonlinearity correction enabled: false
Boxcar width: 0
XAxis mode: Wavelengths
Number of Pixels in Spectrum: 2048
>>>>>Begin Spectral Data<<<<<
223.165	-30.25
223.4	-30.25
223.635	-30.25
223.869	-14.25
224.104	-20.25
224.338	-18.25
224.573	-12.25
224.808	7.75
225.042	-9.25
225.277	-1.25
225.511	-3.25
225.746	10.75
225.98	7.75
226.215	11.75
226.449	20.75
226.683	14.75
226.918	17.75
227.152	17.75
227.387	23.75
227.621	30.75
227.856	49.75
228.09	43.75
228.324	58.75
228.559	45.75
228.793	53.75
229.027	80.75
229.262	82.75
229.496	74.75
229.73	75.75
229.964	77.75
230.199	57.75
230.433	75.75
230.667	81.75
230.901	79.75
231.136	72.75
231.37	84.75
231.604	68.75
231.838	75.75
232.072	76.75
232.306	82.75
232.541	74.75
232.775	84.75
233.009	87.75
233.243	76.75
233.477	76.75
233.711	79.75
233.945	94.75
234.179	82.75
234.413	74.75
234.647	65.75
234.881	75.75
235.115	77.75
235.349	96.75
235.583	77.75
235.817	70.75
236.051	74.75
236.285	93.75
236.519	75.75
236.753	74.75
236.987	72.75
237.221	83.75
237.455	77.75
237.689	87.75
237.922	84.75
238.156	79.75
238.39	67.75
238.624	77.75
238.858	83.75
239.091	70.75
239.325	75.75
239.559	75.75
239.793	84.75
240.027	60.75
240.26	72.75
240.494	86.75
240.728	87.75
240.961	76.75
241.195	79.75
241.429	76.75
241.662	80.75
241.896	78.75
242.13	66.75
242.363	84.75
242.597	87.75
242.83	90.75
243.064	65.75
243.298	81.75
243.531	78.75
243.765	79.75
243.998	80.75
244.232	73.75
244.465	89.75
244.699	71.75
244.932	62.75
245.166	74.75
245.399	93.75
245.633	66.75
245.866	80.75
246.099	76.75
246.333	81.75
246.566	77.75
246.8	89.75
247.033	72.75
247.266	80.75
247.5	92.75
247.733	89.75
247.966	89.75
248.2	83.75
248.433	63.75
248.666	77.75
248.899	76.75
249.133	73.75
249.366	94.75
249.599	98.75
249.832	92.75
250.066	72.75
250.299	74.75
250.532	77.75
250.765	74.75
250.998	87.75
251.231	78.75
251.465	94.75
251.698	77.75
251.931	89.75
252.164	91.75
252.397	78.75
252.63	95.75
252.863	63.75
253.096	75.75
253.329	70.75
253.562	84.75
253.795	96.75
254.028	86.75
254.261	84.75
254.494	89.75
254.727	86.75
254.96	90.75
255.193	93.75
255.426	75.75
255.659	82.75
255.892	71.75
256.124	80.75
256.357	74.75
256.59	77.75
256.823	77.75
257.056	78.75
257.289	71.75
257.521	75.75
257.754	83.75
257.987	91.75
258.22	97.75
258.452	85.75
258.685	65.75
258.918	77.75
259.151	78.75
259.383	88.75
259.616	86.75
259.849	79.75
260.081	83.75
260.314	89.75
260.547	72.75
260.779	71.75
261.012	84.75
261.244	96.75
261.477	95.75
261.71	95.75
261.942	109.75
262.175	124.75
262.407	82.75
262.64	74.75
262.872	83.75
263.105	72.75
263.337	94.75
263.57	100.75
263.802	82.75
264.035	74.75
264.267	71.75
264.499	84.75
264.732	89.75
264.964	98.75
265.197	79.75
265.429	82.75
265.661	88.75
265.894	86.75
266.126	93.75
266.358	82.75
266.591	75.75
266.823	95.75
267.055	73.75
267.287	90.75
267.52	86.75
267.752	81.75
267.984	90.75
268.216	92.75
268.448	98.75
268.681	80.75
268.913	94.75
269.145	85.75
269.377	76.75
269.609	83.75
269.841	95.75
270.073	81.75
270.306	87.75
270.538	83.75
270.77	74.75
271.002	75.75
271.234	77.75
271.466	86.75
271.698	78.75
271.93	84.75
272.162	84.75
272.394	78.75
272.626	87.75
272.858	93.75
273.09	87.75
273.322	84.75
273.553	85.75
273.785	87.75
274.017	93.75
274.249	72.75
274.481	74.75
274.713	73.75
274.945	100.75
275.176	95.75
275.408	89.75
275.64	86.75
275.872	82.75
276.104	89.75
276.335	90.75
276.567	99.75
276.799	100.75
277.031	97.75
277.262	88.75
277.494	92.75
277.726	94.75
277.957	68.75
278.189	78.75
278.421	66.75
278.652	99.75
278.884	97.75
279.115	83.75
279.347	81.75
279.579	100.75
279.81	92.75
280.042	111.75
280.273	100.75
280.505	86.75
280.736	70.75
280.968	90.75
281.199	81.75
281.431	77.75
281.662	74.75
281.894	89.75
282.125	114.75
282.356	118.75
282.588	122.75
282.819	107.75
283.051	87.75
283.282	92.75
283.513	93.75
283.745	87.75
283.976	88.75
284.207	90.75
284.439	97.75
284.67	84.75
284.901	91.75
285.132	92.75
285.364	83.75
285.595	91.75
285.826	94.75
286.057	80.75
286.288	90.75
286.52	97.75
286.751	88.75
286.982	75.75
287.213	87.75
287.444	78.75
287.675	84.75
287.906	94.75
288.138	94.75
288.369	72.75
288.6	91.75
288.831	80.75
289.062	86.75
289.293	87.75
289.524	82.75
289.755	92.75
289.986	95.75
290.217	92.75
290.448	94.75
290.679	104.75
290.91	83.75
291.141	82.75
291.371	87.75
291.602	78.75
291.833	90.75
292.064	93.75
292.295	85.75
292.526	82.75
292.757	94.75
292.987	91.75
293.218	80.75
293.449	77.75
293.68	86.75
293.91	93.75
294.141	96.75
294.372	94.75
294.603	96.75
294.833	95.75
295.064	96.75
295.295	89.75
295.525	83.75
295.756	103.75
295.987	115.75
296.217	129.75
296.448	129.75
296.679	77.75
296.909	97.75
297.14	90.75
297.37	87.75
297.601	76.75
297.831	81.75
298.062	86.75
298.292	91.75
298.523	98.75
298.753	98.75
298.984	82.75
299.214	81.75
299.445	83.75
299.675	100.75
299.905	99.75
300.136	98.75
300.366	85.75
300.597	95.75
300.827	86.75
301.057	89.75
301.288	116.75
301.518	95.75
301.748	88.75
301.979	95.75
302.209	97.75
302.439	96.75
302.669	102.75
302.9	74.75
303.13	94.75
303.36	99.75
303.59	100.75
303.82	119.75
304.051	99.75
304.281	90.75
304.511	106.75
304.741	91.75
304.971	92.75
305.201	84.75
305.431	86.75
305.661	94.75
305.891	104.75
306.121	102.75
306.352	91.75
306.582	109.75
306.812	105.75
307.042	86.75
307.272	83.75
307.502	97.75
307.731	83.75
307.961	90.75
308.191	86.75
308.421	82.75
308.651	95.75
308.881	107.75
309.111	108.75
309.341	94.75
309.571	97.75
309.8	84.75
310.03	92.75
310.26	97.75
310.49	90.75
310.72	112.75
310.949	109.75
311.179	90.75
311.409	97.75
311.639	104.75
311.868	94.75
312.098	99.75
312.328	91.75
312.557	101.75
312.787	105.75
313.017	100.75
313.246	96.75
313.476	77.75
313.706	103.75
313.935	102.75
314.165	105.75
314.394	110.75
314.624	99.75
314.853	90.75
315.083	99.75
315.312	82.75
315.542	92.75
315.771	94.75
316.001	95.75
316.23	93.75
316.46	81.75
316.689	88.75
316.919	99.75
317.148	101.75
317.377	96.75
317.607	99.75
317.836	82.75
318.065	89.75
318.295	91.75
318.524	100.75
318.753	81.75
318.983	92.75
319.212	104.75
319.441	98.75
319.67	100.75
319.9	90.75
320.129	92.75
320.358	85.75
320.587	99.75
320.816	102.75
321.046	97.75
321.275	95.75
321.504	83.75
321.733	94.75
321.962	97.75
322.191	98.75
322.42	87.75
322.649	107.75
322.878	112.75
323.108	114.75
323.337	122.75
323.566	117.75
323.795	150.75
324.024	215.75
324.253	401.75
324.482	872.75
324.71	1794.75
324.939	2378.75
325.168	867.75
325.397	249.75
325.626	138.75
325.855	126.75
326.084	131.75
326.313	131.75
326.542	156.75
326.77	237.75
326.999	472.75
327.228	1023.75
327.457	1782.75
327.686	1438.75
327.914	383.75
328.143	201.75
328.372	138.75
328.6	122.75
328.829	111.75
329.058	127.75
329.287	120.75
329.515	111.75
329.744	110.75
329.972	100.75
330.201	94.75
330.43	96.75
330.658	105.75
330.887	121.75
331.115	116.75
331.344	95.75
331.572	86.75
331.801	107.75
332.03	90.75
332.258	109.75
332.486	88.75
332.715	105.75
332.943	105.75
333.172	101.75
333.4	89.75
333.629	110.75
333.857	131.75
334.085	102.75
334.314	98.75
334.542	96.75
334.771	103.75
334.999	92.75
335.227	98.75
335.455	99.75
335.684	100.75
335.912	96.75
336.14	107.75
336.369	92.75
336.597	105.75
336.825	99.75
337.053	70.75
337.281	105.75
337.51	94.75
337.738	98.75
337.966	89.75
338.194	95.75
338.422	102.75
338.65	100.75
338.878	98.75
339.106	88.75
339.334	98.75
339.562	110.75
339.79	63.75
340.018	92.75
340.246	86.75
340.474	97.75
340.702	92.75
340.93	94.75
341.158	93.75
341.386	83.75
341.614	96.75
341.842	98.75
342.07	94.75
342.298	85.75
342.526	86.75
342.754	86.75
342.981	111.75
343.209	98.75
343.437	102.75
343.665	83.75
343.893	100.75
344.12	94.75
344.348	93.75
344.576	96.75
344.804	89.75
345.031	97.75
345.259	80.75
345.487	89.75
345.714	94.75
345.942	85.75
346.17	92.75
346.397	95.75
346.625	112.75
346.853	82.75
347.08	105.75
347.308	98.75
347.535	91.75
347.763	87.75
347.99	102.75
348.218	109.75
348.445	105.75
348.673	89.75
348.9	81.75
349.128	93.75
349.355	91.75
349.583	100.75
349.81	86.75
350.037	72.75
350.265	79.75
350.492	100.75
350.72	97.75
350.947	90.75
351.174	108.75
351.402	102.75
351.629	96.75
351.856	99.75
352.083	103.75
352.311	117.75
352.538	91.75
352.765	101.75
352.992	125.75
353.22	109.75
353.447	104.75
353.674	103.75
353.901	104.75
354.128	96.75
354.355	97.75
354.583	100.75
354.81	105.75
355.037	99.75
355.264	95.75
355.491	88.75
355.718	87.75
355.945	86.75
356.172	106.75
356.399	111.75
356.626	109.75
356.853	85.75
357.08	95.75
357.307	88.75
357.534	106.75
357.761	94.75
357.988	95.75
358.215	79.75
358.441	99.75
358.668	88.75
358.895	98.75
359.122	93.75
359.349	76.75
359.576	96.75
359.802	88.75
360.029	107.75
360.256	99.75
360.483	97.75
360.709	88.75
360.936	86.75
361.163	90.75
361.39	96.75
361.616	78.75
361.843	74.75
362.07	93.75
362.296	95.75
362.523	103.75
362.749	98.75
362.976	82.75
363.203	102.75
363.429	77.75
363.656	95.75
363.882	89.75
364.109	98.75
364.335	81.75
364.562	78.75
364.788	91.75
365.015	104.75
365.241	103.75
365.468	116.75
365.694	100.75
365.92	98.75
366.147	88.75
366.373	87.75
366.599	79.75
366.826	91.75
367.052	84.75
367.278	74.75
367.505	84.75
367.731	105.75
367.957	92.75
368.184	95.75
368.41	108.75
368.636	99.75
368.862	115.75
369.089	110.75
369.315	87.75
369.541	84.75
369.767	92.75
369.993	88.75
370.219	87.75
370.445	81.75
370.672	93.75
370.898	103.75
371.124	95.75
371.35	83.75
371.576	79.75
371.802	89.75
372.028	94.75
372.254	89.75
372.48	104.75
372.706	85.75
372.932	80.75
373.158	90.75
373.384	88.75
373.61	94.75
373.835	91.75
374.061	94.75
374.287	98.75
374.513	92.75
374.739	101.75
374.965	95.75
375.191	89.75
375.416	93.75
375.642	81.75
375.868	82.75
376.094	87.75
376.319	105.75
376.545	75.75
376.771	73.75
376.997	96.75
377.222	98.75
377.448	88.75
377.674	88.75
377.899	93.75
378.125	94.75
378.35	95.75
378.576	83.75
378.802	90.75
379.027	96.75
379.253	90.75
379.478	88.75
379.704	81.75
379.929	90.75
380.155	87.75
380.38	96.75
380.606	104.75
380.831	91.75
381.057	112.75
381.282	91.75
381.507	70.75
381.733	91.75
381.958	105.75
382.184	102.75
382.409	87.75
382.634	96.75
382.86	72.75
383.085	90.75
383.31	97.75
383.535	87.75
383.761	103.75
383.986	101.75
384.211	96.75
384.436	105.75
384.662	91.75
384.887	94.75
385.112	106.75
385.337	96.75
385.562	94.75
385.787	112.75
386.013	108.75
386.238	110.75
386.463	123.75
386.688	107.75
386.913	101.75
387.138	96.75
387.363	97.75
387.588	86.75
387.813	98.75
388.038	98.75
388.263	114.75
388.488	97.75
388.713	114.75
388.938	84.75
389.163	87.75
389.387	112.75
389.612	114.75
389.837	98.75
390.062	88.75
390.287	94.75
390.512	87.75
390.736	96.75
390.961	74.75
391.186	89.75
391.411	93.75
391.636	98.75
391.86	78.75
392.085	80.75
392.31	87.75
392.534	88.75
392.759	88.75
392.984	83.75
393.208	90.75
393.433	88.75
393.658	79.75
393.882	87.75
394.107	87.75
394.331	77.75
394.556	92.75
394.78	98.75
395.005	85.75
395.229	96.75
395.454	89.75
395.678	83.75
395.903	96.75
396.127	85.75
396.352	83.75
396.576	70.75
396.801	83.75
397.025	82.75
397.249	107.75
397.474	99.75
397.698	92.75
397.922	74.75
398.147	78.75
398.371	87.75
398.595	74.75
398.82	76.75
399.044	93.75
399.268	78.75
399.492	85.75
399.717	82.75
399.941	77.75
400.165	100.75
400.389	82.75
400.613	86.75
400.837	88.75
401.062	102.75
401.286	103.75
401.51	86.75
401.734	90.75
401.958	98.75
402.182	122.75
402.406	151.75
402.63	116.75
402.854	76.75
403.078	78.75
403.302	90.75
403.526	94.75
403.75	76.75
403.974	89.75
404.198	92.75
404.422	85.75
404.645	70.75
404.869	78.75
405.093	93.75
405.317	86.75
405.541	89.75
405.765	109.75
405.988	99.75
406.212	159.75
406.436	212.75
406.66	135.75
406.883	103.75
407.107	100.75
407.331	102.75
407.555	90.75
407.778	94.75
408.002	87.75
408.226	83.75
408.449	88.75
408.673	75.75
408.896	95.75
409.12	81.75
409.344	94.75
409.567	82.75
409.791	88.75
410.014	102.75
410.238	86.75
410.461	92.75
410.685	98.75
410.908	102.75
411.132	103.75
411.355	90.75
411.578	90.75
411.802	92.75
412.025	87.75
412.249	93.75
412.472	93.75
412.695	84.75
412.919	82.75
413.142	79.75
413.365	72.75
413.589	81.75
413.812	90.75
414.035	103.75
414.258	97.75
414.482	100.75
414.705	103.75
414.928	91.75
415.151	86.75
415.374	87.75
415.597	96.75
415.821	91.75
416.044	73.75
416.267	77.75
416.49	83.75
416.713	88.75
416.936	90.75
417.159	86.75
417.382	71.75
417.605	92.75
417.828	96.75
418.051	88.75
418.274	105.75
418.497	86.75
418.72	95.75
418.943	94.75
419.166	95.75
419.389	89.75
419.611	87.75
419.834	91.75
420.057	99.75
420.28	98.75
420.503	105.75
420.726	100.75
420.948	104.75
421.171	95.75
421.394	87.75
421.617	89.75
421.839	83.75
422.062	89.75
422.285	72.75
422.507	91.75
422.73	97.75
422.953	98.75
423.175	96.75
423.398	83.75
423.621	87.75
423.843	95.75
424.066	78.75
424.288	85.75
424.511	78.75
424.733	88.75
424.956	97.75
425.178	98.75
425.401	81.75
425.623	95.75
425.846	92.75
426.068	95.75
426.291	95.75
426.513	93.75
426.735	96.75
426.958	92.75
427.18	121.75
427.402	132.75
427.625	152.75
427.847	122.75
428.069	100.75
428.292	80.75
428.514	102.75
428.736	89.75
428.958	90.75
429.181	86.75
429.403	88.75
429.625	83.75
429.847	88.75
430.069	93.75
430.292	90.75
430.514	83.75
430.736	100.75
430.958	84.75
431.18	81.75
431.402	80.75
431.624	90.75
431.846	86.75
432.068	82.75
432.29	66.75
432.512	84.75
432.734	88.75
432.956	88.75
433.178	96.75
433.4	94.75
433.622	95.75
433.844	93.75
434.066	88.75
434.287	76.75
434.509	92.75
434.731	93.75
434.953	71.75
435.175	78.75
435.397	92.75
435.618	90.75
435.84	81.75
436.062	124.75
436.284	113.75
436.505	98.75
436.727	106.75
436.949	80.75
437.17	94.75
437.392	92.75
437.614	91.75
437.835	103.75
438.057	119.75
438.278	102.75
438.5	109.75
438.721	119.75
438.943	96.75
439.165	98.75
439.386	83.75
439.608	76.75
439.829	89.75
440.05	114.75
440.272	134.75
440.493	80.75
440.715	82.75
440.936	86.75
441.158	76.75
441.379	93.75
441.6	81.75
441.822	89.75
442.043	94.75
442.264	102.75
442.486	90.75
442.707	83.75
442.928	92.75
443.149	124.75
443.371	120.75
443.592	108.75
443.813	119.75
444.034	103.75
444.255	102.75
444.476	88.75
444.698	83.75
444.919	78.75
445.14	128.75
445.361	127.75
445.582	95.75
445.803	110.75
446.024	122.75
446.245	117.75
446.466	120.75
446.687	94.75
446.908	86.75
447.129	79.75
447.35	80.75
447.571	90.75
447.792	99.75
448.013	91.75
448.234	111.75
448.455	94.75
448.675	109.75
448.896	114.75
449.117	98.75
449.338	81.75
449.559	129.75
449.779	134.75
450	87.75
450.221	76.75
450.442	86.75
450.662	96.75
450.883	105.75
451.104	106.75
451.324	89.75
451.545	94.75
451.766	73.75
451.986	76.75
452.207	94.75
452.428	93.75
452.648	100.75
452.869	105.75
453.089	121.75
453.31	102.75
453.53	88.75
453.751	79.75
453.971	100.75
454.192	99.75
454.412	98.75
454.633	83.75
454.853	81.75
455.073	71.75
455.294	87.75
455.514	93.75
455.734	91.75
455.955	76.75
456.175	93.75
456.395	77.75
456.616	89.75
456.836	81.75
457.056	84.75
457.276	84.75
457.497	88.75
457.717	63.75
457.937	90.75
458.157	84.75
458.377	107.75
458.598	94.75
458.818	129.75
459.038	150.75
459.258	111.75
459.478	77.75
459.698	83.75
459.918	76.75
460.138	84.75
460.358	83.75
460.578	86.75
460.798	93.75
461.018	95.75
461.238	63.75
461.458	66.75
461.678	87.75
461.898	81.75
462.118	92.75
462.338	83.75
462.558	83.75
462.777	77.75
462.997	82.75
463.217	89.75
463.437	91.75
463.657	77.75
463.876	78.75
464.096	75.75
464.316	91.75
464.536	90.75
464.755	78.75
464.975	107.75
465.195	167.75
465.414	150.75
465.634	101.75
465.854	105.75
466.073	92.75
466.293	84.75
466.512	73.75
466.732	79.75
466.951	84.75
467.171	87.75
467.391	104.75
467.61	111.75
467.829	89.75
468.049	88.75
468.268	95.75
468.488	84.75
468.707	85.75
468.927	84.75
469.146	83.75
469.365	83.75
469.585	81.75
469.804	103.75
470.023	93.75
470.243	84.75
470.462	99.75
470.681	88.75
470.901	76.75
471.12	86.75
471.339	89.75
471.558	84.75
471.777	84.75
471.997	66.75
472.216	86.75
472.435	76.75
472.654	76.75
472.873	83.75
473.092	91.75
473.311	97.75
473.53	84.75
473.749	89.75
473.968	95.75
474.187	105.75
474.406	90.75
474.625	91.75
474.844	87.75
475.063	77.75
475.282	85.75
475.501	89.75
475.72	88.75
475.939	74.75
476.158	74.75
476.377	91.75
476.596	78.75
476.814	106.75
477.033	93.75
477.252	91.75
477.471	77.75
477.69	89.75
477.908	92.75
478.127	97.75
478.346	84.75
478.564	75.75
478.783	92.75
479.002	112.75
479.22	94.75
479.439	91.75
479.658	93.75
479.876	93.75
480.095	64.75
480.313	89.75
480.532	94.75
480.751	99.75
480.969	97.75
481.188	106.75
481.406	88.75
481.624	90.75
481.843	69.75
482.061	78.75
482.28	106.75
482.498	105.75
482.717	94.75
482.935	96.75
483.153	84.75
483.372	94.75
483.59	98.75
483.808	87.75
484.027	71.75
484.245	78.75
484.463	94.75
484.681	82.75
484.9	98.75
485.118	101.75
485.336	86.75
485.554	94.75
485.772	103.75
485.99	100.75
486.209	105.75
486.427	88.75
486.645	106.75
486.863	110.75
487.081	94.75
487.299	91.75
487.517	99.75
487.735	89.75
487.953	89.75
488.171	78.75
488.389	87.75
488.607	102.75
488.825	86.75
489.043	99.75
489.261	91.75
489.479	74.75
489.696	74.75
489.914	74.75
490.132	90.75
490.35	89.75
490.568	78.75
490.786	90.75
491.003	93.75
491.221	94.75
491.439	99.75
491.657	98.75
491.874	88.75
492.092	98.75
492.31	91.75
492.527	88.75
492.745	87.75
492.963	104.75
493.18	86.75
493.398	78.75
493.615	88.75
493.833	94.75
494.05	95.75
494.268	84.75
494.485	88.75
494.703	93.75
494.92	110.75
495.138	88.75
495.355	88.75
495.573	88.75
495.79	87.75
496.008	91.75
496.225	97.75
496.442	86.75
496.66	85.75
496.877	94.75
497.094	88.75
497.312	84.75
497.529	77.75
497.746	93.75
497.963	82.75
498.181	102.75
498.398	104.75
498.615	99.75
498.832	96.75
499.049	92.75
499.267	104.75
499.484	86.75
499.701	93.75
499.918	88.75
500.135	81.75
500.352	87.75
500.569	89.75
500.786	91.75
501.003	89.75
501.22	84.75
501.437	80.75
501.654	96.75
501.871	100.75
502.088	88.75
502.305	92.75
502.522	86.75
502.739	98.75
502.956	102.75
503.172	94.75
503.389	90.75
503.606	110.75
503.823	102.75
504.04	89.75
504.256	99.75
504.473	76.75
504.69	89.75
504.907	99.75
505.123	104.75
505.34	92.75
505.557	95.75
505.773	90.75
505.99	86.75
506.207	98.75
506.423	75.75
506.64	92.75
506.856	91.75
507.073	97.75
507.289	115.75
507.506	98.75
507.722	115.75
507.939	106.75
508.155	91.75
508.372	86.75
508.588	99.75
508.805	92.75
509.021	106.75
509.238	112.75
509.454	95.75
509.67	95.75
509.887	103.75
510.103	117.75
510.319	212.75
510.536	814.75
510.752	2575.75
510.968	678.75
511.184	158.75
511.401	88.75
511.617	103.75
511.833	98.75
512.049	77.75
512.265	90.75
512.481	91.75
512.698	82.75
512.914	87.75
513.13	104.75
513.346	96.75
513.562	94.75
513.778	83.75
513.994	96.75
514.21	105.75
514.426	102.75
514.642	126.75
514.858	126.75
515.074	180.75
515.29	444.75
515.506	1508.75
515.721	525.75
515.937	150.75
516.153	116.75
