Data from Uncirc_1995_H10_HRD10591_00063.txt Node
Date: Wed Jan 03 11:35:46 EST 2024
User: Yrep
Spectrometer: HR+D1059
Trigger mode: 1
Integration Time (sec): 1.000000E-1
Scans to average: 1
Electric dark correction enabled: true
Nonlinearity correction enabled: false
Boxcar width: 0
XAxis mode: Wavelengths
Number of Pixels in Spectrum: 2048
>>>>>Begin Spectral Data<<<<<
223.165	-21.06
223.4	-21.06
223.635	-21.06
223.869	-10.06
224.104	-11.06
224.338	-17.06
224.573	-12.06
224.808	-12.06
225.042	-15.06
225.277	6.94
225.511	-14.06
225.746	4.94
225.98	12.94
226.215	-0.06
226.449	22.94
226.683	18.94
226.918	16.94
227.152	28.94
227.387	25.94
227.621	38.94
227.856	40.94
228.09	42.94
228.324	46.94
228.559	54.94
228.793	50.94
229.027	65.94
229.262	72.94
229.496	68.94
229.73	78.94
229.964	70.94
230.199	62.94
230.433	76.94
230.667	50.94
230.901	80.94
231.136	63.94
231.37	71.94
231.604	92.94
231.838	74.94
232.072	63.94
232.306	73.94
232.541	73.94
232.775	73.94
233.009	68.94
233.243	79.94
233.477	66.94
233.711	72.94
233.945	71.94
234.179	67.94
234.413	85.94
234.647	81.94
234.881	66.94
235.115	74.94
235.349	75.94
235.583	79.94
235.817	69.94
236.051	76.94
236.285	81.94
236.519	69.94
236.753	68.94
236.987	70.94
237.221	76.94
237.455	79.94
237.689	80.94
237.922	65.94
238.156	66.94
238.39	66.94
238.624	70.94
238.858	68.94
239.091	54.94
239.325	78.94
239.559	81.94
239.793	70.94
240.027	80.94
240.26	77.94
240.494	64.94
240.728	68.94
240.961	82.94
241.195	67.94
241.429	61.94
241.662	71.94
241.896	64.94
242.13	75.94
242.363	80.94
242.597	81.94
242.83	72.94
243.064	72.94
243.298	77.94
243.531	74.94
243.765	80.94
243.998	65.94
244.232	71.94
244.465	80.94
244.699	66.94
244.932	65.94
245.166	69.94
245.399	83.94
245.633	80.94
245.866	74.94
246.099	74.94
246.333	68.94
246.566	57.94
246.8	72.94
247.033	62.94
247.266	68.94
247.5	83.94
247.733	77.94
247.966	75.94
248.2	80.94
248.433	87.94
248.666	76.94
248.899	81.94
249.133	68.94
249.366	84.94
249.599	91.94
249.832	88.94
250.066	86.94
250.299	87.94
250.532	83.94
250.765	71.94
250.998	76.94
251.231	79.94
251.465	84.94
251.698	75.94
251.931	63.94
252.164	73.94
252.397	82.94
252.63	83.94
252.863	72.94
253.096	83.94
253.329	82.94
253.562	75.94
253.795	72.94
254.028	78.94
254.261	82.94
254.494	81.94
254.727	81.94
254.96	72.94
255.193	82.94
255.426	73.94
255.659	81.94
255.892	70.94
256.124	78.94
256.357	73.94
256.59	72.94
256.823	70.94
257.056	89.94
257.289	68.94
257.521	73.94
257.754	72.94
257.987	82.94
258.22	78.94
258.452	75.94
258.685	73.94
258.918	88.94
259.151	67.94
259.383	70.94
259.616	78.94
259.849	81.94
260.081	72.94
260.314	78.94
260.547	78.94
260.779	86.94
261.012	56.94
261.244	81.94
261.477	88.94
261.71	76.94
261.942	91.94
262.175	100.94
262.407	78.94
262.64	76.94
262.872	92.94
263.105	87.94
263.337	76.94
263.57	77.94
263.802	68.94
264.035	66.94
264.267	73.94
264.499	81.94
264.732	75.94
264.964	85.94
265.197	62.94
265.429	81.94
265.661	72.94
265.894	91.94
266.126	72.94
266.358	60.94
266.591	78.94
266.823	82.94
267.055	80.94
267.287	64.94
267.52	82.94
267.752	62.94
267.984	68.94
268.216	80.94
268.448	87.94
268.681	82.94
268.913	75.94
269.145	88.94
269.377	85.94
269.609	69.94
269.841	74.94
270.073	72.94
270.306	76.94
270.538	69.94
270.77	72.94
271.002	80.94
271.234	71.94
271.466	80.94
271.698	87.94
271.93	74.94
272.162	70.94
272.394	77.94
272.626	76.94
272.858	78.94
273.09	69.94
273.322	71.94
273.553	72.94
273.785	60.94
274.017	88.94
274.249	71.94
274.481	82.94
274.713	70.94
274.945	88.94
275.176	79.94
275.408	82.94
275.64	77.94
275.872	85.94
276.104	74.94
276.335	83.94
276.567	92.94
276.799	95.94
277.031	97.94
277.262	75.94
277.494	83.94
277.726	71.94
277.957	88.94
278.189	76.94
278.421	90.94
278.652	84.94
278.884	75.94
279.115	94.94
279.347	85.94
279.579	83.94
279.81	77.94
280.042	85.94
280.273	74.94
280.505	65.94
280.736	67.94
280.968	78.94
281.199	82.94
281.431	85.94
281.662	78.94
281.894	84.94
282.125	82.94
282.356	103.94
282.588	119.94
282.819	104.94
283.051	91.94
283.282	87.94
283.513	84.94
283.745	83.94
283.976	70.94
284.207	66.94
284.439	92.94
284.67	76.94
284.901	90.94
285.132	90.94
285.364	80.94
285.595	80.94
285.826	82.94
286.057	91.94
286.288	86.94
286.52	82.94
286.751	92.94
286.982	80.94
287.213	77.94
287.444	77.94
287.675	71.94
287.906	88.94
288.138	82.94
288.369	102.94
288.6	86.94
288.831	88.94
289.062	81.94
289.293	83.94
289.524	80.94
289.755	66.94
289.986	71.94
290.217	81.94
290.448	91.94
290.679	72.94
290.91	76.94
291.141	64.94
291.371	84.94
291.602	69.94
291.833	76.94
292.064	81.94
292.295	78.94
292.526	82.94
292.757	89.94
292.987	88.94
293.218	75.94
293.449	79.94
293.68	83.94
293.91	84.94
294.141	93.94
294.372	87.94
294.603	74.94
294.833	72.94
295.064	86.94
295.295	73.94
295.525	83.94
295.756	100.94
295.987	118.94
296.217	121.94
296.448	103.94
296.679	85.94
296.909	100.94
297.14	90.94
297.37	76.94
297.601	75.94
297.831	86.94
298.062	85.94
298.292	95.94
298.523	73.94
298.753	78.94
298.984	97.94
299.214	86.94
299.445	93.94
299.675	89.94
299.905	90.94
300.136	87.94
300.366	90.94
300.597	93.94
300.827	83.94
301.057	83.94
301.288	83.94
301.518	92.94
301.748	81.94
301.979	88.94
302.209	95.94
302.439	88.94
302.669	77.94
302.9	85.94
303.13	74.94
303.36	88.94
303.59	84.94
303.82	99.94
304.051	77.94
304.281	87.94
304.511	86.94
304.741	89.94
304.971	90.94
305.201	77.94
305.431	94.94
305.661	70.94
305.891	78.94
306.121	84.94
306.352	84.94
306.582	104.94
306.812	81.94
307.042	82.94
307.272	83.94
307.502	84.94
307.731	84.94
307.961	91.94
308.191	91.94
308.421	72.94
308.651	85.94
308.881	93.94
309.111	91.94
309.341	76.94
309.571	93.94
309.8	86.94
310.03	91.94
310.26	81.94
310.49	70.94
310.72	91.94
310.949	94.94
311.179	87.94
311.409	81.94
311.639	84.94
311.868	84.94
312.098	73.94
312.328	84.94
312.557	92.94
312.787	96.94
313.017	98.94
313.246	93.94
313.476	95.94
313.706	98.94
313.935	91.94
314.165	98.94
314.394	88.94
314.624	90.94
314.853	79.94
315.083	89.94
315.312	80.94
315.542	89.94
315.771	89.94
316.001	89.94
316.23	78.94
316.46	84.94
316.689	84.94
316.919	85.94
317.148	99.94
317.377	84.94
317.607	96.94
317.836	69.94
318.065	80.94
318.295	86.94
318.524	86.94
318.753	84.94
318.983	93.94
319.212	116.94
319.441	111.94
319.67	96.94
319.9	97.94
320.129	85.94
320.358	103.94
320.587	85.94
320.816	79.94
321.046	86.94
321.275	84.94
321.504	91.94
321.733	93.94
321.962	89.94
322.191	96.94
322.42	80.94
322.649	91.94
322.878	106.94
323.108	105.94
323.337	109.94
323.566	125.94
323.795	149.94
324.024	197.94
324.253	397.94
324.482	832.94
324.71	1682.94
324.939	2297.94
325.168	830.94
325.397	238.94
325.626	143.94
325.855	127.94
326.084	120.94
326.313	118.94
326.542	155.94
326.77	219.94
326.999	469.94
327.228	990.94
327.457	1742.94
327.686	1396.94
327.914	363.94
328.143	185.94
328.372	132.94
328.6	125.94
328.829	118.94
329.058	103.94
329.287	119.94
329.515	93.94
329.744	98.94
329.972	79.94
330.201	88.94
330.43	116.94
330.658	120.94
330.887	102.94
331.115	120.94
331.344	89.94
331.572	97.94
331.801	92.94
332.03	91.94
332.258	97.94
332.486	86.94
332.715	106.94
332.943	99.94
333.172	106.94
333.4	89.94
333.629	90.94
333.857	119.94
334.085	81.94
334.314	88.94
334.542	75.94
334.771	89.94
334.999	84.94
335.227	99.94
335.455	86.94
335.684	91.94
335.912	89.94
336.14	94.94
336.369	85.94
336.597	85.94
336.825	103.94
337.053	87.94
337.281	93.94
337.51	84.94
337.738	86.94
337.966	90.94
338.194	59.94
338.422	94.94
338.65	99.94
338.878	86.94
339.106	91.94
339.334	77.94
339.562	80.94
339.79	80.94
340.018	77.94
340.246	90.94
340.474	93.94
340.702	80.94
340.93	93.94
341.158	84.94
341.386	95.94
341.614	84.94
341.842	85.94
342.07	100.94
342.298	86.94
342.526	81.94
342.754	74.94
342.981	88.94
343.209	78.94
343.437	96.94
343.665	83.94
343.893	84.94
344.12	81.94
344.348	81.94
344.576	88.94
344.804	70.94
345.031	82.94
345.259	90.94
345.487	92.94
345.714	74.94
345.942	64.94
346.17	81.94
346.397	93.94
346.625	94.94
346.853	73.94
347.08	88.94
347.308	85.94
347.535	80.94
347.763	93.94
347.99	75.94
348.218	97.94
348.445	94.94
348.673	101.94
348.9	76.94
349.128	85.94
349.355	92.94
349.583	101.94
349.81	91.94
350.037	92.94
350.265	94.94
350.492	73.94
350.72	97.94
350.947	100.94
351.174	98.94
351.402	106.94
351.629	87.94
351.856	98.94
352.083	100.94
352.311	94.94
352.538	105.94
352.765	93.94
352.992	105.94
353.22	92.94
353.447	89.94
353.674	83.94
353.901	86.94
354.128	75.94
354.355	77.94
354.583	88.94
354.81	92.94
355.037	85.94
355.264	105.94
355.491	84.94
355.718	85.94
355.945	91.94
356.172	94.94
356.399	77.94
356.626	94.94
356.853	87.94
357.08	82.94
357.307	77.94
357.534	85.94
357.761	86.94
357.988	78.94
358.215	100.94
358.441	81.94
358.668	93.94
358.895	89.94
359.122	85.94
359.349	72.94
359.576	82.94
359.802	93.94
360.029	98.94
360.256	104.94
360.483	91.94
360.709	82.94
360.936	93.94
361.163	87.94
361.39	104.94
361.616	98.94
361.843	78.94
362.07	91.94
362.296	85.94
362.523	89.94
362.749	91.94
362.976	84.94
363.203	89.94
363.429	70.94
363.656	80.94
363.882	74.94
364.109	81.94
364.335	92.94
364.562	112.94
364.788	85.94
365.015	89.94
365.241	88.94
365.468	87.94
365.694	95.94
365.92	96.94
366.147	90.94
366.373	76.94
366.599	82.94
366.826	69.94
367.052	86.94
367.278	88.94
367.505	77.94
367.731	101.94
367.957	89.94
368.184	99.94
368.41	83.94
368.636	95.94
368.862	131.94
369.089	88.94
369.315	94.94
369.541	91.94
369.767	76.94
369.993	83.94
370.219	76.94
370.445	72.94
370.672	89.94
370.898	75.94
371.124	74.94
371.35	84.94
371.576	85.94
371.802	86.94
372.028	77.94
372.254	82.94
372.48	85.94
372.706	86.94
372.932	93.94
373.158	75.94
373.384	100.94
373.61	88.94
373.835	81.94
374.061	72.94
374.287	82.94
374.513	93.94
374.739	83.94
374.965	88.94
375.191	77.94
375.416	80.94
375.642	88.94
375.868	86.94
376.094	80.94
376.319	85.94
376.545	85.94
376.771	76.94
376.997	76.94
377.222	80.94
377.448	102.94
377.674	99.94
377.899	84.94
378.125	92.94
378.35	89.94
378.576	92.94
378.802	87.94
379.027	88.94
379.253	87.94
379.478	87.94
379.704	82.94
379.929	88.94
380.155	82.94
380.38	76.94
380.606	102.94
380.831	80.94
381.057	102.94
381.282	88.94
381.507	97.94
381.733	100.94
381.958	83.94
382.184	94.94
382.409	100.94
382.634	84.94
382.86	88.94
383.085	97.94
383.31	92.94
383.535	96.94
383.761	96.94
383.986	96.94
384.211	80.94
384.436	81.94
384.662	89.94
384.887	101.94
385.112	107.94
385.337	89.94
385.562	98.94
385.787	100.94
386.013	106.94
386.238	101.94
386.463	102.94
386.688	106.94
386.913	88.94
387.138	91.94
387.363	76.94
387.588	97.94
387.813	89.94
388.038	93.94
388.263	110.94
388.488	107.94
388.713	79.94
388.938	94.94
389.163	90.94
389.387	86.94
389.612	78.94
389.837	104.94
390.062	83.94
390.287	83.94
390.512	74.94
390.736	92.94
390.961	89.94
391.186	105.94
391.411	98.94
391.636	97.94
391.86	83.94
392.085	88.94
392.31	72.94
392.534	83.94
392.759	71.94
392.984	78.94
393.208	69.94
393.433	82.94
393.658	83.94
393.882	68.94
394.107	88.94
394.331	72.94
394.556	85.94
394.78	87.94
395.005	83.94
395.229	76.94
395.454	91.94
395.678	86.94
395.903	92.94
396.127	97.94
396.352	82.94
396.576	70.94
396.801	89.94
397.025	77.94
397.249	89.94
397.474	81.94
397.698	83.94
397.922	71.94
398.147	85.94
398.371	85.94
398.595	82.94
398.82	84.94
399.044	72.94
399.268	81.94
399.492	89.94
399.717	74.94
399.941	68.94
400.165	96.94
400.389	85.94
400.613	93.94
400.837	74.94
401.062	83.94
401.286	68.94
401.51	85.94
401.734	86.94
401.958	105.94
402.182	130.94
402.406	128.94
402.63	109.94
402.854	94.94
403.078	85.94
403.302	85.94
403.526	77.94
403.75	80.94
403.974	89.94
404.198	90.94
404.422	82.94
404.645	67.94
404.869	79.94
405.093	86.94
405.317	89.94
405.541	90.94
405.765	106.94
405.988	119.94
406.212	170.94
406.436	220.94
406.66	151.94
406.883	86.94
407.107	84.94
407.331	87.94
407.555	77.94
407.778	85.94
408.002	72.94
408.226	76.94
408.449	73.94
408.673	88.94
408.896	89.94
409.12	84.94
409.344	86.94
409.567	95.94
409.791	98.94
410.014	95.94
410.238	80.94
410.461	92.94
410.685	94.94
410.908	83.94
411.132	100.94
411.355	97.94
411.578	89.94
411.802	82.94
412.025	76.94
412.249	92.94
412.472	87.94
412.695	93.94
412.919	90.94
413.142	85.94
413.365	76.94
413.589	90.94
413.812	85.94
414.035	77.94
414.258	85.94
414.482	97.94
414.705	81.94
414.928	83.94
415.151	79.94
415.374	84.94
415.597	83.94
415.821	92.94
416.044	78.94
416.267	75.94
416.49	78.94
416.713	88.94
416.936	93.94
417.159	81.94
417.382	79.94
417.605	75.94
417.828	98.94
418.051	75.94
418.274	91.94
418.497	84.94
418.72	79.94
418.943	91.94
419.166	75.94
419.389	92.94
419.611	85.94
419.834	82.94
420.057	89.94
420.28	99.94
420.503	85.94
420.726	85.94
420.948	87.94
421.171	96.94
421.394	77.94
421.617	99.94
421.839	89.94
422.062	82.94
422.285	82.94
422.507	92.94
422.73	76.94
422.953	102.94
423.175	93.94
423.398	95.94
423.621	74.94
423.843	81.94
424.066	91.94
424.288	77.94
424.511	85.94
424.733	93.94
424.956	93.94
425.178	96.94
425.401	81.94
425.623	91.94
425.846	76.94
426.068	89.94
426.291	92.94
426.513	76.94
426.735	88.94
426.958	94.94
427.18	97.94
427.402	116.94
427.625	144.94
427.847	116.94
428.069	99.94
428.292	65.94
428.514	94.94
428.736	78.94
428.958	75.94
429.181	72.94
429.403	91.94
429.625	81.94
429.847	79.94
430.069	88.94
430.292	82.94
430.514	86.94
430.736	84.94
430.958	66.94
431.18	82.94
431.402	84.94
431.624	87.94
431.846	91.94
432.068	87.94
432.29	72.94
432.512	98.94
432.734	78.94
432.956	94.94
433.178	94.94
433.4	94.94
433.622	93.94
433.844	83.94
434.066	80.94
434.287	95.94
434.509	73.94
434.731	84.94
434.953	85.94
435.175	74.94
435.397	79.94
435.618	98.94
435.84	92.94
436.062	121.94
436.284	109.94
436.505	94.94
436.727	81.94
436.949	93.94
437.17	83.94
437.392	76.94
437.614	93.94
437.835	88.94
438.057	107.94
438.278	103.94
438.5	94.94
438.721	125.94
438.943	100.94
439.165	87.94
439.386	83.94
439.608	92.94
439.829	102.94
440.05	111.94
440.272	116.94
440.493	103.94
440.715	86.94
440.936	66.94
441.158	86.94
441.379	86.94
441.6	80.94
441.822	84.94
442.043	87.94
442.264	97.94
442.486	94.94
442.707	93.94
442.928	97.94
443.149	110.94
443.371	123.94
443.592	105.94
443.813	94.94
444.034	94.94
444.255	87.94
444.476	73.94
444.698	78.94
444.919	90.94
445.14	117.94
445.361	132.94
445.582	98.94
445.803	109.94
446.024	112.94
446.245	112.94
446.466	95.94
446.687	84.94
446.908	74.94
447.129	65.94
447.35	72.94
447.571	89.94
447.792	99.94
448.013	88.94
448.234	104.94
448.455	93.94
448.675	109.94
448.896	104.94
449.117	80.94
449.338	85.94
449.559	109.94
449.779	112.94
450	86.94
450.221	83.94
450.442	85.94
450.662	87.94
450.883	93.94
451.104	101.94
451.324	91.94
451.545	85.94
451.766	77.94
451.986	87.94
452.207	77.94
452.428	81.94
452.648	78.94
452.869	108.94
453.089	91.94
453.31	122.94
453.53	89.94
453.751	83.94
453.971	96.94
454.192	112.94
454.412	93.94
454.633	92.94
454.853	86.94
455.073	77.94
455.294	84.94
455.514	90.94
455.734	70.94
455.955	75.94
456.175	75.94
456.395	92.94
456.616	89.94
456.836	88.94
457.056	79.94
457.276	73.94
457.497	87.94
457.717	71.94
457.937	81.94
458.157	77.94
458.377	69.94
458.598	100.94
458.818	128.94
459.038	150.94
459.258	92.94
459.478	85.94
459.698	86.94
459.918	92.94
460.138	72.94
460.358	84.94
460.578	78.94
460.798	85.94
461.018	86.94
461.238	78.94
461.458	81.94
461.678	89.94
461.898	88.94
462.118	73.94
462.338	75.94
462.558	87.94
462.777	86.94
462.997	89.94
463.217	96.94
463.437	82.94
463.657	77.94
463.876	78.94
464.096	88.94
464.316	90.94
464.536	94.94
464.755	85.94
464.975	104.94
465.195	165.94
465.414	133.94
465.634	69.94
465.854	84.94
466.073	78.94
466.293	85.94
466.512	72.94
466.732	72.94
466.951	88.94
467.171	92.94
467.391	99.94
467.61	88.94
467.829	94.94
468.049	98.94
468.268	88.94
468.488	74.94
468.707	69.94
468.927	73.94
469.146	71.94
469.365	69.94
469.585	58.94
469.804	81.94
470.023	96.94
470.243	84.94
470.462	94.94
470.681	81.94
470.901	77.94
471.12	86.94
471.339	79.94
471.558	75.94
471.777	84.94
471.997	77.94
472.216	100.94
472.435	85.94
472.654	70.94
472.873	77.94
473.092	87.94
473.311	76.94
473.53	86.94
473.749	95.94
473.968	96.94
474.187	91.94
474.406	98.94
474.625	69.94
474.844	61.94
475.063	90.94
475.282	76.94
475.501	93.94
475.72	75.94
475.939	78.94
476.158	91.94
476.377	84.94
476.596	90.94
476.814	100.94
477.033	91.94
477.252	91.94
477.471	81.94
477.69	100.94
477.908	93.94
478.127	91.94
478.346	89.94
478.564	72.94
478.783	93.94
479.002	84.94
479.22	83.94
479.439	97.94
479.658	113.94
479.876	88.94
480.095	76.94
480.313	86.94
480.532	92.94
480.751	77.94
480.969	89.94
481.188	112.94
481.406	103.94
481.624	75.94
481.843	80.94
482.061	88.94
482.28	84.94
482.498	87.94
482.717	76.94
482.935	87.94
483.153	91.94
483.372	88.94
483.59	83.94
483.808	81.94
484.027	83.94
484.245	76.94
484.463	94.94
484.681	90.94
484.9	84.94
485.118	93.94
485.336	83.94
485.554	102.94
485.772	97.94
485.99	111.94
486.209	99.94
486.427	86.94
486.645	100.94
486.863	100.94
487.081	86.94
487.299	91.94
487.517	102.94
487.735	91.94
487.953	87.94
488.171	93.94
488.389	85.94
488.607	91.94
488.825	89.94
489.043	85.94
489.261	91.94
489.479	81.94
489.696	91.94
489.914	72.94
490.132	72.94
490.35	97.94
490.568	80.94
490.786	85.94
491.003	88.94
491.221	91.94
491.439	71.94
491.657	83.94
491.874	81.94
492.092	86.94
492.31	88.94
492.527	85.94
492.745	75.94
492.963	78.94
493.18	81.94
493.398	95.94
493.615	92.94
493.833	93.94
494.05	92.94
494.268	73.94
494.485	68.94
494.703	97.94
494.92	87.94
495.138	90.94
495.355	101.94
495.573	83.94
495.79	79.94
496.008	77.94
496.225	86.94
496.442	81.94
496.66	82.94
496.877	79.94
497.094	82.94
497.312	80.94
497.529	91.94
497.746	87.94
497.963	75.94
498.181	84.94
498.398	85.94
498.615	109.94
498.832	94.94
499.049	99.94
499.267	99.94
499.484	82.94
499.701	83.94
499.918	94.94
500.135	92.94
500.352	77.94
500.569	90.94
500.786	89.94
501.003	89.94
501.22	90.94
501.437	90.94
501.654	92.94
501.871	97.94
502.088	87.94
502.305	89.94
502.522	91.94
502.739	86.94
502.956	97.94
503.172	66.94
503.389	85.94
503.606	91.94
503.823	98.94
504.04	97.94
504.256	70.94
504.473	78.94
504.69	74.94
504.907	71.94
505.123	83.94
505.34	94.94
505.557	83.94
505.773	84.94
505.99	68.94
506.207	76.94
506.423	89.94
506.64	92.94
506.856	78.94
507.073	82.94
507.289	84.94
507.506	97.94
507.722	94.94
507.939	99.94
508.155	91.94
508.372	89.94
508.588	91.94
508.805	85.94
509.021	80.94
509.238	81.94
509.454	92.94
509.67	96.94
509.887	110.94
510.103	125.94
510.319	207.94
510.536	815.94
510.752	2533.94
510.968	681.94
511.184	167.94
511.401	98.94
511.617	99.94
511.833	97.94
512.049	86.94
512.265	79.94
512.481	82.94
512.698	92.94
512.914	81.94
513.13	85.94
513.346	94.94
513.562	92.94
513.778	77.94
513.994	99.94
514.21	81.94
514.426	108.94
514.642	136.94
514.858	124.94
515.074	163.94
515.29	482.94
515.506	1513.94
515.721	540.94
515.937	146.94
516.153	107.94
516.369	90.94
516.585	84.94
516.801	91.94
517.016	69.94
517.232	89.94
517.448	91.94
517.664	90.94
517.879	90.94
