Data from Uncirc_1995_H10_HRD10591_00093.txt Node
Date: Wed Jan 03 11:35:52 EST 2024
User: Yrep
Spectrometer: HR+D1059
Trigger mode: 1
Integration Time (sec): 1.000000E-1
Scans to average: 1
Electric dark correction enabled: true
Nonlinearity correction enabled: false
Boxcar width: 0
XAxis mode: Wavelengths
Number of Pixels in Spectrum: 2048
>>>>>Begin Spectral Data<<<<<
223.165	-6.19
223.4	-6.19
223.635	-6.19
223.869	-25.19
224.104	-16.19
224.338	-15.19
224.573	-17.19
224.808	-6.19
225.042	-7.19
225.277	-5.19
225.511	0.81
225.746	-3.19
225.98	-0.19
226.215	12.81
226.449	24.81
226.683	15.81
226.918	21.81
227.152	25.81
227.387	31.81
227.621	36.81
227.856	36.81
228.09	45.81
228.324	63.81
228.559	58.81
228.793	64.81
229.027	60.81
229.262	83.81
229.496	81.81
229.73	82.81
229.964	80.81
230.199	80.81
230.433	80.81
230.667	83.81
230.901	88.81
231.136	80.81
231.37	81.81
231.604	82.81
231.838	79.81
232.072	92.81
232.306	93.81
232.541	93.81
232.775	91.81
233.009	87.81
233.243	84.81
233.477	85.81
233.711	93.81
233.945	78.81
234.179	86.81
234.413	80.81
234.647	88.81
234.881	75.81
235.115	88.81
235.349	75.81
235.583	71.81
235.817	80.81
236.051	78.81
236.285	72.81
236.519	73.81
236.753	75.81
236.987	88.81
237.221	82.81
237.455	86.81
237.689	83.81
237.922	85.81
238.156	69.81
238.39	77.81
238.624	92.81
238.858	76.81
239.091	78.81
239.325	68.81
239.559	85.81
239.793	68.81
240.027	88.81
240.26	78.81
240.494	74.81
240.728	66.81
240.961	83.81
241.195	88.81
241.429	57.81
241.662	78.81
241.896	69.81
242.13	80.81
242.363	79.81
242.597	73.81
242.83	77.81
243.064	84.81
243.298	87.81
243.531	60.81
243.765	78.81
243.998	67.81
244.232	86.81
244.465	92.81
244.699	83.81
244.932	90.81
245.166	75.81
245.399	85.81
245.633	62.81
245.866	80.81
246.099	65.81
246.333	92.81
246.566	84.81
246.8	92.81
247.033	78.81
247.266	89.81
247.5	74.81
247.733	76.81
247.966	90.81
248.2	80.81
248.433	82.81
248.666	77.81
248.899	102.81
249.133	73.81
249.366	92.81
249.599	89.81
249.832	75.81
250.066	91.81
250.299	61.81
250.532	82.81
250.765	82.81
250.998	90.81
251.231	72.81
251.465	76.81
251.698	77.81
251.931	64.81
252.164	80.81
252.397	83.81
252.63	88.81
252.863	85.81
253.096	85.81
253.329	87.81
253.562	73.81
253.795	95.81
254.028	78.81
254.261	79.81
254.494	78.81
254.727	85.81
254.96	88.81
255.193	76.81
255.426	76.81
255.659	73.81
255.892	72.81
256.124	83.81
256.357	96.81
256.59	89.81
256.823	79.81
257.056	64.81
257.289	80.81
257.521	82.81
257.754	77.81
257.987	82.81
258.22	82.81
258.452	76.81
258.685	77.81
258.918	89.81
259.151	76.81
259.383	92.81
259.616	79.81
259.849	90.81
260.081	84.81
260.314	81.81
260.547	92.81
260.779	80.81
261.012	95.81
261.244	67.81
261.477	83.81
261.71	90.81
261.942	118.81
262.175	117.81
262.407	96.81
262.64	80.81
262.872	78.81
263.105	82.81
263.337	83.81
263.57	86.81
263.802	83.81
264.035	89.81
264.267	88.81
264.499	80.81
264.732	80.81
264.964	83.81
265.197	92.81
265.429	86.81
265.661	78.81
265.894	78.81
266.126	83.81
266.358	101.81
266.591	85.81
266.823	85.81
267.055	82.81
267.287	88.81
267.52	66.81
267.752	100.81
267.984	88.81
268.216	74.81
268.448	83.81
268.681	76.81
268.913	86.81
269.145	95.81
269.377	88.81
269.609	79.81
269.841	97.81
270.073	78.81
270.306	78.81
270.538	84.81
270.77	87.81
271.002	84.81
271.234	82.81
271.466	88.81
271.698	95.81
271.93	84.81
272.162	76.81
272.394	81.81
272.626	70.81
272.858	72.81
273.09	90.81
273.322	82.81
273.553	86.81
273.785	85.81
274.017	78.81
274.249	96.81
274.481	90.81
274.713	92.81
274.945	90.81
275.176	86.81
275.408	95.81
275.64	80.81
275.872	87.81
276.104	85.81
276.335	97.81
276.567	91.81
276.799	104.81
277.031	107.81
277.262	96.81
277.494	88.81
277.726	102.81
277.957	84.81
278.189	83.81
278.421	72.81
278.652	81.81
278.884	92.81
279.115	78.81
279.347	82.81
279.579	81.81
279.81	85.81
280.042	102.81
280.273	100.81
280.505	79.81
280.736	84.81
280.968	82.81
281.199	96.81
281.431	75.81
281.662	99.81
281.894	101.81
282.125	98.81
282.356	112.81
282.588	133.81
282.819	113.81
283.051	95.81
283.282	93.81
283.513	89.81
283.745	81.81
283.976	79.81
284.207	91.81
284.439	91.81
284.67	82.81
284.901	94.81
285.132	88.81
285.364	67.81
285.595	98.81
285.826	91.81
286.057	83.81
286.288	76.81
286.52	86.81
286.751	93.81
286.982	97.81
287.213	83.81
287.444	96.81
287.675	99.81
287.906	84.81
288.138	72.81
288.369	88.81
288.6	87.81
288.831	76.81
289.062	89.81
289.293	87.81
289.524	95.81
289.755	89.81
289.986	92.81
290.217	83.81
290.448	95.81
290.679	78.81
290.91	93.81
291.141	81.81
291.371	91.81
291.602	101.81
291.833	107.81
292.064	87.81
292.295	89.81
292.526	90.81
292.757	88.81
292.987	92.81
293.218	84.81
293.449	88.81
293.68	90.81
293.91	96.81
294.141	81.81
294.372	97.81
294.603	83.81
294.833	86.81
295.064	93.81
295.295	87.81
295.525	80.81
295.756	95.81
295.987	101.81
296.217	128.81
296.448	125.81
296.679	105.81
296.909	95.81
297.14	92.81
297.37	96.81
297.601	92.81
297.831	92.81
298.062	94.81
298.292	91.81
298.523	88.81
298.753	85.81
298.984	93.81
299.214	92.81
299.445	88.81
299.675	86.81
299.905	82.81
300.136	81.81
300.366	77.81
300.597	91.81
300.827	95.81
301.057	113.81
301.288	97.81
301.518	96.81
301.748	89.81
301.979	106.81
302.209	96.81
302.439	85.81
302.669	91.81
302.9	88.81
303.13	85.81
303.36	93.81
303.59	95.81
303.82	105.81
304.051	79.81
304.281	101.81
304.511	110.81
304.741	82.81
304.971	63.81
305.201	87.81
305.431	82.81
305.661	98.81
305.891	89.81
306.121	84.81
306.352	83.81
306.582	90.81
306.812	88.81
307.042	83.81
307.272	106.81
307.502	112.81
307.731	90.81
307.961	89.81
308.191	90.81
308.421	99.81
308.651	94.81
308.881	83.81
309.111	92.81
309.341	94.81
309.571	97.81
309.8	114.81
310.03	113.81
310.26	99.81
310.49	103.81
310.72	96.81
310.949	97.81
311.179	93.81
311.409	90.81
311.639	94.81
311.868	86.81
312.098	91.81
312.328	85.81
312.557	99.81
312.787	95.81
313.017	98.81
313.246	102.81
313.476	98.81
313.706	99.81
313.935	95.81
314.165	95.81
314.394	89.81
314.624	86.81
314.853	95.81
315.083	90.81
315.312	100.81
315.542	83.81
315.771	107.81
316.001	95.81
316.23	97.81
316.46	100.81
316.689	98.81
316.919	93.81
317.148	107.81
317.377	95.81
317.607	86.81
317.836	93.81
318.065	92.81
318.295	93.81
318.524	83.81
318.753	97.81
318.983	97.81
319.212	108.81
319.441	108.81
319.67	102.81
319.9	88.81
320.129	97.81
320.358	86.81
320.587	93.81
320.816	109.81
321.046	109.81
321.275	97.81
321.504	94.81
321.733	85.81
321.962	101.81
322.191	105.81
322.42	99.81
322.649	116.81
322.878	108.81
323.108	106.81
323.337	127.81
323.566	129.81
323.795	160.81
324.024	214.81
324.253	386.81
324.482	798.81
324.71	1674.81
324.939	2242.81
325.168	807.81
325.397	247.81
325.626	165.81
325.855	118.81
326.084	120.81
326.313	126.81
326.542	151.81
326.77	223.81
326.999	474.81
327.228	941.81
327.457	1736.81
327.686	1381.81
327.914	361.81
328.143	182.81
328.372	152.81
328.6	121.81
328.829	106.81
329.058	131.81
329.287	117.81
329.515	106.81
329.744	99.81
329.972	101.81
330.201	95.81
330.43	102.81
330.658	110.81
330.887	144.81
331.115	114.81
331.344	100.81
331.572	101.81
331.801	114.81
332.03	104.81
332.258	98.81
332.486	89.81
332.715	92.81
332.943	100.81
333.172	102.81
333.4	96.81
333.629	118.81
333.857	104.81
334.085	99.81
334.314	102.81
334.542	97.81
334.771	93.81
334.999	88.81
335.227	104.81
335.455	102.81
335.684	93.81
335.912	108.81
336.14	97.81
336.369	97.81
336.597	112.81
336.825	107.81
337.053	81.81
337.281	97.81
337.51	99.81
337.738	92.81
337.966	100.81
338.194	100.81
338.422	85.81
338.65	77.81
338.878	94.81
339.106	85.81
339.334	113.81
339.562	95.81
339.79	96.81
340.018	102.81
340.246	96.81
340.474	92.81
340.702	96.81
340.93	91.81
341.158	94.81
341.386	99.81
341.614	104.81
341.842	92.81
342.07	90.81
342.298	91.81
342.526	87.81
342.754	83.81
342.981	83.81
343.209	103.81
343.437	101.81
343.665	101.81
343.893	103.81
344.12	98.81
344.348	87.81
344.576	93.81
344.804	106.81
345.031	93.81
345.259	96.81
345.487	88.81
345.714	80.81
345.942	93.81
346.17	86.81
346.397	107.81
346.625	95.81
346.853	99.81
347.08	90.81
347.308	102.81
347.535	94.81
347.763	101.81
347.99	103.81
348.218	95.81
348.445	100.81
348.673	92.81
348.9	108.81
349.128	105.81
349.355	88.81
349.583	95.81
349.81	91.81
350.037	87.81
350.265	77.81
350.492	90.81
350.72	96.81
350.947	88.81
351.174	112.81
351.402	110.81
351.629	104.81
351.856	99.81
352.083	98.81
352.311	93.81
352.538	99.81
352.765	87.81
352.992	118.81
353.22	126.81
353.447	109.81
353.674	94.81
353.901	86.81
354.128	111.81
354.355	111.81
354.583	101.81
354.81	94.81
355.037	109.81
355.264	98.81
355.491	106.81
355.718	96.81
355.945	91.81
356.172	91.81
356.399	91.81
356.626	98.81
356.853	90.81
357.08	85.81
357.307	107.81
357.534	97.81
357.761	96.81
357.988	90.81
358.215	107.81
358.441	93.81
358.668	83.81
358.895	94.81
359.122	93.81
359.349	107.81
359.576	99.81
359.802	99.81
360.029	108.81
360.256	116.81
360.483	93.81
360.709	96.81
360.936	95.81
361.163	110.81
361.39	99.81
361.616	99.81
361.843	97.81
362.07	95.81
362.296	94.81
362.523	87.81
362.749	93.81
362.976	101.81
363.203	104.81
363.429	76.81
363.656	110.81
363.882	88.81
364.109	81.81
364.335	89.81
364.562	90.81
364.788	92.81
365.015	102.81
365.241	93.81
365.468	111.81
365.694	86.81
365.92	86.81
366.147	82.81
366.373	106.81
366.599	94.81
366.826	79.81
367.052	95.81
367.278	84.81
367.505	89.81
367.731	88.81
367.957	94.81
368.184	89.81
368.41	108.81
368.636	107.81
368.862	109.81
369.089	114.81
369.315	100.81
369.541	96.81
369.767	98.81
369.993	100.81
370.219	86.81
370.445	99.81
370.672	88.81
370.898	79.81
371.124	94.81
371.35	69.81
371.576	84.81
371.802	84.81
372.028	81.81
372.254	78.81
372.48	84.81
372.706	84.81
372.932	77.81
373.158	91.81
373.384	92.81
373.61	98.81
373.835	92.81
374.061	99.81
374.287	88.81
374.513	83.81
374.739	85.81
374.965	94.81
375.191	97.81
375.416	95.81
375.642	93.81
375.868	90.81
376.094	90.81
376.319	86.81
376.545	88.81
376.771	85.81
376.997	94.81
377.222	98.81
377.448	89.81
377.674	90.81
377.899	86.81
378.125	89.81
378.35	86.81
378.576	91.81
378.802	89.81
379.027	93.81
379.253	89.81
379.478	101.81
379.704	89.81
379.929	87.81
380.155	112.81
380.38	96.81
380.606	89.81
380.831	106.81
381.057	81.81
381.282	92.81
381.507	94.81
381.733	106.81
381.958	95.81
382.184	98.81
382.409	89.81
382.634	93.81
382.86	110.81
383.085	112.81
383.31	112.81
383.535	101.81
383.761	102.81
383.986	86.81
384.211	108.81
384.436	106.81
384.662	99.81
384.887	95.81
385.112	104.81
385.337	97.81
385.562	109.81
385.787	101.81
386.013	106.81
386.238	108.81
386.463	96.81
386.688	105.81
386.913	98.81
387.138	98.81
387.363	105.81
387.588	94.81
387.813	91.81
388.038	101.81
388.263	126.81
388.488	99.81
388.713	107.81
388.938	100.81
389.163	91.81
389.387	97.81
389.612	85.81
389.837	98.81
390.062	88.81
390.287	94.81
390.512	101.81
390.736	92.81
390.961	84.81
391.186	94.81
391.411	102.81
391.636	96.81
391.86	83.81
392.085	95.81
392.31	89.81
392.534	87.81
392.759	85.81
392.984	83.81
393.208	92.81
393.433	66.81
393.658	81.81
393.882	98.81
394.107	80.81
394.331	88.81
394.556	92.81
394.78	88.81
395.005	90.81
395.229	80.81
395.454	93.81
395.678	94.81
395.903	89.81
396.127	84.81
396.352	88.81
396.576	78.81
396.801	80.81
397.025	95.81
397.249	81.81
397.474	99.81
397.698	86.81
397.922	89.81
398.147	80.81
398.371	81.81
398.595	86.81
398.82	96.81
399.044	82.81
399.268	86.81
399.492	74.81
399.717	91.81
399.941	103.81
400.165	102.81
400.389	84.81
400.613	97.81
400.837	98.81
401.062	87.81
401.286	90.81
401.51	72.81
401.734	76.81
401.958	99.81
402.182	123.81
402.406	145.81
402.63	107.81
402.854	99.81
403.078	84.81
403.302	85.81
403.526	96.81
403.75	105.81
403.974	116.81
404.198	85.81
404.422	91.81
404.645	88.81
404.869	90.81
405.093	98.81
405.317	95.81
405.541	93.81
405.765	95.81
405.988	108.81
406.212	163.81
406.436	223.81
406.66	120.81
406.883	100.81
407.107	92.81
407.331	100.81
407.555	90.81
407.778	90.81
408.002	82.81
408.226	100.81
408.449	78.81
408.673	88.81
408.896	91.81
409.12	82.81
409.344	95.81
409.567	101.81
409.791	96.81
410.014	115.81
410.238	99.81
410.461	104.81
410.685	100.81
410.908	96.81
411.132	108.81
411.355	88.81
411.578	88.81
411.802	86.81
412.025	90.81
412.249	105.81
412.472	80.81
412.695	74.81
412.919	88.81
413.142	89.81
413.365	100.81
413.589	98.81
413.812	89.81
414.035	91.81
414.258	82.81
414.482	108.81
414.705	92.81
414.928	100.81
415.151	92.81
415.374	83.81
415.597	88.81
415.821	83.81
416.044	91.81
416.267	94.81
416.49	89.81
416.713	88.81
416.936	84.81
417.159	97.81
417.382	77.81
417.605	88.81
417.828	102.81
418.051	84.81
418.274	84.81
418.497	86.81
418.72	90.81
418.943	89.81
419.166	69.81
419.389	76.81
419.611	94.81
419.834	90.81
420.057	75.81
420.28	88.81
420.503	88.81
420.726	98.81
420.948	97.81
421.171	95.81
421.394	83.81
421.617	90.81
421.839	84.81
422.062	99.81
422.285	88.81
422.507	97.81
422.73	106.81
422.953	96.81
423.175	89.81
423.398	89.81
423.621	97.81
423.843	96.81
424.066	84.81
424.288	91.81
424.511	89.81
424.733	96.81
424.956	105.81
425.178	84.81
425.401	89.81
425.623	98.81
425.846	99.81
426.068	97.81
426.291	95.81
426.513	98.81
426.735	108.81
426.958	90.81
427.18	94.81
427.402	118.81
427.625	159.81
427.847	132.81
428.069	92.81
428.292	87.81
428.514	89.81
428.736	92.81
428.958	75.81
429.181	85.81
429.403	82.81
429.625	94.81
429.847	81.81
430.069	100.81
430.292	86.81
430.514	81.81
430.736	93.81
430.958	83.81
431.18	85.81
431.402	89.81
431.624	80.81
431.846	74.81
432.068	81.81
432.29	86.81
432.512	98.81
432.734	98.81
432.956	90.81
433.178	101.81
433.4	88.81
433.622	88.81
433.844	86.81
434.066	106.81
434.287	96.81
434.509	81.81
434.731	82.81
434.953	99.81
435.175	94.81
435.397	89.81
435.618	81.81
435.84	85.81
436.062	123.81
436.284	97.81
436.505	97.81
436.727	93.81
436.949	92.81
437.17	91.81
437.392	78.81
437.614	98.81
437.835	104.81
438.057	115.81
438.278	106.81
438.5	103.81
438.721	122.81
438.943	102.81
439.165	91.81
439.386	99.81
439.608	101.81
439.829	102.81
440.05	115.81
440.272	140.81
440.493	86.81
440.715	84.81
440.936	82.81
441.158	100.81
441.379	88.81
441.6	91.81
441.822	90.81
442.043	101.81
442.264	110.81
442.486	89.81
442.707	94.81
442.928	106.81
443.149	128.81
443.371	122.81
443.592	109.81
443.813	100.81
444.034	109.81
444.255	98.81
444.476	91.81
444.698	86.81
444.919	88.81
445.14	119.81
445.361	113.81
445.582	114.81
445.803	129.81
446.024	118.81
446.245	133.81
446.466	114.81
446.687	88.81
446.908	96.81
447.129	89.81
447.35	96.81
447.571	92.81
447.792	91.81
448.013	94.81
448.234	102.81
448.455	91.81
448.675	123.81
448.896	114.81
449.117	85.81
449.338	117.81
449.559	142.81
449.779	128.81
450	106.81
450.221	96.81
450.442	94.81
450.662	98.81
450.883	89.81
451.104	107.81
451.324	98.81
451.545	107.81
451.766	84.81
451.986	96.81
452.207	84.81
452.428	91.81
452.648	91.81
452.869	100.81
453.089	111.81
453.31	108.81
453.53	96.81
453.751	76.81
453.971	98.81
454.192	113.81
454.412	91.81
454.633	94.81
454.853	99.81
455.073	78.81
455.294	97.81
455.514	99.81
455.734	87.81
455.955	89.81
456.175	91.81
456.395	76.81
456.616	77.81
456.836	93.81
457.056	65.81
457.276	82.81
457.497	94.81
457.717	86.81
457.937	86.81
458.157	75.81
458.377	97.81
458.598	104.81
458.818	140.81
459.038	152.81
459.258	101.81
459.478	80.81
459.698	95.81
459.918	81.81
460.138	81.81
460.358	99.81
460.578	96.81
460.798	100.81
461.018	82.81
461.238	80.81
461.458	93.81
461.678	70.81
461.898	91.81
462.118	92.81
462.338	93.81
462.558	98.81
462.777	83.81
462.997	96.81
463.217	102.81
463.437	72.81
463.657	84.81
463.876	76.81
464.096	92.81
464.316	91.81
464.536	74.81
464.755	87.81
464.975	110.81
465.195	150.81
465.414	141.81
465.634	99.81
465.854	84.81
466.073	95.81
466.293	95.81
466.512	86.81
466.732	82.81
466.951	96.81
467.171	82.81
467.391	93.81
467.61	100.81
467.829	89.81
468.049	85.81
468.268	83.81
468.488	101.81
468.707	86.81
468.927	84.81
469.146	92.81
469.365	91.81
469.585	92.81
469.804	96.81
470.023	109.81
470.243	90.81
470.462	80.81
470.681	93.81
470.901	86.81
471.12	94.81
471.339	88.81
471.558	93.81
471.777	85.81
471.997	85.81
472.216	92.81
472.435	87.81
472.654	89.81
472.873	91.81
473.092	91.81
473.311	90.81
473.53	80.81
473.749	93.81
473.968	94.81
474.187	111.81
474.406	96.81
474.625	93.81
474.844	86.81
475.063	86.81
475.282	77.81
475.501	92.81
475.72	95.81
475.939	92.81
476.158	94.81
476.377	98.81
476.596	92.81
476.814	98.81
477.033	96.81
477.252	92.81
477.471	87.81
477.69	88.81
477.908	87.81
478.127	88.81
478.346	76.81
478.564	80.81
478.783	106.81
479.002	93.81
479.22	91.81
479.439	84.81
479.658	96.81
479.876	95.81
480.095	86.81
480.313	91.81
480.532	85.81
480.751	88.81
480.969	83.81
481.188	107.81
481.406	90.81
481.624	97.81
481.843	89.81
482.061	90.81
482.28	92.81
482.498	97.81
482.717	83.81
482.935	80.81
483.153	93.81
483.372	100.81
483.59	98.81
483.808	82.81
484.027	93.81
484.245	84.81
484.463	87.81
484.681	78.81
484.9	87.81
485.118	82.81
485.336	115.81
485.554	89.81
485.772	112.81
485.99	100.81
486.209	108.81
486.427	99.81
486.645	100.81
486.863	99.81
487.081	97.81
487.299	105.81
487.517	99.81
487.735	97.81
487.953	91.81
488.171	101.81
488.389	84.81
488.607	99.81
488.825	92.81
489.043	90.81
489.261	99.81
489.479	106.81
489.696	92.81
489.914	92.81
490.132	77.81
490.35	95.81
490.568	93.81
490.786	83.81
491.003	94.81
491.221	100.81
491.439	108.81
491.657	99.81
491.874	88.81
492.092	98.81
492.31	99.81
492.527	94.81
492.745	89.81
492.963	88.81
493.18	92.81
493.398	102.81
493.615	90.81
493.833	92.81
494.05	93.81
494.268	85.81
494.485	70.81
494.703	82.81
494.92	84.81
495.138	93.81
495.355	104.81
495.573	104.81
495.79	92.81
496.008	91.81
496.225	85.81
496.442	84.81
496.66	69.81
496.877	99.81
497.094	99.81
497.312	99.81
497.529	97.81
497.746	86.81
497.963	95.81
498.181	103.81
498.398	100.81
498.615	118.81
498.832	98.81
499.049	88.81
499.267	91.81
499.484	101.81
499.701	88.81
499.918	69.81
500.135	81.81
500.352	83.81
500.569	81.81
500.786	96.81
501.003	97.81
501.22	85.81
501.437	96.81
501.654	87.81
501.871	110.81
502.088	97.81
502.305	107.81
502.522	91.81
502.739	80.81
502.956	106.81
503.172	102.81
503.389	102.81
503.606	106.81
503.823	91.81
504.04	86.81
504.256	91.81
504.473	97.81
504.69	76.81
504.907	94.81
505.123	91.81
505.34	88.81
505.557	100.81
505.773	94.81
505.99	93.81
506.207	87.81
506.423	83.81
506.64	102.81
506.856	74.81
507.073	88.81
507.289	88.81
507.506	101.81
507.722	100.81
507.939	97.81
508.155	96.81
508.372	78.81
508.588	102.81
508.805	86.81
509.021	89.81
509.238	104.81
509.454	97.81
509.67	100.81
509.887	111.81
510.103	122.81
510.319	212.81
510.536	734.81
510.752	2304.81
510.968	643.81
511.184	159.81
511.401	110.81
511.617	107.81
511.833	83.81
512.049	98.81
512.265	86.81
512.481	89.81
512.698	96.81
512.914	80.81
513.13	97.81
513.346	84.81
513.562	100.81
513.778	89.81
513.994	107.81
514.21	97.81
514.426	111.81
514.642	120.81
514.858	129.81
515.074	151.81
515.29	441.81
515.506	1331.81
515.721	491.81
