Data from Uncirc_1995_H10_HRD10591_00025.txt Node
Date: Wed Jan 03 11:35:38 EST 2024
User: Yrep
Spectrometer: HR+D1059
Trigger mode: 1
Integration Time (sec): 1.000000E-1
Scans to average: 1
Electric dark correction enabled: true
Nonlinearity correction enabled: false
Boxcar width: 0
XAxis mode: Wavelengths
Number of Pixels in Spectrum: 2048
>>>>>Begin Spectral Data<<<<<
223.165	-14.19
223.4	-14.19
223.635	-14.19
223.869	-22.19
224.104	-21.19
224.338	-9.19
224.573	-25.19
224.808	-14.19
225.042	3.81
225.277	-9.19
225.511	-12.19
225.746	8.81
225.98	17.81
226.215	13.81
226.449	20.81
226.683	28.81
226.918	17.81
227.152	15.81
227.387	31.81
227.621	36.81
227.856	38.81
228.09	57.81
228.324	43.81
228.559	54.81
228.793	66.81
229.027	63.81
229.262	72.81
229.496	64.81
229.73	80.81
229.964	81.81
230.199	76.81
230.433	67.81
230.667	82.81
230.901	72.81
231.136	72.81
231.37	70.81
231.604	88.81
231.838	78.81
232.072	98.81
232.306	77.81
232.541	74.81
232.775	77.81
233.009	81.81
233.243	86.81
233.477	84.81
233.711	74.81
233.945	76.81
234.179	81.81
234.413	86.81
234.647	79.81
234.881	74.81
235.115	90.81
235.349	79.81
235.583	70.81
235.817	84.81
236.051	80.81
236.285	82.81
236.519	73.81
236.753	78.81
236.987	69.81
237.221	98.81
237.455	89.81
237.689	76.81
237.922	74.81
238.156	78.81
238.39	77.81
238.624	75.81
238.858	78.81
239.091	77.81
239.325	80.81
239.559	76.81
239.793	90.81
240.027	71.81
240.26	70.81
240.494	82.81
240.728	80.81
240.961	82.81
241.195	74.81
241.429	80.81
241.662	86.81
241.896	80.81
242.13	61.81
242.363	85.81
242.597	80.81
242.83	82.81
243.064	81.81
243.298	78.81
243.531	76.81
243.765	82.81
243.998	94.81
244.232	85.81
244.465	84.81
244.699	72.81
244.932	74.81
245.166	85.81
245.399	91.81
245.633	83.81
245.866	83.81
246.099	81.81
246.333	87.81
246.566	87.81
246.8	77.81
247.033	83.81
247.266	68.81
247.5	80.81
247.733	72.81
247.966	66.81
248.2	88.81
248.433	81.81
248.666	72.81
248.899	78.81
249.133	87.81
249.366	81.81
249.599	94.81
249.832	96.81
250.066	87.81
250.299	92.81
250.532	91.81
250.765	75.81
250.998	85.81
251.231	72.81
251.465	86.81
251.698	89.81
251.931	88.81
252.164	75.81
252.397	84.81
252.63	77.81
252.863	80.81
253.096	76.81
253.329	89.81
253.562	92.81
253.795	88.81
254.028	91.81
254.261	74.81
254.494	91.81
254.727	75.81
254.96	90.81
255.193	74.81
255.426	80.81
255.659	69.81
255.892	94.81
256.124	90.81
256.357	94.81
256.59	84.81
256.823	74.81
257.056	75.81
257.289	96.81
257.521	78.81
257.754	97.81
257.987	80.81
258.22	78.81
258.452	76.81
258.685	86.81
258.918	73.81
259.151	76.81
259.383	85.81
259.616	88.81
259.849	82.81
260.081	88.81
260.314	80.81
260.547	73.81
260.779	92.81
261.012	86.81
261.244	93.81
261.477	84.81
261.71	83.81
261.942	95.81
262.175	107.81
262.407	81.81
262.64	83.81
262.872	78.81
263.105	93.81
263.337	93.81
263.57	97.81
263.802	92.81
264.035	80.81
264.267	78.81
264.499	92.81
264.732	69.81
264.964	83.81
265.197	83.81
265.429	85.81
265.661	84.81
265.894	75.81
266.126	86.81
266.358	83.81
266.591	93.81
266.823	88.81
267.055	76.81
267.287	88.81
267.52	89.81
267.752	76.81
267.984	87.81
268.216	75.81
268.448	84.81
268.681	88.81
268.913	81.81
269.145	92.81
269.377	89.81
269.609	88.81
269.841	86.81
270.073	85.81
270.306	78.81
270.538	98.81
270.77	100.81
271.002	97.81
271.234	80.81
271.466	88.81
271.698	90.81
271.93	75.81
272.162	84.81
272.394	93.81
272.626	84.81
272.858	74.81
273.09	57.81
273.322	86.81
273.553	80.81
273.785	96.81
274.017	81.81
274.249	93.81
274.481	93.81
274.713	98.81
274.945	91.81
275.176	81.81
275.408	88.81
275.64	83.81
275.872	92.81
276.104	98.81
276.335	90.81
276.567	105.81
276.799	100.81
277.031	104.81
277.262	83.81
277.494	86.81
277.726	100.81
277.957	86.81
278.189	91.81
278.421	94.81
278.652	87.81
278.884	100.81
279.115	80.81
279.347	70.81
279.579	106.81
279.81	83.81
280.042	101.81
280.273	95.81
280.505	81.81
280.736	86.81
280.968	80.81
281.199	92.81
281.431	94.81
281.662	85.81
281.894	97.81
282.125	92.81
282.356	94.81
282.588	132.81
282.819	112.81
283.051	81.81
283.282	81.81
283.513	84.81
283.745	89.81
283.976	93.81
284.207	84.81
284.439	83.81
284.67	88.81
284.901	88.81
285.132	86.81
285.364	84.81
285.595	89.81
285.826	94.81
286.057	109.81
286.288	76.81
286.52	78.81
286.751	73.81
286.982	92.81
287.213	86.81
287.444	90.81
287.675	91.81
287.906	85.81
288.138	96.81
288.369	94.81
288.6	84.81
288.831	91.81
289.062	92.81
289.293	95.81
289.524	84.81
289.755	84.81
289.986	86.81
290.217	97.81
290.448	99.81
290.679	91.81
290.91	84.81
291.141	73.81
291.371	76.81
291.602	80.81
291.833	74.81
292.064	87.81
292.295	91.81
292.526	101.81
292.757	112.81
292.987	92.81
293.218	102.81
293.449	93.81
293.68	95.81
293.91	94.81
294.141	92.81
294.372	81.81
294.603	93.81
294.833	83.81
295.064	93.81
295.295	94.81
295.525	86.81
295.756	94.81
295.987	109.81
296.217	129.81
296.448	120.81
296.679	93.81
296.909	91.81
297.14	90.81
297.37	89.81
297.601	94.81
297.831	80.81
298.062	90.81
298.292	92.81
298.523	97.81
298.753	98.81
298.984	89.81
299.214	99.81
299.445	97.81
299.675	82.81
299.905	88.81
300.136	85.81
300.366	90.81
300.597	96.81
300.827	107.81
301.057	85.81
301.288	98.81
301.518	95.81
301.748	83.81
301.979	94.81
302.209	101.81
302.439	88.81
302.669	97.81
302.9	104.81
303.13	98.81
303.36	88.81
303.59	99.81
303.82	108.81
304.051	97.81
304.281	79.81
304.511	98.81
304.741	96.81
304.971	83.81
305.201	97.81
305.431	72.81
305.661	93.81
305.891	94.81
306.121	92.81
306.352	101.81
306.582	99.81
306.812	88.81
307.042	83.81
307.272	101.81
307.502	102.81
307.731	101.81
307.961	98.81
308.191	92.81
308.421	90.81
308.651	77.81
308.881	97.81
309.111	97.81
309.341	108.81
309.571	97.81
309.8	86.81
310.03	92.81
310.26	99.81
310.49	100.81
310.72	93.81
310.949	100.81
311.179	95.81
311.409	105.81
311.639	86.81
311.868	102.81
312.098	98.81
312.328	87.81
312.557	106.81
312.787	103.81
313.017	101.81
313.246	97.81
313.476	95.81
313.706	89.81
313.935	91.81
314.165	92.81
314.394	85.81
314.624	104.81
314.853	90.81
315.083	93.81
315.312	94.81
315.542	100.81
315.771	91.81
316.001	93.81
316.23	105.81
316.46	76.81
316.689	76.81
316.919	95.81
317.148	107.81
317.377	109.81
317.607	85.81
317.836	81.81
318.065	90.81
318.295	97.81
318.524	107.81
318.753	94.81
318.983	110.81
319.212	104.81
319.441	107.81
319.67	111.81
319.9	102.81
320.129	78.81
320.358	93.81
320.587	117.81
320.816	102.81
321.046	92.81
321.275	96.81
321.504	98.81
321.733	87.81
321.962	86.81
322.191	94.81
322.42	103.81
322.649	106.81
322.878	104.81
323.108	123.81
323.337	117.81
323.566	113.81
323.795	150.81
324.024	190.81
324.253	349.81
324.482	772.81
324.71	1574.81
324.939	2076.81
325.168	769.81
325.397	243.81
325.626	140.81
325.855	114.81
326.084	116.81
326.313	130.81
326.542	158.81
326.77	213.81
326.999	421.81
327.228	878.81
327.457	1593.81
327.686	1280.81
327.914	354.81
328.143	190.81
328.372	140.81
328.6	128.81
328.829	100.81
329.058	112.81
329.287	120.81
329.515	118.81
329.744	89.81
329.972	101.81
330.201	91.81
330.43	115.81
330.658	107.81
330.887	124.81
331.115	114.81
331.344	112.81
331.572	107.81
331.801	104.81
332.03	98.81
332.258	101.81
332.486	110.81
332.715	82.81
332.943	115.81
333.172	100.81
333.4	82.81
333.629	108.81
333.857	106.81
334.085	94.81
334.314	100.81
334.542	90.81
334.771	95.81
334.999	94.81
335.227	110.81
335.455	95.81
335.684	114.81
335.912	96.81
336.14	114.81
336.369	108.81
336.597	109.81
336.825	92.81
337.053	89.81
337.281	88.81
337.51	101.81
337.738	101.81
337.966	94.81
338.194	103.81
338.422	113.81
338.65	101.81
338.878	93.81
339.106	82.81
339.334	82.81
339.562	92.81
339.79	99.81
340.018	90.81
340.246	99.81
340.474	104.81
340.702	98.81
340.93	89.81
341.158	81.81
341.386	110.81
341.614	104.81
341.842	100.81
342.07	92.81
342.298	108.81
342.526	100.81
342.754	107.81
342.981	77.81
343.209	101.81
343.437	99.81
343.665	82.81
343.893	93.81
344.12	82.81
344.348	99.81
344.576	87.81
344.804	97.81
345.031	107.81
345.259	89.81
345.487	100.81
345.714	90.81
345.942	84.81
346.17	106.81
346.397	92.81
346.625	89.81
346.853	96.81
347.08	98.81
347.308	102.81
347.535	86.81
347.763	98.81
347.99	102.81
348.218	110.81
348.445	110.81
348.673	83.81
348.9	95.81
349.128	98.81
349.355	92.81
349.583	92.81
349.81	94.81
350.037	99.81
350.265	102.81
350.492	102.81
350.72	100.81
350.947	105.81
351.174	115.81
351.402	91.81
351.629	91.81
351.856	89.81
352.083	101.81
352.311	114.81
352.538	106.81
352.765	105.81
352.992	112.81
353.22	103.81
353.447	86.81
353.674	107.81
353.901	110.81
354.128	112.81
354.355	90.81
354.583	102.81
354.81	114.81
355.037	98.81
355.264	103.81
355.491	88.81
355.718	102.81
355.945	99.81
356.172	99.81
356.399	102.81
356.626	99.81
356.853	88.81
357.08	103.81
357.307	110.81
357.534	105.81
357.761	103.81
357.988	105.81
358.215	92.81
358.441	98.81
358.668	92.81
358.895	89.81
359.122	95.81
359.349	100.81
359.576	89.81
359.802	96.81
360.029	112.81
360.256	105.81
360.483	99.81
360.709	94.81
360.936	107.81
361.163	102.81
361.39	91.81
361.616	87.81
361.843	104.81
362.07	101.81
362.296	88.81
362.523	83.81
362.749	100.81
362.976	91.81
363.203	97.81
363.429	92.81
363.656	92.81
363.882	99.81
364.109	99.81
364.335	104.81
364.562	89.81
364.788	89.81
365.015	94.81
365.241	101.81
365.468	108.81
365.694	94.81
365.92	87.81
366.147	93.81
366.373	93.81
366.599	97.81
366.826	94.81
367.052	88.81
367.278	92.81
367.505	88.81
367.731	89.81
367.957	86.81
368.184	86.81
368.41	98.81
368.636	128.81
368.862	118.81
369.089	93.81
369.315	85.81
369.541	100.81
369.767	99.81
369.993	100.81
370.219	97.81
370.445	93.81
370.672	84.81
370.898	91.81
371.124	78.81
371.35	87.81
371.576	97.81
371.802	99.81
372.028	88.81
372.254	86.81
372.48	100.81
372.706	82.81
372.932	68.81
373.158	88.81
373.384	93.81
373.61	115.81
373.835	84.81
374.061	90.81
374.287	96.81
374.513	97.81
374.739	80.81
374.965	101.81
375.191	84.81
375.416	94.81
375.642	108.81
375.868	86.81
376.094	79.81
376.319	90.81
376.545	107.81
376.771	98.81
376.997	97.81
377.222	94.81
377.448	88.81
377.674	87.81
377.899	92.81
378.125	97.81
378.35	97.81
378.576	91.81
378.802	94.81
379.027	81.81
379.253	86.81
379.478	106.81
379.704	86.81
379.929	85.81
380.155	96.81
380.38	99.81
380.606	90.81
380.831	85.81
381.057	97.81
381.282	96.81
381.507	84.81
381.733	100.81
381.958	110.81
382.184	96.81
382.409	113.81
382.634	92.81
382.86	90.81
383.085	107.81
383.31	109.81
383.535	104.81
383.761	114.81
383.986	109.81
384.211	101.81
384.436	96.81
384.662	98.81
384.887	111.81
385.112	109.81
385.337	109.81
385.562	105.81
385.787	123.81
386.013	106.81
386.238	102.81
386.463	99.81
386.688	111.81
386.913	101.81
387.138	96.81
387.363	101.81
387.588	111.81
387.813	113.81
388.038	112.81
388.263	114.81
388.488	108.81
388.713	109.81
388.938	97.81
389.163	105.81
389.387	100.81
389.612	94.81
389.837	96.81
390.062	85.81
390.287	91.81
390.512	113.81
390.736	86.81
390.961	103.81
391.186	100.81
391.411	86.81
391.636	93.81
391.86	78.81
392.085	88.81
392.31	96.81
392.534	85.81
392.759	79.81
392.984	87.81
393.208	101.81
393.433	84.81
393.658	92.81
393.882	87.81
394.107	81.81
394.331	99.81
394.556	97.81
394.78	92.81
395.005	94.81
395.229	97.81
395.454	73.81
395.678	90.81
395.903	75.81
396.127	88.81
396.352	93.81
396.576	81.81
396.801	86.81
397.025	93.81
397.249	110.81
397.474	105.81
397.698	101.81
397.922	113.81
398.147	80.81
398.371	85.81
398.595	84.81
398.82	97.81
399.044	86.81
399.268	95.81
399.492	106.81
399.717	100.81
399.941	97.81
400.165	99.81
400.389	72.81
400.613	79.81
400.837	83.81
401.062	88.81
401.286	84.81
401.51	83.81
401.734	75.81
401.958	108.81
402.182	113.81
402.406	136.81
402.63	104.81
402.854	96.81
403.078	88.81
403.302	92.81
403.526	85.81
403.75	89.81
403.974	79.81
404.198	82.81
404.422	91.81
404.645	84.81
404.869	86.81
405.093	101.81
405.317	90.81
405.541	97.81
405.765	98.81
405.988	85.81
406.212	145.81
406.436	213.81
406.66	134.81
406.883	101.81
407.107	92.81
407.331	108.81
407.555	100.81
407.778	85.81
408.002	94.81
408.226	96.81
408.449	76.81
408.673	96.81
408.896	95.81
409.12	99.81
409.344	89.81
409.567	99.81
409.791	96.81
410.014	98.81
410.238	99.81
410.461	66.81
410.685	96.81
410.908	104.81
411.132	117.81
411.355	111.81
411.578	87.81
411.802	76.81
412.025	93.81
412.249	92.81
412.472	93.81
412.695	107.81
412.919	88.81
413.142	83.81
413.365	86.81
413.589	87.81
413.812	91.81
414.035	106.81
414.258	91.81
414.482	74.81
414.705	89.81
414.928	94.81
415.151	93.81
415.374	102.81
415.597	99.81
415.821	91.81
416.044	93.81
416.267	83.81
416.49	94.81
416.713	91.81
416.936	97.81
417.159	90.81
417.382	82.81
417.605	102.81
417.828	104.81
418.051	88.81
418.274	80.81
418.497	83.81
418.72	91.81
418.943	84.81
419.166	104.81
419.389	95.81
419.611	75.81
419.834	83.81
420.057	78.81
420.28	94.81
420.503	78.81
420.726	82.81
420.948	82.81
421.171	94.81
421.394	80.81
421.617	83.81
421.839	92.81
422.062	89.81
422.285	88.81
422.507	94.81
422.73	97.81
422.953	82.81
423.175	97.81
423.398	94.81
423.621	101.81
423.843	87.81
424.066	92.81
424.288	79.81
424.511	78.81
424.733	99.81
424.956	104.81
425.178	100.81
425.401	92.81
425.623	96.81
425.846	88.81
426.068	83.81
426.291	95.81
426.513	83.81
426.735	92.81
426.958	105.81
427.18	110.81
427.402	127.81
427.625	152.81
427.847	123.81
428.069	90.81
428.292	86.81
428.514	105.81
428.736	90.81
428.958	97.81
429.181	88.81
429.403	66.81
429.625	79.81
429.847	92.81
430.069	92.81
430.292	84.81
430.514	79.81
430.736	84.81
430.958	67.81
431.18	88.81
431.402	95.81
431.624	84.81
431.846	82.81
432.068	82.81
432.29	88.81
432.512	85.81
432.734	88.81
432.956	96.81
433.178	97.81
433.4	98.81
433.622	98.81
433.844	99.81
434.066	96.81
434.287	93.81
434.509	94.81
434.731	105.81
434.953	80.81
435.175	85.81
435.397	92.81
435.618	98.81
435.84	98.81
436.062	111.81
436.284	120.81
436.505	97.81
436.727	101.81
436.949	86.81
437.17	84.81
437.392	91.81
437.614	93.81
437.835	108.81
438.057	108.81
438.278	108.81
438.5	105.81
438.721	107.81
438.943	121.81
439.165	93.81
439.386	76.81
439.608	105.81
439.829	110.81
440.05	116.81
440.272	125.81
440.493	106.81
440.715	89.81
440.936	99.81
441.158	93.81
441.379	69.81
441.6	82.81
441.822	86.81
442.043	90.81
442.264	97.81
442.486	107.81
442.707	90.81
442.928	102.81
443.149	123.81
443.371	124.81
443.592	101.81
443.813	107.81
444.034	96.81
444.255	96.81
444.476	91.81
444.698	89.81
444.919	91.81
445.14	144.81
445.361	121.81
445.582	96.81
445.803	114.81
446.024	124.81
446.245	113.81
446.466	107.81
446.687	97.81
446.908	91.81
447.129	91.81
447.35	101.81
447.571	89.81
447.792	90.81
448.013	92.81
448.234	102.81
448.455	102.81
448.675	102.81
448.896	110.81
449.117	81.81
449.338	91.81
449.559	119.81
449.779	124.81
450	85.81
450.221	100.81
450.442	95.81
450.662	101.81
450.883	97.81
451.104	99.81
451.324	92.81
451.545	81.81
451.766	76.81
451.986	92.81
452.207	84.81
452.428	79.81
452.648	82.81
452.869	104.81
453.089	110.81
453.31	103.81
453.53	101.81
453.751	93.81
453.971	105.81
454.192	92.81
454.412	85.81
454.633	84.81
454.853	80.81
455.073	76.81
455.294	86.81
455.514	96.81
455.734	84.81
455.955	89.81
456.175	76.81
456.395	84.81
456.616	86.81
456.836	94.81
457.056	80.81
457.276	88.81
457.497	82.81
457.717	86.81
457.937	102.81
458.157	98.81
458.377	90.81
458.598	107.81
458.818	140.81
459.038	137.81
459.258	115.81
459.478	92.81
459.698	81.81
459.918	93.81
460.138	95.81
460.358	85.81
460.578	83.81
460.798	85.81
461.018	101.81
461.238	100.81
461.458	96.81
461.678	85.81
461.898	82.81
462.118	84.81
462.338	93.81
462.558	88.81
462.777	85.81
462.997	78.81
463.217	89.81
463.437	92.81
463.657	87.81
463.876	85.81
464.096	91.81
464.316	92.81
464.536	82.81
464.755	93.81
464.975	95.81
465.195	137.81
465.414	133.81
465.634	92.81
465.854	97.81
466.073	90.81
466.293	81.81
466.512	91.81
466.732	79.81
466.951	93.81
467.171	86.81
467.391	94.81
467.61	96.81
467.829	98.81
468.049	85.81
468.268	96.81
468.488	80.81
468.707	77.81
468.927	96.81
469.146	78.81
469.365	89.81
469.585	100.81
469.804	94.81
470.023	78.81
470.243	112.81
470.462	100.81
470.681	96.81
470.901	83.81
471.12	98.81
471.339	92.81
471.558	89.81
471.777	105.81
471.997	93.81
472.216	98.81
472.435	105.81
472.654	87.81
472.873	82.81
473.092	100.81
473.311	100.81
473.53	98.81
473.749	91.81
473.968	98.81
474.187	97.81
474.406	92.81
474.625	96.81
474.844	86.81
475.063	96.81
475.282	92.81
475.501	93.81
475.72	88.81
475.939	100.81
476.158	89.81
476.377	85.81
476.596	92.81
476.814	71.81
477.033	94.81
477.252	88.81
477.471	87.81
477.69	79.81
477.908	94.81
478.127	90.81
478.346	103.81
478.564	95.81
478.783	99.81
479.002	108.81
479.22	92.81
479.439	99.81
479.658	92.81
479.876	94.81
480.095	92.81
480.313	91.81
480.532	92.81
480.751	102.81
480.969	84.81
481.188	101.81
481.406	98.81
481.624	90.81
481.843	85.81
482.061	85.81
482.28	84.81
482.498	82.81
482.717	97.81
482.935	89.81
483.153	90.81
483.372	85.81
483.59	95.81
483.808	102.81
484.027	97.81
484.245	91.81
484.463	99.81
484.681	83.81
484.9	90.81
485.118	101.81
485.336	108.81
485.554	107.81
485.772	90.81
485.99	115.81
486.209	114.81
486.427	97.81
486.645	104.81
486.863	111.81
487.081	98.81
487.299	91.81
487.517	92.81
487.735	100.81
487.953	96.81
488.171	83.81
488.389	95.81
488.607	97.81
488.825	84.81
489.043	86.81
489.261	85.81
489.479	85.81
489.696	64.81
489.914	78.81
490.132	95.81
490.35	102.81
490.568	85.81
490.786	92.81
491.003	87.81
491.221	89.81
491.439	82.81
491.657	87.81
491.874	96.81
492.092	82.81
492.31	90.81
492.527	81.81
492.745	98.81
492.963	108.81
493.18	88.81
493.398	94.81
493.615	89.81
493.833	96.81
494.05	90.81
494.268	96.81
494.485	91.81
494.703	90.81
494.92	94.81
495.138	105.81
495.355	94.81
495.573	96.81
495.79	86.81
496.008	100.81
496.225	84.81
496.442	83.81
496.66	93.81
496.877	90.81
497.094	92.81
497.312	98.81
497.529	83.81
497.746	81.81
497.963	93.81
498.181	92.81
498.398	87.81
498.615	120.81
498.832	94.81
499.049	74.81
499.267	93.81
499.484	95.81
499.701	84.81
499.918	106.81
500.135	102.81
500.352	104.81
500.569	107.81
500.786	97.81
501.003	96.81
501.22	96.81
501.437	95.81
501.654	95.81
501.871	116.81
502.088	92.81
502.305	95.81
502.522	88.81
502.739	85.81
502.956	87.81
503.172	92.81
503.389	98.81
503.606	94.81
503.823	93.81
504.04	89.81
504.256	84.81
504.473	85.81
504.69	84.81
504.907	89.81
505.123	93.81
505.34	84.81
505.557	96.81
505.773	100.81
505.99	106.81
506.207	94.81
506.423	99.81
506.64	94.81
506.856	89.81
507.073	101.81
507.289	95.81
507.506	102.81
507.722	119.81
507.939	116.81
508.155	99.81
508.372	103.81
508.588	106.81
508.805	98.81
509.021	95.81
509.238	100.81
509.454	97.81
509.67	107.81
509.887	105.81
510.103	141.81
510.319	211.81
510.536	738.81
510.752	2284.81
510.968	635.81
511.184	148.81
511.401	112.81
511.617	96.81
511.833	101.81
512.049	90.81
512.265	80.81
512.481	95.81
512.698	96.81
512.914	97.81
513.13	91.81
513.346	100.81
513.562	96.81
513.778	105.81
513.994	102.81
514.21	91.81
514.426	113.81
514.642	127.81
514.858	104.81
515.074	152.81
515.29	397.81
