Data from Uncirc_1995_H10_HRD10591_00069.txt Node
Date: Wed Jan 03 11:35:47 EST 2024
User: Yrep
Spectrometer: HR+D1059
Trigger mode: 1
Integration Time (sec): 1.000000E-1
Scans to average: 1
Electric dark correction enabled: true
Nonlinearity correction enabled: false
Boxcar width: 0
XAxis mode: Wavelengths
Number of Pixels in Spectrum: 2048
>>>>>Begin Spectral Data<<<<<
223.165	-19.25
223.4	-19.25
223.635	-19.25
223.869	-18.25
224.104	-16.25
224.338	-13.25
224.573	-2.25
224.808	-13.25
225.042	-28.25
225.277	4.75
225.511	-2.25
225.746	6.75
225.98	3.75
226.215	18.75
226.449	14.75
226.683	23.75
226.918	21.75
227.152	18.75
227.387	38.75
227.621	53.75
227.856	50.75
228.09	49.75
228.324	73.75
228.559	64.75
228.793	54.75
229.027	69.75
229.262	72.75
229.496	78.75
229.73	85.75
229.964	89.75
230.199	83.75
230.433	69.75
230.667	81.75
230.901	82.75
231.136	89.75
231.37	84.75
231.604	79.75
231.838	81.75
232.072	90.75
232.306	95.75
232.541	86.75
232.775	80.75
233.009	64.75
233.243	74.75
233.477	82.75
233.711	85.75
233.945	89.75
234.179	87.75
234.413	72.75
234.647	81.75
234.881	84.75
235.115	67.75
235.349	77.75
235.583	77.75
235.817	85.75
236.051	77.75
236.285	81.75
236.519	83.75
236.753	86.75
236.987	82.75
237.221	85.75
237.455	81.75
237.689	82.75
237.922	78.75
238.156	82.75
238.39	83.75
238.624	76.75
238.858	76.75
239.091	77.75
239.325	80.75
239.559	69.75
239.793	93.75
240.027	91.75
240.26	80.75
240.494	83.75
240.728	84.75
240.961	73.75
241.195	86.75
241.429	80.75
241.662	83.75
241.896	96.75
242.13	73.75
242.363	75.75
242.597	82.75
242.83	77.75
243.064	86.75
243.298	77.75
243.531	78.75
243.765	74.75
243.998	73.75
244.232	97.75
244.465	77.75
244.699	103.75
244.932	79.75
245.166	77.75
245.399	83.75
245.633	87.75
245.866	84.75
246.099	91.75
246.333	88.75
246.566	76.75
246.8	79.75
247.033	98.75
247.266	78.75
247.5	85.75
247.733	77.75
247.966	82.75
248.2	94.75
248.433	81.75
248.666	73.75
248.899	82.75
249.133	86.75
249.366	104.75
249.599	96.75
249.832	86.75
250.066	80.75
250.299	85.75
250.532	75.75
250.765	86.75
250.998	83.75
251.231	81.75
251.465	78.75
251.698	76.75
251.931	77.75
252.164	93.75
252.397	92.75
252.63	86.75
252.863	91.75
253.096	74.75
253.329	70.75
253.562	89.75
253.795	85.75
254.028	72.75
254.261	75.75
254.494	92.75
254.727	102.75
254.96	89.75
255.193	94.75
255.426	87.75
255.659	75.75
255.892	56.75
256.124	82.75
256.357	80.75
256.59	77.75
256.823	88.75
257.056	83.75
257.289	87.75
257.521	82.75
257.754	62.75
257.987	80.75
258.22	86.75
258.452	85.75
258.685	91.75
258.918	83.75
259.151	82.75
259.383	80.75
259.616	92.75
259.849	74.75
260.081	89.75
260.314	82.75
260.547	75.75
260.779	83.75
261.012	79.75
261.244	74.75
261.477	84.75
261.71	87.75
261.942	126.75
262.175	120.75
262.407	91.75
262.64	74.75
262.872	95.75
263.105	82.75
263.337	79.75
263.57	89.75
263.802	84.75
264.035	82.75
264.267	87.75
264.499	94.75
264.732	79.75
264.964	82.75
265.197	87.75
265.429	82.75
265.661	88.75
265.894	90.75
266.126	85.75
266.358	91.75
266.591	73.75
266.823	71.75
267.055	82.75
267.287	80.75
267.52	74.75
267.752	91.75
267.984	75.75
268.216	85.75
268.448	88.75
268.681	89.75
268.913	88.75
269.145	92.75
269.377	73.75
269.609	85.75
269.841	90.75
270.073	78.75
270.306	85.75
270.538	77.75
270.77	84.75
271.002	76.75
271.234	87.75
271.466	90.75
271.698	84.75
271.93	82.75
272.162	104.75
272.394	97.75
272.626	105.75
272.858	93.75
273.09	83.75
273.322	76.75
273.553	98.75
273.785	78.75
274.017	82.75
274.249	86.75
274.481	91.75
274.713	92.75
274.945	74.75
275.176	100.75
275.408	85.75
275.64	87.75
275.872	86.75
276.104	80.75
276.335	89.75
276.567	106.75
276.799	121.75
277.031	97.75
277.262	80.75
277.494	90.75
277.726	88.75
277.957	86.75
278.189	90.75
278.421	83.75
278.652	88.75
278.884	85.75
279.115	77.75
279.347	89.75
279.579	105.75
279.81	92.75
280.042	85.75
280.273	78.75
280.505	90.75
280.736	92.75
280.968	95.75
281.199	85.75
281.431	85.75
281.662	85.75
281.894	91.75
282.125	97.75
282.356	106.75
282.588	145.75
282.819	116.75
283.051	97.75
283.282	86.75
283.513	101.75
283.745	74.75
283.976	75.75
284.207	62.75
284.439	86.75
284.67	88.75
284.901	89.75
285.132	83.75
285.364	89.75
285.595	95.75
285.826	74.75
286.057	92.75
286.288	85.75
286.52	86.75
286.751	73.75
286.982	92.75
287.213	79.75
287.444	81.75
287.675	79.75
287.906	90.75
288.138	86.75
288.369	93.75
288.6	98.75
288.831	94.75
289.062	94.75
289.293	96.75
289.524	104.75
289.755	82.75
289.986	88.75
290.217	79.75
290.448	97.75
290.679	96.75
290.91	84.75
291.141	105.75
291.371	82.75
291.602	97.75
291.833	80.75
292.064	91.75
292.295	81.75
292.526	93.75
292.757	94.75
292.987	93.75
293.218	89.75
293.449	96.75
293.68	93.75
293.91	94.75
294.141	102.75
294.372	87.75
294.603	90.75
294.833	86.75
295.064	84.75
295.295	89.75
295.525	76.75
295.756	112.75
295.987	127.75
296.217	146.75
296.448	130.75
296.679	88.75
296.909	81.75
297.14	91.75
297.37	96.75
297.601	106.75
297.831	92.75
298.062	97.75
298.292	100.75
298.523	83.75
298.753	88.75
298.984	86.75
299.214	100.75
299.445	78.75
299.675	90.75
299.905	93.75
300.136	92.75
300.366	84.75
300.597	90.75
300.827	80.75
301.057	89.75
301.288	107.75
301.518	91.75
301.748	82.75
301.979	101.75
302.209	106.75
302.439	97.75
302.669	85.75
302.9	84.75
303.13	90.75
303.36	94.75
303.59	106.75
303.82	106.75
304.051	100.75
304.281	77.75
304.511	93.75
304.741	80.75
304.971	99.75
305.201	92.75
305.431	80.75
305.661	83.75
305.891	80.75
306.121	93.75
306.352	110.75
306.582	100.75
306.812	89.75
307.042	94.75
307.272	96.75
307.502	96.75
307.731	96.75
307.961	105.75
308.191	81.75
308.421	102.75
308.651	97.75
308.881	92.75
309.111	99.75
309.341	90.75
309.571	104.75
309.8	92.75
310.03	93.75
310.26	84.75
310.49	101.75
310.72	101.75
310.949	98.75
311.179	108.75
311.409	104.75
311.639	107.75
311.868	101.75
312.098	90.75
312.328	97.75
312.557	94.75
312.787	96.75
313.017	98.75
313.246	113.75
313.476	96.75
313.706	89.75
313.935	89.75
314.165	109.75
314.394	105.75
314.624	99.75
314.853	105.75
315.083	101.75
315.312	101.75
315.542	97.75
315.771	94.75
316.001	98.75
316.23	93.75
316.46	103.75
316.689	98.75
316.919	100.75
317.148	95.75
317.377	118.75
317.607	103.75
317.836	99.75
318.065	96.75
318.295	101.75
318.524	95.75
318.753	95.75
318.983	99.75
319.212	96.75
319.441	98.75
319.67	101.75
319.9	87.75
320.129	93.75
320.358	102.75
320.587	102.75
320.816	100.75
321.046	99.75
321.275	101.75
321.504	102.75
321.733	94.75
321.962	95.75
322.191	96.75
322.42	95.75
322.649	124.75
322.878	122.75
323.108	129.75
323.337	138.75
323.566	134.75
323.795	142.75
324.024	228.75
324.253	420.75
324.482	899.75
324.71	1915.75
324.939	2474.75
325.168	908.75
325.397	252.75
325.626	162.75
325.855	130.75
326.084	119.75
326.313	127.75
326.542	153.75
326.77	258.75
326.999	512.75
327.228	1020.75
327.457	1896.75
327.686	1509.75
327.914	408.75
328.143	202.75
328.372	153.75
328.6	131.75
328.829	123.75
329.058	129.75
329.287	131.75
329.515	112.75
329.744	116.75
329.972	115.75
330.201	102.75
330.43	112.75
330.658	116.75
330.887	143.75
331.115	126.75
331.344	99.75
331.572	93.75
331.801	96.75
332.03	109.75
332.258	108.75
332.486	96.75
332.715	90.75
332.943	88.75
333.172	93.75
333.4	104.75
333.629	96.75
333.857	117.75
334.085	92.75
334.314	97.75
334.542	102.75
334.771	98.75
334.999	100.75
335.227	104.75
335.455	91.75
335.684	108.75
335.912	97.75
336.14	83.75
336.369	77.75
336.597	100.75
336.825	85.75
337.053	98.75
337.281	96.75
337.51	90.75
337.738	96.75
337.966	92.75
338.194	102.75
338.422	102.75
338.65	79.75
338.878	99.75
339.106	108.75
339.334	97.75
339.562	96.75
339.79	101.75
340.018	94.75
340.246	102.75
340.474	95.75
340.702	86.75
340.93	96.75
341.158	85.75
341.386	106.75
341.614	108.75
341.842	104.75
342.07	100.75
342.298	95.75
342.526	105.75
342.754	84.75
342.981	91.75
343.209	113.75
343.437	102.75
343.665	101.75
343.893	89.75
344.12	86.75
344.348	92.75
344.576	90.75
344.804	100.75
345.031	105.75
345.259	96.75
345.487	100.75
345.714	101.75
345.942	96.75
346.17	96.75
346.397	92.75
346.625	88.75
346.853	101.75
347.08	96.75
347.308	102.75
347.535	95.75
347.763	102.75
347.99	93.75
348.218	117.75
348.445	107.75
348.673	105.75
348.9	107.75
349.128	105.75
349.355	93.75
349.583	100.75
349.81	86.75
350.037	97.75
350.265	105.75
350.492	103.75
350.72	100.75
350.947	102.75
351.174	131.75
351.402	100.75
351.629	99.75
351.856	105.75
352.083	109.75
352.311	113.75
352.538	111.75
352.765	114.75
352.992	114.75
353.22	106.75
353.447	110.75
353.674	99.75
353.901	109.75
354.128	96.75
354.355	74.75
354.583	102.75
354.81	101.75
355.037	81.75
355.264	85.75
355.491	85.75
355.718	90.75
355.945	115.75
356.172	102.75
356.399	94.75
356.626	90.75
356.853	98.75
357.08	88.75
357.307	95.75
357.534	95.75
357.761	110.75
357.988	115.75
358.215	100.75
358.441	96.75
358.668	85.75
358.895	101.75
359.122	108.75
359.349	89.75
359.576	90.75
359.802	94.75
360.029	115.75
360.256	117.75
360.483	103.75
360.709	98.75
360.936	88.75
361.163	104.75
361.39	86.75
361.616	88.75
361.843	91.75
362.07	94.75
362.296	100.75
362.523	86.75
362.749	101.75
362.976	91.75
363.203	83.75
363.429	93.75
363.656	96.75
363.882	85.75
364.109	74.75
364.335	99.75
364.562	80.75
364.788	104.75
365.015	102.75
365.241	107.75
365.468	108.75
365.694	124.75
365.92	90.75
366.147	88.75
366.373	92.75
366.599	95.75
366.826	99.75
367.052	81.75
367.278	89.75
367.505	89.75
367.731	98.75
367.957	95.75
368.184	90.75
368.41	101.75
368.636	106.75
368.862	131.75
369.089	111.75
369.315	99.75
369.541	93.75
369.767	92.75
369.993	104.75
370.219	97.75
370.445	92.75
370.672	80.75
370.898	81.75
371.124	87.75
371.35	89.75
371.576	88.75
371.802	83.75
372.028	95.75
372.254	79.75
372.48	101.75
372.706	86.75
372.932	92.75
373.158	93.75
373.384	98.75
373.61	100.75
373.835	88.75
374.061	106.75
374.287	83.75
374.513	105.75
374.739	89.75
374.965	90.75
375.191	95.75
375.416	87.75
375.642	102.75
375.868	104.75
376.094	102.75
376.319	95.75
376.545	87.75
376.771	101.75
376.997	101.75
377.222	104.75
377.448	94.75
377.674	96.75
377.899	86.75
378.125	100.75
378.35	88.75
378.576	97.75
378.802	89.75
379.027	97.75
379.253	72.75
379.478	105.75
379.704	67.75
379.929	96.75
380.155	89.75
380.38	99.75
380.606	108.75
380.831	87.75
381.057	102.75
381.282	87.75
381.507	105.75
381.733	96.75
381.958	90.75
382.184	98.75
382.409	113.75
382.634	101.75
382.86	83.75
383.085	97.75
383.31	89.75
383.535	109.75
383.761	98.75
383.986	98.75
384.211	110.75
384.436	93.75
384.662	89.75
384.887	96.75
385.112	101.75
385.337	95.75
385.562	98.75
385.787	97.75
386.013	103.75
386.238	116.75
386.463	101.75
386.688	109.75
386.913	104.75
387.138	115.75
387.363	98.75
387.588	106.75
387.813	104.75
388.038	102.75
388.263	114.75
388.488	94.75
388.713	100.75
388.938	89.75
389.163	98.75
389.387	100.75
389.612	104.75
389.837	86.75
390.062	81.75
390.287	93.75
390.512	85.75
390.736	86.75
390.961	98.75
391.186	93.75
391.411	91.75
391.636	95.75
391.86	93.75
392.085	85.75
392.31	81.75
392.534	100.75
392.759	95.75
392.984	88.75
393.208	84.75
393.433	84.75
393.658	82.75
393.882	94.75
394.107	85.75
394.331	84.75
394.556	90.75
394.78	87.75
395.005	105.75
395.229	72.75
395.454	64.75
395.678	87.75
395.903	80.75
396.127	80.75
396.352	92.75
396.576	90.75
396.801	89.75
397.025	80.75
397.249	97.75
397.474	101.75
397.698	100.75
397.922	80.75
398.147	90.75
398.371	99.75
398.595	84.75
398.82	75.75
399.044	86.75
399.268	88.75
399.492	95.75
399.717	92.75
399.941	77.75
400.165	86.75
400.389	92.75
400.613	84.75
400.837	93.75
401.062	95.75
401.286	94.75
401.51	86.75
401.734	101.75
401.958	126.75
402.182	127.75
402.406	162.75
402.63	106.75
402.854	103.75
403.078	76.75
403.302	90.75
403.526	90.75
403.75	101.75
403.974	91.75
404.198	94.75
404.422	90.75
404.645	95.75
404.869	96.75
405.093	92.75
405.317	86.75
405.541	106.75
405.765	106.75
405.988	128.75
406.212	186.75
406.436	243.75
406.66	142.75
406.883	108.75
407.107	102.75
407.331	100.75
407.555	115.75
407.778	103.75
408.002	89.75
408.226	77.75
408.449	86.75
408.673	84.75
408.896	99.75
409.12	101.75
409.344	77.75
409.567	94.75
409.791	105.75
410.014	92.75
410.238	96.75
410.461	99.75
410.685	93.75
410.908	109.75
411.132	104.75
411.355	106.75
411.578	82.75
411.802	84.75
412.025	98.75
412.249	95.75
412.472	98.75
412.695	89.75
412.919	97.75
413.142	86.75
413.365	90.75
413.589	81.75
413.812	77.75
414.035	103.75
414.258	92.75
414.482	93.75
414.705	96.75
414.928	83.75
415.151	101.75
415.374	101.75
415.597	90.75
415.821	102.75
416.044	106.75
416.267	94.75
416.49	88.75
416.713	94.75
416.936	80.75
417.159	92.75
417.382	68.75
417.605	87.75
417.828	98.75
418.051	82.75
418.274	89.75
418.497	98.75
418.72	96.75
418.943	89.75
419.166	100.75
419.389	85.75
419.611	91.75
419.834	107.75
420.057	90.75
420.28	90.75
420.503	87.75
420.726	96.75
420.948	89.75
421.171	86.75
421.394	93.75
421.617	82.75
421.839	85.75
422.062	103.75
422.285	100.75
422.507	88.75
422.73	97.75
422.953	92.75
423.175	92.75
423.398	85.75
423.621	93.75
423.843	100.75
424.066	97.75
424.288	91.75
424.511	96.75
424.733	100.75
424.956	110.75
425.178	102.75
425.401	105.75
425.623	96.75
425.846	90.75
426.068	96.75
426.291	89.75
426.513	84.75
426.735	98.75
426.958	92.75
427.18	110.75
427.402	139.75
427.625	178.75
427.847	136.75
428.069	104.75
428.292	85.75
428.514	91.75
428.736	79.75
428.958	91.75
429.181	86.75
429.403	86.75
429.625	66.75
429.847	101.75
430.069	98.75
430.292	93.75
430.514	91.75
430.736	85.75
430.958	94.75
431.18	100.75
431.402	92.75
431.624	84.75
431.846	91.75
432.068	90.75
432.29	87.75
432.512	84.75
432.734	90.75
432.956	89.75
433.178	86.75
433.4	102.75
433.622	97.75
433.844	90.75
434.066	89.75
434.287	95.75
434.509	90.75
434.731	96.75
434.953	66.75
435.175	94.75
435.397	97.75
435.618	90.75
435.84	100.75
436.062	137.75
436.284	118.75
436.505	101.75
436.727	112.75
436.949	94.75
437.17	85.75
437.392	74.75
437.614	88.75
437.835	111.75
438.057	117.75
438.278	102.75
438.5	90.75
438.721	129.75
438.943	100.75
439.165	82.75
439.386	86.75
439.608	97.75
439.829	98.75
440.05	113.75
440.272	138.75
440.493	102.75
440.715	82.75
440.936	92.75
441.158	112.75
441.379	86.75
441.6	97.75
441.822	119.75
442.043	96.75
442.264	93.75
442.486	101.75
442.707	86.75
442.928	113.75
443.149	133.75
443.371	131.75
443.592	109.75
443.813	105.75
444.034	99.75
444.255	107.75
444.476	86.75
444.698	100.75
444.919	72.75
445.14	131.75
445.361	114.75
445.582	103.75
445.803	136.75
446.024	137.75
446.245	149.75
446.466	114.75
446.687	97.75
446.908	80.75
447.129	86.75
447.35	112.75
447.571	94.75
447.792	94.75
448.013	100.75
448.234	103.75
448.455	90.75
448.675	119.75
448.896	110.75
449.117	106.75
449.338	103.75
449.559	128.75
449.779	129.75
450	112.75
450.221	108.75
450.442	81.75
450.662	98.75
450.883	120.75
451.104	94.75
451.324	102.75
451.545	84.75
451.766	92.75
451.986	94.75
452.207	86.75
452.428	102.75
452.648	105.75
452.869	114.75
453.089	106.75
453.31	132.75
453.53	94.75
453.751	91.75
453.971	94.75
454.192	108.75
454.412	80.75
454.633	91.75
454.853	90.75
455.073	81.75
455.294	90.75
455.514	109.75
455.734	102.75
455.955	90.75
456.175	92.75
456.395	81.75
456.616	78.75
456.836	103.75
457.056	91.75
457.276	98.75
457.497	87.75
457.717	87.75
457.937	80.75
458.157	79.75
458.377	88.75
458.598	107.75
458.818	130.75
459.038	146.75
459.258	98.75
459.478	87.75
459.698	97.75
459.918	85.75
460.138	90.75
460.358	82.75
460.578	81.75
460.798	100.75
461.018	85.75
461.238	96.75
461.458	103.75
461.678	82.75
461.898	83.75
462.118	82.75
462.338	93.75
462.558	76.75
462.777	94.75
462.997	91.75
463.217	73.75
463.437	93.75
463.657	92.75
463.876	90.75
464.096	88.75
464.316	102.75
464.536	94.75
464.755	92.75
464.975	121.75
465.195	186.75
465.414	156.75
465.634	95.75
465.854	95.75
466.073	89.75
466.293	84.75
466.512	91.75
466.732	101.75
466.951	86.75
467.171	96.75
467.391	87.75
467.61	105.75
467.829	103.75
468.049	94.75
468.268	85.75
468.488	87.75
468.707	98.75
468.927	93.75
469.146	84.75
469.365	81.75
469.585	94.75
469.804	99.75
470.023	91.75
470.243	95.75
470.462	107.75
470.681	117.75
470.901	85.75
471.12	86.75
471.339	83.75
471.558	89.75
471.777	92.75
471.997	82.75
472.216	81.75
472.435	87.75
472.654	82.75
472.873	84.75
473.092	90.75
473.311	93.75
473.53	82.75
473.749	93.75
473.968	99.75
474.187	106.75
474.406	104.75
474.625	88.75
474.844	91.75
475.063	90.75
475.282	79.75
475.501	97.75
475.72	91.75
475.939	93.75
476.158	84.75
476.377	84.75
476.596	92.75
476.814	83.75
477.033	91.75
477.252	80.75
477.471	88.75
477.69	96.75
477.908	91.75
478.127	107.75
478.346	85.75
478.564	90.75
478.783	92.75
479.002	93.75
479.22	104.75
479.439	95.75
479.658	92.75
479.876	98.75
480.095	94.75
480.313	102.75
480.532	91.75
480.751	97.75
480.969	102.75
481.188	102.75
481.406	105.75
481.624	99.75
481.843	95.75
482.061	99.75
482.28	97.75
482.498	94.75
482.717	95.75
482.935	97.75
483.153	81.75
483.372	82.75
483.59	97.75
483.808	94.75
484.027	93.75
484.245	107.75
484.463	90.75
484.681	104.75
484.9	88.75
485.118	104.75
485.336	98.75
485.554	89.75
485.772	102.75
485.99	104.75
486.209	114.75
486.427	110.75
486.645	122.75
486.863	117.75
487.081	94.75
487.299	97.75
487.517	93.75
487.735	93.75
487.953	96.75
488.171	90.75
488.389	105.75
488.607	91.75
488.825	99.75
489.043	90.75
489.261	99.75
489.479	95.75
489.696	90.75
489.914	86.75
490.132	97.75
490.35	109.75
490.568	98.75
490.786	97.75
491.003	109.75
491.221	82.75
491.439	95.75
491.657	105.75
491.874	95.75
492.092	85.75
492.31	99.75
492.527	84.75
492.745	99.75
492.963	90.75
493.18	87.75
493.398	100.75
493.615	94.75
493.833	87.75
494.05	104.75
494.268	94.75
494.485	92.75
494.703	85.75
494.92	102.75
495.138	90.75
495.355	82.75
495.573	92.75
495.79	96.75
496.008	87.75
496.225	94.75
496.442	75.75
496.66	99.75
496.877	95.75
497.094	106.75
497.312	97.75
497.529	92.75
497.746	109.75
497.963	91.75
498.181	101.75
498.398	95.75
498.615	97.75
498.832	100.75
499.049	102.75
499.267	85.75
499.484	88.75
499.701	101.75
499.918	96.75
500.135	90.75
500.352	82.75
500.569	95.75
500.786	97.75
501.003	89.75
501.22	93.75
501.437	90.75
501.654	98.75
501.871	97.75
502.088	91.75
502.305	93.75
502.522	81.75
502.739	103.75
502.956	88.75
503.172	90.75
503.389	116.75
503.606	105.75
503.823	94.75
504.04	92.75
504.256	89.75
504.473	81.75
504.69	100.75
504.907	99.75
505.123	98.75
505.34	97.75
505.557	94.75
505.773	89.75
505.99	100.75
506.207	107.75
506.423	94.75
506.64	99.75
506.856	99.75
507.073	98.75
507.289	99.75
507.506	95.75
507.722	108.75
507.939	111.75
508.155	112.75
508.372	102.75
508.588	92.75
508.805	114.75
509.021	90.75
509.238	97.75
509.454	107.75
509.67	102.75
509.887	137.75
510.103	156.75
510.319	251.75
510.536	914.75
510.752	2850.75
510.968	766.75
511.184	156.75
511.401	105.75
511.617	103.75
511.833	89.75
512.049	95.75
512.265	109.75
512.481	101.75
512.698	102.75
512.914	97.75
513.13	101.75
513.346	97.75
513.562	104.75
513.778	102.75
513.994	109.75
514.21	111.75
514.426	128.75
514.642	132.75
