Data from Uncirc_1995_H10_HRD10591_00079.txt Node
Date: Wed Jan 03 11:35:49 EST 2024
User: Yrep
Spectrometer: HR+D1059
Trigger mode: 1
Integration Time (sec): 1.000000E-1
Scans to average: 1
Electric dark correction enabled: true
Nonlinearity correction enabled: false
Boxcar width: 0
XAxis mode: Wavelengths
Number of Pixels in Spectrum: 2048
>>>>>Begin Spectral Data<<<<<
223.165	-18.31
223.4	-18.31
223.635	-18.31
223.869	-17.31
224.104	-22.31
224.338	-17.31
224.573	-18.31
224.808	-19.31
225.042	5.69
225.277	-1.31
225.511	4.69
225.746	-11.31
225.98	8.69
226.215	18.69
226.449	19.69
226.683	18.69
226.918	18.69
227.152	30.69
227.387	39.69
227.621	41.69
227.856	62.69
228.09	46.69
228.324	56.69
228.559	50.69
228.793	39.69
229.027	61.69
229.262	69.69
229.496	82.69
229.73	83.69
229.964	86.69
230.199	86.69
230.433	88.69
230.667	79.69
230.901	88.69
231.136	75.69
231.37	77.69
231.604	77.69
231.838	85.69
232.072	84.69
232.306	87.69
232.541	100.69
232.775	90.69
233.009	79.69
233.243	83.69
233.477	95.69
233.711	82.69
233.945	78.69
234.179	77.69
234.413	87.69
234.647	81.69
234.881	84.69
235.115	88.69
235.349	74.69
235.583	84.69
235.817	63.69
236.051	93.69
236.285	74.69
236.519	93.69
236.753	78.69
236.987	89.69
237.221	85.69
237.455	91.69
237.689	86.69
237.922	78.69
238.156	74.69
238.39	75.69
238.624	77.69
238.858	67.69
239.091	91.69
239.325	82.69
239.559	82.69
239.793	79.69
240.027	84.69
240.26	82.69
240.494	85.69
240.728	80.69
240.961	79.69
241.195	71.69
241.429	82.69
241.662	61.69
241.896	95.69
242.13	71.69
242.363	81.69
242.597	70.69
242.83	76.69
243.064	68.69
243.298	84.69
243.531	85.69
243.765	70.69
243.998	84.69
244.232	72.69
244.465	80.69
244.699	71.69
244.932	84.69
245.166	90.69
245.399	90.69
245.633	91.69
245.866	85.69
246.099	81.69
246.333	71.69
246.566	72.69
246.8	78.69
247.033	70.69
247.266	79.69
247.5	80.69
247.733	86.69
247.966	86.69
248.2	73.69
248.433	71.69
248.666	89.69
248.899	88.69
249.133	81.69
249.366	95.69
249.599	106.69
249.832	86.69
250.066	84.69
250.299	87.69
250.532	102.69
250.765	83.69
250.998	67.69
251.231	81.69
251.465	82.69
251.698	89.69
251.931	80.69
252.164	81.69
252.397	91.69
252.63	81.69
252.863	82.69
253.096	91.69
253.329	95.69
253.562	83.69
253.795	90.69
254.028	77.69
254.261	82.69
254.494	90.69
254.727	82.69
254.96	100.69
255.193	100.69
255.426	81.69
255.659	77.69
255.892	91.69
256.124	78.69
256.357	74.69
256.59	86.69
256.823	67.69
257.056	80.69
257.289	88.69
257.521	96.69
257.754	86.69
257.987	93.69
258.22	84.69
258.452	79.69
258.685	90.69
258.918	76.69
259.151	92.69
259.383	104.69
259.616	95.69
259.849	94.69
260.081	86.69
260.314	89.69
260.547	78.69
260.779	96.69
261.012	84.69
261.244	81.69
261.477	93.69
261.71	101.69
261.942	103.69
262.175	123.69
262.407	90.69
262.64	90.69
262.872	93.69
263.105	91.69
263.337	81.69
263.57	93.69
263.802	82.69
264.035	78.69
264.267	80.69
264.499	87.69
264.732	87.69
264.964	96.69
265.197	84.69
265.429	82.69
265.661	91.69
265.894	112.69
266.126	98.69
266.358	86.69
266.591	79.69
266.823	84.69
267.055	86.69
267.287	87.69
267.52	85.69
267.752	90.69
267.984	87.69
268.216	89.69
268.448	86.69
268.681	79.69
268.913	87.69
269.145	85.69
269.377	95.69
269.609	86.69
269.841	81.69
270.073	87.69
270.306	87.69
270.538	84.69
270.77	84.69
271.002	75.69
271.234	83.69
271.466	78.69
271.698	79.69
271.93	86.69
272.162	88.69
272.394	91.69
272.626	54.69
272.858	82.69
273.09	96.69
273.322	83.69
273.553	84.69
273.785	93.69
274.017	98.69
274.249	97.69
274.481	91.69
274.713	87.69
274.945	103.69
275.176	87.69
275.408	76.69
275.64	83.69
275.872	93.69
276.104	87.69
276.335	82.69
276.567	101.69
276.799	96.69
277.031	88.69
277.262	97.69
277.494	96.69
277.726	113.69
277.957	90.69
278.189	82.69
278.421	90.69
278.652	88.69
278.884	74.69
279.115	82.69
279.347	82.69
279.579	81.69
279.81	84.69
280.042	82.69
280.273	95.69
280.505	90.69
280.736	94.69
280.968	86.69
281.199	84.69
281.431	94.69
281.662	86.69
281.894	100.69
282.125	106.69
282.356	130.69
282.588	131.69
282.819	116.69
283.051	100.69
283.282	88.69
283.513	93.69
283.745	91.69
283.976	83.69
284.207	93.69
284.439	93.69
284.67	95.69
284.901	83.69
285.132	92.69
285.364	82.69
285.595	92.69
285.826	89.69
286.057	88.69
286.288	98.69
286.52	91.69
286.751	86.69
286.982	99.69
287.213	101.69
287.444	86.69
287.675	82.69
287.906	92.69
288.138	97.69
288.369	96.69
288.6	82.69
288.831	103.69
289.062	102.69
289.293	99.69
289.524	96.69
289.755	101.69
289.986	113.69
290.217	94.69
290.448	89.69
290.679	90.69
290.91	82.69
291.141	100.69
291.371	87.69
291.602	93.69
291.833	98.69
292.064	96.69
292.295	97.69
292.526	92.69
292.757	94.69
292.987	104.69
293.218	91.69
293.449	82.69
293.68	86.69
293.91	90.69
294.141	102.69
294.372	96.69
294.603	91.69
294.833	101.69
295.064	82.69
295.295	97.69
295.525	91.69
295.756	83.69
295.987	117.69
296.217	152.69
296.448	133.69
296.679	94.69
296.909	84.69
297.14	88.69
297.37	100.69
297.601	92.69
297.831	85.69
298.062	100.69
298.292	89.69
298.523	90.69
298.753	92.69
298.984	103.69
299.214	81.69
299.445	90.69
299.675	92.69
299.905	99.69
300.136	92.69
300.366	98.69
300.597	81.69
300.827	91.69
301.057	99.69
301.288	114.69
301.518	83.69
301.748	86.69
301.979	115.69
302.209	84.69
302.439	102.69
302.669	105.69
302.9	89.69
303.13	95.69
303.36	95.69
303.59	104.69
303.82	103.69
304.051	93.69
304.281	93.69
304.511	102.69
304.741	93.69
304.971	87.69
305.201	99.69
305.431	96.69
305.661	94.69
305.891	87.69
306.121	108.69
306.352	97.69
306.582	110.69
306.812	117.69
307.042	87.69
307.272	88.69
307.502	103.69
307.731	87.69
307.961	86.69
308.191	79.69
308.421	91.69
308.651	104.69
308.881	104.69
309.111	94.69
309.341	94.69
309.571	86.69
309.8	114.69
310.03	96.69
310.26	110.69
310.49	112.69
310.72	101.69
310.949	100.69
311.179	90.69
311.409	100.69
311.639	98.69
311.868	83.69
312.098	82.69
312.328	104.69
312.557	93.69
312.787	102.69
313.017	107.69
313.246	92.69
313.476	94.69
313.706	100.69
313.935	96.69
314.165	90.69
314.394	93.69
314.624	100.69
314.853	104.69
315.083	87.69
315.312	91.69
315.542	99.69
315.771	95.69
316.001	98.69
316.23	85.69
316.46	89.69
316.689	107.69
316.919	99.69
317.148	95.69
317.377	111.69
317.607	90.69
317.836	88.69
318.065	90.69
318.295	103.69
318.524	102.69
318.753	94.69
318.983	94.69
319.212	99.69
319.441	121.69
319.67	107.69
319.9	100.69
320.129	103.69
320.358	101.69
320.587	94.69
320.816	110.69
321.046	106.69
321.275	96.69
321.504	81.69
321.733	110.69
321.962	117.69
322.191	92.69
322.42	111.69
322.649	115.69
322.878	113.69
323.108	116.69
323.337	119.69
323.566	144.69
323.795	162.69
324.024	228.69
324.253	415.69
324.482	920.69
324.71	1942.69
324.939	2606.69
325.168	936.69
325.397	276.69
325.626	154.69
325.855	147.69
326.084	133.69
326.313	170.69
326.542	162.69
326.77	268.69
326.999	503.69
327.228	1042.69
327.457	1936.69
327.686	1554.69
327.914	410.69
328.143	204.69
328.372	154.69
328.6	116.69
328.829	116.69
329.058	123.69
329.287	136.69
329.515	122.69
329.744	104.69
329.972	101.69
330.201	110.69
330.43	118.69
330.658	123.69
330.887	142.69
331.115	119.69
331.344	99.69
331.572	107.69
331.801	115.69
332.03	99.69
332.258	104.69
332.486	106.69
332.715	90.69
332.943	98.69
333.172	92.69
333.4	82.69
333.629	95.69
333.857	118.69
334.085	123.69
334.314	103.69
334.542	100.69
334.771	101.69
334.999	103.69
335.227	97.69
335.455	103.69
335.684	100.69
335.912	92.69
336.14	98.69
336.369	103.69
336.597	98.69
336.825	124.69
337.053	98.69
337.281	86.69
337.51	89.69
337.738	97.69
337.966	97.69
338.194	117.69
338.422	101.69
338.65	110.69
338.878	93.69
339.106	108.69
339.334	114.69
339.562	117.69
339.79	87.69
340.018	87.69
340.246	95.69
340.474	86.69
340.702	95.69
340.93	100.69
341.158	89.69
341.386	86.69
341.614	100.69
341.842	96.69
342.07	86.69
342.298	83.69
342.526	85.69
342.754	86.69
342.981	89.69
343.209	83.69
343.437	96.69
343.665	104.69
343.893	106.69
344.12	106.69
344.348	93.69
344.576	104.69
344.804	104.69
345.031	99.69
345.259	106.69
345.487	100.69
345.714	109.69
345.942	90.69
346.17	100.69
346.397	107.69
346.625	100.69
346.853	107.69
347.08	106.69
347.308	90.69
347.535	114.69
347.763	93.69
347.99	94.69
348.218	122.69
348.445	115.69
348.673	108.69
348.9	99.69
349.128	114.69
349.355	84.69
349.583	91.69
349.81	99.69
350.037	98.69
350.265	105.69
350.492	100.69
350.72	104.69
350.947	86.69
351.174	103.69
351.402	91.69
351.629	110.69
351.856	105.69
352.083	111.69
352.311	112.69
352.538	106.69
352.765	113.69
352.992	110.69
353.22	116.69
353.447	110.69
353.674	107.69
353.901	101.69
354.128	110.69
354.355	91.69
354.583	89.69
354.81	88.69
355.037	86.69
355.264	80.69
355.491	101.69
355.718	91.69
355.945	87.69
356.172	107.69
356.399	112.69
356.626	102.69
356.853	83.69
357.08	82.69
357.307	88.69
357.534	88.69
357.761	84.69
357.988	91.69
358.215	84.69
358.441	99.69
358.668	85.69
358.895	104.69
359.122	95.69
359.349	94.69
359.576	88.69
359.802	110.69
360.029	103.69
360.256	113.69
360.483	89.69
360.709	90.69
360.936	103.69
361.163	90.69
361.39	100.69
361.616	101.69
361.843	110.69
362.07	102.69
362.296	90.69
362.523	97.69
362.749	94.69
362.976	97.69
363.203	102.69
363.429	98.69
363.656	112.69
363.882	104.69
364.109	98.69
364.335	89.69
364.562	88.69
364.788	92.69
365.015	97.69
365.241	102.69
365.468	123.69
365.694	110.69
365.92	93.69
366.147	93.69
366.373	88.69
366.599	87.69
366.826	103.69
367.052	87.69
367.278	94.69
367.505	92.69
367.731	92.69
367.957	96.69
368.184	104.69
368.41	111.69
368.636	113.69
368.862	122.69
369.089	112.69
369.315	88.69
369.541	89.69
369.767	108.69
369.993	75.69
370.219	87.69
370.445	82.69
370.672	86.69
370.898	86.69
371.124	91.69
371.35	98.69
371.576	94.69
371.802	108.69
372.028	96.69
372.254	103.69
372.48	93.69
372.706	94.69
372.932	80.69
373.158	87.69
373.384	78.69
373.61	93.69
373.835	87.69
374.061	98.69
374.287	101.69
374.513	91.69
374.739	94.69
374.965	86.69
375.191	98.69
375.416	106.69
375.642	91.69
375.868	85.69
376.094	99.69
376.319	96.69
376.545	94.69
376.771	88.69
376.997	81.69
377.222	97.69
377.448	104.69
377.674	87.69
377.899	96.69
378.125	95.69
378.35	93.69
378.576	94.69
378.802	94.69
379.027	102.69
379.253	100.69
379.478	86.69
379.704	94.69
379.929	91.69
380.155	102.69
380.38	95.69
380.606	95.69
380.831	88.69
381.057	98.69
381.282	107.69
381.507	90.69
381.733	88.69
381.958	95.69
382.184	96.69
382.409	93.69
382.634	112.69
382.86	98.69
383.085	104.69
383.31	113.69
383.535	118.69
383.761	103.69
383.986	96.69
384.211	98.69
384.436	99.69
384.662	102.69
384.887	109.69
385.112	102.69
385.337	108.69
385.562	111.69
385.787	106.69
386.013	116.69
386.238	123.69
386.463	119.69
386.688	124.69
386.913	105.69
387.138	103.69
387.363	109.69
387.588	100.69
387.813	94.69
388.038	111.69
388.263	107.69
388.488	100.69
388.713	86.69
388.938	106.69
389.163	102.69
389.387	96.69
389.612	105.69
389.837	107.69
390.062	100.69
390.287	85.69
390.512	88.69
390.736	87.69
390.961	90.69
391.186	103.69
391.411	104.69
391.636	99.69
391.86	99.69
392.085	106.69
392.31	88.69
392.534	96.69
392.759	92.69
392.984	86.69
393.208	97.69
393.433	108.69
393.658	101.69
393.882	98.69
394.107	82.69
394.331	93.69
394.556	102.69
394.78	91.69
395.005	93.69
395.229	101.69
395.454	101.69
395.678	94.69
395.903	102.69
396.127	101.69
396.352	94.69
396.576	89.69
396.801	103.69
397.025	100.69
397.249	110.69
397.474	83.69
397.698	103.69
397.922	83.69
398.147	87.69
398.371	96.69
398.595	101.69
398.82	86.69
399.044	78.69
399.268	93.69
399.492	93.69
399.717	98.69
399.941	99.69
400.165	99.69
400.389	90.69
400.613	85.69
400.837	84.69
401.062	91.69
401.286	91.69
401.51	85.69
401.734	96.69
401.958	100.69
402.182	133.69
402.406	174.69
402.63	112.69
402.854	103.69
403.078	93.69
403.302	93.69
403.526	104.69
403.75	82.69
403.974	78.69
404.198	100.69
404.422	86.69
404.645	98.69
404.869	96.69
405.093	99.69
405.317	98.69
405.541	101.69
405.765	123.69
405.988	119.69
406.212	174.69
406.436	230.69
406.66	158.69
406.883	103.69
407.107	91.69
407.331	97.69
407.555	104.69
407.778	113.69
408.002	101.69
408.226	85.69
408.449	97.69
408.673	82.69
408.896	111.69
409.12	114.69
409.344	87.69
409.567	104.69
409.791	99.69
410.014	101.69
410.238	107.69
410.461	100.69
410.685	98.69
410.908	87.69
411.132	104.69
411.355	101.69
411.578	94.69
411.802	87.69
412.025	92.69
412.249	101.69
412.472	94.69
412.695	94.69
412.919	81.69
413.142	95.69
413.365	104.69
413.589	98.69
413.812	104.69
414.035	82.69
414.258	89.69
414.482	101.69
414.705	92.69
414.928	90.69
415.151	97.69
415.374	89.69
415.597	98.69
415.821	93.69
416.044	87.69
416.267	102.69
416.49	95.69
416.713	103.69
416.936	87.69
417.159	93.69
417.382	93.69
417.605	88.69
417.828	94.69
418.051	92.69
418.274	90.69
418.497	83.69
418.72	74.69
418.943	91.69
419.166	97.69
419.389	92.69
419.611	82.69
419.834	83.69
420.057	81.69
420.28	91.69
420.503	93.69
420.726	85.69
420.948	102.69
421.171	99.69
421.394	96.69
421.617	81.69
421.839	90.69
422.062	94.69
422.285	95.69
422.507	111.69
422.73	96.69
422.953	90.69
423.175	78.69
423.398	94.69
423.621	104.69
423.843	93.69
424.066	82.69
424.288	84.69
424.511	101.69
424.733	107.69
424.956	105.69
425.178	103.69
425.401	119.69
425.623	99.69
425.846	99.69
426.068	99.69
426.291	85.69
426.513	90.69
426.735	97.69
426.958	95.69
427.18	104.69
427.402	142.69
427.625	176.69
427.847	126.69
428.069	110.69
428.292	95.69
428.514	94.69
428.736	80.69
428.958	90.69
429.181	105.69
429.403	93.69
429.625	91.69
429.847	85.69
430.069	104.69
430.292	102.69
430.514	107.69
430.736	92.69
430.958	95.69
431.18	88.69
431.402	91.69
431.624	89.69
431.846	82.69
432.068	87.69
432.29	102.69
432.512	90.69
432.734	101.69
432.956	103.69
433.178	103.69
433.4	98.69
433.622	92.69
433.844	99.69
434.066	96.69
434.287	95.69
434.509	87.69
434.731	100.69
434.953	88.69
435.175	100.69
435.397	105.69
435.618	90.69
435.84	106.69
436.062	121.69
436.284	113.69
436.505	105.69
436.727	91.69
436.949	97.69
437.17	93.69
437.392	74.69
437.614	104.69
437.835	102.69
438.057	106.69
438.278	109.69
438.5	95.69
438.721	119.69
438.943	111.69
439.165	88.69
439.386	93.69
439.608	78.69
439.829	95.69
440.05	135.69
440.272	154.69
440.493	113.69
440.715	97.69
440.936	88.69
441.158	92.69
441.379	88.69
441.6	104.69
441.822	99.69
442.043	91.69
442.264	108.69
442.486	92.69
442.707	90.69
442.928	105.69
443.149	122.69
443.371	140.69
443.592	93.69
443.813	103.69
444.034	104.69
444.255	112.69
444.476	81.69
444.698	93.69
444.919	100.69
445.14	125.69
445.361	118.69
445.582	109.69
445.803	135.69
446.024	143.69
446.245	137.69
446.466	118.69
446.687	100.69
446.908	85.69
447.129	88.69
447.35	85.69
447.571	95.69
447.792	96.69
448.013	103.69
448.234	122.69
448.455	102.69
448.675	128.69
448.896	118.69
449.117	101.69
449.338	108.69
449.559	128.69
449.779	130.69
450	93.69
450.221	94.69
450.442	89.69
450.662	102.69
450.883	115.69
451.104	113.69
451.324	90.69
451.545	92.69
451.766	94.69
451.986	94.69
452.207	90.69
452.428	84.69
452.648	108.69
452.869	125.69
453.089	122.69
453.31	116.69
453.53	101.69
453.751	92.69
453.971	104.69
454.192	121.69
454.412	82.69
454.633	86.69
454.853	84.69
455.073	87.69
455.294	103.69
455.514	108.69
455.734	95.69
455.955	85.69
456.175	88.69
456.395	74.69
456.616	85.69
456.836	94.69
457.056	84.69
457.276	97.69
457.497	88.69
457.717	85.69
457.937	90.69
458.157	98.69
458.377	98.69
458.598	93.69
458.818	146.69
459.038	170.69
459.258	116.69
459.478	101.69
459.698	89.69
459.918	89.69
460.138	80.69
460.358	90.69
460.578	83.69
460.798	88.69
461.018	83.69
461.238	87.69
461.458	83.69
461.678	101.69
461.898	88.69
462.118	94.69
462.338	99.69
462.558	75.69
462.777	78.69
462.997	96.69
463.217	99.69
463.437	85.69
463.657	101.69
463.876	96.69
464.096	104.69
464.316	94.69
464.536	111.69
464.755	98.69
464.975	96.69
465.195	167.69
465.414	166.69
465.634	86.69
465.854	91.69
466.073	96.69
466.293	83.69
466.512	94.69
466.732	88.69
466.951	96.69
467.171	97.69
467.391	90.69
467.61	105.69
467.829	92.69
468.049	101.69
468.268	99.69
468.488	87.69
468.707	84.69
468.927	99.69
469.146	95.69
469.365	91.69
469.585	91.69
469.804	83.69
470.023	98.69
470.243	99.69
470.462	104.69
470.681	110.69
470.901	92.69
471.12	88.69
471.339	92.69
471.558	85.69
471.777	86.69
471.997	89.69
472.216	102.69
472.435	102.69
472.654	94.69
472.873	83.69
473.092	92.69
473.311	91.69
473.53	80.69
473.749	98.69
473.968	86.69
474.187	99.69
474.406	100.69
474.625	95.69
474.844	89.69
475.063	95.69
475.282	91.69
475.501	93.69
475.72	94.69
475.939	77.69
476.158	93.69
476.377	81.69
476.596	99.69
476.814	104.69
477.033	89.69
477.252	103.69
477.471	79.69
477.69	85.69
477.908	81.69
478.127	91.69
478.346	71.69
478.564	80.69
478.783	100.69
479.002	86.69
479.22	91.69
479.439	117.69
479.658	105.69
479.876	87.69
480.095	94.69
480.313	84.69
480.532	90.69
480.751	99.69
480.969	96.69
481.188	97.69
481.406	97.69
481.624	92.69
481.843	95.69
482.061	103.69
482.28	81.69
482.498	90.69
482.717	91.69
482.935	93.69
483.153	98.69
483.372	92.69
483.59	110.69
483.808	92.69
484.027	74.69
484.245	94.69
484.463	108.69
484.681	87.69
484.9	85.69
485.118	96.69
485.336	95.69
485.554	104.69
485.772	106.69
485.99	102.69
486.209	113.69
486.427	110.69
486.645	101.69
486.863	122.69
487.081	99.69
487.299	100.69
487.517	109.69
487.735	98.69
487.953	98.69
488.171	112.69
488.389	103.69
488.607	94.69
488.825	81.69
489.043	91.69
489.261	102.69
489.479	95.69
489.696	90.69
489.914	82.69
490.132	95.69
490.35	90.69
490.568	84.69
490.786	86.69
491.003	93.69
491.221	92.69
491.439	107.69
491.657	96.69
491.874	103.69
492.092	86.69
492.31	88.69
492.527	92.69
492.745	114.69
492.963	96.69
493.18	88.69
493.398	96.69
493.615	117.69
493.833	100.69
494.05	92.69
494.268	107.69
494.485	85.69
494.703	82.69
494.92	79.69
495.138	92.69
495.355	87.69
495.573	101.69
495.79	96.69
496.008	96.69
496.225	91.69
496.442	98.69
496.66	107.69
496.877	103.69
497.094	104.69
497.312	94.69
497.529	101.69
497.746	90.69
497.963	96.69
498.181	101.69
498.398	107.69
498.615	110.69
498.832	115.69
499.049	98.69
499.267	91.69
499.484	90.69
499.701	102.69
499.918	84.69
500.135	101.69
500.352	92.69
500.569	85.69
500.786	94.69
501.003	79.69
501.22	97.69
501.437	90.69
501.654	101.69
501.871	99.69
502.088	98.69
502.305	96.69
502.522	87.69
502.739	101.69
502.956	97.69
503.172	103.69
503.389	93.69
503.606	104.69
503.823	100.69
504.04	96.69
504.256	93.69
504.473	80.69
504.69	99.69
504.907	94.69
505.123	84.69
505.34	104.69
505.557	90.69
505.773	107.69
505.99	94.69
506.207	98.69
506.423	83.69
506.64	96.69
506.856	91.69
507.073	92.69
507.289	110.69
507.506	98.69
507.722	115.69
507.939	113.69
508.155	104.69
508.372	99.69
508.588	106.69
508.805	99.69
509.021	102.69
509.238	83.69
509.454	98.69
509.67	97.69
509.887	111.69
510.103	132.69
510.319	232.69
510.536	845.69
510.752	2654.69
510.968	704.69
511.184	164.69
511.401	113.69
511.617	96.69
511.833	98.69
512.049	91.69
512.265	103.69
512.481	92.69
512.698	96.69
512.914	108.69
513.13	95.69
513.346	88.69
513.562	103.69
513.778	109.69
