Data from Uncirc_1995_H10_HRD10591_00019.txt Node
Date: Wed Jan 03 11:35:37 EST 2024
User: Yrep
Spectrometer: HR+D1059
Trigger mode: 1
Integration Time (sec): 1.000000E-1
Scans to average: 1
Electric dark correction enabled: true
Nonlinearity correction enabled: false
Boxcar width: 0
XAxis mode: Wavelengths
Number of Pixels in Spectrum: 2048
>>>>>Begin Spectral Data<<<<<
223.165	-14.44
223.4	-14.44
223.635	-14.44
223.869	-13.44
224.104	-17.44
224.338	-12.44
224.573	-18.44
224.808	-22.44
225.042	-7.44
225.277	-3.44
225.511	-9.44
225.746	-1.44
225.98	-0.44
226.215	7.56
226.449	17.56
226.683	29.56
226.918	39.56
227.152	26.56
227.387	25.56
227.621	26.56
227.856	36.56
228.09	48.56
228.324	54.56
228.559	59.56
228.793	58.56
229.027	67.56
229.262	58.56
229.496	58.56
229.73	69.56
229.964	77.56
230.199	65.56
230.433	70.56
230.667	75.56
230.901	72.56
231.136	74.56
231.37	87.56
231.604	82.56
231.838	69.56
232.072	87.56
232.306	75.56
232.541	85.56
232.775	73.56
233.009	70.56
233.243	69.56
233.477	87.56
233.711	68.56
233.945	88.56
234.179	89.56
234.413	75.56
234.647	70.56
234.881	73.56
235.115	77.56
235.349	71.56
235.583	75.56
235.817	69.56
236.051	72.56
236.285	72.56
236.519	54.56
236.753	73.56
236.987	71.56
237.221	86.56
237.455	73.56
237.689	89.56
237.922	71.56
238.156	77.56
238.39	78.56
238.624	54.56
238.858	75.56
239.091	77.56
239.325	71.56
239.559	71.56
239.793	86.56
240.027	97.56
240.26	85.56
240.494	64.56
240.728	57.56
240.961	84.56
241.195	72.56
241.429	70.56
241.662	79.56
241.896	70.56
242.13	62.56
242.363	78.56
242.597	80.56
242.83	68.56
243.064	81.56
243.298	83.56
243.531	78.56
243.765	71.56
243.998	63.56
244.232	68.56
244.465	74.56
244.699	71.56
244.932	71.56
245.166	71.56
245.399	68.56
245.633	70.56
245.866	64.56
246.099	77.56
246.333	72.56
246.566	62.56
246.8	63.56
247.033	73.56
247.266	89.56
247.5	78.56
247.733	83.56
247.966	70.56
248.2	82.56
248.433	84.56
248.666	76.56
248.899	83.56
249.133	89.56
249.366	92.56
249.599	92.56
249.832	80.56
250.066	64.56
250.299	86.56
250.532	73.56
250.765	70.56
250.998	90.56
251.231	78.56
251.465	88.56
251.698	76.56
251.931	92.56
252.164	73.56
252.397	72.56
252.63	79.56
252.863	81.56
253.096	64.56
253.329	90.56
253.562	78.56
253.795	78.56
254.028	71.56
254.261	74.56
254.494	92.56
254.727	103.56
254.96	76.56
255.193	90.56
255.426	73.56
255.659	85.56
255.892	80.56
256.124	71.56
256.357	81.56
256.59	66.56
256.823	59.56
257.056	69.56
257.289	81.56
257.521	92.56
257.754	73.56
257.987	80.56
258.22	69.56
258.452	87.56
258.685	81.56
258.918	89.56
259.151	80.56
259.383	73.56
259.616	77.56
259.849	83.56
260.081	77.56
260.314	84.56
260.547	75.56
260.779	81.56
261.012	71.56
261.244	88.56
261.477	80.56
261.71	83.56
261.942	89.56
262.175	105.56
262.407	81.56
262.64	79.56
262.872	88.56
263.105	80.56
263.337	62.56
263.57	81.56
263.802	75.56
264.035	76.56
264.267	85.56
264.499	71.56
264.732	76.56
264.964	80.56
265.197	74.56
265.429	80.56
265.661	92.56
265.894	93.56
266.126	72.56
266.358	84.56
266.591	80.56
266.823	75.56
267.055	81.56
267.287	84.56
267.52	67.56
267.752	81.56
267.984	86.56
268.216	77.56
268.448	78.56
268.681	80.56
268.913	93.56
269.145	86.56
269.377	81.56
269.609	90.56
269.841	80.56
270.073	72.56
270.306	69.56
270.538	65.56
270.77	83.56
271.002	90.56
271.234	100.56
271.466	88.56
271.698	79.56
271.93	78.56
272.162	96.56
272.394	85.56
272.626	81.56
272.858	83.56
273.09	89.56
273.322	89.56
273.553	88.56
273.785	80.56
274.017	74.56
274.249	73.56
274.481	68.56
274.713	70.56
274.945	86.56
275.176	81.56
275.408	81.56
275.64	73.56
275.872	74.56
276.104	91.56
276.335	80.56
276.567	89.56
276.799	87.56
277.031	92.56
277.262	83.56
277.494	93.56
277.726	87.56
277.957	83.56
278.189	71.56
278.421	77.56
278.652	76.56
278.884	89.56
279.115	83.56
279.347	67.56
279.579	76.56
279.81	75.56
280.042	94.56
280.273	87.56
280.505	81.56
280.736	87.56
280.968	89.56
281.199	69.56
281.431	68.56
281.662	79.56
281.894	80.56
282.125	90.56
282.356	101.56
282.588	115.56
282.819	103.56
283.051	76.56
283.282	83.56
283.513	86.56
283.745	70.56
283.976	80.56
284.207	85.56
284.439	88.56
284.67	83.56
284.901	83.56
285.132	87.56
285.364	92.56
285.595	73.56
285.826	61.56
286.057	93.56
286.288	70.56
286.52	100.56
286.751	80.56
286.982	88.56
287.213	71.56
287.444	83.56
287.675	84.56
287.906	87.56
288.138	89.56
288.369	85.56
288.6	87.56
288.831	79.56
289.062	78.56
289.293	87.56
289.524	80.56
289.755	83.56
289.986	88.56
290.217	96.56
290.448	79.56
290.679	80.56
290.91	75.56
291.141	80.56
291.371	83.56
291.602	79.56
291.833	70.56
292.064	92.56
292.295	88.56
292.526	91.56
292.757	64.56
292.987	83.56
293.218	96.56
293.449	78.56
293.68	89.56
293.91	69.56
294.141	82.56
294.372	80.56
294.603	83.56
294.833	85.56
295.064	89.56
295.295	90.56
295.525	77.56
295.756	95.56
295.987	107.56
296.217	121.56
296.448	101.56
296.679	79.56
296.909	84.56
297.14	89.56
297.37	84.56
297.601	79.56
297.831	79.56
298.062	83.56
298.292	86.56
298.523	76.56
298.753	92.56
298.984	85.56
299.214	88.56
299.445	98.56
299.675	86.56
299.905	78.56
300.136	85.56
300.366	87.56
300.597	87.56
300.827	81.56
301.057	99.56
301.288	95.56
301.518	81.56
301.748	87.56
301.979	92.56
302.209	103.56
302.439	89.56
302.669	90.56
302.9	81.56
303.13	71.56
303.36	107.56
303.59	87.56
303.82	102.56
304.051	91.56
304.281	88.56
304.511	90.56
304.741	90.56
304.971	86.56
305.201	81.56
305.431	80.56
305.661	94.56
305.891	85.56
306.121	91.56
306.352	101.56
306.582	93.56
306.812	51.56
307.042	77.56
307.272	86.56
307.502	96.56
307.731	99.56
307.961	83.56
308.191	72.56
308.421	92.56
308.651	90.56
308.881	90.56
309.111	93.56
309.341	95.56
309.571	76.56
309.8	87.56
310.03	85.56
310.26	72.56
310.49	80.56
310.72	86.56
310.949	87.56
311.179	78.56
311.409	81.56
311.639	92.56
311.868	102.56
312.098	88.56
312.328	84.56
312.557	87.56
312.787	100.56
313.017	87.56
313.246	96.56
313.476	87.56
313.706	77.56
313.935	79.56
314.165	84.56
314.394	89.56
314.624	85.56
314.853	92.56
315.083	97.56
315.312	88.56
315.542	81.56
315.771	82.56
316.001	86.56
316.23	90.56
316.46	89.56
316.689	83.56
316.919	87.56
317.148	79.56
317.377	96.56
317.607	90.56
317.836	78.56
318.065	92.56
318.295	91.56
318.524	79.56
318.753	86.56
318.983	85.56
319.212	101.56
319.441	99.56
319.67	102.56
319.9	92.56
320.129	80.56
320.358	100.56
320.587	88.56
320.816	92.56
321.046	99.56
321.275	84.56
321.504	88.56
321.733	100.56
321.962	107.56
322.191	93.56
322.42	92.56
322.649	106.56
322.878	115.56
323.108	104.56
323.337	116.56
323.566	135.56
323.795	136.56
324.024	178.56
324.253	363.56
324.482	739.56
324.71	1519.56
324.939	2003.56
325.168	752.56
325.397	223.56
325.626	142.56
325.855	130.56
326.084	112.56
326.313	131.56
326.542	135.56
326.77	218.56
326.999	419.56
327.228	864.56
327.457	1596.56
327.686	1252.56
327.914	343.56
328.143	175.56
328.372	137.56
328.6	124.56
328.829	97.56
329.058	105.56
329.287	110.56
329.515	80.56
329.744	94.56
329.972	94.56
330.201	106.56
330.43	99.56
330.658	124.56
330.887	118.56
331.115	110.56
331.344	88.56
331.572	102.56
331.801	98.56
332.03	87.56
332.258	104.56
332.486	87.56
332.715	84.56
332.943	95.56
333.172	85.56
333.4	95.56
333.629	96.56
333.857	102.56
334.085	109.56
334.314	89.56
334.542	95.56
334.771	93.56
334.999	91.56
335.227	97.56
335.455	88.56
335.684	82.56
335.912	90.56
336.14	86.56
336.369	85.56
336.597	92.56
336.825	83.56
337.053	91.56
337.281	88.56
337.51	94.56
337.738	84.56
337.966	97.56
338.194	83.56
338.422	102.56
338.65	80.56
338.878	75.56
339.106	92.56
339.334	89.56
339.562	78.56
339.79	103.56
340.018	94.56
340.246	83.56
340.474	87.56
340.702	81.56
340.93	92.56
341.158	93.56
341.386	90.56
341.614	71.56
341.842	87.56
342.07	70.56
342.298	94.56
342.526	91.56
342.754	70.56
342.981	73.56
343.209	91.56
343.437	101.56
343.665	96.56
343.893	91.56
344.12	99.56
344.348	94.56
344.576	87.56
344.804	86.56
345.031	87.56
345.259	96.56
345.487	92.56
345.714	91.56
345.942	96.56
346.17	87.56
346.397	98.56
346.625	94.56
346.853	77.56
347.08	86.56
347.308	89.56
347.535	77.56
347.763	93.56
347.99	93.56
348.218	96.56
348.445	105.56
348.673	88.56
348.9	98.56
349.128	89.56
349.355	80.56
349.583	106.56
349.81	87.56
350.037	82.56
350.265	87.56
350.492	98.56
350.72	106.56
350.947	93.56
351.174	100.56
351.402	97.56
351.629	104.56
351.856	93.56
352.083	88.56
352.311	86.56
352.538	89.56
352.765	87.56
352.992	103.56
353.22	111.56
353.447	97.56
353.674	112.56
353.901	105.56
354.128	93.56
354.355	99.56
354.583	102.56
354.81	94.56
355.037	88.56
355.264	91.56
355.491	83.56
355.718	82.56
355.945	95.56
356.172	89.56
356.399	96.56
356.626	78.56
356.853	73.56
357.08	93.56
357.307	89.56
357.534	101.56
357.761	85.56
357.988	83.56
358.215	97.56
358.441	83.56
358.668	97.56
358.895	94.56
359.122	96.56
359.349	84.56
359.576	91.56
359.802	83.56
360.029	103.56
360.256	100.56
360.483	89.56
360.709	100.56
360.936	80.56
361.163	72.56
361.39	88.56
361.616	102.56
361.843	93.56
362.07	79.56
362.296	83.56
362.523	83.56
362.749	82.56
362.976	80.56
363.203	86.56
363.429	83.56
363.656	90.56
363.882	78.56
364.109	93.56
364.335	87.56
364.562	78.56
364.788	87.56
365.015	83.56
365.241	84.56
365.468	93.56
365.694	96.56
365.92	93.56
366.147	83.56
366.373	91.56
366.599	85.56
366.826	74.56
367.052	86.56
367.278	77.56
367.505	87.56
367.731	83.56
367.957	91.56
368.184	83.56
368.41	91.56
368.636	95.56
368.862	104.56
369.089	100.56
369.315	92.56
369.541	88.56
369.767	91.56
369.993	81.56
370.219	80.56
370.445	81.56
370.672	71.56
370.898	71.56
371.124	80.56
371.35	85.56
371.576	95.56
371.802	87.56
372.028	81.56
372.254	87.56
372.48	80.56
372.706	87.56
372.932	83.56
373.158	96.56
373.384	96.56
373.61	93.56
373.835	91.56
374.061	82.56
374.287	101.56
374.513	89.56
374.739	69.56
374.965	91.56
375.191	86.56
375.416	87.56
375.642	92.56
375.868	78.56
376.094	83.56
376.319	90.56
376.545	79.56
376.771	89.56
376.997	96.56
377.222	96.56
377.448	85.56
377.674	94.56
377.899	96.56
378.125	94.56
378.35	85.56
378.576	101.56
378.802	79.56
379.027	88.56
379.253	89.56
379.478	88.56
379.704	83.56
379.929	97.56
380.155	92.56
380.38	76.56
380.606	87.56
380.831	91.56
381.057	109.56
381.282	107.56
381.507	80.56
381.733	92.56
381.958	97.56
382.184	84.56
382.409	91.56
382.634	98.56
382.86	87.56
383.085	94.56
383.31	102.56
383.535	97.56
383.761	102.56
383.986	97.56
384.211	103.56
384.436	96.56
384.662	87.56
384.887	114.56
385.112	97.56
385.337	104.56
385.562	97.56
385.787	92.56
386.013	98.56
386.238	112.56
386.463	101.56
386.688	108.56
386.913	103.56
387.138	105.56
387.363	101.56
387.588	101.56
387.813	108.56
388.038	99.56
388.263	111.56
388.488	111.56
388.713	100.56
388.938	88.56
389.163	103.56
389.387	88.56
389.612	97.56
389.837	80.56
390.062	94.56
390.287	92.56
390.512	82.56
390.736	88.56
390.961	101.56
391.186	92.56
391.411	100.56
391.636	89.56
391.86	85.56
392.085	96.56
392.31	88.56
392.534	83.56
392.759	92.56
392.984	97.56
393.208	85.56
393.433	88.56
393.658	81.56
393.882	90.56
394.107	83.56
394.331	95.56
394.556	82.56
394.78	90.56
395.005	99.56
395.229	86.56
395.454	82.56
395.678	74.56
395.903	95.56
396.127	80.56
396.352	78.56
396.576	89.56
396.801	85.56
397.025	102.56
397.249	85.56
397.474	80.56
397.698	83.56
397.922	91.56
398.147	70.56
398.371	84.56
398.595	71.56
398.82	83.56
399.044	73.56
399.268	87.56
399.492	99.56
399.717	78.56
399.941	94.56
400.165	80.56
400.389	71.56
400.613	95.56
400.837	90.56
401.062	71.56
401.286	91.56
401.51	96.56
401.734	94.56
401.958	78.56
402.182	90.56
402.406	138.56
402.63	114.56
402.854	82.56
403.078	92.56
403.302	89.56
403.526	69.56
403.75	90.56
403.974	76.56
404.198	91.56
404.422	78.56
404.645	92.56
404.869	87.56
405.093	91.56
405.317	92.56
405.541	93.56
405.765	89.56
405.988	99.56
406.212	152.56
406.436	195.56
406.66	121.56
406.883	107.56
407.107	92.56
407.331	83.56
407.555	89.56
407.778	95.56
408.002	87.56
408.226	78.56
408.449	82.56
408.673	75.56
408.896	88.56
409.12	83.56
409.344	96.56
409.567	86.56
409.791	79.56
410.014	86.56
410.238	88.56
410.461	97.56
410.685	87.56
410.908	98.56
411.132	107.56
411.355	94.56
411.578	77.56
411.802	75.56
412.025	87.56
412.249	94.56
412.472	80.56
412.695	85.56
412.919	94.56
413.142	88.56
413.365	84.56
413.589	85.56
413.812	72.56
414.035	100.56
414.258	104.56
414.482	91.56
414.705	87.56
414.928	75.56
415.151	105.56
415.374	94.56
415.597	85.56
415.821	80.56
416.044	92.56
416.267	95.56
416.49	77.56
416.713	81.56
416.936	91.56
417.159	82.56
417.382	80.56
417.605	89.56
417.828	100.56
418.051	88.56
418.274	101.56
418.497	66.56
418.72	89.56
418.943	85.56
419.166	75.56
419.389	87.56
419.611	83.56
419.834	62.56
420.057	92.56
420.28	96.56
420.503	95.56
420.726	79.56
420.948	85.56
421.171	83.56
421.394	86.56
421.617	77.56
421.839	82.56
422.062	92.56
422.285	91.56
422.507	94.56
422.73	93.56
422.953	101.56
423.175	83.56
423.398	84.56
423.621	79.56
423.843	88.56
424.066	90.56
424.288	79.56
424.511	84.56
424.733	92.56
424.956	101.56
425.178	94.56
425.401	96.56
425.623	92.56
425.846	96.56
426.068	90.56
426.291	87.56
426.513	96.56
426.735	89.56
426.958	68.56
427.18	94.56
427.402	118.56
427.625	145.56
427.847	86.56
428.069	89.56
428.292	88.56
428.514	87.56
428.736	84.56
428.958	79.56
429.181	77.56
429.403	84.56
429.625	81.56
429.847	89.56
430.069	98.56
430.292	92.56
430.514	84.56
430.736	75.56
430.958	92.56
431.18	91.56
431.402	89.56
431.624	70.56
431.846	77.56
432.068	86.56
432.29	75.56
432.512	91.56
432.734	90.56
432.956	86.56
433.178	94.56
433.4	92.56
433.622	84.56
433.844	91.56
434.066	90.56
434.287	87.56
434.509	90.56
434.731	75.56
434.953	93.56
435.175	80.56
435.397	95.56
435.618	84.56
435.84	87.56
436.062	115.56
436.284	101.56
436.505	92.56
436.727	87.56
436.949	85.56
437.17	89.56
437.392	83.56
437.614	95.56
437.835	89.56
438.057	108.56
438.278	92.56
438.5	109.56
438.721	100.56
438.943	99.56
439.165	104.56
439.386	91.56
439.608	72.56
439.829	97.56
440.05	110.56
440.272	120.56
440.493	94.56
440.715	82.56
440.936	85.56
441.158	87.56
441.379	92.56
441.6	97.56
441.822	91.56
442.043	92.56
442.264	95.56
442.486	98.56
442.707	86.56
442.928	100.56
443.149	108.56
443.371	121.56
443.592	95.56
443.813	108.56
444.034	98.56
444.255	89.56
444.476	107.56
444.698	80.56
444.919	85.56
445.14	131.56
445.361	120.56
445.582	110.56
445.803	116.56
446.024	113.56
446.245	116.56
446.466	108.56
446.687	90.56
446.908	79.56
447.129	85.56
447.35	91.56
447.571	73.56
447.792	97.56
448.013	88.56
448.234	97.56
448.455	94.56
448.675	96.56
448.896	109.56
449.117	90.56
449.338	100.56
449.559	116.56
449.779	117.56
450	101.56
450.221	84.56
450.442	85.56
450.662	83.56
450.883	90.56
451.104	108.56
451.324	91.56
451.545	94.56
451.766	75.56
451.986	69.56
452.207	88.56
452.428	80.56
452.648	101.56
452.869	97.56
453.089	91.56
453.31	104.56
453.53	92.56
453.751	83.56
453.971	89.56
454.192	99.56
454.412	93.56
454.633	83.56
454.853	71.56
455.073	77.56
455.294	76.56
455.514	103.56
455.734	75.56
455.955	101.56
456.175	75.56
456.395	71.56
456.616	77.56
456.836	81.56
457.056	84.56
457.276	80.56
457.497	85.56
457.717	72.56
457.937	82.56
458.157	107.56
458.377	101.56
458.598	110.56
458.818	139.56
459.038	135.56
459.258	107.56
459.478	81.56
459.698	99.56
459.918	83.56
460.138	72.56
460.358	75.56
460.578	73.56
460.798	75.56
461.018	90.56
461.238	90.56
461.458	85.56
461.678	71.56
461.898	89.56
462.118	81.56
462.338	71.56
462.558	72.56
462.777	83.56
462.997	81.56
463.217	79.56
463.437	85.56
463.657	84.56
463.876	99.56
464.096	91.56
464.316	85.56
464.536	80.56
464.755	97.56
464.975	96.56
465.195	143.56
465.414	113.56
465.634	92.56
465.854	103.56
466.073	87.56
466.293	85.56
466.512	79.56
466.732	84.56
466.951	89.56
467.171	87.56
467.391	86.56
467.61	99.56
467.829	83.56
468.049	78.56
468.268	84.56
468.488	87.56
468.707	72.56
468.927	84.56
469.146	75.56
469.365	76.56
469.585	66.56
469.804	95.56
470.023	80.56
470.243	91.56
470.462	113.56
470.681	106.56
470.901	89.56
471.12	79.56
471.339	83.56
471.558	77.56
471.777	79.56
471.997	98.56
472.216	97.56
472.435	78.56
472.654	92.56
472.873	91.56
473.092	86.56
473.311	83.56
473.53	84.56
473.749	88.56
473.968	77.56
474.187	91.56
474.406	86.56
474.625	72.56
474.844	71.56
475.063	86.56
475.282	86.56
475.501	87.56
475.72	86.56
475.939	97.56
476.158	78.56
476.377	81.56
476.596	81.56
476.814	91.56
477.033	89.56
477.252	95.56
477.471	94.56
477.69	80.56
477.908	96.56
478.127	70.56
478.346	85.56
478.564	84.56
478.783	89.56
479.002	90.56
479.22	102.56
479.439	89.56
479.658	85.56
479.876	86.56
480.095	93.56
480.313	90.56
480.532	89.56
480.751	81.56
480.969	90.56
481.188	93.56
481.406	97.56
481.624	84.56
481.843	81.56
482.061	83.56
482.28	85.56
482.498	83.56
482.717	93.56
482.935	75.56
483.153	92.56
483.372	94.56
483.59	84.56
483.808	85.56
484.027	83.56
484.245	109.56
484.463	88.56
484.681	100.56
484.9	95.56
485.118	100.56
485.336	98.56
485.554	92.56
485.772	81.56
485.99	103.56
486.209	104.56
486.427	103.56
486.645	120.56
486.863	95.56
487.081	96.56
487.299	94.56
487.517	90.56
487.735	96.56
487.953	95.56
488.171	87.56
488.389	96.56
488.607	89.56
488.825	74.56
489.043	86.56
489.261	67.56
489.479	93.56
489.696	91.56
489.914	85.56
490.132	93.56
490.35	87.56
490.568	88.56
490.786	89.56
491.003	95.56
491.221	94.56
491.439	97.56
491.657	95.56
491.874	96.56
492.092	88.56
492.31	77.56
492.527	83.56
492.745	93.56
492.963	87.56
493.18	87.56
493.398	103.56
493.615	88.56
493.833	95.56
494.05	90.56
494.268	91.56
494.485	88.56
494.703	72.56
494.92	85.56
495.138	76.56
495.355	94.56
495.573	86.56
495.79	104.56
496.008	90.56
496.225	99.56
496.442	75.56
496.66	89.56
496.877	94.56
497.094	92.56
497.312	71.56
497.529	88.56
497.746	95.56
497.963	93.56
498.181	89.56
498.398	108.56
498.615	120.56
498.832	126.56
499.049	95.56
499.267	88.56
499.484	79.56
499.701	107.56
499.918	97.56
500.135	95.56
500.352	75.56
500.569	67.56
500.786	89.56
501.003	92.56
501.22	102.56
501.437	105.56
501.654	85.56
501.871	101.56
502.088	89.56
502.305	80.56
502.522	81.56
502.739	77.56
502.956	92.56
503.172	88.56
503.389	90.56
503.606	114.56
503.823	90.56
504.04	79.56
504.256	81.56
504.473	87.56
504.69	94.56
504.907	85.56
505.123	96.56
505.34	81.56
505.557	79.56
505.773	86.56
505.99	89.56
506.207	96.56
506.423	93.56
506.64	95.56
506.856	80.56
507.073	79.56
507.289	83.56
507.506	93.56
507.722	123.56
507.939	103.56
508.155	98.56
508.372	97.56
508.588	80.56
508.805	91.56
509.021	95.56
509.238	93.56
509.454	108.56
509.67	110.56
509.887	108.56
510.103	111.56
510.319	199.56
510.536	652.56
510.752	2029.56
510.968	579.56
511.184	154.56
511.401	96.56
511.617	104.56
511.833	88.56
512.049	83.56
512.265	77.56
512.481	100.56
512.698	87.56
512.914	79.56
513.13	75.56
513.346	94.56
513.562	88.56
513.778	95.56
513.994	88.56
514.21	94.56
514.426	119.56
514.642	115.56
514.858	112.56
515.074	146.56
515.29	382.56
515.506	1191.56
515.721	435.56
515.937	120.56
516.153	89.56
516.369	101.56
516.585	88.56
516.801	90.56
517.016	96.56
517.232	89.56
