Data from Uncirc_1995_H10_HRD10591_00039.txt Node
Date: Wed Jan 03 11:35:41 EST 2024
User: Yrep
Spectrometer: HR+D1059
Trigger mode: 1
Integration Time (sec): 1.000000E-1
Scans to average: 1
Electric dark correction enabled: true
Nonlinearity correction enabled: false
Boxcar width: 0
XAxis mode: Wavelengths
Number of Pixels in Spectrum: 2048
>>>>>Begin Spectral Data<<<<<
223.165	-22.5
223.4	-22.5
223.635	-22.5
223.869	-19.5
224.104	-18.5
224.338	-17.5
224.573	-9.5
224.808	-16.5
225.042	-12.5
225.277	-3.5
225.511	-2.5
225.746	12.5
225.98	5.5
226.215	6.5
226.449	19.5
226.683	21.5
226.918	26.5
227.152	30.5
227.387	33.5
227.621	26.5
227.856	44.5
228.09	50.5
228.324	41.5
228.559	50.5
228.793	57.5
229.027	59.5
229.262	67.5
229.496	64.5
229.73	61.5
229.964	80.5
230.199	77.5
230.433	77.5
230.667	93.5
230.901	73.5
231.136	76.5
231.37	87.5
231.604	77.5
231.838	78.5
232.072	74.5
232.306	90.5
232.541	71.5
232.775	70.5
233.009	82.5
233.243	82.5
233.477	88.5
233.711	77.5
233.945	75.5
234.179	74.5
234.413	80.5
234.647	60.5
234.881	61.5
235.115	65.5
235.349	82.5
235.583	77.5
235.817	74.5
236.051	87.5
236.285	71.5
236.519	66.5
236.753	67.5
236.987	72.5
237.221	80.5
237.455	88.5
237.689	70.5
237.922	88.5
238.156	77.5
238.39	76.5
238.624	56.5
238.858	74.5
239.091	77.5
239.325	70.5
239.559	73.5
239.793	77.5
240.027	61.5
240.26	81.5
240.494	71.5
240.728	72.5
240.961	75.5
241.195	74.5
241.429	80.5
241.662	78.5
241.896	72.5
242.13	74.5
242.363	79.5
242.597	78.5
242.83	77.5
243.064	85.5
243.298	74.5
243.531	73.5
243.765	67.5
243.998	78.5
244.232	71.5
244.465	75.5
244.699	71.5
244.932	65.5
245.166	82.5
245.399	74.5
245.633	76.5
245.866	85.5
246.099	62.5
246.333	92.5
246.566	83.5
246.8	79.5
247.033	78.5
247.266	79.5
247.5	71.5
247.733	81.5
247.966	76.5
248.2	81.5
248.433	73.5
248.666	82.5
248.899	71.5
249.133	73.5
249.366	79.5
249.599	94.5
249.832	79.5
250.066	87.5
250.299	70.5
250.532	83.5
250.765	72.5
250.998	74.5
251.231	88.5
251.465	79.5
251.698	77.5
251.931	80.5
252.164	79.5
252.397	74.5
252.63	92.5
252.863	73.5
253.096	87.5
253.329	88.5
253.562	73.5
253.795	92.5
254.028	75.5
254.261	75.5
254.494	70.5
254.727	75.5
254.96	95.5
255.193	82.5
255.426	74.5
255.659	83.5
255.892	82.5
256.124	87.5
256.357	77.5
256.59	83.5
256.823	99.5
257.056	77.5
257.289	66.5
257.521	69.5
257.754	83.5
257.987	93.5
258.22	73.5
258.452	71.5
258.685	83.5
258.918	86.5
259.151	78.5
259.383	83.5
259.616	69.5
259.849	88.5
260.081	80.5
260.314	71.5
260.547	71.5
260.779	81.5
261.012	86.5
261.244	91.5
261.477	83.5
261.71	93.5
261.942	106.5
262.175	122.5
262.407	79.5
262.64	88.5
262.872	78.5
263.105	77.5
263.337	74.5
263.57	90.5
263.802	86.5
264.035	81.5
264.267	74.5
264.499	89.5
264.732	78.5
264.964	88.5
265.197	69.5
265.429	82.5
265.661	84.5
265.894	77.5
266.126	68.5
266.358	72.5
266.591	86.5
266.823	75.5
267.055	79.5
267.287	69.5
267.52	86.5
267.752	85.5
267.984	77.5
268.216	100.5
268.448	85.5
268.681	84.5
268.913	58.5
269.145	89.5
269.377	80.5
269.609	79.5
269.841	85.5
270.073	85.5
270.306	74.5
270.538	82.5
270.77	83.5
271.002	76.5
271.234	78.5
271.466	86.5
271.698	80.5
271.93	82.5
272.162	79.5
272.394	76.5
272.626	85.5
272.858	76.5
273.09	89.5
273.322	79.5
273.553	77.5
273.785	73.5
274.017	71.5
274.249	85.5
274.481	83.5
274.713	99.5
274.945	100.5
275.176	76.5
275.408	94.5
275.64	114.5
275.872	80.5
276.104	95.5
276.335	77.5
276.567	95.5
276.799	98.5
277.031	80.5
277.262	76.5
277.494	78.5
277.726	82.5
277.957	79.5
278.189	88.5
278.421	88.5
278.652	85.5
278.884	85.5
279.115	94.5
279.347	98.5
279.579	79.5
279.81	86.5
280.042	79.5
280.273	82.5
280.505	87.5
280.736	73.5
280.968	91.5
281.199	87.5
281.431	98.5
281.662	80.5
281.894	87.5
282.125	99.5
282.356	99.5
282.588	129.5
282.819	92.5
283.051	86.5
283.282	76.5
283.513	96.5
283.745	88.5
283.976	84.5
284.207	95.5
284.439	81.5
284.67	85.5
284.901	94.5
285.132	78.5
285.364	87.5
285.595	89.5
285.826	69.5
286.057	73.5
286.288	66.5
286.52	89.5
286.751	90.5
286.982	84.5
287.213	80.5
287.444	95.5
287.675	88.5
287.906	84.5
288.138	86.5
288.369	99.5
288.6	87.5
288.831	76.5
289.062	92.5
289.293	86.5
289.524	89.5
289.755	94.5
289.986	89.5
290.217	83.5
290.448	87.5
290.679	75.5
290.91	95.5
291.141	90.5
291.371	85.5
291.602	96.5
291.833	80.5
292.064	76.5
292.295	88.5
292.526	70.5
292.757	77.5
292.987	83.5
293.218	75.5
293.449	75.5
293.68	92.5
293.91	84.5
294.141	77.5
294.372	69.5
294.603	66.5
294.833	78.5
295.064	78.5
295.295	88.5
295.525	95.5
295.756	101.5
295.987	107.5
296.217	117.5
296.448	107.5
296.679	82.5
296.909	85.5
297.14	94.5
297.37	89.5
297.601	101.5
297.831	73.5
298.062	87.5
298.292	81.5
298.523	97.5
298.753	77.5
298.984	94.5
299.214	90.5
299.445	95.5
299.675	107.5
299.905	96.5
300.136	92.5
300.366	88.5
300.597	96.5
300.827	91.5
301.057	101.5
301.288	102.5
301.518	86.5
301.748	70.5
301.979	106.5
302.209	88.5
302.439	89.5
302.669	75.5
302.9	97.5
303.13	89.5
303.36	86.5
303.59	99.5
303.82	104.5
304.051	88.5
304.281	78.5
304.511	73.5
304.741	88.5
304.971	91.5
305.201	86.5
305.431	96.5
305.661	85.5
305.891	88.5
306.121	98.5
306.352	99.5
306.582	113.5
306.812	96.5
307.042	80.5
307.272	91.5
307.502	91.5
307.731	92.5
307.961	75.5
308.191	93.5
308.421	82.5
308.651	83.5
308.881	97.5
309.111	87.5
309.341	103.5
309.571	89.5
309.8	94.5
310.03	98.5
310.26	99.5
310.49	94.5
310.72	91.5
310.949	83.5
311.179	87.5
311.409	88.5
311.639	71.5
311.868	101.5
312.098	98.5
312.328	85.5
312.557	111.5
312.787	105.5
313.017	105.5
313.246	89.5
313.476	86.5
313.706	86.5
313.935	79.5
314.165	98.5
314.394	85.5
314.624	82.5
314.853	97.5
315.083	86.5
315.312	94.5
315.542	82.5
315.771	97.5
316.001	73.5
316.23	91.5
316.46	91.5
316.689	91.5
316.919	94.5
317.148	87.5
317.377	92.5
317.607	88.5
317.836	86.5
318.065	96.5
318.295	101.5
318.524	97.5
318.753	95.5
318.983	83.5
319.212	94.5
319.441	106.5
319.67	103.5
319.9	87.5
320.129	102.5
320.358	89.5
320.587	99.5
320.816	79.5
321.046	90.5
321.275	90.5
321.504	95.5
321.733	98.5
321.962	96.5
322.191	91.5
322.42	91.5
322.649	108.5
322.878	117.5
323.108	99.5
323.337	127.5
323.566	120.5
323.795	133.5
324.024	210.5
324.253	368.5
324.482	778.5
324.71	1579.5
324.939	2107.5
325.168	775.5
325.397	239.5
325.626	134.5
325.855	119.5
326.084	118.5
326.313	140.5
326.542	160.5
326.77	200.5
326.999	408.5
327.228	879.5
327.457	1625.5
327.686	1288.5
327.914	346.5
328.143	178.5
328.372	138.5
328.6	134.5
328.829	104.5
329.058	123.5
329.287	110.5
329.515	98.5
329.744	103.5
329.972	111.5
330.201	105.5
330.43	96.5
330.658	90.5
330.887	123.5
331.115	110.5
331.344	103.5
331.572	99.5
331.801	103.5
332.03	106.5
332.258	97.5
332.486	88.5
332.715	84.5
332.943	89.5
333.172	101.5
333.4	90.5
333.629	113.5
333.857	101.5
334.085	106.5
334.314	90.5
334.542	90.5
334.771	89.5
334.999	102.5
335.227	93.5
335.455	97.5
335.684	92.5
335.912	108.5
336.14	95.5
336.369	87.5
336.597	87.5
336.825	92.5
337.053	104.5
337.281	93.5
337.51	85.5
337.738	89.5
337.966	105.5
338.194	96.5
338.422	96.5
338.65	82.5
338.878	98.5
339.106	90.5
339.334	90.5
339.562	85.5
339.79	86.5
340.018	95.5
340.246	86.5
340.474	96.5
340.702	94.5
340.93	89.5
341.158	86.5
341.386	85.5
341.614	88.5
341.842	80.5
342.07	86.5
342.298	81.5
342.526	82.5
342.754	85.5
342.981	97.5
343.209	74.5
343.437	105.5
343.665	95.5
343.893	98.5
344.12	96.5
344.348	86.5
344.576	70.5
344.804	89.5
345.031	89.5
345.259	88.5
345.487	90.5
345.714	89.5
345.942	85.5
346.17	100.5
346.397	93.5
346.625	88.5
346.853	89.5
347.08	94.5
347.308	89.5
347.535	92.5
347.763	103.5
347.99	93.5
348.218	92.5
348.445	84.5
348.673	94.5
348.9	93.5
349.128	92.5
349.355	98.5
349.583	98.5
349.81	102.5
350.037	94.5
350.265	84.5
350.492	102.5
350.72	105.5
350.947	101.5
351.174	103.5
351.402	97.5
351.629	93.5
351.856	91.5
352.083	99.5
352.311	98.5
352.538	98.5
352.765	99.5
352.992	103.5
353.22	120.5
353.447	110.5
353.674	111.5
353.901	104.5
354.128	106.5
354.355	83.5
354.583	107.5
354.81	90.5
355.037	80.5
355.264	93.5
355.491	92.5
355.718	95.5
355.945	90.5
356.172	86.5
356.399	108.5
356.626	82.5
356.853	89.5
357.08	84.5
357.307	79.5
357.534	80.5
357.761	101.5
357.988	102.5
358.215	92.5
358.441	92.5
358.668	97.5
358.895	88.5
359.122	71.5
359.349	88.5
359.576	83.5
359.802	99.5
360.029	104.5
360.256	102.5
360.483	102.5
360.709	102.5
360.936	103.5
361.163	88.5
361.39	88.5
361.616	90.5
361.843	93.5
362.07	98.5
362.296	95.5
362.523	70.5
362.749	103.5
362.976	80.5
363.203	71.5
363.429	86.5
363.656	94.5
363.882	82.5
364.109	83.5
364.335	95.5
364.562	90.5
364.788	90.5
365.015	98.5
365.241	99.5
365.468	105.5
365.694	101.5
365.92	91.5
366.147	98.5
366.373	83.5
366.599	80.5
366.826	86.5
367.052	94.5
367.278	82.5
367.505	96.5
367.731	91.5
367.957	90.5
368.184	89.5
368.41	87.5
368.636	95.5
368.862	103.5
369.089	108.5
369.315	91.5
369.541	87.5
369.767	83.5
369.993	81.5
370.219	92.5
370.445	98.5
370.672	89.5
370.898	91.5
371.124	82.5
371.35	79.5
371.576	83.5
371.802	92.5
372.028	84.5
372.254	94.5
372.48	90.5
372.706	95.5
372.932	79.5
373.158	87.5
373.384	78.5
373.61	95.5
373.835	99.5
374.061	88.5
374.287	86.5
374.513	83.5
374.739	93.5
374.965	80.5
375.191	91.5
375.416	92.5
375.642	86.5
375.868	94.5
376.094	104.5
376.319	81.5
376.545	86.5
376.771	85.5
376.997	81.5
377.222	81.5
377.448	103.5
377.674	92.5
377.899	89.5
378.125	109.5
378.35	87.5
378.576	72.5
378.802	90.5
379.027	88.5
379.253	90.5
379.478	101.5
379.704	90.5
379.929	93.5
380.155	78.5
380.38	99.5
380.606	95.5
380.831	103.5
381.057	99.5
381.282	97.5
381.507	94.5
381.733	104.5
381.958	89.5
382.184	91.5
382.409	95.5
382.634	91.5
382.86	92.5
383.085	97.5
383.31	100.5
383.535	91.5
383.761	100.5
383.986	102.5
384.211	104.5
384.436	92.5
384.662	92.5
384.887	90.5
385.112	96.5
385.337	113.5
385.562	111.5
385.787	98.5
386.013	113.5
386.238	113.5
386.463	103.5
386.688	108.5
386.913	110.5
387.138	103.5
387.363	95.5
387.588	99.5
387.813	90.5
388.038	93.5
388.263	117.5
388.488	126.5
388.713	93.5
388.938	89.5
389.163	103.5
389.387	96.5
389.612	94.5
389.837	94.5
390.062	95.5
390.287	93.5
390.512	81.5
390.736	83.5
390.961	80.5
391.186	93.5
391.411	84.5
391.636	97.5
391.86	86.5
392.085	91.5
392.31	99.5
392.534	89.5
392.759	86.5
392.984	96.5
393.208	85.5
393.433	89.5
393.658	87.5
393.882	88.5
394.107	67.5
394.331	86.5
394.556	82.5
394.78	81.5
395.005	94.5
395.229	89.5
395.454	85.5
395.678	91.5
395.903	93.5
396.127	97.5
396.352	94.5
396.576	82.5
396.801	91.5
397.025	78.5
397.249	84.5
397.474	86.5
397.698	81.5
397.922	87.5
398.147	83.5
398.371	81.5
398.595	99.5
398.82	90.5
399.044	89.5
399.268	85.5
399.492	94.5
399.717	84.5
399.941	96.5
400.165	84.5
400.389	85.5
400.613	78.5
400.837	73.5
401.062	90.5
401.286	94.5
401.51	95.5
401.734	95.5
401.958	104.5
402.182	112.5
402.406	141.5
402.63	111.5
402.854	89.5
403.078	98.5
403.302	75.5
403.526	75.5
403.75	93.5
403.974	85.5
404.198	80.5
404.422	92.5
404.645	79.5
404.869	88.5
405.093	88.5
405.317	99.5
405.541	91.5
405.765	89.5
405.988	108.5
406.212	149.5
406.436	209.5
406.66	133.5
406.883	96.5
407.107	89.5
407.331	92.5
407.555	95.5
407.778	79.5
408.002	92.5
408.226	101.5
408.449	94.5
408.673	97.5
408.896	74.5
409.12	98.5
409.344	77.5
409.567	85.5
409.791	88.5
410.014	103.5
410.238	107.5
410.461	76.5
410.685	99.5
410.908	103.5
411.132	92.5
411.355	93.5
411.578	99.5
411.802	94.5
412.025	76.5
412.249	87.5
412.472	89.5
412.695	82.5
412.919	90.5
413.142	84.5
413.365	82.5
413.589	85.5
413.812	80.5
414.035	86.5
414.258	85.5
414.482	98.5
414.705	90.5
414.928	80.5
415.151	96.5
415.374	91.5
415.597	86.5
415.821	86.5
416.044	89.5
416.267	81.5
416.49	86.5
416.713	91.5
416.936	85.5
417.159	98.5
417.382	90.5
417.605	89.5
417.828	101.5
418.051	86.5
418.274	95.5
418.497	87.5
418.72	86.5
418.943	98.5
419.166	88.5
419.389	85.5
419.611	87.5
419.834	80.5
420.057	90.5
420.28	82.5
420.503	81.5
420.726	86.5
420.948	94.5
421.171	103.5
421.394	93.5
421.617	91.5
421.839	87.5
422.062	100.5
422.285	87.5
422.507	102.5
422.73	97.5
422.953	102.5
423.175	97.5
423.398	82.5
423.621	72.5
423.843	92.5
424.066	90.5
424.288	80.5
424.511	92.5
424.733	93.5
424.956	105.5
425.178	99.5
425.401	90.5
425.623	107.5
425.846	85.5
426.068	101.5
426.291	86.5
426.513	85.5
426.735	95.5
426.958	105.5
427.18	99.5
427.402	135.5
427.625	135.5
427.847	108.5
428.069	90.5
428.292	89.5
428.514	100.5
428.736	77.5
428.958	77.5
429.181	96.5
429.403	94.5
429.625	90.5
429.847	74.5
430.069	110.5
430.292	85.5
430.514	86.5
430.736	93.5
430.958	85.5
431.18	77.5
431.402	88.5
431.624	84.5
431.846	90.5
432.068	78.5
432.29	67.5
432.512	87.5
432.734	80.5
432.956	94.5
433.178	92.5
433.4	106.5
433.622	77.5
433.844	106.5
434.066	90.5
434.287	72.5
434.509	97.5
434.731	98.5
434.953	88.5
435.175	91.5
435.397	84.5
435.618	89.5
435.84	91.5
436.062	115.5
436.284	105.5
436.505	108.5
436.727	111.5
436.949	94.5
437.17	113.5
437.392	79.5
437.614	82.5
437.835	102.5
438.057	112.5
438.278	95.5
438.5	99.5
438.721	107.5
438.943	94.5
439.165	86.5
439.386	95.5
439.608	91.5
439.829	84.5
440.05	111.5
440.272	122.5
440.493	101.5
440.715	93.5
440.936	95.5
441.158	96.5
441.379	85.5
441.6	91.5
441.822	89.5
442.043	98.5
442.264	78.5
442.486	87.5
442.707	83.5
442.928	93.5
443.149	119.5
443.371	116.5
443.592	79.5
443.813	107.5
444.034	106.5
444.255	73.5
444.476	85.5
444.698	87.5
444.919	91.5
445.14	136.5
445.361	117.5
445.582	118.5
445.803	119.5
446.024	130.5
446.245	127.5
446.466	99.5
446.687	87.5
446.908	83.5
447.129	78.5
447.35	70.5
447.571	92.5
447.792	101.5
448.013	99.5
448.234	106.5
448.455	91.5
448.675	114.5
448.896	119.5
449.117	101.5
449.338	108.5
449.559	103.5
449.779	136.5
450	96.5
450.221	97.5
450.442	78.5
450.662	89.5
450.883	100.5
451.104	100.5
451.324	95.5
451.545	108.5
451.766	73.5
451.986	95.5
452.207	89.5
452.428	86.5
452.648	91.5
452.869	91.5
453.089	102.5
453.31	107.5
453.53	94.5
453.751	83.5
453.971	104.5
454.192	119.5
454.412	87.5
454.633	79.5
454.853	91.5
455.073	81.5
455.294	91.5
455.514	103.5
455.734	84.5
455.955	87.5
456.175	87.5
456.395	87.5
456.616	90.5
456.836	69.5
457.056	80.5
457.276	73.5
457.497	84.5
457.717	77.5
457.937	97.5
458.157	83.5
458.377	99.5
458.598	104.5
458.818	135.5
459.038	136.5
459.258	116.5
459.478	87.5
459.698	91.5
459.918	87.5
460.138	82.5
460.358	94.5
460.578	77.5
460.798	100.5
461.018	89.5
461.238	85.5
461.458	86.5
461.678	79.5
461.898	75.5
462.118	94.5
462.338	78.5
462.558	75.5
462.777	73.5
462.997	86.5
463.217	71.5
463.437	90.5
463.657	80.5
463.876	90.5
464.096	83.5
464.316	88.5
464.536	96.5
464.755	91.5
464.975	96.5
465.195	142.5
465.414	151.5
465.634	98.5
465.854	91.5
466.073	78.5
466.293	79.5
466.512	87.5
466.732	82.5
466.951	82.5
467.171	101.5
467.391	104.5
467.61	77.5
467.829	87.5
468.049	91.5
468.268	91.5
468.488	82.5
468.707	85.5
468.927	91.5
469.146	76.5
469.365	89.5
469.585	88.5
469.804	84.5
470.023	99.5
470.243	81.5
470.462	108.5
470.681	97.5
470.901	91.5
471.12	82.5
471.339	90.5
471.558	76.5
471.777	78.5
471.997	74.5
472.216	77.5
472.435	89.5
472.654	77.5
472.873	78.5
473.092	85.5
473.311	86.5
473.53	88.5
473.749	81.5
473.968	87.5
474.187	95.5
474.406	88.5
474.625	80.5
474.844	91.5
475.063	81.5
475.282	86.5
475.501	98.5
475.72	86.5
475.939	86.5
476.158	86.5
476.377	105.5
476.596	82.5
476.814	94.5
477.033	96.5
477.252	73.5
477.471	88.5
477.69	99.5
477.908	81.5
478.127	82.5
478.346	79.5
478.564	88.5
478.783	96.5
479.002	91.5
479.22	96.5
479.439	103.5
479.658	93.5
479.876	95.5
480.095	99.5
480.313	95.5
480.532	92.5
480.751	92.5
480.969	82.5
481.188	111.5
481.406	110.5
481.624	85.5
481.843	85.5
482.061	101.5
482.28	106.5
482.498	101.5
482.717	81.5
482.935	82.5
483.153	74.5
483.372	85.5
483.59	88.5
483.808	83.5
484.027	107.5
484.245	89.5
484.463	71.5
484.681	97.5
484.9	88.5
485.118	76.5
485.336	81.5
485.554	87.5
485.772	80.5
485.99	103.5
486.209	111.5
486.427	108.5
486.645	104.5
486.863	118.5
487.081	103.5
487.299	93.5
487.517	99.5
487.735	99.5
487.953	98.5
488.171	90.5
488.389	92.5
488.607	94.5
488.825	99.5
489.043	100.5
489.261	88.5
489.479	87.5
489.696	95.5
489.914	88.5
490.132	92.5
490.35	88.5
490.568	87.5
490.786	83.5
491.003	86.5
491.221	86.5
491.439	87.5
491.657	85.5
491.874	89.5
492.092	93.5
492.31	87.5
492.527	83.5
492.745	93.5
492.963	71.5
493.18	75.5
493.398	92.5
493.615	97.5
493.833	87.5
494.05	97.5
494.268	73.5
494.485	88.5
494.703	103.5
494.92	98.5
495.138	108.5
495.355	87.5
495.573	103.5
495.79	96.5
496.008	93.5
496.225	81.5
496.442	81.5
496.66	84.5
496.877	88.5
497.094	94.5
497.312	106.5
497.529	97.5
497.746	79.5
497.963	88.5
498.181	84.5
498.398	102.5
498.615	103.5
498.832	102.5
499.049	90.5
499.267	89.5
499.484	94.5
499.701	81.5
499.918	81.5
500.135	93.5
500.352	74.5
500.569	91.5
500.786	93.5
501.003	106.5
501.22	98.5
501.437	89.5
501.654	103.5
501.871	103.5
502.088	78.5
502.305	84.5
502.522	80.5
502.739	73.5
502.956	96.5
503.172	88.5
503.389	87.5
503.606	97.5
503.823	107.5
504.04	98.5
504.256	88.5
504.473	81.5
504.69	88.5
504.907	93.5
505.123	97.5
505.34	95.5
505.557	88.5
505.773	82.5
505.99	93.5
506.207	102.5
506.423	80.5
506.64	99.5
506.856	74.5
507.073	80.5
507.289	84.5
507.506	101.5
507.722	109.5
507.939	104.5
508.155	94.5
508.372	82.5
508.588	83.5
508.805	106.5
509.021	93.5
509.238	96.5
509.454	90.5
509.67	93.5
509.887	96.5
510.103	132.5
510.319	205.5
510.536	739.5
510.752	2271.5
510.968	616.5
511.184	164.5
511.401	109.5
511.617	101.5
511.833	97.5
512.049	93.5
512.265	80.5
512.481	97.5
512.698	98.5
512.914	85.5
513.13	92.5
513.346	92.5
513.562	90.5
513.778	102.5
513.994	87.5
514.21	105.5
514.426	116.5
514.642	117.5
514.858	94.5
515.074	156.5
515.29	410.5
515.506	1329.5
515.721	474.5
515.937	141.5
516.153	98.5
516.369	102.5
516.585	94.5
516.801	94.5
517.016	92.5
517.232	89.5
517.448	91.5
517.664	96.5
517.879	97.5
518.095	98.5
518.311	101.5
518.527	86.5
518.742	75.5
518.958	89.5
519.173	106.5
519.389	104.5
519.605	86.5
519.82	93.5
520.036	119.5
520.251	134.5
520.467	103.5
520.682	101.5
520.898	106.5
521.113	112.5
521.329	133.5
521.544	173.5
521.76	510.5
521.975	2133.5
522.19	1271.5
522.406	291.5
522.621	127.5
522.836	95.5
523.052	82.5
523.267	90.5
523.482	86.5
523.698	82.5
523.913	107.5
524.128	98.5
524.343	91.5
524.559	89.5
524.774	95.5
524.989	81.5
525.204	90.5
525.419	105.5
525.634	101.5
525.849	77.5
526.064	90.5
526.28	91.5
526.495	94.5
526.71	95.5
526.925	83.5
527.14	86.5
527.355	93.5
527.57	96.5
527.785	82.5
527.999	97.5
528.214	103.5
528.429	89.5
528.644	75.5
528.859	93.5
529.074	91.5
529.289	114.5
529.503	164.5
529.718	99.5
529.933	101.5
530.148	97.5
530.363	94.5
530.577	84.5
530.792	88.5
531.007	93.5
531.221	91.5
531.436	90.5
531.651	91.5
531.865	86.5
532.08	96.5
532.295	89.5
532.509	91.5
532.724	104.5
532.938	109.5
533.153	97.5
533.367	82.5
533.582	91.5
533.796	98.5
534.011	89.5
534.225	94.5
534.44	87.5
534.654	78.5
534.868	81.5
535.083	94.5
535.297	91.5
535.511	104.5
535.726	113.5
535.94	100.5
536.154	80.5
536.369	80.5
