Data from Uncirc_1995_H10_HRD10591_00013.txt Node
Date: Wed Jan 03 11:35:36 EST 2024
User: Yrep
Spectrometer: HR+D1059
Trigger mode: 1
Integration Time (sec): 1.000000E-1
Scans to average: 1
Electric dark correction enabled: true
Nonlinearity correction enabled: false
Boxcar width: 0
XAxis mode: Wavelengths
Number of Pixels in Spectrum: 2048
>>>>>Begin Spectral Data<<<<<
223.165	-7.56
223.4	-7.56
223.635	-7.56
223.869	-12.56
224.104	-26.56
224.338	-4.56
224.573	-10.56
224.808	-21.56
225.042	-22.56
225.277	-1.56
225.511	2.44
225.746	-10.56
225.98	1.44
226.215	3.44
226.449	20.44
226.683	28.44
226.918	20.44
227.152	41.44
227.387	35.44
227.621	41.44
227.856	28.44
228.09	50.44
228.324	49.44
228.559	68.44
228.793	37.44
229.027	52.44
229.262	68.44
229.496	65.44
229.73	73.44
229.964	83.44
230.199	84.44
230.433	74.44
230.667	89.44
230.901	87.44
231.136	85.44
231.37	80.44
231.604	78.44
231.838	80.44
232.072	82.44
232.306	89.44
232.541	93.44
232.775	76.44
233.009	76.44
233.243	73.44
233.477	81.44
233.711	92.44
233.945	98.44
234.179	91.44
234.413	91.44
234.647	81.44
234.881	75.44
235.115	61.44
235.349	85.44
235.583	76.44
235.817	89.44
236.051	74.44
236.285	82.44
236.519	94.44
236.753	75.44
236.987	95.44
237.221	67.44
237.455	65.44
237.689	75.44
237.922	71.44
238.156	80.44
238.39	82.44
238.624	77.44
238.858	77.44
239.091	82.44
239.325	69.44
239.559	80.44
239.793	88.44
240.027	63.44
240.26	75.44
240.494	81.44
240.728	79.44
240.961	78.44
241.195	75.44
241.429	82.44
241.662	79.44
241.896	57.44
242.13	81.44
242.363	72.44
242.597	68.44
242.83	74.44
243.064	69.44
243.298	83.44
243.531	85.44
243.765	79.44
243.998	73.44
244.232	79.44
244.465	86.44
244.699	93.44
244.932	88.44
245.166	70.44
245.399	87.44
245.633	94.44
245.866	82.44
246.099	70.44
246.333	82.44
246.566	66.44
246.8	84.44
247.033	91.44
247.266	99.44
247.5	82.44
247.733	65.44
247.966	82.44
248.2	65.44
248.433	84.44
248.666	83.44
248.899	82.44
249.133	90.44
249.366	98.44
249.599	82.44
249.832	83.44
250.066	89.44
250.299	87.44
250.532	79.44
250.765	88.44
250.998	74.44
251.231	75.44
251.465	91.44
251.698	74.44
251.931	77.44
252.164	88.44
252.397	87.44
252.63	98.44
252.863	77.44
253.096	72.44
253.329	75.44
253.562	81.44
253.795	95.44
254.028	86.44
254.261	88.44
254.494	92.44
254.727	80.44
254.96	88.44
255.193	86.44
255.426	79.44
255.659	84.44
255.892	91.44
256.124	82.44
256.357	86.44
256.59	86.44
256.823	84.44
257.056	90.44
257.289	74.44
257.521	78.44
257.754	89.44
257.987	77.44
258.22	89.44
258.452	84.44
258.685	77.44
258.918	78.44
259.151	92.44
259.383	74.44
259.616	82.44
259.849	78.44
260.081	90.44
260.314	77.44
260.547	94.44
260.779	86.44
261.012	82.44
261.244	76.44
261.477	84.44
261.71	80.44
261.942	88.44
262.175	105.44
262.407	95.44
262.64	80.44
262.872	84.44
263.105	88.44
263.337	82.44
263.57	73.44
263.802	82.44
264.035	74.44
264.267	86.44
264.499	86.44
264.732	88.44
264.964	76.44
265.197	82.44
265.429	74.44
265.661	77.44
265.894	76.44
266.126	77.44
266.358	83.44
266.591	75.44
266.823	97.44
267.055	84.44
267.287	74.44
267.52	68.44
267.752	76.44
267.984	72.44
268.216	86.44
268.448	94.44
268.681	77.44
268.913	93.44
269.145	85.44
269.377	78.44
269.609	95.44
269.841	84.44
270.073	102.44
270.306	69.44
270.538	90.44
270.77	90.44
271.002	78.44
271.234	89.44
271.466	97.44
271.698	82.44
271.93	76.44
272.162	96.44
272.394	89.44
272.626	85.44
272.858	86.44
273.09	89.44
273.322	83.44
273.553	83.44
273.785	87.44
274.017	101.44
274.249	85.44
274.481	85.44
274.713	88.44
274.945	97.44
275.176	86.44
275.408	96.44
275.64	74.44
275.872	88.44
276.104	90.44
276.335	93.44
276.567	90.44
276.799	100.44
277.031	95.44
277.262	91.44
277.494	81.44
277.726	75.44
277.957	96.44
278.189	91.44
278.421	93.44
278.652	83.44
278.884	90.44
279.115	96.44
279.347	94.44
279.579	72.44
279.81	90.44
280.042	81.44
280.273	95.44
280.505	81.44
280.736	86.44
280.968	100.44
281.199	83.44
281.431	86.44
281.662	90.44
281.894	105.44
282.125	79.44
282.356	112.44
282.588	140.44
282.819	111.44
283.051	86.44
283.282	100.44
283.513	74.44
283.745	82.44
283.976	97.44
284.207	90.44
284.439	84.44
284.67	99.44
284.901	86.44
285.132	76.44
285.364	87.44
285.595	112.44
285.826	94.44
286.057	98.44
286.288	66.44
286.52	89.44
286.751	89.44
286.982	83.44
287.213	90.44
287.444	78.44
287.675	85.44
287.906	84.44
288.138	102.44
288.369	90.44
288.6	92.44
288.831	89.44
289.062	94.44
289.293	95.44
289.524	92.44
289.755	84.44
289.986	67.44
290.217	84.44
290.448	87.44
290.679	82.44
290.91	84.44
291.141	79.44
291.371	77.44
291.602	99.44
291.833	90.44
292.064	84.44
292.295	88.44
292.526	82.44
292.757	89.44
292.987	80.44
293.218	92.44
293.449	99.44
293.68	78.44
293.91	81.44
294.141	95.44
294.372	81.44
294.603	87.44
294.833	92.44
295.064	91.44
295.295	97.44
295.525	82.44
295.756	101.44
295.987	108.44
296.217	108.44
296.448	116.44
296.679	112.44
296.909	90.44
297.14	101.44
297.37	75.44
297.601	78.44
297.831	92.44
298.062	78.44
298.292	93.44
298.523	84.44
298.753	96.44
298.984	84.44
299.214	81.44
299.445	93.44
299.675	93.44
299.905	102.44
300.136	85.44
300.366	86.44
300.597	90.44
300.827	86.44
301.057	89.44
301.288	96.44
301.518	102.44
301.748	99.44
301.979	107.44
302.209	95.44
302.439	102.44
302.669	70.44
302.9	86.44
303.13	87.44
303.36	85.44
303.59	93.44
303.82	109.44
304.051	70.44
304.281	96.44
304.511	86.44
304.741	88.44
304.971	109.44
305.201	98.44
305.431	82.44
305.661	93.44
305.891	97.44
306.121	99.44
306.352	113.44
306.582	106.44
306.812	99.44
307.042	81.44
307.272	98.44
307.502	89.44
307.731	91.44
307.961	91.44
308.191	83.44
308.421	102.44
308.651	72.44
308.881	89.44
309.111	96.44
309.341	91.44
309.571	104.44
309.8	90.44
310.03	99.44
310.26	102.44
310.49	98.44
310.72	75.44
310.949	79.44
311.179	100.44
311.409	92.44
311.639	87.44
311.868	94.44
312.098	96.44
312.328	96.44
312.557	100.44
312.787	108.44
313.017	102.44
313.246	108.44
313.476	77.44
313.706	80.44
313.935	101.44
314.165	109.44
314.394	96.44
314.624	96.44
314.853	106.44
315.083	100.44
315.312	98.44
315.542	90.44
315.771	83.44
316.001	80.44
316.23	93.44
316.46	82.44
316.689	88.44
316.919	92.44
317.148	106.44
317.377	102.44
317.607	92.44
317.836	105.44
318.065	85.44
318.295	90.44
318.524	74.44
318.753	91.44
318.983	88.44
319.212	100.44
319.441	96.44
319.67	100.44
319.9	106.44
320.129	93.44
320.358	84.44
320.587	94.44
320.816	92.44
321.046	95.44
321.275	102.44
321.504	108.44
321.733	97.44
321.962	100.44
322.191	90.44
322.42	118.44
322.649	103.44
322.878	105.44
323.108	110.44
323.337	115.44
323.566	121.44
323.795	141.44
324.024	196.44
324.253	342.44
324.482	706.44
324.71	1482.44
324.939	1954.44
325.168	715.44
325.397	224.44
325.626	152.44
325.855	120.44
326.084	127.44
326.313	145.44
326.542	133.44
326.77	217.44
326.999	442.44
327.228	858.44
327.457	1559.44
327.686	1248.44
327.914	348.44
328.143	189.44
328.372	130.44
328.6	127.44
328.829	103.44
329.058	114.44
329.287	100.44
329.515	108.44
329.744	107.44
329.972	81.44
330.201	92.44
330.43	98.44
330.658	110.44
330.887	116.44
331.115	110.44
331.344	96.44
331.572	102.44
331.801	102.44
332.03	84.44
332.258	100.44
332.486	102.44
332.715	95.44
332.943	90.44
333.172	92.44
333.4	90.44
333.629	99.44
333.857	105.44
334.085	95.44
334.314	102.44
334.542	95.44
334.771	94.44
334.999	95.44
335.227	90.44
335.455	107.44
335.684	102.44
335.912	97.44
336.14	105.44
336.369	95.44
336.597	90.44
336.825	90.44
337.053	77.44
337.281	94.44
337.51	97.44
337.738	101.44
337.966	94.44
338.194	105.44
338.422	108.44
338.65	98.44
338.878	89.44
339.106	89.44
339.334	101.44
339.562	86.44
339.79	100.44
340.018	92.44
340.246	107.44
340.474	102.44
340.702	102.44
340.93	96.44
341.158	96.44
341.386	101.44
341.614	100.44
341.842	86.44
342.07	94.44
342.298	99.44
342.526	86.44
342.754	102.44
342.981	104.44
343.209	90.44
343.437	97.44
343.665	93.44
343.893	88.44
344.12	89.44
344.348	100.44
344.576	90.44
344.804	91.44
345.031	95.44
345.259	97.44
345.487	85.44
345.714	100.44
345.942	92.44
346.17	99.44
346.397	94.44
346.625	91.44
346.853	103.44
347.08	88.44
347.308	99.44
347.535	108.44
347.763	93.44
347.99	102.44
348.218	114.44
348.445	102.44
348.673	85.44
348.9	96.44
349.128	104.44
349.355	84.44
349.583	87.44
349.81	93.44
350.037	88.44
350.265	96.44
350.492	104.44
350.72	101.44
350.947	105.44
351.174	105.44
351.402	100.44
351.629	90.44
351.856	113.44
352.083	99.44
352.311	112.44
352.538	115.44
352.765	113.44
352.992	111.44
353.22	93.44
353.447	105.44
353.674	90.44
353.901	100.44
354.128	92.44
354.355	107.44
354.583	90.44
354.81	101.44
355.037	105.44
355.264	102.44
355.491	92.44
355.718	86.44
355.945	101.44
356.172	94.44
356.399	99.44
356.626	98.44
356.853	97.44
357.08	96.44
357.307	100.44
357.534	83.44
357.761	109.44
357.988	100.44
358.215	109.44
358.441	88.44
358.668	88.44
358.895	109.44
359.122	92.44
359.349	94.44
359.576	99.44
359.802	109.44
360.029	118.44
360.256	101.44
360.483	90.44
360.709	86.44
360.936	96.44
361.163	91.44
361.39	93.44
361.616	65.44
361.843	108.44
362.07	102.44
362.296	104.44
362.523	100.44
362.749	89.44
362.976	84.44
363.203	84.44
363.429	101.44
363.656	100.44
363.882	88.44
364.109	85.44
364.335	99.44
364.562	102.44
364.788	90.44
365.015	106.44
365.241	100.44
365.468	110.44
365.694	103.44
365.92	91.44
366.147	87.44
366.373	88.44
366.599	92.44
366.826	84.44
367.052	81.44
367.278	97.44
367.505	93.44
367.731	84.44
367.957	87.44
368.184	94.44
368.41	105.44
368.636	113.44
368.862	117.44
369.089	102.44
369.315	98.44
369.541	91.44
369.767	80.44
369.993	99.44
370.219	73.44
370.445	97.44
370.672	86.44
370.898	87.44
371.124	77.44
371.35	92.44
371.576	101.44
371.802	82.44
372.028	86.44
372.254	83.44
372.48	97.44
372.706	78.44
372.932	89.44
373.158	95.44
373.384	92.44
373.61	91.44
373.835	83.44
374.061	72.44
374.287	95.44
374.513	114.44
374.739	89.44
374.965	88.44
375.191	94.44
375.416	94.44
375.642	91.44
375.868	110.44
376.094	94.44
376.319	85.44
376.545	98.44
376.771	100.44
376.997	102.44
377.222	89.44
377.448	83.44
377.674	76.44
377.899	97.44
378.125	95.44
378.35	104.44
378.576	101.44
378.802	83.44
379.027	105.44
379.253	99.44
379.478	99.44
379.704	98.44
379.929	99.44
380.155	68.44
380.38	103.44
380.606	102.44
380.831	94.44
381.057	93.44
381.282	97.44
381.507	101.44
381.733	83.44
381.958	98.44
382.184	101.44
382.409	86.44
382.634	117.44
382.86	112.44
383.085	109.44
383.31	111.44
383.535	114.44
383.761	99.44
383.986	106.44
384.211	100.44
384.436	110.44
384.662	108.44
384.887	105.44
385.112	105.44
385.337	110.44
385.562	103.44
385.787	99.44
386.013	127.44
386.238	112.44
386.463	102.44
386.688	115.44
386.913	109.44
387.138	97.44
387.363	114.44
387.588	102.44
387.813	113.44
388.038	112.44
388.263	135.44
388.488	113.44
388.713	113.44
388.938	100.44
389.163	96.44
389.387	117.44
389.612	88.44
389.837	90.44
390.062	98.44
390.287	93.44
390.512	89.44
390.736	105.44
390.961	98.44
391.186	105.44
391.411	99.44
391.636	100.44
391.86	87.44
392.085	90.44
392.31	79.44
392.534	89.44
392.759	93.44
392.984	90.44
393.208	101.44
393.433	93.44
393.658	90.44
393.882	91.44
394.107	98.44
394.331	89.44
394.556	87.44
394.78	84.44
395.005	84.44
395.229	80.44
395.454	69.44
395.678	96.44
395.903	90.44
396.127	102.44
396.352	93.44
396.576	88.44
396.801	88.44
397.025	103.44
397.249	88.44
397.474	90.44
397.698	97.44
397.922	82.44
398.147	84.44
398.371	76.44
398.595	88.44
398.82	96.44
399.044	90.44
399.268	96.44
399.492	78.44
399.717	87.44
399.941	93.44
400.165	92.44
400.389	109.44
400.613	80.44
400.837	100.44
401.062	93.44
401.286	91.44
401.51	96.44
401.734	92.44
401.958	95.44
402.182	118.44
402.406	141.44
402.63	122.44
402.854	96.44
403.078	98.44
403.302	99.44
403.526	90.44
403.75	83.44
403.974	92.44
404.198	99.44
404.422	94.44
404.645	92.44
404.869	86.44
405.093	87.44
405.317	94.44
405.541	108.44
405.765	101.44
405.988	116.44
406.212	148.44
406.436	188.44
406.66	123.44
406.883	105.44
407.107	89.44
407.331	99.44
407.555	105.44
407.778	88.44
408.002	106.44
408.226	83.44
408.449	85.44
408.673	101.44
408.896	97.44
409.12	96.44
409.344	90.44
409.567	86.44
409.791	97.44
410.014	90.44
410.238	97.44
410.461	101.44
410.685	102.44
410.908	113.44
411.132	116.44
411.355	96.44
411.578	96.44
411.802	88.44
412.025	89.44
412.249	104.44
412.472	88.44
412.695	98.44
412.919	91.44
413.142	85.44
413.365	96.44
413.589	91.44
413.812	80.44
414.035	101.44
414.258	88.44
414.482	97.44
414.705	99.44
414.928	84.44
415.151	99.44
415.374	92.44
415.597	108.44
415.821	86.44
416.044	97.44
416.267	108.44
416.49	86.44
416.713	90.44
416.936	80.44
417.159	97.44
417.382	89.44
417.605	91.44
417.828	87.44
418.051	102.44
418.274	81.44
418.497	90.44
418.72	100.44
418.943	82.44
419.166	87.44
419.389	95.44
419.611	85.44
419.834	100.44
420.057	96.44
420.28	92.44
420.503	106.44
420.726	87.44
420.948	77.44
421.171	87.44
421.394	88.44
421.617	90.44
421.839	88.44
422.062	83.44
422.285	108.44
422.507	99.44
422.73	108.44
422.953	87.44
423.175	92.44
423.398	96.44
423.621	100.44
423.843	91.44
424.066	82.44
424.288	91.44
424.511	86.44
424.733	88.44
424.956	111.44
425.178	98.44
425.401	106.44
425.623	102.44
425.846	85.44
426.068	89.44
426.291	91.44
426.513	82.44
426.735	80.44
426.958	90.44
427.18	98.44
427.402	120.44
427.625	133.44
427.847	112.44
428.069	106.44
428.292	99.44
428.514	89.44
428.736	76.44
428.958	76.44
429.181	100.44
429.403	85.44
429.625	94.44
429.847	89.44
430.069	102.44
430.292	91.44
430.514	81.44
430.736	93.44
430.958	76.44
431.18	88.44
431.402	90.44
431.624	96.44
431.846	96.44
432.068	76.44
432.29	76.44
432.512	74.44
432.734	88.44
432.956	89.44
433.178	99.44
433.4	96.44
433.622	75.44
433.844	106.44
434.066	97.44
434.287	75.44
434.509	82.44
434.731	93.44
434.953	82.44
435.175	90.44
435.397	98.44
435.618	86.44
435.84	100.44
436.062	124.44
436.284	103.44
436.505	104.44
436.727	93.44
436.949	100.44
437.17	95.44
437.392	94.44
437.614	105.44
437.835	94.44
438.057	120.44
438.278	112.44
438.5	109.44
438.721	117.44
438.943	93.44
439.165	98.44
439.386	83.44
439.608	105.44
439.829	102.44
440.05	117.44
440.272	131.44
440.493	113.44
440.715	81.44
440.936	98.44
441.158	87.44
441.379	92.44
441.6	81.44
441.822	89.44
442.043	90.44
442.264	93.44
442.486	92.44
442.707	83.44
442.928	108.44
443.149	116.44
443.371	122.44
443.592	96.44
443.813	104.44
444.034	107.44
444.255	90.44
444.476	96.44
444.698	69.44
444.919	79.44
445.14	142.44
445.361	120.44
445.582	109.44
445.803	125.44
446.024	128.44
446.245	117.44
446.466	101.44
446.687	91.44
446.908	92.44
447.129	84.44
447.35	99.44
447.571	87.44
447.792	91.44
448.013	108.44
448.234	106.44
448.455	85.44
448.675	114.44
448.896	107.44
449.117	110.44
449.338	113.44
449.559	115.44
449.779	125.44
450	99.44
450.221	96.44
450.442	94.44
450.662	86.44
450.883	97.44
451.104	97.44
451.324	104.44
451.545	109.44
451.766	92.44
451.986	81.44
452.207	94.44
452.428	80.44
452.648	94.44
452.869	103.44
453.089	108.44
453.31	124.44
453.53	92.44
453.751	98.44
453.971	96.44
454.192	95.44
454.412	103.44
454.633	91.44
454.853	76.44
455.073	77.44
455.294	79.44
455.514	99.44
455.734	74.44
455.955	91.44
456.175	93.44
456.395	93.44
456.616	94.44
456.836	85.44
457.056	94.44
457.276	88.44
457.497	98.44
457.717	82.44
457.937	78.44
458.157	78.44
458.377	84.44
458.598	106.44
458.818	146.44
459.038	148.44
459.258	109.44
459.478	94.44
459.698	93.44
459.918	90.44
460.138	100.44
460.358	84.44
460.578	83.44
460.798	93.44
461.018	92.44
461.238	83.44
461.458	80.44
461.678	78.44
461.898	82.44
462.118	80.44
462.338	86.44
462.558	98.44
462.777	93.44
462.997	93.44
463.217	98.44
463.437	88.44
463.657	90.44
463.876	92.44
464.096	89.44
464.316	88.44
464.536	90.44
464.755	94.44
464.975	99.44
465.195	136.44
465.414	141.44
465.634	97.44
465.854	88.44
466.073	86.44
466.293	92.44
466.512	95.44
466.732	89.44
466.951	85.44
467.171	94.44
467.391	93.44
467.61	107.44
467.829	102.44
468.049	100.44
468.268	78.44
468.488	78.44
468.707	93.44
468.927	95.44
469.146	101.44
469.365	84.44
469.585	80.44
469.804	85.44
470.023	94.44
470.243	91.44
470.462	92.44
470.681	105.44
470.901	83.44
471.12	90.44
471.339	103.44
471.558	84.44
471.777	81.44
471.997	91.44
472.216	85.44
472.435	86.44
472.654	96.44
472.873	90.44
473.092	86.44
473.311	93.44
473.53	76.44
473.749	83.44
473.968	83.44
474.187	117.44
474.406	97.44
474.625	88.44
474.844	96.44
475.063	78.44
475.282	90.44
475.501	83.44
475.72	86.44
475.939	80.44
476.158	92.44
476.377	95.44
476.596	102.44
476.814	79.44
477.033	88.44
477.252	77.44
477.471	85.44
477.69	90.44
477.908	93.44
478.127	96.44
478.346	98.44
478.564	85.44
478.783	95.44
479.002	105.44
479.22	91.44
479.439	97.44
479.658	102.44
479.876	92.44
480.095	99.44
480.313	92.44
480.532	78.44
480.751	89.44
480.969	87.44
481.188	102.44
481.406	98.44
481.624	97.44
481.843	92.44
482.061	84.44
482.28	91.44
482.498	90.44
482.717	91.44
482.935	90.44
483.153	74.44
483.372	101.44
483.59	101.44
483.808	89.44
484.027	100.44
484.245	77.44
484.463	74.44
484.681	124.44
484.9	94.44
485.118	99.44
485.336	111.44
485.554	114.44
485.772	107.44
485.99	99.44
486.209	116.44
486.427	102.44
486.645	114.44
486.863	99.44
487.081	95.44
487.299	101.44
487.517	88.44
487.735	93.44
487.953	101.44
488.171	94.44
488.389	85.44
488.607	90.44
488.825	74.44
489.043	85.44
489.261	88.44
489.479	100.44
489.696	92.44
489.914	89.44
490.132	93.44
490.35	99.44
490.568	82.44
490.786	87.44
491.003	101.44
491.221	94.44
491.439	97.44
491.657	99.44
491.874	95.44
492.092	90.44
492.31	88.44
492.527	99.44
492.745	95.44
492.963	84.44
493.18	103.44
493.398	86.44
493.615	114.44
493.833	90.44
494.05	82.44
494.268	85.44
494.485	82.44
494.703	94.44
494.92	93.44
495.138	101.44
495.355	101.44
495.573	93.44
495.79	87.44
496.008	99.44
496.225	86.44
496.442	95.44
496.66	95.44
496.877	92.44
497.094	105.44
497.312	98.44
497.529	93.44
497.746	92.44
497.963	84.44
498.181	85.44
498.398	104.44
498.615	101.44
498.832	96.44
499.049	95.44
499.267	96.44
499.484	99.44
499.701	97.44
499.918	94.44
500.135	99.44
500.352	93.44
500.569	83.44
500.786	80.44
501.003	96.44
501.22	80.44
501.437	97.44
501.654	86.44
501.871	95.44
502.088	86.44
502.305	103.44
502.522	94.44
502.739	91.44
502.956	87.44
503.172	98.44
503.389	96.44
503.606	87.44
503.823	93.44
504.04	87.44
504.256	83.44
504.473	75.44
504.69	86.44
504.907	98.44
505.123	83.44
505.34	80.44
505.557	84.44
505.773	83.44
505.99	92.44
506.207	100.44
506.423	95.44
506.64	88.44
506.856	83.44
507.073	93.44
507.289	95.44
507.506	83.44
507.722	98.44
507.939	115.44
508.155	91.44
508.372	83.44
508.588	91.44
508.805	109.44
509.021	100.44
509.238	85.44
509.454	90.44
509.67	104.44
509.887	102.44
510.103	116.44
510.319	190.44
510.536	657.44
510.752	2033.44
510.968	560.44
511.184	140.44
511.401	108.44
511.617	114.44
511.833	105.44
512.049	102.44
512.265	94.44
512.481	97.44
512.698	97.44
512.914	108.44
513.13	103.44
513.346	86.44
513.562	105.44
513.778	107.44
513.994	112.44
514.21	92.44
514.426	109.44
514.642	131.44
514.858	117.44
515.074	143.44
515.29	372.44
