Data from Uncirc_1995_H10_HRD10591_00051.txt Node
Date: Wed Jan 03 11:35:44 EST 2024
User: Yrep
Spectrometer: HR+D1059
Trigger mode: 1
Integration Time (sec): 1.000000E-1
Scans to average: 1
Electric dark correction enabled: true
Nonlinearity correction enabled: false
Boxcar width: 0
XAxis mode: Wavelengths
Number of Pixels in Spectrum: 2048
>>>>>Begin Spectral Data<<<<<
223.165	-12.19
223.4	-12.19
223.635	-12.19
223.869	-26.19
224.104	-21.19
224.338	-23.19
224.573	-13.19
224.808	-20.19
225.042	-12.19
225.277	-3.19
225.511	-6.19
225.746	4.81
225.98	8.81
226.215	10.81
226.449	14.81
226.683	28.81
226.918	29.81
227.152	39.81
227.387	51.81
227.621	37.81
227.856	35.81
228.09	46.81
228.324	51.81
228.559	53.81
228.793	63.81
229.027	50.81
229.262	71.81
229.496	81.81
229.73	73.81
229.964	75.81
230.199	90.81
230.433	75.81
230.667	88.81
230.901	75.81
231.136	67.81
231.37	98.81
231.604	89.81
231.838	76.81
232.072	82.81
232.306	77.81
232.541	82.81
232.775	69.81
233.009	86.81
233.243	83.81
233.477	80.81
233.711	81.81
233.945	78.81
234.179	78.81
234.413	97.81
234.647	94.81
234.881	77.81
235.115	82.81
235.349	77.81
235.583	92.81
235.817	83.81
236.051	73.81
236.285	67.81
236.519	78.81
236.753	68.81
236.987	92.81
237.221	93.81
237.455	83.81
237.689	72.81
237.922	84.81
238.156	71.81
238.39	65.81
238.624	75.81
238.858	81.81
239.091	80.81
239.325	77.81
239.559	79.81
239.793	84.81
240.027	77.81
240.26	81.81
240.494	76.81
240.728	57.81
240.961	89.81
241.195	77.81
241.429	89.81
241.662	75.81
241.896	60.81
242.13	91.81
242.363	73.81
242.597	73.81
242.83	77.81
243.064	75.81
243.298	61.81
243.531	62.81
243.765	77.81
243.998	67.81
244.232	73.81
244.465	73.81
244.699	85.81
244.932	78.81
245.166	76.81
245.399	89.81
245.633	79.81
245.866	66.81
246.099	89.81
246.333	94.81
246.566	85.81
246.8	85.81
247.033	72.81
247.266	68.81
247.5	71.81
247.733	91.81
247.966	79.81
248.2	78.81
248.433	82.81
248.666	74.81
248.899	70.81
249.133	79.81
249.366	88.81
249.599	92.81
249.832	77.81
250.066	79.81
250.299	72.81
250.532	88.81
250.765	85.81
250.998	77.81
251.231	90.81
251.465	81.81
251.698	80.81
251.931	86.81
252.164	80.81
252.397	86.81
252.63	83.81
252.863	80.81
253.096	82.81
253.329	73.81
253.562	90.81
253.795	84.81
254.028	81.81
254.261	89.81
254.494	67.81
254.727	71.81
254.96	81.81
255.193	83.81
255.426	75.81
255.659	77.81
255.892	77.81
256.124	73.81
256.357	79.81
256.59	67.81
256.823	89.81
257.056	91.81
257.289	84.81
257.521	90.81
257.754	87.81
257.987	88.81
258.22	87.81
258.452	80.81
258.685	93.81
258.918	82.81
259.151	88.81
259.383	82.81
259.616	87.81
259.849	88.81
260.081	85.81
260.314	88.81
260.547	84.81
260.779	90.81
261.012	83.81
261.244	92.81
261.477	79.81
261.71	96.81
261.942	109.81
262.175	106.81
262.407	88.81
262.64	93.81
262.872	79.81
263.105	74.81
263.337	85.81
263.57	77.81
263.802	90.81
264.035	90.81
264.267	90.81
264.499	75.81
264.732	83.81
264.964	95.81
265.197	99.81
265.429	84.81
265.661	90.81
265.894	88.81
266.126	94.81
266.358	68.81
266.591	75.81
266.823	76.81
267.055	92.81
267.287	90.81
267.52	94.81
267.752	91.81
267.984	89.81
268.216	82.81
268.448	89.81
268.681	95.81
268.913	93.81
269.145	79.81
269.377	101.81
269.609	69.81
269.841	91.81
270.073	92.81
270.306	75.81
270.538	84.81
270.77	80.81
271.002	92.81
271.234	85.81
271.466	79.81
271.698	72.81
271.93	85.81
272.162	94.81
272.394	84.81
272.626	81.81
272.858	75.81
273.09	79.81
273.322	83.81
273.553	83.81
273.785	78.81
274.017	98.81
274.249	101.81
274.481	84.81
274.713	72.81
274.945	89.81
275.176	84.81
275.408	82.81
275.64	75.81
275.872	84.81
276.104	86.81
276.335	105.81
276.567	100.81
276.799	106.81
277.031	101.81
277.262	95.81
277.494	79.81
277.726	88.81
277.957	89.81
278.189	91.81
278.421	79.81
278.652	84.81
278.884	75.81
279.115	88.81
279.347	84.81
279.579	87.81
279.81	90.81
280.042	88.81
280.273	82.81
280.505	83.81
280.736	88.81
280.968	93.81
281.199	90.81
281.431	87.81
281.662	91.81
281.894	85.81
282.125	97.81
282.356	116.81
282.588	124.81
282.819	95.81
283.051	91.81
283.282	81.81
283.513	93.81
283.745	85.81
283.976	80.81
284.207	91.81
284.439	82.81
284.67	87.81
284.901	79.81
285.132	78.81
285.364	85.81
285.595	75.81
285.826	81.81
286.057	101.81
286.288	91.81
286.52	98.81
286.751	88.81
286.982	98.81
287.213	75.81
287.444	89.81
287.675	102.81
287.906	84.81
288.138	88.81
288.369	94.81
288.6	81.81
288.831	91.81
289.062	87.81
289.293	98.81
289.524	83.81
289.755	91.81
289.986	96.81
290.217	79.81
290.448	99.81
290.679	101.81
290.91	88.81
291.141	94.81
291.371	92.81
291.602	79.81
291.833	83.81
292.064	85.81
292.295	82.81
292.526	94.81
292.757	91.81
292.987	104.81
293.218	91.81
293.449	90.81
293.68	93.81
293.91	87.81
294.141	89.81
294.372	88.81
294.603	86.81
294.833	99.81
295.064	96.81
295.295	87.81
295.525	88.81
295.756	94.81
295.987	104.81
296.217	141.81
296.448	130.81
296.679	92.81
296.909	95.81
297.14	100.81
297.37	101.81
297.601	88.81
297.831	91.81
298.062	95.81
298.292	83.81
298.523	82.81
298.753	88.81
298.984	90.81
299.214	94.81
299.445	88.81
299.675	100.81
299.905	110.81
300.136	100.81
300.366	96.81
300.597	82.81
300.827	106.81
301.057	85.81
301.288	98.81
301.518	96.81
301.748	100.81
301.979	107.81
302.209	80.81
302.439	87.81
302.669	100.81
302.9	87.81
303.13	86.81
303.36	105.81
303.59	96.81
303.82	101.81
304.051	89.81
304.281	96.81
304.511	96.81
304.741	83.81
304.971	92.81
305.201	97.81
305.431	83.81
305.661	93.81
305.891	98.81
306.121	94.81
306.352	94.81
306.582	100.81
306.812	96.81
307.042	82.81
307.272	80.81
307.502	91.81
307.731	92.81
307.961	94.81
308.191	87.81
308.421	101.81
308.651	87.81
308.881	100.81
309.111	80.81
309.341	99.81
309.571	104.81
309.8	83.81
310.03	93.81
310.26	97.81
310.49	111.81
310.72	112.81
310.949	95.81
311.179	98.81
311.409	97.81
311.639	100.81
311.868	88.81
312.098	100.81
312.328	97.81
312.557	104.81
312.787	105.81
313.017	91.81
313.246	86.81
313.476	96.81
313.706	94.81
313.935	101.81
314.165	96.81
314.394	99.81
314.624	95.81
314.853	91.81
315.083	95.81
315.312	105.81
315.542	80.81
315.771	90.81
316.001	91.81
316.23	88.81
316.46	99.81
316.689	90.81
316.919	90.81
317.148	92.81
317.377	88.81
317.607	107.81
317.836	96.81
318.065	78.81
318.295	98.81
318.524	100.81
318.753	102.81
318.983	86.81
319.212	103.81
319.441	101.81
319.67	115.81
319.9	91.81
320.129	88.81
320.358	97.81
320.587	85.81
320.816	98.81
321.046	100.81
321.275	95.81
321.504	109.81
321.733	106.81
321.962	97.81
322.191	108.81
322.42	114.81
322.649	122.81
322.878	99.81
323.108	109.81
323.337	118.81
323.566	127.81
323.795	141.81
324.024	216.81
324.253	404.81
324.482	824.81
324.71	1700.81
324.939	2235.81
325.168	815.81
325.397	252.81
325.626	171.81
325.855	147.81
326.084	123.81
326.313	135.81
326.542	144.81
326.77	217.81
326.999	448.81
327.228	959.81
327.457	1746.81
327.686	1361.81
327.914	371.81
328.143	190.81
328.372	149.81
328.6	120.81
328.829	117.81
329.058	126.81
329.287	137.81
329.515	96.81
329.744	99.81
329.972	95.81
330.201	120.81
330.43	108.81
330.658	107.81
330.887	133.81
331.115	111.81
331.344	108.81
331.572	114.81
331.801	112.81
332.03	99.81
332.258	100.81
332.486	113.81
332.715	99.81
332.943	98.81
333.172	85.81
333.4	85.81
333.629	92.81
333.857	108.81
334.085	100.81
334.314	94.81
334.542	93.81
334.771	96.81
334.999	85.81
335.227	90.81
335.455	86.81
335.684	103.81
335.912	105.81
336.14	101.81
336.369	99.81
336.597	104.81
336.825	108.81
337.053	97.81
337.281	94.81
337.51	99.81
337.738	91.81
337.966	100.81
338.194	93.81
338.422	107.81
338.65	100.81
338.878	99.81
339.106	105.81
339.334	91.81
339.562	99.81
339.79	84.81
340.018	102.81
340.246	100.81
340.474	102.81
340.702	93.81
340.93	105.81
341.158	95.81
341.386	108.81
341.614	94.81
341.842	95.81
342.07	90.81
342.298	105.81
342.526	89.81
342.754	89.81
342.981	92.81
343.209	89.81
343.437	104.81
343.665	88.81
343.893	79.81
344.12	89.81
344.348	87.81
344.576	93.81
344.804	101.81
345.031	109.81
345.259	110.81
345.487	87.81
345.714	81.81
345.942	85.81
346.17	105.81
346.397	99.81
346.625	85.81
346.853	97.81
347.08	83.81
347.308	90.81
347.535	88.81
347.763	104.81
347.99	108.81
348.218	103.81
348.445	101.81
348.673	85.81
348.9	107.81
349.128	106.81
349.355	84.81
349.583	105.81
349.81	92.81
350.037	84.81
350.265	111.81
350.492	90.81
350.72	95.81
350.947	117.81
351.174	103.81
351.402	92.81
351.629	113.81
351.856	102.81
352.083	104.81
352.311	114.81
352.538	97.81
352.765	111.81
352.992	106.81
353.22	115.81
353.447	106.81
353.674	112.81
353.901	107.81
354.128	105.81
354.355	90.81
354.583	88.81
354.81	102.81
355.037	101.81
355.264	96.81
355.491	110.81
355.718	104.81
355.945	109.81
356.172	97.81
356.399	100.81
356.626	101.81
356.853	86.81
357.08	95.81
357.307	107.81
357.534	91.81
357.761	102.81
357.988	105.81
358.215	91.81
358.441	89.81
358.668	97.81
358.895	93.81
359.122	104.81
359.349	104.81
359.576	102.81
359.802	108.81
360.029	112.81
360.256	121.81
360.483	109.81
360.709	86.81
360.936	91.81
361.163	96.81
361.39	112.81
361.616	97.81
361.843	93.81
362.07	91.81
362.296	84.81
362.523	91.81
362.749	89.81
362.976	102.81
363.203	97.81
363.429	90.81
363.656	97.81
363.882	80.81
364.109	78.81
364.335	92.81
364.562	91.81
364.788	108.81
365.015	88.81
365.241	100.81
365.468	116.81
365.694	105.81
365.92	106.81
366.147	81.81
366.373	92.81
366.599	95.81
366.826	85.81
367.052	75.81
367.278	76.81
367.505	88.81
367.731	100.81
367.957	100.81
368.184	96.81
368.41	104.81
368.636	98.81
368.862	127.81
369.089	99.81
369.315	104.81
369.541	98.81
369.767	88.81
369.993	91.81
370.219	105.81
370.445	92.81
370.672	101.81
370.898	93.81
371.124	83.81
371.35	74.81
371.576	80.81
371.802	90.81
372.028	90.81
372.254	92.81
372.48	82.81
372.706	76.81
372.932	87.81
373.158	91.81
373.384	94.81
373.61	105.81
373.835	91.81
374.061	101.81
374.287	95.81
374.513	83.81
374.739	90.81
374.965	88.81
375.191	77.81
375.416	83.81
375.642	91.81
375.868	100.81
376.094	89.81
376.319	95.81
376.545	84.81
376.771	81.81
376.997	99.81
377.222	101.81
377.448	93.81
377.674	95.81
377.899	85.81
378.125	91.81
378.35	96.81
378.576	89.81
378.802	80.81
379.027	96.81
379.253	77.81
379.478	93.81
379.704	93.81
379.929	94.81
380.155	96.81
380.38	80.81
380.606	88.81
380.831	91.81
381.057	110.81
381.282	81.81
381.507	91.81
381.733	91.81
381.958	104.81
382.184	95.81
382.409	95.81
382.634	106.81
382.86	100.81
383.085	90.81
383.31	90.81
383.535	107.81
383.761	100.81
383.986	96.81
384.211	96.81
384.436	101.81
384.662	103.81
384.887	101.81
385.112	106.81
385.337	100.81
385.562	109.81
385.787	96.81
386.013	107.81
386.238	120.81
386.463	91.81
386.688	106.81
386.913	103.81
387.138	115.81
387.363	93.81
387.588	104.81
387.813	97.81
388.038	106.81
388.263	104.81
388.488	114.81
388.713	97.81
388.938	84.81
389.163	90.81
389.387	117.81
389.612	98.81
389.837	111.81
390.062	103.81
390.287	103.81
390.512	97.81
390.736	91.81
390.961	92.81
391.186	88.81
391.411	100.81
391.636	99.81
391.86	90.81
392.085	81.81
392.31	80.81
392.534	87.81
392.759	87.81
392.984	74.81
393.208	99.81
393.433	100.81
393.658	94.81
393.882	79.81
394.107	82.81
394.331	90.81
394.556	83.81
394.78	88.81
395.005	98.81
395.229	97.81
395.454	97.81
395.678	83.81
395.903	91.81
396.127	91.81
396.352	95.81
396.576	87.81
396.801	73.81
397.025	97.81
397.249	82.81
397.474	93.81
397.698	82.81
397.922	90.81
398.147	82.81
398.371	81.81
398.595	83.81
398.82	83.81
399.044	91.81
399.268	85.81
399.492	97.81
399.717	83.81
399.941	85.81
400.165	82.81
400.389	90.81
400.613	93.81
400.837	94.81
401.062	91.81
401.286	87.81
401.51	99.81
401.734	100.81
401.958	96.81
402.182	101.81
402.406	157.81
402.63	124.81
402.854	77.81
403.078	90.81
403.302	89.81
403.526	91.81
403.75	81.81
403.974	92.81
404.198	88.81
404.422	83.81
404.645	84.81
404.869	89.81
405.093	91.81
405.317	99.81
405.541	83.81
405.765	103.81
405.988	112.81
406.212	156.81
406.436	208.81
406.66	144.81
406.883	103.81
407.107	93.81
407.331	87.81
407.555	90.81
407.778	114.81
408.002	94.81
408.226	101.81
408.449	84.81
408.673	77.81
408.896	107.81
409.12	101.81
409.344	101.81
409.567	92.81
409.791	89.81
410.014	82.81
410.238	89.81
410.461	98.81
410.685	101.81
410.908	105.81
411.132	108.81
411.355	106.81
411.578	104.81
411.802	97.81
412.025	80.81
412.249	85.81
412.472	92.81
412.695	102.81
412.919	104.81
413.142	84.81
413.365	95.81
413.589	87.81
413.812	94.81
414.035	99.81
414.258	91.81
414.482	87.81
414.705	78.81
414.928	89.81
415.151	92.81
415.374	94.81
415.597	101.81
415.821	83.81
416.044	97.81
416.267	98.81
416.49	84.81
416.713	97.81
416.936	91.81
417.159	92.81
417.382	93.81
417.605	95.81
417.828	91.81
418.051	93.81
418.274	106.81
418.497	77.81
418.72	92.81
418.943	101.81
419.166	98.81
419.389	102.81
419.611	91.81
419.834	84.81
420.057	89.81
420.28	79.81
420.503	87.81
420.726	92.81
420.948	76.81
421.171	90.81
421.394	107.81
421.617	89.81
421.839	77.81
422.062	86.81
422.285	85.81
422.507	96.81
422.73	108.81
422.953	88.81
423.175	79.81
423.398	94.81
423.621	97.81
423.843	84.81
424.066	92.81
424.288	88.81
424.511	96.81
424.733	96.81
424.956	113.81
425.178	92.81
425.401	97.81
425.623	92.81
425.846	104.81
426.068	101.81
426.291	86.81
426.513	80.81
426.735	97.81
426.958	105.81
427.18	116.81
427.402	135.81
427.625	157.81
427.847	130.81
428.069	100.81
428.292	85.81
428.514	92.81
428.736	92.81
428.958	75.81
429.181	82.81
429.403	95.81
429.625	84.81
429.847	85.81
430.069	98.81
430.292	89.81
430.514	90.81
430.736	93.81
430.958	83.81
431.18	83.81
431.402	76.81
431.624	92.81
431.846	83.81
432.068	87.81
432.29	92.81
432.512	83.81
432.734	84.81
432.956	90.81
433.178	102.81
433.4	96.81
433.622	95.81
433.844	103.81
434.066	95.81
434.287	93.81
434.509	104.81
434.731	94.81
434.953	83.81
435.175	90.81
435.397	99.81
435.618	110.81
435.84	95.81
436.062	109.81
436.284	120.81
436.505	106.81
436.727	103.81
436.949	94.81
437.17	91.81
437.392	81.81
437.614	87.81
437.835	104.81
438.057	110.81
438.278	101.81
438.5	108.81
438.721	129.81
438.943	95.81
439.165	82.81
439.386	96.81
439.608	93.81
439.829	101.81
440.05	120.81
440.272	132.81
440.493	109.81
440.715	103.81
440.936	91.81
441.158	83.81
441.379	82.81
441.6	77.81
441.822	97.81
442.043	91.81
442.264	93.81
442.486	95.81
442.707	84.81
442.928	109.81
443.149	127.81
443.371	130.81
443.592	108.81
443.813	121.81
444.034	108.81
444.255	93.81
444.476	88.81
444.698	94.81
444.919	91.81
445.14	133.81
445.361	124.81
445.582	99.81
445.803	119.81
446.024	121.81
446.245	124.81
446.466	113.81
446.687	80.81
446.908	81.81
447.129	95.81
447.35	80.81
447.571	96.81
447.792	94.81
448.013	89.81
448.234	109.81
448.455	109.81
448.675	100.81
448.896	113.81
449.117	106.81
449.338	109.81
449.559	120.81
449.779	135.81
450	93.81
450.221	93.81
450.442	103.81
450.662	81.81
450.883	95.81
451.104	104.81
451.324	101.81
451.545	81.81
451.766	95.81
451.986	85.81
452.207	88.81
452.428	86.81
452.648	116.81
452.869	106.81
453.089	119.81
453.31	111.81
453.53	78.81
453.751	102.81
453.971	103.81
454.192	102.81
454.412	110.81
454.633	85.81
454.853	73.81
455.073	94.81
455.294	82.81
455.514	84.81
455.734	98.81
455.955	90.81
456.175	81.81
456.395	87.81
456.616	74.81
456.836	85.81
457.056	90.81
457.276	83.81
457.497	88.81
457.717	92.81
457.937	85.81
458.157	82.81
458.377	84.81
458.598	117.81
458.818	136.81
459.038	155.81
459.258	118.81
459.478	80.81
459.698	89.81
459.918	101.81
460.138	83.81
460.358	95.81
460.578	98.81
460.798	91.81
461.018	82.81
461.238	78.81
461.458	101.81
461.678	71.81
461.898	83.81
462.118	76.81
462.338	96.81
462.558	99.81
462.777	82.81
462.997	83.81
463.217	79.81
463.437	93.81
463.657	93.81
463.876	100.81
464.096	88.81
464.316	79.81
464.536	92.81
464.755	93.81
464.975	98.81
465.195	174.81
465.414	151.81
465.634	109.81
465.854	85.81
466.073	90.81
466.293	99.81
466.512	83.81
466.732	86.81
466.951	90.81
467.171	86.81
467.391	103.81
467.61	100.81
467.829	91.81
468.049	79.81
468.268	81.81
468.488	99.81
468.707	81.81
468.927	90.81
469.146	90.81
469.365	86.81
469.585	98.81
469.804	84.81
470.023	90.81
470.243	91.81
470.462	96.81
470.681	99.81
470.901	78.81
471.12	87.81
471.339	96.81
471.558	95.81
471.777	83.81
471.997	96.81
472.216	98.81
472.435	97.81
472.654	100.81
472.873	78.81
473.092	86.81
473.311	90.81
473.53	76.81
473.749	80.81
473.968	92.81
474.187	104.81
474.406	95.81
474.625	81.81
474.844	88.81
475.063	89.81
475.282	89.81
475.501	89.81
475.72	87.81
475.939	85.81
476.158	96.81
476.377	74.81
476.596	97.81
476.814	106.81
477.033	92.81
477.252	102.81
477.471	80.81
477.69	84.81
477.908	91.81
478.127	97.81
478.346	78.81
478.564	87.81
478.783	97.81
479.002	91.81
479.22	88.81
479.439	98.81
479.658	88.81
479.876	92.81
480.095	96.81
480.313	93.81
480.532	102.81
480.751	91.81
480.969	94.81
481.188	102.81
481.406	99.81
481.624	83.81
481.843	88.81
482.061	77.81
482.28	87.81
482.498	90.81
482.717	87.81
482.935	91.81
483.153	85.81
483.372	84.81
483.59	91.81
483.808	89.81
484.027	97.81
484.245	90.81
484.463	100.81
484.681	100.81
484.9	86.81
485.118	101.81
485.336	89.81
485.554	98.81
485.772	96.81
485.99	102.81
486.209	96.81
486.427	95.81
486.645	95.81
486.863	111.81
487.081	91.81
487.299	88.81
487.517	99.81
487.735	101.81
487.953	98.81
488.171	88.81
488.389	77.81
488.607	107.81
488.825	100.81
489.043	69.81
489.261	84.81
489.479	85.81
489.696	91.81
489.914	94.81
490.132	102.81
490.35	95.81
490.568	98.81
490.786	93.81
491.003	80.81
491.221	98.81
491.439	83.81
491.657	84.81
491.874	82.81
492.092	88.81
492.31	88.81
492.527	90.81
492.745	96.81
492.963	83.81
493.18	89.81
493.398	90.81
493.615	108.81
493.833	99.81
494.05	101.81
494.268	93.81
494.485	98.81
494.703	92.81
494.92	91.81
495.138	93.81
495.355	95.81
495.573	99.81
495.79	95.81
496.008	97.81
496.225	93.81
496.442	91.81
496.66	87.81
496.877	82.81
497.094	94.81
497.312	99.81
497.529	85.81
497.746	82.81
497.963	88.81
498.181	91.81
498.398	94.81
498.615	121.81
498.832	101.81
499.049	85.81
499.267	83.81
499.484	79.81
499.701	95.81
499.918	91.81
500.135	107.81
500.352	90.81
500.569	84.81
500.786	77.81
501.003	88.81
501.22	91.81
501.437	91.81
501.654	81.81
501.871	90.81
502.088	91.81
502.305	88.81
502.522	93.81
502.739	98.81
502.956	99.81
503.172	78.81
503.389	111.81
503.606	107.81
503.823	106.81
504.04	98.81
504.256	99.81
504.473	80.81
504.69	92.81
504.907	81.81
505.123	93.81
505.34	97.81
505.557	81.81
505.773	104.81
505.99	80.81
506.207	91.81
506.423	104.81
506.64	94.81
506.856	84.81
507.073	87.81
507.289	89.81
507.506	88.81
507.722	96.81
507.939	100.81
508.155	86.81
508.372	91.81
508.588	91.81
508.805	87.81
509.021	104.81
509.238	95.81
509.454	97.81
509.67	100.81
509.887	105.81
510.103	127.81
510.319	226.81
510.536	787.81
510.752	2383.81
510.968	671.81
511.184	157.81
511.401	100.81
511.617	101.81
511.833	105.81
512.049	91.81
512.265	93.81
512.481	104.81
512.698	92.81
512.914	101.81
513.13	96.81
513.346	87.81
513.562	95.81
513.778	84.81
513.994	93.81
514.21	95.81
514.426	99.81
514.642	135.81
514.858	123.81
515.074	152.81
515.29	423.81
