Data from Uncirc_1995_H10_HRD10591_00057.txt Node
Date: Wed Jan 03 11:35:45 EST 2024
User: Yrep
Spectrometer: HR+D1059
Trigger mode: 1
Integration Time (sec): 1.000000E-1
Scans to average: 1
Electric dark correction enabled: true
Nonlinearity correction enabled: false
Boxcar width: 0
XAxis mode: Wavelengths
Number of Pixels in Spectrum: 2048
>>>>>Begin Spectral Data<<<<<
223.165	-9.62
223.4	-9.62
223.635	-9.62
223.869	-13.62
224.104	-14.62
224.338	-9.62
224.573	-13.62
224.808	-25.62
225.042	-9.62
225.277	-1.62
225.511	5.38
225.746	8.38
225.98	-12.62
226.215	12.38
226.449	18.38
226.683	18.38
226.918	17.38
227.152	30.38
227.387	45.38
227.621	51.38
227.856	34.38
228.09	50.38
228.324	45.38
228.559	44.38
228.793	64.38
229.027	68.38
229.262	57.38
229.496	72.38
229.73	74.38
229.964	89.38
230.199	62.38
230.433	77.38
230.667	56.38
230.901	85.38
231.136	78.38
231.37	90.38
231.604	85.38
231.838	79.38
232.072	75.38
232.306	69.38
232.541	65.38
232.775	61.38
233.009	71.38
233.243	72.38
233.477	71.38
233.711	66.38
233.945	56.38
234.179	79.38
234.413	81.38
234.647	71.38
234.881	80.38
235.115	82.38
235.349	77.38
235.583	81.38
235.817	71.38
236.051	85.38
236.285	69.38
236.519	86.38
236.753	82.38
236.987	94.38
237.221	71.38
237.455	83.38
237.689	78.38
237.922	76.38
238.156	79.38
238.39	72.38
238.624	74.38
238.858	70.38
239.091	71.38
239.325	58.38
239.559	80.38
239.793	70.38
240.027	80.38
240.26	65.38
240.494	70.38
240.728	68.38
240.961	74.38
241.195	76.38
241.429	78.38
241.662	76.38
241.896	71.38
242.13	77.38
242.363	58.38
242.597	73.38
242.83	85.38
243.064	63.38
243.298	71.38
243.531	80.38
243.765	78.38
243.998	68.38
244.232	82.38
244.465	85.38
244.699	83.38
244.932	75.38
245.166	80.38
245.399	91.38
245.633	59.38
245.866	68.38
246.099	66.38
246.333	73.38
246.566	66.38
246.8	72.38
247.033	75.38
247.266	72.38
247.5	79.38
247.733	70.38
247.966	95.38
248.2	89.38
248.433	60.38
248.666	83.38
248.899	86.38
249.133	80.38
249.366	94.38
249.599	87.38
249.832	77.38
250.066	74.38
250.299	72.38
250.532	85.38
250.765	78.38
250.998	84.38
251.231	84.38
251.465	85.38
251.698	82.38
251.931	77.38
252.164	66.38
252.397	86.38
252.63	86.38
252.863	80.38
253.096	72.38
253.329	87.38
253.562	70.38
253.795	76.38
254.028	79.38
254.261	80.38
254.494	79.38
254.727	80.38
254.96	89.38
255.193	82.38
255.426	86.38
255.659	93.38
255.892	89.38
256.124	81.38
256.357	73.38
256.59	82.38
256.823	80.38
257.056	88.38
257.289	81.38
257.521	93.38
257.754	78.38
257.987	74.38
258.22	86.38
258.452	81.38
258.685	87.38
258.918	86.38
259.151	79.38
259.383	84.38
259.616	76.38
259.849	74.38
260.081	98.38
260.314	81.38
260.547	73.38
260.779	98.38
261.012	78.38
261.244	83.38
261.477	78.38
261.71	93.38
261.942	110.38
262.175	111.38
262.407	93.38
262.64	75.38
262.872	90.38
263.105	89.38
263.337	94.38
263.57	97.38
263.802	73.38
264.035	77.38
264.267	86.38
264.499	87.38
264.732	87.38
264.964	81.38
265.197	81.38
265.429	86.38
265.661	81.38
265.894	75.38
266.126	85.38
266.358	87.38
266.591	78.38
266.823	81.38
267.055	74.38
267.287	88.38
267.52	77.38
267.752	75.38
267.984	77.38
268.216	71.38
268.448	76.38
268.681	107.38
268.913	78.38
269.145	73.38
269.377	85.38
269.609	81.38
269.841	83.38
270.073	79.38
270.306	78.38
270.538	89.38
270.77	71.38
271.002	82.38
271.234	80.38
271.466	77.38
271.698	64.38
271.93	82.38
272.162	72.38
272.394	73.38
272.626	91.38
272.858	86.38
273.09	81.38
273.322	90.38
273.553	101.38
273.785	91.38
274.017	101.38
274.249	81.38
274.481	84.38
274.713	82.38
274.945	84.38
275.176	71.38
275.408	85.38
275.64	93.38
275.872	85.38
276.104	93.38
276.335	87.38
276.567	110.38
276.799	100.38
277.031	91.38
277.262	84.38
277.494	81.38
277.726	80.38
277.957	75.38
278.189	93.38
278.421	77.38
278.652	85.38
278.884	74.38
279.115	89.38
279.347	84.38
279.579	94.38
279.81	77.38
280.042	65.38
280.273	84.38
280.505	88.38
280.736	86.38
280.968	83.38
281.199	74.38
281.431	82.38
281.662	85.38
281.894	80.38
282.125	91.38
282.356	110.38
282.588	135.38
282.819	96.38
283.051	78.38
283.282	68.38
283.513	86.38
283.745	77.38
283.976	87.38
284.207	84.38
284.439	86.38
284.67	84.38
284.901	72.38
285.132	87.38
285.364	80.38
285.595	88.38
285.826	83.38
286.057	75.38
286.288	78.38
286.52	79.38
286.751	93.38
286.982	78.38
287.213	81.38
287.444	84.38
287.675	76.38
287.906	95.38
288.138	88.38
288.369	110.38
288.6	80.38
288.831	89.38
289.062	87.38
289.293	96.38
289.524	94.38
289.755	75.38
289.986	87.38
290.217	78.38
290.448	91.38
290.679	87.38
290.91	77.38
291.141	87.38
291.371	87.38
291.602	72.38
291.833	73.38
292.064	86.38
292.295	87.38
292.526	73.38
292.757	80.38
292.987	76.38
293.218	89.38
293.449	94.38
293.68	88.38
293.91	82.38
294.141	91.38
294.372	85.38
294.603	92.38
294.833	78.38
295.064	92.38
295.295	98.38
295.525	97.38
295.756	87.38
295.987	109.38
296.217	119.38
296.448	112.38
296.679	96.38
296.909	83.38
297.14	82.38
297.37	88.38
297.601	97.38
297.831	82.38
298.062	78.38
298.292	100.38
298.523	77.38
298.753	75.38
298.984	78.38
299.214	91.38
299.445	90.38
299.675	85.38
299.905	103.38
300.136	78.38
300.366	86.38
300.597	83.38
300.827	100.38
301.057	93.38
301.288	94.38
301.518	93.38
301.748	87.38
301.979	108.38
302.209	88.38
302.439	84.38
302.669	84.38
302.9	94.38
303.13	93.38
303.36	95.38
303.59	86.38
303.82	97.38
304.051	86.38
304.281	87.38
304.511	86.38
304.741	92.38
304.971	91.38
305.201	90.38
305.431	91.38
305.661	106.38
305.891	81.38
306.121	88.38
306.352	93.38
306.582	99.38
306.812	102.38
307.042	86.38
307.272	90.38
307.502	90.38
307.731	98.38
307.961	81.38
308.191	90.38
308.421	71.38
308.651	74.38
308.881	73.38
309.111	102.38
309.341	86.38
309.571	101.38
309.8	102.38
310.03	102.38
310.26	89.38
310.49	88.38
310.72	110.38
310.949	101.38
311.179	93.38
311.409	91.38
311.639	95.38
311.868	102.38
312.098	82.38
312.328	93.38
312.557	91.38
312.787	102.38
313.017	97.38
313.246	98.38
313.476	102.38
313.706	88.38
313.935	84.38
314.165	92.38
314.394	105.38
314.624	89.38
314.853	98.38
315.083	95.38
315.312	100.38
315.542	79.38
315.771	80.38
316.001	76.38
316.23	83.38
316.46	85.38
316.689	81.38
316.919	80.38
317.148	84.38
317.377	88.38
317.607	100.38
317.836	101.38
318.065	90.38
318.295	97.38
318.524	98.38
318.753	104.38
318.983	104.38
319.212	81.38
319.441	106.38
319.67	111.38
319.9	101.38
320.129	92.38
320.358	85.38
320.587	91.38
320.816	91.38
321.046	91.38
321.275	98.38
321.504	101.38
321.733	97.38
321.962	90.38
322.191	100.38
322.42	94.38
322.649	103.38
322.878	105.38
323.108	114.38
323.337	118.38
323.566	127.38
323.795	152.38
324.024	197.38
324.253	370.38
324.482	798.38
324.71	1674.38
324.939	2207.38
325.168	821.38
325.397	256.38
325.626	156.38
325.855	148.38
326.084	133.38
326.313	131.38
326.542	146.38
326.77	218.38
326.999	465.38
327.228	935.38
327.457	1716.38
327.686	1358.38
327.914	372.38
328.143	198.38
328.372	144.38
328.6	105.38
328.829	125.38
329.058	124.38
329.287	116.38
329.515	86.38
329.744	111.38
329.972	95.38
330.201	95.38
330.43	103.38
330.658	102.38
330.887	128.38
331.115	116.38
331.344	106.38
331.572	105.38
331.801	101.38
332.03	105.38
332.258	87.38
332.486	103.38
332.715	86.38
332.943	93.38
333.172	112.38
333.4	101.38
333.629	113.38
333.857	100.38
334.085	104.38
334.314	98.38
334.542	96.38
334.771	98.38
334.999	98.38
335.227	97.38
335.455	105.38
335.684	96.38
335.912	97.38
336.14	90.38
336.369	89.38
336.597	78.38
336.825	98.38
337.053	98.38
337.281	96.38
337.51	93.38
337.738	85.38
337.966	89.38
338.194	89.38
338.422	97.38
338.65	88.38
338.878	85.38
339.106	89.38
339.334	98.38
339.562	98.38
339.79	87.38
340.018	74.38
340.246	84.38
340.474	85.38
340.702	89.38
340.93	82.38
341.158	99.38
341.386	86.38
341.614	98.38
341.842	92.38
342.07	88.38
342.298	82.38
342.526	105.38
342.754	95.38
342.981	65.38
343.209	72.38
343.437	100.38
343.665	88.38
343.893	90.38
344.12	89.38
344.348	92.38
344.576	86.38
344.804	87.38
345.031	89.38
345.259	100.38
345.487	110.38
345.714	83.38
345.942	81.38
346.17	101.38
346.397	108.38
346.625	88.38
346.853	94.38
347.08	88.38
347.308	103.38
347.535	96.38
347.763	87.38
347.99	94.38
348.218	68.38
348.445	92.38
348.673	96.38
348.9	82.38
349.128	98.38
349.355	88.38
349.583	93.38
349.81	104.38
350.037	94.38
350.265	93.38
350.492	95.38
350.72	80.38
350.947	112.38
351.174	107.38
351.402	114.38
351.629	105.38
351.856	108.38
352.083	107.38
352.311	85.38
352.538	100.38
352.765	95.38
352.992	111.38
353.22	106.38
353.447	85.38
353.674	89.38
353.901	90.38
354.128	100.38
354.355	91.38
354.583	89.38
354.81	86.38
355.037	82.38
355.264	100.38
355.491	95.38
355.718	92.38
355.945	93.38
356.172	99.38
356.399	100.38
356.626	100.38
356.853	84.38
357.08	76.38
357.307	89.38
357.534	84.38
357.761	86.38
357.988	86.38
358.215	102.38
358.441	95.38
358.668	94.38
358.895	101.38
359.122	82.38
359.349	95.38
359.576	91.38
359.802	88.38
360.029	93.38
360.256	103.38
360.483	92.38
360.709	99.38
360.936	74.38
361.163	90.38
361.39	90.38
361.616	88.38
361.843	105.38
362.07	90.38
362.296	93.38
362.523	88.38
362.749	95.38
362.976	86.38
363.203	93.38
363.429	84.38
363.656	80.38
363.882	83.38
364.109	80.38
364.335	86.38
364.562	87.38
364.788	67.38
365.015	90.38
365.241	92.38
365.468	94.38
365.694	89.38
365.92	90.38
366.147	96.38
366.373	82.38
366.599	99.38
366.826	91.38
367.052	94.38
367.278	90.38
367.505	82.38
367.731	87.38
367.957	100.38
368.184	86.38
368.41	96.38
368.636	105.38
368.862	109.38
369.089	100.38
369.315	82.38
369.541	90.38
369.767	88.38
369.993	109.38
370.219	104.38
370.445	89.38
370.672	80.38
370.898	84.38
371.124	70.38
371.35	88.38
371.576	92.38
371.802	75.38
372.028	88.38
372.254	86.38
372.48	84.38
372.706	94.38
372.932	78.38
373.158	84.38
373.384	90.38
373.61	93.38
373.835	83.38
374.061	89.38
374.287	94.38
374.513	101.38
374.739	106.38
374.965	86.38
375.191	101.38
375.416	86.38
375.642	77.38
375.868	94.38
376.094	82.38
376.319	84.38
376.545	83.38
376.771	84.38
376.997	83.38
377.222	110.38
377.448	94.38
377.674	90.38
377.899	96.38
378.125	90.38
378.35	90.38
378.576	81.38
378.802	91.38
379.027	84.38
379.253	79.38
379.478	86.38
379.704	87.38
379.929	91.38
380.155	82.38
380.38	88.38
380.606	93.38
380.831	112.38
381.057	98.38
381.282	92.38
381.507	80.38
381.733	86.38
381.958	103.38
382.184	93.38
382.409	84.38
382.634	110.38
382.86	86.38
383.085	90.38
383.31	93.38
383.535	97.38
383.761	82.38
383.986	110.38
384.211	93.38
384.436	102.38
384.662	95.38
384.887	105.38
385.112	110.38
385.337	104.38
385.562	93.38
385.787	98.38
386.013	79.38
386.238	104.38
386.463	110.38
386.688	105.38
386.913	109.38
387.138	88.38
387.363	91.38
387.588	94.38
387.813	107.38
388.038	98.38
388.263	104.38
388.488	96.38
388.713	96.38
388.938	89.38
389.163	96.38
389.387	95.38
389.612	88.38
389.837	88.38
390.062	84.38
390.287	76.38
390.512	81.38
390.736	80.38
390.961	84.38
391.186	92.38
391.411	80.38
391.636	97.38
391.86	78.38
392.085	81.38
392.31	84.38
392.534	75.38
392.759	77.38
392.984	94.38
393.208	94.38
393.433	102.38
393.658	102.38
393.882	94.38
394.107	73.38
394.331	92.38
394.556	71.38
394.78	89.38
395.005	87.38
395.229	86.38
395.454	78.38
395.678	68.38
395.903	92.38
396.127	84.38
396.352	73.38
396.576	72.38
396.801	95.38
397.025	99.38
397.249	80.38
397.474	92.38
397.698	87.38
397.922	84.38
398.147	79.38
398.371	95.38
398.595	90.38
398.82	87.38
399.044	88.38
399.268	88.38
399.492	87.38
399.717	87.38
399.941	85.38
400.165	88.38
400.389	101.38
400.613	91.38
400.837	80.38
401.062	92.38
401.286	89.38
401.51	88.38
401.734	75.38
401.958	90.38
402.182	118.38
402.406	153.38
402.63	111.38
402.854	100.38
403.078	91.38
403.302	87.38
403.526	85.38
403.75	91.38
403.974	78.38
404.198	80.38
404.422	85.38
404.645	94.38
404.869	75.38
405.093	92.38
405.317	93.38
405.541	94.38
405.765	92.38
405.988	117.38
406.212	159.38
406.436	202.38
406.66	130.38
406.883	119.38
407.107	86.38
407.331	85.38
407.555	90.38
407.778	104.38
408.002	76.38
408.226	74.38
408.449	73.38
408.673	89.38
408.896	90.38
409.12	85.38
409.344	89.38
409.567	91.38
409.791	90.38
410.014	100.38
410.238	91.38
410.461	97.38
410.685	86.38
410.908	80.38
411.132	110.38
411.355	94.38
411.578	95.38
411.802	81.38
412.025	80.38
412.249	80.38
412.472	75.38
412.695	99.38
412.919	86.38
413.142	76.38
413.365	99.38
413.589	80.38
413.812	109.38
414.035	98.38
414.258	84.38
414.482	92.38
414.705	84.38
414.928	80.38
415.151	89.38
415.374	89.38
415.597	89.38
415.821	76.38
416.044	68.38
416.267	91.38
416.49	91.38
416.713	99.38
416.936	88.38
417.159	77.38
417.382	63.38
417.605	79.38
417.828	97.38
418.051	96.38
418.274	87.38
418.497	92.38
418.72	80.38
418.943	89.38
419.166	76.38
419.389	89.38
419.611	93.38
419.834	97.38
420.057	75.38
420.28	77.38
420.503	88.38
420.726	73.38
420.948	78.38
421.171	89.38
421.394	80.38
421.617	82.38
421.839	89.38
422.062	75.38
422.285	87.38
422.507	95.38
422.73	88.38
422.953	81.38
423.175	85.38
423.398	85.38
423.621	97.38
423.843	81.38
424.066	90.38
424.288	71.38
424.511	89.38
424.733	96.38
424.956	93.38
425.178	89.38
425.401	105.38
425.623	93.38
425.846	90.38
426.068	96.38
426.291	101.38
426.513	85.38
426.735	94.38
426.958	90.38
427.18	106.38
427.402	114.38
427.625	137.38
427.847	114.38
428.069	82.38
428.292	80.38
428.514	83.38
428.736	78.38
428.958	84.38
429.181	89.38
429.403	88.38
429.625	93.38
429.847	87.38
430.069	109.38
430.292	104.38
430.514	76.38
430.736	85.38
430.958	70.38
431.18	90.38
431.402	85.38
431.624	82.38
431.846	88.38
432.068	108.38
432.29	73.38
432.512	87.38
432.734	80.38
432.956	76.38
433.178	84.38
433.4	98.38
433.622	100.38
433.844	79.38
434.066	86.38
434.287	94.38
434.509	69.38
434.731	90.38
434.953	73.38
435.175	91.38
435.397	87.38
435.618	91.38
435.84	96.38
436.062	116.38
436.284	114.38
436.505	95.38
436.727	114.38
436.949	87.38
437.17	79.38
437.392	93.38
437.614	90.38
437.835	103.38
438.057	112.38
438.278	109.38
438.5	113.38
438.721	116.38
438.943	97.38
439.165	91.38
439.386	90.38
439.608	90.38
439.829	100.38
440.05	102.38
440.272	118.38
440.493	79.38
440.715	116.38
440.936	82.38
441.158	92.38
441.379	85.38
441.6	86.38
441.822	90.38
442.043	93.38
442.264	98.38
442.486	104.38
442.707	89.38
442.928	108.38
443.149	123.38
443.371	127.38
443.592	108.38
443.813	94.38
444.034	104.38
444.255	73.38
444.476	93.38
444.698	94.38
444.919	87.38
445.14	124.38
445.361	118.38
445.582	114.38
445.803	123.38
446.024	117.38
446.245	133.38
446.466	105.38
446.687	84.38
446.908	79.38
447.129	87.38
447.35	99.38
447.571	82.38
447.792	103.38
448.013	108.38
448.234	98.38
448.455	88.38
448.675	108.38
448.896	100.38
449.117	96.38
449.338	115.38
449.559	127.38
449.779	117.38
450	104.38
450.221	85.38
450.442	84.38
450.662	88.38
450.883	95.38
451.104	93.38
451.324	86.38
451.545	88.38
451.766	90.38
451.986	82.38
452.207	69.38
452.428	96.38
452.648	109.38
452.869	100.38
453.089	100.38
453.31	105.38
453.53	96.38
453.751	89.38
453.971	83.38
454.192	115.38
454.412	98.38
454.633	81.38
454.853	86.38
455.073	80.38
455.294	84.38
455.514	100.38
455.734	90.38
455.955	73.38
456.175	85.38
456.395	72.38
456.616	72.38
456.836	84.38
457.056	93.38
457.276	88.38
457.497	75.38
457.717	92.38
457.937	75.38
458.157	90.38
458.377	88.38
458.598	94.38
458.818	147.38
459.038	148.38
459.258	104.38
459.478	77.38
459.698	80.38
459.918	70.38
460.138	84.38
460.358	87.38
460.578	80.38
460.798	90.38
461.018	96.38
461.238	88.38
461.458	76.38
461.678	86.38
461.898	82.38
462.118	86.38
462.338	88.38
462.558	91.38
462.777	79.38
462.997	86.38
463.217	82.38
463.437	77.38
463.657	87.38
463.876	72.38
464.096	87.38
464.316	93.38
464.536	87.38
464.755	95.38
464.975	100.38
465.195	137.38
465.414	148.38
465.634	89.38
465.854	83.38
466.073	79.38
466.293	90.38
466.512	93.38
466.732	90.38
466.951	89.38
467.171	82.38
467.391	96.38
467.61	101.38
467.829	99.38
468.049	91.38
468.268	90.38
468.488	82.38
468.707	84.38
468.927	79.38
469.146	72.38
469.365	73.38
469.585	89.38
469.804	105.38
470.023	103.38
470.243	90.38
470.462	95.38
470.681	97.38
470.901	95.38
471.12	84.38
471.339	78.38
471.558	82.38
471.777	82.38
471.997	66.38
472.216	96.38
472.435	75.38
472.654	75.38
472.873	75.38
473.092	78.38
473.311	64.38
473.53	79.38
473.749	88.38
473.968	89.38
474.187	101.38
474.406	92.38
474.625	95.38
474.844	88.38
475.063	78.38
475.282	97.38
475.501	80.38
475.72	94.38
475.939	99.38
476.158	84.38
476.377	80.38
476.596	75.38
476.814	89.38
477.033	92.38
477.252	88.38
477.471	92.38
477.69	89.38
477.908	73.38
478.127	89.38
478.346	81.38
478.564	76.38
478.783	90.38
479.002	87.38
479.22	82.38
479.439	91.38
479.658	85.38
479.876	96.38
480.095	106.38
480.313	82.38
480.532	79.38
480.751	84.38
480.969	89.38
481.188	106.38
481.406	92.38
481.624	102.38
481.843	84.38
482.061	76.38
482.28	93.38
482.498	85.38
482.717	82.38
482.935	82.38
483.153	87.38
483.372	95.38
483.59	93.38
483.808	86.38
484.027	93.38
484.245	96.38
484.463	96.38
484.681	80.38
484.9	88.38
485.118	84.38
485.336	85.38
485.554	89.38
485.772	115.38
485.99	102.38
486.209	98.38
486.427	92.38
486.645	106.38
486.863	101.38
487.081	86.38
487.299	115.38
487.517	96.38
487.735	91.38
487.953	88.38
488.171	97.38
488.389	92.38
488.607	103.38
488.825	94.38
489.043	83.38
489.261	92.38
489.479	82.38
489.696	79.38
489.914	79.38
490.132	79.38
490.35	81.38
490.568	77.38
490.786	86.38
491.003	89.38
491.221	80.38
491.439	101.38
491.657	95.38
491.874	83.38
492.092	89.38
492.31	81.38
492.527	85.38
492.745	90.38
492.963	85.38
493.18	91.38
493.398	88.38
493.615	104.38
493.833	87.38
494.05	84.38
494.268	74.38
494.485	76.38
494.703	86.38
494.92	91.38
495.138	91.38
495.355	97.38
495.573	86.38
495.79	90.38
496.008	92.38
496.225	99.38
496.442	95.38
496.66	74.38
496.877	95.38
497.094	95.38
497.312	106.38
497.529	94.38
497.746	82.38
497.963	98.38
498.181	86.38
498.398	88.38
498.615	118.38
498.832	105.38
499.049	81.38
499.267	79.38
499.484	85.38
499.701	84.38
499.918	87.38
500.135	92.38
500.352	93.38
500.569	96.38
500.786	81.38
501.003	94.38
501.22	87.38
501.437	92.38
501.654	98.38
501.871	100.38
502.088	96.38
502.305	73.38
502.522	93.38
502.739	102.38
502.956	82.38
503.172	87.38
503.389	93.38
503.606	104.38
503.823	86.38
504.04	91.38
504.256	96.38
504.473	86.38
504.69	89.38
504.907	94.38
505.123	82.38
505.34	96.38
505.557	86.38
505.773	86.38
505.99	84.38
506.207	92.38
506.423	89.38
506.64	82.38
506.856	84.38
507.073	82.38
507.289	93.38
507.506	102.38
507.722	105.38
507.939	110.38
508.155	94.38
508.372	81.38
508.588	90.38
508.805	100.38
509.021	98.38
509.238	98.38
509.454	105.38
509.67	83.38
509.887	98.38
510.103	129.38
510.319	221.38
510.536	821.38
510.752	2536.38
510.968	698.38
511.184	166.38
511.401	118.38
511.617	100.38
511.833	89.38
512.049	87.38
512.265	93.38
512.481	81.38
512.698	94.38
512.914	92.38
513.13	97.38
513.346	89.38
513.562	97.38
513.778	109.38
513.994	76.38
514.21	102.38
514.426	109.38
514.642	132.38
514.858	121.38
515.074	166.38
515.29	454.38
515.506	1468.38
515.721	545.38
515.937	156.38
516.153	116.38
516.369	104.38
516.585	102.38
