Data from Uncirc_1995_H10_HRD10591_00011.txt Node
Date: Wed Jan 03 11:35:36 EST 2024
User: Yrep
Spectrometer: HR+D1059
Trigger mode: 1
Integration Time (sec): 1.000000E-1
Scans to average: 1
Electric dark correction enabled: true
Nonlinearity correction enabled: false
Boxcar width: 0
XAxis mode: Wavelengths
Number of Pixels in Spectrum: 2048
>>>>>Begin Spectral Data<<<<<
223.165	-2.06
223.4	-2.06
223.635	-2.06
223.869	-14.06
224.104	-32.06
224.338	-15.06
224.573	-0.06
224.808	-12.06
225.042	-22.06
225.277	1.94
225.511	-25.06
225.746	8.94
225.98	23.94
226.215	17.94
226.449	0.94
226.683	20.94
226.918	17.94
227.152	29.94
227.387	30.94
227.621	28.94
227.856	40.94
228.09	40.94
228.324	49.94
228.559	46.94
228.793	65.94
229.027	52.94
229.262	63.94
229.496	61.94
229.73	65.94
229.964	75.94
230.199	61.94
230.433	77.94
230.667	83.94
230.901	78.94
231.136	72.94
231.37	65.94
231.604	66.94
231.838	69.94
232.072	91.94
232.306	79.94
232.541	71.94
232.775	77.94
233.009	77.94
233.243	69.94
233.477	78.94
233.711	76.94
233.945	89.94
234.179	97.94
234.413	71.94
234.647	77.94
234.881	64.94
235.115	78.94
235.349	79.94
235.583	71.94
235.817	77.94
236.051	73.94
236.285	78.94
236.519	78.94
236.753	78.94
236.987	78.94
237.221	61.94
237.455	79.94
237.689	68.94
237.922	65.94
238.156	71.94
238.39	66.94
238.624	75.94
238.858	77.94
239.091	72.94
239.325	65.94
239.559	64.94
239.793	72.94
240.027	71.94
240.26	78.94
240.494	79.94
240.728	75.94
240.961	82.94
241.195	72.94
241.429	64.94
241.662	80.94
241.896	81.94
242.13	76.94
242.363	77.94
242.597	74.94
242.83	72.94
243.064	77.94
243.298	76.94
243.531	79.94
243.765	82.94
243.998	82.94
244.232	79.94
244.465	73.94
244.699	81.94
244.932	81.94
245.166	70.94
245.399	78.94
245.633	72.94
245.866	89.94
246.099	71.94
246.333	74.94
246.566	76.94
246.8	79.94
247.033	76.94
247.266	82.94
247.5	86.94
247.733	76.94
247.966	81.94
248.2	82.94
248.433	86.94
248.666	87.94
248.899	74.94
249.133	77.94
249.366	88.94
249.599	87.94
249.832	75.94
250.066	85.94
250.299	91.94
250.532	80.94
250.765	67.94
250.998	74.94
251.231	72.94
251.465	87.94
251.698	78.94
251.931	79.94
252.164	82.94
252.397	91.94
252.63	69.94
252.863	80.94
253.096	71.94
253.329	68.94
253.562	68.94
253.795	77.94
254.028	60.94
254.261	81.94
254.494	82.94
254.727	80.94
254.96	82.94
255.193	78.94
255.426	67.94
255.659	81.94
255.892	79.94
256.124	86.94
256.357	75.94
256.59	73.94
256.823	72.94
257.056	86.94
257.289	77.94
257.521	75.94
257.754	82.94
257.987	90.94
258.22	86.94
258.452	77.94
258.685	73.94
258.918	77.94
259.151	82.94
259.383	60.94
259.616	75.94
259.849	95.94
260.081	97.94
260.314	74.94
260.547	81.94
260.779	77.94
261.012	93.94
261.244	74.94
261.477	88.94
261.71	94.94
261.942	98.94
262.175	92.94
262.407	78.94
262.64	86.94
262.872	76.94
263.105	95.94
263.337	93.94
263.57	83.94
263.802	84.94
264.035	79.94
264.267	69.94
264.499	83.94
264.732	72.94
264.964	84.94
265.197	94.94
265.429	81.94
265.661	79.94
265.894	72.94
266.126	86.94
266.358	77.94
266.591	85.94
266.823	81.94
267.055	90.94
267.287	76.94
267.52	86.94
267.752	86.94
267.984	83.94
268.216	73.94
268.448	84.94
268.681	82.94
268.913	96.94
269.145	67.94
269.377	90.94
269.609	86.94
269.841	93.94
270.073	90.94
270.306	86.94
270.538	90.94
270.77	85.94
271.002	68.94
271.234	82.94
271.466	71.94
271.698	91.94
271.93	72.94
272.162	77.94
272.394	78.94
272.626	80.94
272.858	89.94
273.09	78.94
273.322	84.94
273.553	86.94
273.785	72.94
274.017	63.94
274.249	90.94
274.481	85.94
274.713	75.94
274.945	89.94
275.176	80.94
275.408	76.94
275.64	80.94
275.872	82.94
276.104	83.94
276.335	83.94
276.567	79.94
276.799	99.94
277.031	102.94
277.262	82.94
277.494	93.94
277.726	79.94
277.957	75.94
278.189	72.94
278.421	71.94
278.652	67.94
278.884	92.94
279.115	80.94
279.347	82.94
279.579	86.94
279.81	80.94
280.042	80.94
280.273	78.94
280.505	90.94
280.736	79.94
280.968	81.94
281.199	74.94
281.431	83.94
281.662	87.94
281.894	75.94
282.125	97.94
282.356	93.94
282.588	123.94
282.819	98.94
283.051	90.94
283.282	87.94
283.513	84.94
283.745	81.94
283.976	89.94
284.207	67.94
284.439	91.94
284.67	74.94
284.901	79.94
285.132	82.94
285.364	83.94
285.595	90.94
285.826	89.94
286.057	64.94
286.288	85.94
286.52	85.94
286.751	86.94
286.982	77.94
287.213	95.94
287.444	92.94
287.675	89.94
287.906	71.94
288.138	91.94
288.369	107.94
288.6	85.94
288.831	85.94
289.062	92.94
289.293	83.94
289.524	89.94
289.755	88.94
289.986	83.94
290.217	78.94
290.448	79.94
290.679	87.94
290.91	86.94
291.141	82.94
291.371	75.94
291.602	92.94
291.833	86.94
292.064	79.94
292.295	76.94
292.526	83.94
292.757	83.94
292.987	91.94
293.218	84.94
293.449	82.94
293.68	80.94
293.91	97.94
294.141	76.94
294.372	89.94
294.603	92.94
294.833	97.94
295.064	79.94
295.295	96.94
295.525	105.94
295.756	98.94
295.987	101.94
296.217	111.94
296.448	99.94
296.679	75.94
296.909	84.94
297.14	82.94
297.37	95.94
297.601	78.94
297.831	81.94
298.062	88.94
298.292	90.94
298.523	91.94
298.753	90.94
298.984	89.94
299.214	86.94
299.445	96.94
299.675	90.94
299.905	87.94
300.136	80.94
300.366	85.94
300.597	85.94
300.827	94.94
301.057	109.94
301.288	87.94
301.518	81.94
301.748	65.94
301.979	93.94
302.209	83.94
302.439	80.94
302.669	83.94
302.9	97.94
303.13	80.94
303.36	85.94
303.59	96.94
303.82	101.94
304.051	80.94
304.281	78.94
304.511	86.94
304.741	85.94
304.971	91.94
305.201	86.94
305.431	86.94
305.661	91.94
305.891	91.94
306.121	88.94
306.352	106.94
306.582	78.94
306.812	95.94
307.042	93.94
307.272	98.94
307.502	94.94
307.731	94.94
307.961	102.94
308.191	93.94
308.421	85.94
308.651	89.94
308.881	95.94
309.111	94.94
309.341	91.94
309.571	96.94
309.8	83.94
310.03	88.94
310.26	94.94
310.49	94.94
310.72	86.94
310.949	96.94
311.179	91.94
311.409	103.94
311.639	89.94
311.868	91.94
312.098	90.94
312.328	102.94
312.557	95.94
312.787	96.94
313.017	104.94
313.246	81.94
313.476	94.94
313.706	89.94
313.935	83.94
314.165	90.94
314.394	83.94
314.624	82.94
314.853	90.94
315.083	90.94
315.312	93.94
315.542	107.94
315.771	102.94
316.001	86.94
316.23	85.94
316.46	68.94
316.689	80.94
316.919	74.94
317.148	94.94
317.377	81.94
317.607	76.94
317.836	81.94
318.065	78.94
318.295	76.94
318.524	97.94
318.753	90.94
318.983	102.94
319.212	94.94
319.441	89.94
319.67	87.94
319.9	93.94
320.129	78.94
320.358	90.94
320.587	99.94
320.816	95.94
321.046	96.94
321.275	92.94
321.504	86.94
321.733	91.94
321.962	97.94
322.191	92.94
322.42	94.94
322.649	97.94
322.878	106.94
323.108	109.94
323.337	116.94
323.566	118.94
323.795	137.94
324.024	193.94
324.253	355.94
324.482	722.94
324.71	1469.94
324.939	1929.94
325.168	723.94
325.397	223.94
325.626	149.94
325.855	114.94
326.084	109.94
326.313	128.94
326.542	149.94
326.77	207.94
326.999	420.94
327.228	840.94
327.457	1530.94
327.686	1184.94
327.914	312.94
328.143	171.94
328.372	138.94
328.6	105.94
328.829	106.94
329.058	134.94
329.287	119.94
329.515	100.94
329.744	105.94
329.972	95.94
330.201	81.94
330.43	87.94
330.658	99.94
330.887	127.94
331.115	109.94
331.344	98.94
331.572	97.94
331.801	104.94
332.03	87.94
332.258	83.94
332.486	98.94
332.715	91.94
332.943	92.94
333.172	85.94
333.4	87.94
333.629	104.94
333.857	111.94
334.085	105.94
334.314	91.94
334.542	87.94
334.771	91.94
334.999	92.94
335.227	89.94
335.455	85.94
335.684	90.94
335.912	97.94
336.14	88.94
336.369	83.94
336.597	96.94
336.825	87.94
337.053	84.94
337.281	103.94
337.51	81.94
337.738	104.94
337.966	90.94
338.194	87.94
338.422	104.94
338.65	95.94
338.878	82.94
339.106	88.94
339.334	86.94
339.562	77.94
339.79	85.94
340.018	86.94
340.246	93.94
340.474	83.94
340.702	89.94
340.93	105.94
341.158	82.94
341.386	93.94
341.614	85.94
341.842	98.94
342.07	98.94
342.298	99.94
342.526	86.94
342.754	92.94
342.981	89.94
343.209	80.94
343.437	103.94
343.665	84.94
343.893	98.94
344.12	82.94
344.348	83.94
344.576	81.94
344.804	76.94
345.031	94.94
345.259	79.94
345.487	87.94
345.714	81.94
345.942	92.94
346.17	74.94
346.397	89.94
346.625	80.94
346.853	87.94
347.08	87.94
347.308	102.94
347.535	111.94
347.763	86.94
347.99	106.94
348.218	98.94
348.445	99.94
348.673	88.94
348.9	87.94
349.128	100.94
349.355	77.94
349.583	98.94
349.81	83.94
350.037	91.94
350.265	85.94
350.492	98.94
350.72	81.94
350.947	94.94
351.174	111.94
351.402	101.94
351.629	112.94
351.856	99.94
352.083	101.94
352.311	103.94
352.538	113.94
352.765	97.94
352.992	117.94
353.22	109.94
353.447	101.94
353.674	98.94
353.901	100.94
354.128	103.94
354.355	105.94
354.583	95.94
354.81	96.94
355.037	93.94
355.264	90.94
355.491	90.94
355.718	76.94
355.945	98.94
356.172	110.94
356.399	77.94
356.626	89.94
356.853	87.94
357.08	89.94
357.307	79.94
357.534	89.94
357.761	89.94
357.988	86.94
358.215	83.94
358.441	93.94
358.668	96.94
358.895	110.94
359.122	91.94
359.349	94.94
359.576	108.94
359.802	100.94
360.029	98.94
360.256	114.94
360.483	78.94
360.709	85.94
360.936	96.94
361.163	89.94
361.39	101.94
361.616	87.94
361.843	77.94
362.07	83.94
362.296	94.94
362.523	78.94
362.749	87.94
362.976	93.94
363.203	85.94
363.429	77.94
363.656	88.94
363.882	74.94
364.109	82.94
364.335	86.94
364.562	93.94
364.788	75.94
365.015	92.94
365.241	108.94
365.468	99.94
365.694	95.94
365.92	100.94
366.147	87.94
366.373	91.94
366.599	100.94
366.826	82.94
367.052	84.94
367.278	82.94
367.505	76.94
367.731	70.94
367.957	80.94
368.184	77.94
368.41	104.94
368.636	103.94
368.862	109.94
369.089	102.94
369.315	92.94
369.541	93.94
369.767	96.94
369.993	84.94
370.219	78.94
370.445	83.94
370.672	85.94
370.898	86.94
371.124	75.94
371.35	81.94
371.576	82.94
371.802	71.94
372.028	76.94
372.254	90.94
372.48	103.94
372.706	86.94
372.932	82.94
373.158	83.94
373.384	64.94
373.61	91.94
373.835	93.94
374.061	81.94
374.287	74.94
374.513	83.94
374.739	95.94
374.965	89.94
375.191	87.94
375.416	101.94
375.642	85.94
375.868	88.94
376.094	87.94
376.319	89.94
376.545	77.94
376.771	91.94
376.997	83.94
377.222	80.94
377.448	91.94
377.674	88.94
377.899	90.94
378.125	76.94
378.35	89.94
378.576	90.94
378.802	83.94
379.027	89.94
379.253	93.94
379.478	92.94
379.704	83.94
379.929	102.94
380.155	87.94
380.38	80.94
380.606	85.94
380.831	92.94
381.057	95.94
381.282	88.94
381.507	85.94
381.733	103.94
381.958	90.94
382.184	105.94
382.409	87.94
382.634	95.94
382.86	103.94
383.085	92.94
383.31	92.94
383.535	106.94
383.761	106.94
383.986	101.94
384.211	95.94
384.436	98.94
384.662	103.94
384.887	115.94
385.112	102.94
385.337	107.94
385.562	105.94
385.787	112.94
386.013	96.94
386.238	117.94
386.463	97.94
386.688	108.94
386.913	120.94
387.138	111.94
387.363	111.94
387.588	107.94
387.813	109.94
388.038	99.94
388.263	126.94
388.488	99.94
388.713	97.94
388.938	87.94
389.163	97.94
389.387	96.94
389.612	98.94
389.837	77.94
390.062	97.94
390.287	90.94
390.512	95.94
390.736	91.94
390.961	105.94
391.186	90.94
391.411	99.94
391.636	84.94
391.86	75.94
392.085	78.94
392.31	79.94
392.534	82.94
392.759	82.94
392.984	98.94
393.208	85.94
393.433	91.94
393.658	98.94
393.882	90.94
394.107	85.94
394.331	70.94
394.556	89.94
394.78	85.94
395.005	74.94
395.229	81.94
395.454	96.94
395.678	81.94
395.903	92.94
396.127	103.94
396.352	82.94
396.576	77.94
396.801	82.94
397.025	77.94
397.249	86.94
397.474	93.94
397.698	75.94
397.922	81.94
398.147	77.94
398.371	98.94
398.595	89.94
398.82	82.94
399.044	98.94
399.268	79.94
399.492	90.94
399.717	65.94
399.941	87.94
400.165	78.94
400.389	82.94
400.613	89.94
400.837	92.94
401.062	89.94
401.286	98.94
401.51	91.94
401.734	93.94
401.958	102.94
402.182	112.94
402.406	142.94
402.63	101.94
402.854	88.94
403.078	89.94
403.302	93.94
403.526	87.94
403.75	83.94
403.974	79.94
404.198	82.94
404.422	87.94
404.645	86.94
404.869	84.94
405.093	95.94
405.317	81.94
405.541	94.94
405.765	86.94
405.988	106.94
406.212	153.94
406.436	184.94
406.66	126.94
406.883	96.94
407.107	90.94
407.331	97.94
407.555	99.94
407.778	87.94
408.002	75.94
408.226	98.94
408.449	98.94
408.673	98.94
408.896	94.94
409.12	85.94
409.344	81.94
409.567	92.94
409.791	94.94
410.014	97.94
410.238	90.94
410.461	85.94
410.685	91.94
410.908	111.94
411.132	114.94
411.355	94.94
411.578	94.94
411.802	81.94
412.025	87.94
412.249	80.94
412.472	90.94
412.695	88.94
412.919	79.94
413.142	97.94
413.365	80.94
413.589	71.94
413.812	96.94
414.035	90.94
414.258	85.94
414.482	89.94
414.705	79.94
414.928	98.94
415.151	95.94
415.374	85.94
415.597	85.94
415.821	89.94
416.044	87.94
416.267	102.94
416.49	87.94
416.713	94.94
416.936	86.94
417.159	94.94
417.382	104.94
417.605	95.94
417.828	77.94
418.051	81.94
418.274	97.94
418.497	89.94
418.72	93.94
418.943	87.94
419.166	83.94
419.389	82.94
419.611	97.94
419.834	94.94
420.057	99.94
420.28	96.94
420.503	82.94
420.726	78.94
420.948	94.94
421.171	75.94
421.394	91.94
421.617	88.94
421.839	100.94
422.062	96.94
422.285	87.94
422.507	99.94
422.73	117.94
422.953	92.94
423.175	85.94
423.398	64.94
423.621	90.94
423.843	83.94
424.066	86.94
424.288	85.94
424.511	84.94
424.733	92.94
424.956	95.94
425.178	83.94
425.401	87.94
425.623	89.94
425.846	90.94
426.068	80.94
426.291	88.94
426.513	84.94
426.735	95.94
426.958	93.94
427.18	105.94
427.402	126.94
427.625	141.94
427.847	102.94
428.069	98.94
428.292	89.94
428.514	98.94
428.736	89.94
428.958	83.94
429.181	76.94
429.403	79.94
429.625	96.94
429.847	83.94
430.069	78.94
430.292	87.94
430.514	81.94
430.736	81.94
430.958	79.94
431.18	81.94
431.402	86.94
431.624	85.94
431.846	93.94
432.068	85.94
432.29	89.94
432.512	99.94
432.734	83.94
432.956	94.94
433.178	89.94
433.4	100.94
433.622	78.94
433.844	80.94
434.066	89.94
434.287	77.94
434.509	87.94
434.731	87.94
434.953	95.94
435.175	82.94
435.397	99.94
435.618	94.94
435.84	100.94
436.062	118.94
436.284	112.94
436.505	92.94
436.727	91.94
436.949	69.94
437.17	76.94
437.392	78.94
437.614	104.94
437.835	102.94
438.057	95.94
438.278	90.94
438.5	96.94
438.721	111.94
438.943	107.94
439.165	81.94
439.386	78.94
439.608	75.94
439.829	94.94
440.05	103.94
440.272	128.94
440.493	99.94
440.715	87.94
440.936	92.94
441.158	82.94
441.379	75.94
441.6	98.94
441.822	94.94
442.043	82.94
442.264	83.94
442.486	102.94
442.707	89.94
442.928	97.94
443.149	101.94
443.371	118.94
443.592	85.94
443.813	96.94
444.034	122.94
444.255	93.94
444.476	86.94
444.698	94.94
444.919	96.94
445.14	125.94
445.361	114.94
445.582	110.94
445.803	124.94
446.024	124.94
446.245	106.94
446.466	93.94
446.687	81.94
446.908	78.94
447.129	94.94
447.35	104.94
447.571	80.94
447.792	91.94
448.013	93.94
448.234	94.94
448.455	105.94
448.675	108.94
448.896	90.94
449.117	90.94
449.338	98.94
449.559	121.94
449.779	117.94
450	94.94
450.221	72.94
450.442	83.94
450.662	89.94
450.883	106.94
451.104	92.94
451.324	95.94
451.545	83.94
451.766	85.94
451.986	86.94
452.207	92.94
452.428	89.94
452.648	96.94
452.869	95.94
453.089	107.94
453.31	88.94
453.53	96.94
453.751	90.94
453.971	102.94
454.192	95.94
454.412	87.94
454.633	81.94
454.853	74.94
455.073	92.94
455.294	93.94
455.514	90.94
455.734	86.94
455.955	84.94
456.175	73.94
456.395	90.94
456.616	85.94
456.836	80.94
457.056	90.94
457.276	86.94
457.497	90.94
457.717	96.94
457.937	66.94
458.157	90.94
458.377	88.94
458.598	97.94
458.818	130.94
459.038	135.94
459.258	102.94
459.478	99.94
459.698	81.94
459.918	94.94
460.138	71.94
460.358	86.94
460.578	81.94
460.798	86.94
461.018	85.94
461.238	79.94
461.458	97.94
461.678	96.94
461.898	77.94
462.118	91.94
462.338	86.94
462.558	89.94
462.777	86.94
462.997	85.94
463.217	82.94
463.437	83.94
463.657	85.94
463.876	87.94
464.096	103.94
464.316	93.94
464.536	90.94
464.755	85.94
464.975	102.94
465.195	128.94
465.414	111.94
465.634	86.94
465.854	87.94
466.073	96.94
466.293	80.94
466.512	79.94
466.732	97.94
466.951	95.94
467.171	95.94
467.391	94.94
467.61	98.94
467.829	88.94
468.049	78.94
468.268	77.94
468.488	76.94
468.707	83.94
468.927	94.94
469.146	73.94
469.365	76.94
469.585	90.94
469.804	96.94
470.023	91.94
470.243	97.94
470.462	102.94
470.681	94.94
470.901	90.94
471.12	82.94
471.339	95.94
471.558	79.94
471.777	75.94
471.997	94.94
472.216	88.94
472.435	87.94
472.654	91.94
472.873	86.94
473.092	77.94
473.311	91.94
473.53	93.94
473.749	80.94
473.968	94.94
474.187	89.94
474.406	89.94
474.625	85.94
474.844	82.94
475.063	76.94
475.282	91.94
475.501	78.94
475.72	91.94
475.939	90.94
476.158	86.94
476.377	83.94
476.596	80.94
476.814	102.94
477.033	95.94
477.252	89.94
477.471	77.94
477.69	77.94
477.908	92.94
478.127	83.94
478.346	82.94
478.564	86.94
478.783	93.94
479.002	91.94
479.22	88.94
479.439	98.94
479.658	88.94
479.876	95.94
480.095	82.94
480.313	89.94
480.532	83.94
480.751	79.94
480.969	99.94
481.188	94.94
481.406	86.94
481.624	85.94
481.843	95.94
482.061	93.94
482.28	89.94
482.498	81.94
482.717	94.94
482.935	84.94
483.153	103.94
483.372	80.94
483.59	96.94
483.808	78.94
484.027	90.94
484.245	95.94
484.463	103.94
484.681	94.94
484.9	96.94
485.118	97.94
485.336	87.94
485.554	88.94
485.772	105.94
485.99	96.94
486.209	106.94
486.427	112.94
486.645	100.94
486.863	102.94
487.081	90.94
487.299	73.94
487.517	102.94
487.735	92.94
487.953	95.94
488.171	82.94
488.389	90.94
488.607	82.94
488.825	98.94
489.043	86.94
489.261	93.94
489.479	84.94
489.696	86.94
489.914	88.94
490.132	85.94
490.35	91.94
490.568	83.94
490.786	87.94
491.003	89.94
491.221	95.94
491.439	94.94
491.657	99.94
491.874	87.94
492.092	86.94
492.31	89.94
492.527	88.94
492.745	82.94
492.963	94.94
493.18	93.94
493.398	90.94
493.615	114.94
493.833	82.94
494.05	84.94
494.268	82.94
494.485	88.94
494.703	89.94
494.92	97.94
495.138	93.94
495.355	96.94
495.573	83.94
495.79	79.94
496.008	83.94
496.225	85.94
496.442	85.94
496.66	94.94
496.877	89.94
497.094	82.94
497.312	93.94
497.529	103.94
497.746	91.94
497.963	83.94
498.181	81.94
498.398	81.94
498.615	101.94
498.832	99.94
499.049	79.94
499.267	86.94
499.484	101.94
499.701	83.94
499.918	103.94
500.135	94.94
500.352	96.94
500.569	85.94
500.786	89.94
501.003	89.94
501.22	85.94
501.437	87.94
501.654	94.94
501.871	102.94
502.088	86.94
502.305	87.94
502.522	87.94
502.739	102.94
502.956	93.94
503.172	95.94
503.389	101.94
503.606	98.94
503.823	81.94
504.04	89.94
504.256	88.94
504.473	91.94
504.69	86.94
504.907	93.94
505.123	88.94
505.34	80.94
505.557	83.94
505.773	76.94
505.99	96.94
506.207	93.94
506.423	83.94
506.64	96.94
506.856	81.94
507.073	81.94
507.289	88.94
507.506	91.94
507.722	111.94
507.939	97.94
508.155	97.94
508.372	82.94
508.588	93.94
508.805	90.94
509.021	86.94
509.238	83.94
509.454	84.94
509.67	90.94
509.887	112.94
510.103	111.94
510.319	187.94
510.536	645.94
510.752	2003.94
510.968	557.94
511.184	137.94
511.401	103.94
511.617	80.94
511.833	87.94
512.049	90.94
512.265	94.94
512.481	90.94
512.698	100.94
512.914	82.94
513.13	86.94
513.346	80.94
513.562	89.94
513.778	89.94
513.994	90.94
514.21	93.94
514.426	107.94
514.642	126.94
514.858	94.94
515.074	130.94
515.29	360.94
515.506	1117.94
515.721	426.94
515.937	138.94
516.153	94.94
516.369	104.94
516.585	95.94
516.801	86.94
517.016	99.94
517.232	84.94
