Data from Uncirc_1995_H10_HRD10591_00043.txt Node
Date: Wed Jan 03 11:35:42 EST 2024
User: Yrep
Spectrometer: HR+D1059
Trigger mode: 1
Integration Time (sec): 1.000000E-1
Scans to average: 1
Electric dark correction enabled: true
Nonlinearity correction enabled: false
Boxcar width: 0
XAxis mode: Wavelengths
Number of Pixels in Spectrum: 2048
>>>>>Begin Spectral Data<<<<<
223.165	-21
223.4	-21
223.635	-21
223.869	-22
224.104	-16
224.338	-4
224.573	-6
224.808	-21
225.042	-20
225.277	8
225.511	-5
225.746	-1
225.98	12
226.215	11
226.449	15
226.683	11
226.918	31
227.152	28
227.387	30
227.621	45
227.856	43
228.09	47
228.324	56
228.559	38
228.793	48
229.027	73
229.262	55
229.496	79
229.73	68
229.964	71
230.199	59
230.433	73
230.667	69
230.901	70
231.136	58
231.37	60
231.604	82
231.838	75
232.072	81
232.306	88
232.541	92
232.775	76
233.009	84
233.243	84
233.477	81
233.711	85
233.945	85
234.179	77
234.413	82
234.647	64
234.881	79
235.115	82
235.349	67
235.583	84
235.817	79
236.051	81
236.285	60
236.519	91
236.753	73
236.987	68
237.221	75
237.455	92
237.689	77
237.922	72
238.156	72
238.39	88
238.624	81
238.858	75
239.091	78
239.325	81
239.559	80
239.793	73
240.027	80
240.26	83
240.494	63
240.728	75
240.961	61
241.195	76
241.429	68
241.662	70
241.896	68
242.13	60
242.363	74
242.597	60
242.83	72
243.064	78
243.298	71
243.531	61
243.765	74
243.998	83
244.232	92
244.465	88
244.699	93
244.932	80
245.166	62
245.399	78
245.633	86
245.866	78
246.099	78
246.333	66
246.566	93
246.8	87
247.033	79
247.266	81
247.5	75
247.733	73
247.966	80
248.2	75
248.433	83
248.666	74
248.899	84
249.133	79
249.366	92
249.599	99
249.832	95
250.066	92
250.299	82
250.532	75
250.765	84
250.998	68
251.231	91
251.465	82
251.698	84
251.931	80
252.164	87
252.397	77
252.63	75
252.863	79
253.096	81
253.329	76
253.562	82
253.795	73
254.028	83
254.261	77
254.494	78
254.727	87
254.96	89
255.193	74
255.426	83
255.659	85
255.892	76
256.124	75
256.357	86
256.59	75
256.823	68
257.056	73
257.289	79
257.521	91
257.754	85
257.987	93
258.22	88
258.452	79
258.685	65
258.918	77
259.151	82
259.383	69
259.616	84
259.849	85
260.081	99
260.314	104
260.547	90
260.779	93
261.012	84
261.244	76
261.477	87
261.71	106
261.942	103
262.175	114
262.407	98
262.64	92
262.872	52
263.105	90
263.337	90
263.57	79
263.802	88
264.035	94
264.267	87
264.499	72
264.732	83
264.964	88
265.197	81
265.429	76
265.661	84
265.894	84
266.126	91
266.358	88
266.591	79
266.823	77
267.055	88
267.287	77
267.52	71
267.752	77
267.984	80
268.216	77
268.448	105
268.681	104
268.913	88
269.145	92
269.377	78
269.609	96
269.841	88
270.073	67
270.306	94
270.538	79
270.77	76
271.002	80
271.234	77
271.466	81
271.698	84
271.93	88
272.162	80
272.394	92
272.626	102
272.858	85
273.09	90
273.322	91
273.553	87
273.785	83
274.017	93
274.249	95
274.481	72
274.713	88
274.945	73
275.176	79
275.408	70
275.64	76
275.872	82
276.104	80
276.335	99
276.567	100
276.799	101
277.031	85
277.262	94
277.494	93
277.726	82
277.957	88
278.189	84
278.421	88
278.652	99
278.884	97
279.115	79
279.347	85
279.579	79
279.81	93
280.042	91
280.273	81
280.505	86
280.736	85
280.968	96
281.199	89
281.431	85
281.662	85
281.894	94
282.125	92
282.356	122
282.588	127
282.819	108
283.051	86
283.282	85
283.513	91
283.745	80
283.976	71
284.207	92
284.439	97
284.67	91
284.901	84
285.132	84
285.364	106
285.595	78
285.826	97
286.057	97
286.288	99
286.52	93
286.751	100
286.982	98
287.213	85
287.444	83
287.675	86
287.906	103
288.138	77
288.369	92
288.6	99
288.831	106
289.062	97
289.293	79
289.524	80
289.755	100
289.986	89
290.217	101
290.448	80
290.679	83
290.91	81
291.141	94
291.371	92
291.602	101
291.833	91
292.064	71
292.295	89
292.526	85
292.757	101
292.987	81
293.218	87
293.449	97
293.68	87
293.91	103
294.141	77
294.372	81
294.603	87
294.833	94
295.064	85
295.295	91
295.525	91
295.756	96
295.987	108
296.217	140
296.448	121
296.679	98
296.909	91
297.14	84
297.37	108
297.601	77
297.831	103
298.062	85
298.292	89
298.523	85
298.753	98
298.984	93
299.214	78
299.445	98
299.675	91
299.905	102
300.136	90
300.366	100
300.597	97
300.827	91
301.057	94
301.288	103
301.518	92
301.748	84
301.979	108
302.209	93
302.439	97
302.669	81
302.9	84
303.13	95
303.36	103
303.59	93
303.82	95
304.051	88
304.281	89
304.511	89
304.741	93
304.971	82
305.201	84
305.431	94
305.661	92
305.891	101
306.121	82
306.352	107
306.582	91
306.812	91
307.042	88
307.272	87
307.502	83
307.731	90
307.961	78
308.191	105
308.421	89
308.651	79
308.881	104
309.111	102
309.341	102
309.571	98
309.8	92
310.03	112
310.26	107
310.49	112
310.72	104
310.949	97
311.179	111
311.409	81
311.639	94
311.868	92
312.098	100
312.328	100
312.557	103
312.787	110
313.017	110
313.246	100
313.476	86
313.706	105
313.935	80
314.165	94
314.394	111
314.624	92
314.853	94
315.083	104
315.312	100
315.542	77
315.771	93
316.001	97
316.23	74
316.46	99
316.689	84
316.919	85
317.148	109
317.377	101
317.607	92
317.836	92
318.065	92
318.295	87
318.524	92
318.753	93
318.983	99
319.212	97
319.441	100
319.67	92
319.9	88
320.129	96
320.358	92
320.587	96
320.816	99
321.046	108
321.275	102
321.504	95
321.733	83
321.962	95
322.191	101
322.42	104
322.649	105
322.878	108
323.108	120
323.337	125
323.566	128
323.795	165
324.024	202
324.253	376
324.482	798
324.71	1608
324.939	2187
325.168	810
325.397	229
325.626	165
325.855	129
326.084	125
326.313	130
326.542	152
326.77	223
326.999	450
327.228	913
327.457	1679
327.686	1322
327.914	372
328.143	198
328.372	133
328.6	119
328.829	115
329.058	130
329.287	137
329.515	91
329.744	110
329.972	109
330.201	103
330.43	95
330.658	117
330.887	126
331.115	116
331.344	92
331.572	101
331.801	95
332.03	105
332.258	99
332.486	80
332.715	105
332.943	98
333.172	99
333.4	99
333.629	102
333.857	113
334.085	93
334.314	99
334.542	100
334.771	100
334.999	93
335.227	87
335.455	111
335.684	93
335.912	98
336.14	90
336.369	92
336.597	96
336.825	96
337.053	92
337.281	92
337.51	108
337.738	93
337.966	83
338.194	105
338.422	101
338.65	111
338.878	85
339.106	95
339.334	102
339.562	91
339.79	90
340.018	78
340.246	90
340.474	84
340.702	97
340.93	85
341.158	94
341.386	94
341.614	85
341.842	87
342.07	71
342.298	100
342.526	76
342.754	83
342.981	90
343.209	77
343.437	99
343.665	94
343.893	92
344.12	100
344.348	90
344.576	92
344.804	87
345.031	92
345.259	94
345.487	92
345.714	93
345.942	98
346.17	113
346.397	104
346.625	95
346.853	94
347.08	108
347.308	81
347.535	96
347.763	108
347.99	107
348.218	93
348.445	93
348.673	94
348.9	101
349.128	88
349.355	78
349.583	100
349.81	99
350.037	80
350.265	95
350.492	90
350.72	89
350.947	108
351.174	89
351.402	119
351.629	93
351.856	96
352.083	94
352.311	92
352.538	103
352.765	102
352.992	113
353.22	122
353.447	119
353.674	100
353.901	102
354.128	95
354.355	96
354.583	95
354.81	91
355.037	83
355.264	92
355.491	90
355.718	102
355.945	97
356.172	95
356.399	106
356.626	92
356.853	86
357.08	94
357.307	84
357.534	83
357.761	95
357.988	104
358.215	104
358.441	95
358.668	91
358.895	85
359.122	91
359.349	82
359.576	92
359.802	103
360.029	103
360.256	113
360.483	101
360.709	95
360.936	96
361.163	96
361.39	96
361.616	85
361.843	87
362.07	101
362.296	93
362.523	85
362.749	92
362.976	98
363.203	88
363.429	84
363.656	82
363.882	83
364.109	79
364.335	95
364.562	73
364.788	87
365.015	97
365.241	105
365.468	95
365.694	97
365.92	95
366.147	89
366.373	90
366.599	105
366.826	103
367.052	84
367.278	107
367.505	81
367.731	83
367.957	90
368.184	95
368.41	98
368.636	104
368.862	123
369.089	104
369.315	107
369.541	89
369.767	74
369.993	96
370.219	79
370.445	67
370.672	99
370.898	92
371.124	80
371.35	89
371.576	91
371.802	88
372.028	95
372.254	79
372.48	96
372.706	88
372.932	75
373.158	91
373.384	102
373.61	92
373.835	91
374.061	99
374.287	98
374.513	106
374.739	78
374.965	87
375.191	82
375.416	98
375.642	92
375.868	85
376.094	73
376.319	99
376.545	88
376.771	91
376.997	89
377.222	91
377.448	93
377.674	107
377.899	104
378.125	82
378.35	95
378.576	82
378.802	99
379.027	98
379.253	91
379.478	90
379.704	93
379.929	98
380.155	104
380.38	97
380.606	87
380.831	77
381.057	102
381.282	97
381.507	96
381.733	85
381.958	90
382.184	100
382.409	105
382.634	97
382.86	115
383.085	101
383.31	99
383.535	86
383.761	97
383.986	87
384.211	86
384.436	92
384.662	105
384.887	93
385.112	94
385.337	96
385.562	104
385.787	106
386.013	100
386.238	115
386.463	101
386.688	101
386.913	101
387.138	112
387.363	94
387.588	107
387.813	100
388.038	95
388.263	115
388.488	104
388.713	83
388.938	100
389.163	92
389.387	98
389.612	108
389.837	104
390.062	97
390.287	103
390.512	100
390.736	89
390.961	97
391.186	96
391.411	91
391.636	108
391.86	84
392.085	83
392.31	85
392.534	91
392.759	90
392.984	89
393.208	96
393.433	92
393.658	92
393.882	87
394.107	87
394.331	79
394.556	74
394.78	87
395.005	74
395.229	82
395.454	84
395.678	79
395.903	83
396.127	81
396.352	80
396.576	89
396.801	92
397.025	93
397.249	76
397.474	92
397.698	62
397.922	92
398.147	85
398.371	78
398.595	65
398.82	89
399.044	83
399.268	83
399.492	74
399.717	93
399.941	93
400.165	94
400.389	93
400.613	87
400.837	94
401.062	92
401.286	83
401.51	91
401.734	97
401.958	92
402.182	123
402.406	144
402.63	118
402.854	81
403.078	98
403.302	97
403.526	93
403.75	78
403.974	92
404.198	81
404.422	84
404.645	95
404.869	83
405.093	96
405.317	96
405.541	91
405.765	92
405.988	114
406.212	169
406.436	211
406.66	137
406.883	104
407.107	99
407.331	92
407.555	93
407.778	104
408.002	93
408.226	90
408.449	104
408.673	96
408.896	106
409.12	100
409.344	69
409.567	83
409.791	74
410.014	87
410.238	113
410.461	92
410.685	100
410.908	118
411.132	101
411.355	92
411.578	90
411.802	86
412.025	89
412.249	93
412.472	92
412.695	84
412.919	83
413.142	71
413.365	93
413.589	93
413.812	89
414.035	92
414.258	91
414.482	87
414.705	90
414.928	90
415.151	90
415.374	71
415.597	79
415.821	86
416.044	89
416.267	92
416.49	88
416.713	73
416.936	94
417.159	94
417.382	86
417.605	86
417.828	95
418.051	93
418.274	97
418.497	87
418.72	88
418.943	86
419.166	84
419.389	83
419.611	92
419.834	94
420.057	79
420.28	93
420.503	82
420.726	98
420.948	89
421.171	91
421.394	93
421.617	81
421.839	86
422.062	89
422.285	88
422.507	90
422.73	92
422.953	90
423.175	84
423.398	87
423.621	75
423.843	82
424.066	77
424.288	75
424.511	94
424.733	101
424.956	101
425.178	89
425.401	92
425.623	97
425.846	87
426.068	93
426.291	85
426.513	81
426.735	80
426.958	84
427.18	92
427.402	127
427.625	155
427.847	123
428.069	89
428.292	91
428.514	95
428.736	91
428.958	64
429.181	77
429.403	62
429.625	87
429.847	89
430.069	97
430.292	93
430.514	91
430.736	85
430.958	84
431.18	87
431.402	102
431.624	75
431.846	83
432.068	94
432.29	89
432.512	99
432.734	84
432.956	95
433.178	100
433.4	85
433.622	98
433.844	81
434.066	90
434.287	106
434.509	92
434.731	98
434.953	77
435.175	88
435.397	92
435.618	80
435.84	97
436.062	104
436.284	110
436.505	108
436.727	105
436.949	98
437.17	90
437.392	94
437.614	90
437.835	108
438.057	111
438.278	112
438.5	99
438.721	111
438.943	96
439.165	87
439.386	81
439.608	95
439.829	100
440.05	109
440.272	139
440.493	101
440.715	93
440.936	96
441.158	80
441.379	93
441.6	104
441.822	88
442.043	93
442.264	107
442.486	93
442.707	99
442.928	100
443.149	112
443.371	133
443.592	101
443.813	100
444.034	106
444.255	96
444.476	81
444.698	92
444.919	85
445.14	129
445.361	104
445.582	88
445.803	124
446.024	137
446.245	117
446.466	95
446.687	84
446.908	93
447.129	85
447.35	91
447.571	88
447.792	81
448.013	106
448.234	96
448.455	104
448.675	112
448.896	117
449.117	104
449.338	103
449.559	112
449.779	135
450	92
450.221	79
450.442	85
450.662	101
450.883	109
451.104	106
451.324	99
451.545	92
451.766	84
451.986	93
452.207	100
452.428	83
452.648	97
452.869	106
453.089	98
453.31	105
453.53	94
453.751	89
453.971	104
454.192	113
454.412	83
454.633	84
454.853	101
455.073	101
455.294	93
455.514	106
455.734	107
455.955	80
456.175	86
456.395	82
456.616	76
456.836	83
457.056	80
457.276	87
457.497	98
457.717	94
457.937	80
458.157	85
458.377	87
458.598	94
458.818	143
459.038	162
459.258	106
459.478	87
459.698	85
459.918	81
460.138	90
460.358	89
460.578	87
460.798	97
461.018	96
461.238	91
461.458	97
461.678	87
461.898	74
462.118	91
462.338	85
462.558	85
462.777	86
462.997	99
463.217	96
463.437	84
463.657	91
463.876	82
464.096	96
464.316	98
464.536	116
464.755	92
464.975	103
465.195	173
465.414	160
465.634	105
465.854	104
466.073	89
466.293	91
466.512	101
466.732	99
466.951	97
467.171	99
467.391	89
467.61	99
467.829	93
468.049	92
468.268	90
468.488	92
468.707	85
468.927	75
469.146	81
469.365	82
469.585	96
469.804	89
470.023	86
470.243	98
470.462	99
470.681	93
470.901	109
471.12	94
471.339	93
471.558	87
471.777	99
471.997	91
472.216	96
472.435	100
472.654	104
472.873	83
473.092	72
473.311	89
473.53	99
473.749	93
473.968	83
474.187	104
474.406	96
474.625	93
474.844	71
475.063	96
475.282	88
475.501	89
475.72	91
475.939	88
476.158	101
476.377	85
476.596	107
476.814	92
477.033	100
477.252	80
477.471	85
477.69	75
477.908	75
478.127	86
478.346	75
478.564	92
478.783	92
479.002	90
479.22	84
479.439	105
479.658	98
479.876	81
480.095	88
480.313	96
480.532	86
480.751	103
480.969	88
481.188	93
481.406	84
481.624	88
481.843	87
482.061	93
482.28	95
482.498	85
482.717	92
482.935	100
483.153	89
483.372	97
483.59	94
483.808	89
484.027	92
484.245	103
484.463	92
484.681	105
484.9	90
485.118	87
485.336	99
485.554	106
485.772	85
485.99	104
486.209	114
486.427	103
486.645	101
486.863	104
487.081	105
487.299	109
487.517	98
487.735	96
487.953	99
488.171	97
488.389	92
488.607	109
488.825	101
489.043	97
489.261	103
489.479	78
489.696	103
489.914	100
490.132	104
490.35	100
490.568	77
490.786	99
491.003	85
491.221	85
491.439	88
491.657	91
491.874	86
492.092	95
492.31	78
492.527	74
492.745	90
492.963	90
493.18	100
493.398	94
493.615	119
493.833	90
494.05	89
494.268	81
494.485	100
494.703	93
494.92	101
495.138	98
495.355	96
495.573	107
495.79	91
496.008	96
496.225	105
496.442	95
496.66	100
496.877	108
497.094	87
497.312	90
497.529	81
497.746	85
497.963	85
498.181	90
498.398	101
498.615	97
498.832	101
499.049	88
499.267	109
499.484	83
499.701	96
499.918	81
500.135	84
500.352	84
500.569	90
500.786	93
501.003	90
501.22	91
501.437	106
501.654	96
501.871	119
502.088	104
502.305	80
502.522	97
502.739	104
502.956	88
503.172	106
503.389	80
503.606	102
503.823	83
504.04	87
504.256	87
504.473	98
504.69	89
504.907	100
505.123	80
505.34	103
505.557	90
505.773	75
505.99	96
506.207	91
506.423	92
506.64	97
506.856	109
507.073	94
507.289	96
507.506	97
507.722	101
507.939	107
508.155	92
508.372	103
508.588	98
508.805	97
509.021	93
509.238	103
509.454	115
509.67	99
509.887	114
510.103	127
510.319	224
510.536	783
510.752	2429
510.968	684
511.184	172
511.401	124
511.617	105
511.833	97
512.049	98
512.265	88
512.481	104
512.698	97
512.914	94
513.13	98
513.346	100
513.562	101
513.778	88
513.994	99
514.21	103
514.426	113
514.642	142
514.858	127
515.074	163
515.29	451
515.506	1491
515.721	540
515.937	157
516.153	107
516.369	106
516.585	105
516.801	98
517.016	102
517.232	107
517.448	91
517.664	96
517.879	89
518.095	96
518.311	105
518.527	97
518.742	90
518.958	95
519.173	107
519.389	93
519.605	98
519.82	104
520.036	96
520.251	125
520.467	105
520.682	103
520.898	101
521.113	113
521.329	145
521.544	212
521.76	558
521.975	2363
522.19	1396
522.406	290
522.621	145
522.836	101
523.052	92
523.267	94
523.482	96
523.698	113
523.913	122
524.128	96
524.343	90
524.559	88
524.774	96
524.989	105
525.204	98
525.419	91
525.634	90
525.849	109
526.064	95
526.28	104
526.495	90
526.71	91
526.925	90
527.14	95
527.355	85
527.57	82
527.785	95
527.999	98
528.214	93
528.429	109
528.644	93
528.859	102
529.074	107
529.289	117
529.503	174
529.718	121
529.933	91
530.148	72
530.363	96
530.577	85
530.792	86
531.007	89
531.221	100
531.436	96
531.651	99
531.865	105
532.08	89
532.295	89
532.509	103
532.724	97
532.938	101
533.153	105
533.367	99
533.582	95
533.796	94
534.011	92
534.225	89
534.44	92
534.654	96
534.868	92
535.083	99
535.297	105
535.511	124
535.726	98
535.94	92
536.154	98
536.369	87
536.583	85
536.797	97
537.011	97
537.225	94
537.44	85
537.654	96
537.868	95
538.082	98
538.296	98
538.51	94
538.724	90
538.938	84
539.153	98
539.367	98
539.581	114
539.795	87
540.009	108
540.222	95
540.436	94
540.65	92
540.864	101
541.078	104
541.292	87
541.506	94
541.72	89
541.934	88
542.147	89
542.361	88
542.575	93
542.789	87
543.002	83
543.216	97
543.43	87
543.644	100
543.857	92
544.071	85
544.285	100
544.498	85
544.712	101
544.925	82
545.139	97
545.352	85
545.566	68
545.779	77
545.993	85
546.206	94
546.42	83
546.633	86
546.847	102
547.06	80
547.274	85
547.487	104
547.7	99
547.914	90
548.127	97
548.34	95
548.554	85
548.767	91
548.98	105
549.193	107
549.407	102
549.62	95
549.833	95
550.046	86
550.259	97
550.473	99
550.686	111
550.899	76
551.112	89
551.325	93
551.538	86
551.751	83
551.964	77
552.177	115
552.39	100
552.603	90
552.816	89
553.029	97
553.242	87
553.455	87
553.667	108
553.88	117
554.093	93
554.306	89
554.519	87
554.732	88
554.944	80
555.157	86
555.37	95
555.583	100
555.795	105
556.008	104
556.221	97
556.433	99
556.646	94
556.859	99
557.071	96
557.284	97
557.496	89
557.709	87
557.921	93
558.134	101
558.346	85
558.559	92
558.771	95
558.984	89
559.196	98
559.409	90
559.621	92
559.833	100
560.046	90
560.258	81
560.47	90
560.683	89
560.895	81
561.107	86
561.32	88
561.532	98
561.744	99
561.956	89
562.168	103
562.381	80
562.593	92
562.805	91
563.017	99
563.229	95
563.441	101
563.653	95
563.865	92
564.077	78
564.289	87
564.501	94
564.713	101
564.925	89
565.137	111
565.349	88
565.561	87
565.773	111
565.985	90
566.197	88
566.408	81
566.62	105
566.832	100
567.044	87
567.255	88
567.467	91
567.679	66
567.891	98
568.102	97
568.314	88
568.526	88
568.737	93
568.949	80
569.161	99
569.372	91
569.584	87
569.795	93
570.007	116
570.218	256
570.43	138
570.641	91
570.853	85
571.064	94
571.276	91
571.487	103
571.698	87
571.91	84
572.121	95
572.333	83
572.544	93
572.755	75
572.966	93
573.178	106
573.389	97
573.6	90
573.811	90
574.023	86
574.234	98
574.445	105
574.656	105
574.867	87
575.078	88
575.289	78
575.501	100
575.712	94
575.923	71
576.134	98
576.345	80
576.556	94
576.767	79
576.978	99
577.188	86
577.399	99
577.61	101
577.821	108
578.032	125
578.243	292
578.454	811
578.665	219
578.875	98
579.086	93
579.297	90
579.508	83
579.718	87
579.929	90
580.14	88
580.35	99
580.561	73
580.772	91
580.982	101
581.193	89
581.403	97
581.614	96
581.825	79
582.035	81
582.246	84
582.456	95
582.667	83
582.877	80
583.087	82
583.298	99
583.508	84
