Data from Uncirc_1995_H10_HRD10591_00070.txt Node
Date: Wed Jan 03 11:35:47 EST 2024
User: Yrep
Spectrometer: HR+D1059
Trigger mode: 1
Integration Time (sec): 1.000000E-1
Scans to average: 1
Electric dark correction enabled: true
Nonlinearity correction enabled: false
Boxcar width: 0
XAxis mode: Wavelengths
Number of Pixels in Spectrum: 2048
>>>>>Begin Spectral Data<<<<<
223.165	-14.62
223.4	-14.62
223.635	-14.62
223.869	-27.62
224.104	2.38
224.338	-15.62
224.573	-11.62
224.808	-4.62
225.042	-3.62
225.277	-16.62
225.511	-1.62
225.746	11.38
225.98	5.38
226.215	17.38
226.449	9.38
226.683	21.38
226.918	11.38
227.152	17.38
227.387	43.38
227.621	23.38
227.856	40.38
228.09	51.38
228.324	47.38
228.559	67.38
228.793	43.38
229.027	69.38
229.262	75.38
229.496	79.38
229.73	90.38
229.964	85.38
230.199	65.38
230.433	81.38
230.667	88.38
230.901	77.38
231.136	63.38
231.37	91.38
231.604	66.38
231.838	83.38
232.072	75.38
232.306	78.38
232.541	90.38
232.775	85.38
233.009	77.38
233.243	87.38
233.477	83.38
233.711	80.38
233.945	68.38
234.179	92.38
234.413	90.38
234.647	81.38
234.881	70.38
235.115	83.38
235.349	84.38
235.583	91.38
235.817	82.38
236.051	83.38
236.285	77.38
236.519	75.38
236.753	78.38
236.987	74.38
237.221	61.38
237.455	85.38
237.689	77.38
237.922	83.38
238.156	79.38
238.39	75.38
238.624	71.38
238.858	83.38
239.091	81.38
239.325	74.38
239.559	81.38
239.793	83.38
240.027	99.38
240.26	89.38
240.494	77.38
240.728	73.38
240.961	72.38
241.195	80.38
241.429	75.38
241.662	75.38
241.896	68.38
242.13	81.38
242.363	60.38
242.597	87.38
242.83	75.38
243.064	90.38
243.298	68.38
243.531	76.38
243.765	66.38
243.998	78.38
244.232	82.38
244.465	93.38
244.699	78.38
244.932	83.38
245.166	80.38
245.399	81.38
245.633	90.38
245.866	79.38
246.099	73.38
246.333	64.38
246.566	75.38
246.8	80.38
247.033	78.38
247.266	71.38
247.5	84.38
247.733	82.38
247.966	70.38
248.2	74.38
248.433	69.38
248.666	77.38
248.899	91.38
249.133	92.38
249.366	83.38
249.599	80.38
249.832	91.38
250.066	86.38
250.299	96.38
250.532	91.38
250.765	83.38
250.998	80.38
251.231	80.38
251.465	79.38
251.698	101.38
251.931	72.38
252.164	73.38
252.397	95.38
252.63	80.38
252.863	66.38
253.096	68.38
253.329	77.38
253.562	78.38
253.795	82.38
254.028	90.38
254.261	79.38
254.494	84.38
254.727	81.38
254.96	74.38
255.193	81.38
255.426	75.38
255.659	86.38
255.892	96.38
256.124	84.38
256.357	77.38
256.59	84.38
256.823	89.38
257.056	90.38
257.289	80.38
257.521	92.38
257.754	91.38
257.987	67.38
258.22	75.38
258.452	89.38
258.685	81.38
258.918	91.38
259.151	91.38
259.383	71.38
259.616	81.38
259.849	76.38
260.081	85.38
260.314	79.38
260.547	82.38
260.779	80.38
261.012	76.38
261.244	90.38
261.477	79.38
261.71	89.38
261.942	108.38
262.175	118.38
262.407	86.38
262.64	89.38
262.872	92.38
263.105	81.38
263.337	91.38
263.57	71.38
263.802	88.38
264.035	71.38
264.267	83.38
264.499	84.38
264.732	79.38
264.964	87.38
265.197	82.38
265.429	76.38
265.661	87.38
265.894	89.38
266.126	76.38
266.358	98.38
266.591	95.38
266.823	66.38
267.055	84.38
267.287	88.38
267.52	91.38
267.752	76.38
267.984	87.38
268.216	79.38
268.448	88.38
268.681	87.38
268.913	96.38
269.145	81.38
269.377	89.38
269.609	79.38
269.841	81.38
270.073	85.38
270.306	84.38
270.538	81.38
270.77	75.38
271.002	77.38
271.234	84.38
271.466	91.38
271.698	74.38
271.93	82.38
272.162	87.38
272.394	78.38
272.626	90.38
272.858	88.38
273.09	90.38
273.322	77.38
273.553	76.38
273.785	83.38
274.017	78.38
274.249	83.38
274.481	82.38
274.713	85.38
274.945	80.38
275.176	73.38
275.408	84.38
275.64	79.38
275.872	105.38
276.104	90.38
276.335	92.38
276.567	112.38
276.799	123.38
277.031	100.38
277.262	96.38
277.494	95.38
277.726	94.38
277.957	84.38
278.189	84.38
278.421	88.38
278.652	82.38
278.884	87.38
279.115	98.38
279.347	85.38
279.579	83.38
279.81	73.38
280.042	104.38
280.273	85.38
280.505	71.38
280.736	89.38
280.968	86.38
281.199	83.38
281.431	87.38
281.662	91.38
281.894	82.38
282.125	93.38
282.356	116.38
282.588	130.38
282.819	101.38
283.051	85.38
283.282	94.38
283.513	91.38
283.745	75.38
283.976	94.38
284.207	96.38
284.439	83.38
284.67	89.38
284.901	81.38
285.132	95.38
285.364	89.38
285.595	107.38
285.826	94.38
286.057	94.38
286.288	93.38
286.52	96.38
286.751	86.38
286.982	91.38
287.213	90.38
287.444	89.38
287.675	89.38
287.906	88.38
288.138	88.38
288.369	88.38
288.6	111.38
288.831	79.38
289.062	80.38
289.293	80.38
289.524	82.38
289.755	71.38
289.986	84.38
290.217	111.38
290.448	78.38
290.679	74.38
290.91	86.38
291.141	93.38
291.371	90.38
291.602	79.38
291.833	87.38
292.064	83.38
292.295	86.38
292.526	79.38
292.757	90.38
292.987	91.38
293.218	91.38
293.449	87.38
293.68	99.38
293.91	79.38
294.141	91.38
294.372	104.38
294.603	84.38
294.833	88.38
295.064	92.38
295.295	98.38
295.525	99.38
295.756	106.38
295.987	102.38
296.217	140.38
296.448	115.38
296.679	91.38
296.909	84.38
297.14	82.38
297.37	84.38
297.601	104.38
297.831	101.38
298.062	85.38
298.292	91.38
298.523	89.38
298.753	87.38
298.984	72.38
299.214	89.38
299.445	107.38
299.675	103.38
299.905	93.38
300.136	93.38
300.366	84.38
300.597	82.38
300.827	94.38
301.057	100.38
301.288	96.38
301.518	90.38
301.748	85.38
301.979	110.38
302.209	99.38
302.439	100.38
302.669	96.38
302.9	81.38
303.13	89.38
303.36	96.38
303.59	99.38
303.82	102.38
304.051	90.38
304.281	93.38
304.511	88.38
304.741	90.38
304.971	96.38
305.201	83.38
305.431	92.38
305.661	88.38
305.891	97.38
306.121	84.38
306.352	96.38
306.582	88.38
306.812	99.38
307.042	85.38
307.272	78.38
307.502	92.38
307.731	90.38
307.961	84.38
308.191	86.38
308.421	90.38
308.651	93.38
308.881	99.38
309.111	91.38
309.341	102.38
309.571	106.38
309.8	98.38
310.03	81.38
310.26	95.38
310.49	85.38
310.72	75.38
310.949	96.38
311.179	91.38
311.409	100.38
311.639	105.38
311.868	91.38
312.098	106.38
312.328	111.38
312.557	100.38
312.787	95.38
313.017	95.38
313.246	95.38
313.476	119.38
313.706	85.38
313.935	98.38
314.165	76.38
314.394	83.38
314.624	87.38
314.853	105.38
315.083	96.38
315.312	104.38
315.542	88.38
315.771	102.38
316.001	82.38
316.23	94.38
316.46	93.38
316.689	76.38
316.919	101.38
317.148	101.38
317.377	95.38
317.607	97.38
317.836	89.38
318.065	98.38
318.295	96.38
318.524	82.38
318.753	100.38
318.983	92.38
319.212	95.38
319.441	93.38
319.67	108.38
319.9	101.38
320.129	93.38
320.358	89.38
320.587	89.38
320.816	111.38
321.046	96.38
321.275	82.38
321.504	91.38
321.733	92.38
321.962	96.38
322.191	104.38
322.42	88.38
322.649	114.38
322.878	129.38
323.108	121.38
323.337	128.38
323.566	130.38
323.795	160.38
324.024	223.38
324.253	409.38
324.482	875.38
324.71	1777.38
324.939	2356.38
325.168	875.38
325.397	252.38
325.626	161.38
325.855	133.38
326.084	126.38
326.313	143.38
326.542	147.38
326.77	244.38
326.999	469.38
327.228	962.38
327.457	1844.38
327.686	1427.38
327.914	400.38
328.143	189.38
328.372	141.38
328.6	108.38
328.829	122.38
329.058	132.38
329.287	117.38
329.515	111.38
329.744	121.38
329.972	110.38
330.201	96.38
330.43	114.38
330.658	120.38
330.887	128.38
331.115	127.38
331.344	107.38
331.572	105.38
331.801	115.38
332.03	105.38
332.258	107.38
332.486	97.38
332.715	98.38
332.943	89.38
333.172	103.38
333.4	89.38
333.629	101.38
333.857	101.38
334.085	106.38
334.314	84.38
334.542	95.38
334.771	93.38
334.999	105.38
335.227	103.38
335.455	93.38
335.684	95.38
335.912	88.38
336.14	92.38
336.369	103.38
336.597	109.38
336.825	122.38
337.053	92.38
337.281	84.38
337.51	77.38
337.738	99.38
337.966	108.38
338.194	112.38
338.422	95.38
338.65	96.38
338.878	98.38
339.106	97.38
339.334	94.38
339.562	93.38
339.79	97.38
340.018	88.38
340.246	86.38
340.474	92.38
340.702	108.38
340.93	97.38
341.158	92.38
341.386	107.38
341.614	101.38
341.842	98.38
342.07	73.38
342.298	100.38
342.526	99.38
342.754	88.38
342.981	84.38
343.209	95.38
343.437	106.38
343.665	92.38
343.893	81.38
344.12	98.38
344.348	90.38
344.576	94.38
344.804	88.38
345.031	93.38
345.259	88.38
345.487	95.38
345.714	84.38
345.942	83.38
346.17	87.38
346.397	99.38
346.625	97.38
346.853	104.38
347.08	101.38
347.308	93.38
347.535	99.38
347.763	102.38
347.99	100.38
348.218	89.38
348.445	101.38
348.673	88.38
348.9	89.38
349.128	84.38
349.355	99.38
349.583	93.38
349.81	107.38
350.037	100.38
350.265	91.38
350.492	97.38
350.72	71.38
350.947	112.38
351.174	101.38
351.402	109.38
351.629	100.38
351.856	99.38
352.083	112.38
352.311	99.38
352.538	115.38
352.765	107.38
352.992	111.38
353.22	114.38
353.447	124.38
353.674	115.38
353.901	105.38
354.128	106.38
354.355	90.38
354.583	96.38
354.81	94.38
355.037	107.38
355.264	87.38
355.491	100.38
355.718	107.38
355.945	84.38
356.172	94.38
356.399	97.38
356.626	91.38
356.853	90.38
357.08	92.38
357.307	98.38
357.534	109.38
357.761	96.38
357.988	94.38
358.215	104.38
358.441	96.38
358.668	97.38
358.895	92.38
359.122	83.38
359.349	86.38
359.576	96.38
359.802	107.38
360.029	107.38
360.256	106.38
360.483	96.38
360.709	92.38
360.936	99.38
361.163	90.38
361.39	90.38
361.616	93.38
361.843	102.38
362.07	98.38
362.296	95.38
362.523	94.38
362.749	104.38
362.976	87.38
363.203	91.38
363.429	80.38
363.656	92.38
363.882	94.38
364.109	94.38
364.335	77.38
364.562	90.38
364.788	101.38
365.015	92.38
365.241	109.38
365.468	104.38
365.694	110.38
365.92	99.38
366.147	102.38
366.373	98.38
366.599	103.38
366.826	89.38
367.052	86.38
367.278	102.38
367.505	77.38
367.731	107.38
367.957	87.38
368.184	89.38
368.41	119.38
368.636	111.38
368.862	124.38
369.089	120.38
369.315	80.38
369.541	87.38
369.767	94.38
369.993	104.38
370.219	84.38
370.445	79.38
370.672	79.38
370.898	94.38
371.124	97.38
371.35	99.38
371.576	89.38
371.802	75.38
372.028	78.38
372.254	90.38
372.48	83.38
372.706	97.38
372.932	97.38
373.158	85.38
373.384	105.38
373.61	98.38
373.835	110.38
374.061	85.38
374.287	96.38
374.513	97.38
374.739	91.38
374.965	96.38
375.191	103.38
375.416	91.38
375.642	109.38
375.868	90.38
376.094	107.38
376.319	91.38
376.545	111.38
376.771	85.38
376.997	99.38
377.222	84.38
377.448	82.38
377.674	88.38
377.899	89.38
378.125	85.38
378.35	85.38
378.576	87.38
378.802	91.38
379.027	98.38
379.253	95.38
379.478	99.38
379.704	94.38
379.929	98.38
380.155	100.38
380.38	98.38
380.606	89.38
380.831	97.38
381.057	103.38
381.282	100.38
381.507	99.38
381.733	93.38
381.958	100.38
382.184	109.38
382.409	109.38
382.634	105.38
382.86	108.38
383.085	106.38
383.31	95.38
383.535	100.38
383.761	106.38
383.986	88.38
384.211	92.38
384.436	95.38
384.662	100.38
384.887	79.38
385.112	100.38
385.337	98.38
385.562	95.38
385.787	102.38
386.013	118.38
386.238	113.38
386.463	111.38
386.688	107.38
386.913	94.38
387.138	105.38
387.363	112.38
387.588	97.38
387.813	104.38
388.038	103.38
388.263	105.38
388.488	101.38
388.713	104.38
388.938	87.38
389.163	96.38
389.387	95.38
389.612	101.38
389.837	105.38
390.062	98.38
390.287	99.38
390.512	100.38
390.736	106.38
390.961	90.38
391.186	97.38
391.411	108.38
391.636	89.38
391.86	92.38
392.085	83.38
392.31	91.38
392.534	84.38
392.759	81.38
392.984	73.38
393.208	91.38
393.433	87.38
393.658	84.38
393.882	88.38
394.107	88.38
394.331	103.38
394.556	94.38
394.78	98.38
395.005	76.38
395.229	68.38
395.454	81.38
395.678	79.38
395.903	88.38
396.127	90.38
396.352	80.38
396.576	93.38
396.801	84.38
397.025	95.38
397.249	90.38
397.474	81.38
397.698	90.38
397.922	87.38
398.147	102.38
398.371	90.38
398.595	85.38
398.82	94.38
399.044	93.38
399.268	89.38
399.492	81.38
399.717	91.38
399.941	89.38
400.165	103.38
400.389	94.38
400.613	82.38
400.837	85.38
401.062	90.38
401.286	88.38
401.51	82.38
401.734	89.38
401.958	99.38
402.182	126.38
402.406	159.38
402.63	112.38
402.854	92.38
403.078	85.38
403.302	83.38
403.526	90.38
403.75	82.38
403.974	94.38
404.198	105.38
404.422	79.38
404.645	92.38
404.869	102.38
405.093	96.38
405.317	95.38
405.541	101.38
405.765	102.38
405.988	119.38
406.212	177.38
406.436	213.38
406.66	148.38
406.883	102.38
407.107	105.38
407.331	94.38
407.555	97.38
407.778	105.38
408.002	90.38
408.226	103.38
408.449	92.38
408.673	81.38
408.896	99.38
409.12	92.38
409.344	83.38
409.567	99.38
409.791	91.38
410.014	85.38
410.238	119.38
410.461	104.38
410.685	95.38
410.908	96.38
411.132	115.38
411.355	93.38
411.578	95.38
411.802	91.38
412.025	89.38
412.249	91.38
412.472	95.38
412.695	106.38
412.919	87.38
413.142	86.38
413.365	99.38
413.589	90.38
413.812	95.38
414.035	100.38
414.258	91.38
414.482	94.38
414.705	79.38
414.928	102.38
415.151	87.38
415.374	86.38
415.597	92.38
415.821	86.38
416.044	83.38
416.267	91.38
416.49	88.38
416.713	97.38
416.936	104.38
417.159	98.38
417.382	98.38
417.605	87.38
417.828	100.38
418.051	98.38
418.274	96.38
418.497	88.38
418.72	82.38
418.943	91.38
419.166	75.38
419.389	99.38
419.611	100.38
419.834	87.38
420.057	92.38
420.28	93.38
420.503	93.38
420.726	95.38
420.948	92.38
421.171	92.38
421.394	89.38
421.617	101.38
421.839	91.38
422.062	93.38
422.285	110.38
422.507	99.38
422.73	101.38
422.953	79.38
423.175	98.38
423.398	101.38
423.621	83.38
423.843	86.38
424.066	89.38
424.288	94.38
424.511	87.38
424.733	96.38
424.956	106.38
425.178	107.38
425.401	93.38
425.623	103.38
425.846	83.38
426.068	95.38
426.291	101.38
426.513	91.38
426.735	86.38
426.958	107.38
427.18	81.38
427.402	126.38
427.625	163.38
427.847	120.38
428.069	111.38
428.292	87.38
428.514	85.38
428.736	88.38
428.958	84.38
429.181	90.38
429.403	96.38
429.625	88.38
429.847	80.38
430.069	96.38
430.292	89.38
430.514	91.38
430.736	95.38
430.958	93.38
431.18	80.38
431.402	89.38
431.624	84.38
431.846	75.38
432.068	97.38
432.29	93.38
432.512	94.38
432.734	83.38
432.956	90.38
433.178	112.38
433.4	106.38
433.622	92.38
433.844	92.38
434.066	78.38
434.287	85.38
434.509	84.38
434.731	86.38
434.953	83.38
435.175	107.38
435.397	104.38
435.618	94.38
435.84	106.38
436.062	123.38
436.284	105.38
436.505	106.38
436.727	106.38
436.949	90.38
437.17	84.38
437.392	88.38
437.614	88.38
437.835	101.38
438.057	113.38
438.278	100.38
438.5	96.38
438.721	128.38
438.943	108.38
439.165	87.38
439.386	91.38
439.608	89.38
439.829	91.38
440.05	118.38
440.272	129.38
440.493	92.38
440.715	90.38
440.936	97.38
441.158	93.38
441.379	95.38
441.6	91.38
441.822	95.38
442.043	97.38
442.264	92.38
442.486	101.38
442.707	84.38
442.928	99.38
443.149	120.38
443.371	107.38
443.592	109.38
443.813	118.38
444.034	116.38
444.255	97.38
444.476	77.38
444.698	87.38
444.919	90.38
445.14	127.38
445.361	125.38
445.582	130.38
445.803	134.38
446.024	126.38
446.245	131.38
446.466	93.38
446.687	98.38
446.908	93.38
447.129	91.38
447.35	83.38
447.571	105.38
447.792	91.38
448.013	97.38
448.234	112.38
448.455	91.38
448.675	96.38
448.896	101.38
449.117	87.38
449.338	111.38
449.559	123.38
449.779	130.38
450	99.38
450.221	93.38
450.442	82.38
450.662	97.38
450.883	105.38
451.104	97.38
451.324	92.38
451.545	88.38
451.766	88.38
451.986	88.38
452.207	95.38
452.428	91.38
452.648	93.38
452.869	89.38
453.089	112.38
453.31	104.38
453.53	105.38
453.751	107.38
453.971	98.38
454.192	108.38
454.412	89.38
454.633	80.38
454.853	83.38
455.073	87.38
455.294	91.38
455.514	100.38
455.734	91.38
455.955	101.38
456.175	79.38
456.395	85.38
456.616	87.38
456.836	91.38
457.056	80.38
457.276	93.38
457.497	93.38
457.717	99.38
457.937	84.38
458.157	92.38
458.377	91.38
458.598	109.38
458.818	158.38
459.038	157.38
459.258	124.38
459.478	95.38
459.698	89.38
459.918	73.38
460.138	93.38
460.358	86.38
460.578	82.38
460.798	103.38
461.018	84.38
461.238	72.38
461.458	80.38
461.678	81.38
461.898	80.38
462.118	92.38
462.338	93.38
462.558	95.38
462.777	90.38
462.997	92.38
463.217	99.38
463.437	96.38
463.657	98.38
463.876	76.38
464.096	79.38
464.316	97.38
464.536	90.38
464.755	95.38
464.975	100.38
465.195	161.38
465.414	151.38
465.634	101.38
465.854	89.38
466.073	101.38
466.293	85.38
466.512	93.38
466.732	93.38
466.951	90.38
467.171	89.38
467.391	103.38
467.61	101.38
467.829	103.38
468.049	97.38
468.268	102.38
468.488	81.38
468.707	91.38
468.927	91.38
469.146	85.38
469.365	99.38
469.585	92.38
469.804	100.38
470.023	86.38
470.243	91.38
470.462	97.38
470.681	109.38
470.901	86.38
471.12	85.38
471.339	78.38
471.558	90.38
471.777	79.38
471.997	89.38
472.216	78.38
472.435	101.38
472.654	98.38
472.873	76.38
473.092	88.38
473.311	94.38
473.53	100.38
473.749	90.38
473.968	106.38
474.187	97.38
474.406	92.38
474.625	84.38
474.844	95.38
475.063	88.38
475.282	77.38
475.501	75.38
475.72	80.38
475.939	85.38
476.158	87.38
476.377	85.38
476.596	85.38
476.814	107.38
477.033	91.38
477.252	97.38
477.471	92.38
477.69	83.38
477.908	88.38
478.127	78.38
478.346	82.38
478.564	84.38
478.783	81.38
479.002	100.38
479.22	100.38
479.439	108.38
479.658	94.38
479.876	107.38
480.095	95.38
480.313	80.38
480.532	91.38
480.751	91.38
480.969	104.38
481.188	99.38
481.406	95.38
481.624	85.38
481.843	99.38
482.061	82.38
482.28	99.38
482.498	80.38
482.717	97.38
482.935	91.38
483.153	96.38
483.372	91.38
483.59	99.38
483.808	103.38
484.027	94.38
484.245	81.38
484.463	92.38
484.681	102.38
484.9	100.38
485.118	101.38
485.336	104.38
485.554	93.38
485.772	91.38
485.99	102.38
486.209	99.38
486.427	91.38
486.645	91.38
486.863	95.38
487.081	96.38
487.299	85.38
487.517	109.38
487.735	85.38
487.953	94.38
488.171	105.38
488.389	108.38
488.607	96.38
488.825	77.38
489.043	81.38
489.261	93.38
489.479	88.38
489.696	84.38
489.914	89.38
490.132	88.38
490.35	95.38
490.568	90.38
490.786	97.38
491.003	96.38
491.221	97.38
491.439	95.38
491.657	93.38
491.874	91.38
492.092	85.38
492.31	101.38
492.527	88.38
492.745	93.38
492.963	96.38
493.18	100.38
493.398	90.38
493.615	103.38
493.833	80.38
494.05	92.38
494.268	86.38
494.485	94.38
494.703	86.38
494.92	76.38
495.138	91.38
495.355	92.38
495.573	93.38
495.79	93.38
496.008	99.38
496.225	76.38
496.442	86.38
496.66	99.38
496.877	93.38
497.094	94.38
497.312	98.38
497.529	86.38
497.746	97.38
497.963	101.38
498.181	97.38
498.398	91.38
498.615	106.38
498.832	96.38
499.049	97.38
499.267	83.38
499.484	93.38
499.701	96.38
499.918	94.38
500.135	99.38
500.352	92.38
500.569	103.38
500.786	102.38
501.003	94.38
501.22	95.38
501.437	92.38
501.654	101.38
501.871	97.38
502.088	104.38
502.305	85.38
502.522	77.38
502.739	89.38
502.956	101.38
503.172	89.38
503.389	92.38
503.606	111.38
503.823	100.38
504.04	77.38
504.256	110.38
504.473	81.38
504.69	86.38
504.907	103.38
505.123	80.38
505.34	91.38
505.557	92.38
505.773	76.38
505.99	90.38
506.207	91.38
506.423	95.38
506.64	82.38
506.856	93.38
507.073	96.38
507.289	89.38
507.506	99.38
507.722	104.38
507.939	116.38
508.155	83.38
508.372	105.38
508.588	103.38
508.805	83.38
509.021	96.38
509.238	91.38
509.454	99.38
509.67	102.38
509.887	125.38
510.103	133.38
510.319	235.38
510.536	789.38
510.752	2564.38
510.968	671.38
511.184	156.38
511.401	124.38
511.617	96.38
511.833	99.38
512.049	103.38
512.265	94.38
512.481	94.38
512.698	97.38
512.914	97.38
513.13	96.38
513.346	87.38
513.562	88.38
513.778	103.38
513.994	113.38
514.21	101.38
514.426	123.38
514.642	141.38
514.858	136.38
515.074	174.38
515.29	457.38
