Data from Uncirc_1995_H10_HRD10591_00053.txt Node
Date: Wed Jan 03 11:35:44 EST 2024
User: Yrep
Spectrometer: HR+D1059
Trigger mode: 1
Integration Time (sec): 1.000000E-1
Scans to average: 1
Electric dark correction enabled: true
Nonlinearity correction enabled: false
Boxcar width: 0
XAxis mode: Wavelengths
Number of Pixels in Spectrum: 2048
>>>>>Begin Spectral Data<<<<<
223.165	-25.56
223.4	-25.56
223.635	-25.56
223.869	-18.56
224.104	-15.56
224.338	-17.56
224.573	-7.56
224.808	-25.56
225.042	-4.56
225.277	-10.56
225.511	-5.56
225.746	10.44
225.98	9.44
226.215	9.44
226.449	18.44
226.683	24.44
226.918	25.44
227.152	33.44
227.387	31.44
227.621	33.44
227.856	40.44
228.09	49.44
228.324	55.44
228.559	53.44
228.793	63.44
229.027	57.44
229.262	62.44
229.496	94.44
229.73	78.44
229.964	85.44
230.199	83.44
230.433	88.44
230.667	84.44
230.901	88.44
231.136	75.44
231.37	68.44
231.604	88.44
231.838	92.44
232.072	81.44
232.306	79.44
232.541	81.44
232.775	79.44
233.009	84.44
233.243	76.44
233.477	76.44
233.711	71.44
233.945	88.44
234.179	87.44
234.413	73.44
234.647	84.44
234.881	78.44
235.115	57.44
235.349	72.44
235.583	58.44
235.817	73.44
236.051	70.44
236.285	91.44
236.519	83.44
236.753	81.44
236.987	62.44
237.221	88.44
237.455	81.44
237.689	73.44
237.922	70.44
238.156	73.44
238.39	78.44
238.624	74.44
238.858	85.44
239.091	72.44
239.325	74.44
239.559	81.44
239.793	87.44
240.027	84.44
240.26	82.44
240.494	76.44
240.728	68.44
240.961	58.44
241.195	76.44
241.429	79.44
241.662	81.44
241.896	72.44
242.13	80.44
242.363	75.44
242.597	71.44
242.83	77.44
243.064	73.44
243.298	75.44
243.531	68.44
243.765	84.44
243.998	91.44
244.232	97.44
244.465	77.44
244.699	80.44
244.932	89.44
245.166	69.44
245.399	73.44
245.633	73.44
245.866	72.44
246.099	80.44
246.333	85.44
246.566	61.44
246.8	73.44
247.033	71.44
247.266	80.44
247.5	79.44
247.733	69.44
247.966	72.44
248.2	76.44
248.433	72.44
248.666	94.44
248.899	85.44
249.133	101.44
249.366	108.44
249.599	81.44
249.832	80.44
250.066	82.44
250.299	73.44
250.532	83.44
250.765	83.44
250.998	74.44
251.231	77.44
251.465	84.44
251.698	76.44
251.931	85.44
252.164	78.44
252.397	82.44
252.63	91.44
252.863	81.44
253.096	80.44
253.329	82.44
253.562	71.44
253.795	79.44
254.028	97.44
254.261	73.44
254.494	79.44
254.727	88.44
254.96	87.44
255.193	83.44
255.426	86.44
255.659	81.44
255.892	82.44
256.124	81.44
256.357	83.44
256.59	64.44
256.823	81.44
257.056	90.44
257.289	77.44
257.521	79.44
257.754	95.44
257.987	79.44
258.22	83.44
258.452	69.44
258.685	71.44
258.918	85.44
259.151	83.44
259.383	84.44
259.616	78.44
259.849	82.44
260.081	81.44
260.314	67.44
260.547	80.44
260.779	83.44
261.012	94.44
261.244	87.44
261.477	90.44
261.71	88.44
261.942	101.44
262.175	99.44
262.407	78.44
262.64	81.44
262.872	97.44
263.105	82.44
263.337	89.44
263.57	69.44
263.802	90.44
264.035	76.44
264.267	82.44
264.499	87.44
264.732	88.44
264.964	88.44
265.197	82.44
265.429	78.44
265.661	71.44
265.894	78.44
266.126	89.44
266.358	81.44
266.591	75.44
266.823	69.44
267.055	87.44
267.287	84.44
267.52	77.44
267.752	83.44
267.984	82.44
268.216	58.44
268.448	73.44
268.681	73.44
268.913	67.44
269.145	77.44
269.377	90.44
269.609	89.44
269.841	72.44
270.073	64.44
270.306	71.44
270.538	86.44
270.77	97.44
271.002	79.44
271.234	77.44
271.466	89.44
271.698	84.44
271.93	81.44
272.162	82.44
272.394	94.44
272.626	82.44
272.858	69.44
273.09	89.44
273.322	89.44
273.553	86.44
273.785	74.44
274.017	87.44
274.249	95.44
274.481	71.44
274.713	86.44
274.945	89.44
275.176	77.44
275.408	99.44
275.64	87.44
275.872	78.44
276.104	101.44
276.335	99.44
276.567	101.44
276.799	99.44
277.031	113.44
277.262	79.44
277.494	77.44
277.726	81.44
277.957	92.44
278.189	90.44
278.421	92.44
278.652	86.44
278.884	97.44
279.115	79.44
279.347	75.44
279.579	93.44
279.81	92.44
280.042	72.44
280.273	85.44
280.505	79.44
280.736	87.44
280.968	78.44
281.199	76.44
281.431	81.44
281.662	89.44
281.894	85.44
282.125	97.44
282.356	108.44
282.588	141.44
282.819	107.44
283.051	81.44
283.282	81.44
283.513	79.44
283.745	86.44
283.976	77.44
284.207	87.44
284.439	78.44
284.67	99.44
284.901	90.44
285.132	88.44
285.364	88.44
285.595	82.44
285.826	86.44
286.057	86.44
286.288	83.44
286.52	91.44
286.751	77.44
286.982	71.44
287.213	95.44
287.444	74.44
287.675	82.44
287.906	70.44
288.138	83.44
288.369	93.44
288.6	88.44
288.831	75.44
289.062	88.44
289.293	77.44
289.524	96.44
289.755	98.44
289.986	76.44
290.217	81.44
290.448	87.44
290.679	77.44
290.91	70.44
291.141	69.44
291.371	86.44
291.602	86.44
291.833	85.44
292.064	74.44
292.295	87.44
292.526	86.44
292.757	76.44
292.987	86.44
293.218	78.44
293.449	93.44
293.68	83.44
293.91	93.44
294.141	85.44
294.372	97.44
294.603	96.44
294.833	85.44
295.064	87.44
295.295	89.44
295.525	102.44
295.756	89.44
295.987	122.44
296.217	121.44
296.448	102.44
296.679	90.44
296.909	81.44
297.14	88.44
297.37	84.44
297.601	81.44
297.831	92.44
298.062	87.44
298.292	90.44
298.523	81.44
298.753	86.44
298.984	79.44
299.214	77.44
299.445	81.44
299.675	95.44
299.905	86.44
300.136	77.44
300.366	90.44
300.597	76.44
300.827	82.44
301.057	100.44
301.288	109.44
301.518	107.44
301.748	94.44
301.979	90.44
302.209	87.44
302.439	98.44
302.669	80.44
302.9	82.44
303.13	92.44
303.36	88.44
303.59	96.44
303.82	119.44
304.051	94.44
304.281	78.44
304.511	80.44
304.741	91.44
304.971	83.44
305.201	100.44
305.431	83.44
305.661	97.44
305.891	96.44
306.121	86.44
306.352	78.44
306.582	93.44
306.812	98.44
307.042	75.44
307.272	85.44
307.502	89.44
307.731	94.44
307.961	89.44
308.191	88.44
308.421	94.44
308.651	96.44
308.881	89.44
309.111	91.44
309.341	92.44
309.571	104.44
309.8	86.44
310.03	112.44
310.26	81.44
310.49	81.44
310.72	92.44
310.949	89.44
311.179	107.44
311.409	97.44
311.639	101.44
311.868	85.44
312.098	98.44
312.328	90.44
312.557	91.44
312.787	111.44
313.017	85.44
313.246	92.44
313.476	105.44
313.706	90.44
313.935	103.44
314.165	90.44
314.394	101.44
314.624	98.44
314.853	105.44
315.083	98.44
315.312	89.44
315.542	103.44
315.771	97.44
316.001	88.44
316.23	84.44
316.46	88.44
316.689	89.44
316.919	79.44
317.148	93.44
317.377	87.44
317.607	91.44
317.836	96.44
318.065	88.44
318.295	90.44
318.524	101.44
318.753	87.44
318.983	87.44
319.212	97.44
319.441	98.44
319.67	104.44
319.9	110.44
320.129	95.44
320.358	81.44
320.587	100.44
320.816	88.44
321.046	101.44
321.275	93.44
321.504	83.44
321.733	96.44
321.962	103.44
322.191	82.44
322.42	105.44
322.649	113.44
322.878	111.44
323.108	105.44
323.337	121.44
323.566	129.44
323.795	151.44
324.024	204.44
324.253	412.44
324.482	855.44
324.71	1813.44
324.939	2364.44
325.168	841.44
325.397	241.44
325.626	149.44
325.855	138.44
326.084	122.44
326.313	135.44
326.542	148.44
326.77	242.44
326.999	451.44
327.228	977.44
327.457	1826.44
327.686	1464.44
327.914	370.44
328.143	189.44
328.372	139.44
328.6	101.44
328.829	118.44
329.058	122.44
329.287	114.44
329.515	112.44
329.744	109.44
329.972	107.44
330.201	90.44
330.43	107.44
330.658	103.44
330.887	124.44
331.115	133.44
331.344	106.44
331.572	96.44
331.801	94.44
332.03	99.44
332.258	94.44
332.486	87.44
332.715	101.44
332.943	101.44
333.172	86.44
333.4	94.44
333.629	104.44
333.857	107.44
334.085	91.44
334.314	78.44
334.542	87.44
334.771	82.44
334.999	106.44
335.227	91.44
335.455	90.44
335.684	90.44
335.912	95.44
336.14	86.44
336.369	103.44
336.597	86.44
336.825	83.44
337.053	91.44
337.281	84.44
337.51	89.44
337.738	95.44
337.966	104.44
338.194	96.44
338.422	89.44
338.65	98.44
338.878	91.44
339.106	89.44
339.334	98.44
339.562	74.44
339.79	83.44
340.018	91.44
340.246	88.44
340.474	96.44
340.702	93.44
340.93	85.44
341.158	103.44
341.386	100.44
341.614	107.44
341.842	102.44
342.07	90.44
342.298	92.44
342.526	77.44
342.754	89.44
342.981	83.44
343.209	85.44
343.437	103.44
343.665	107.44
343.893	91.44
344.12	103.44
344.348	79.44
344.576	77.44
344.804	79.44
345.031	89.44
345.259	92.44
345.487	95.44
345.714	87.44
345.942	83.44
346.17	99.44
346.397	98.44
346.625	78.44
346.853	100.44
347.08	85.44
347.308	104.44
347.535	90.44
347.763	95.44
347.99	96.44
348.218	100.44
348.445	110.44
348.673	85.44
348.9	85.44
349.128	87.44
349.355	88.44
349.583	97.44
349.81	96.44
350.037	87.44
350.265	89.44
350.492	87.44
350.72	102.44
350.947	90.44
351.174	104.44
351.402	93.44
351.629	106.44
351.856	99.44
352.083	113.44
352.311	106.44
352.538	115.44
352.765	102.44
352.992	107.44
353.22	100.44
353.447	99.44
353.674	107.44
353.901	99.44
354.128	101.44
354.355	93.44
354.583	100.44
354.81	105.44
355.037	92.44
355.264	111.44
355.491	90.44
355.718	92.44
355.945	103.44
356.172	99.44
356.399	79.44
356.626	82.44
356.853	87.44
357.08	89.44
357.307	90.44
357.534	75.44
357.761	83.44
357.988	89.44
358.215	87.44
358.441	113.44
358.668	85.44
358.895	81.44
359.122	89.44
359.349	87.44
359.576	95.44
359.802	105.44
360.029	103.44
360.256	109.44
360.483	86.44
360.709	87.44
360.936	103.44
361.163	83.44
361.39	99.44
361.616	89.44
361.843	100.44
362.07	90.44
362.296	109.44
362.523	88.44
362.749	102.44
362.976	99.44
363.203	92.44
363.429	89.44
363.656	92.44
363.882	89.44
364.109	71.44
364.335	78.44
364.562	83.44
364.788	83.44
365.015	102.44
365.241	86.44
365.468	115.44
365.694	105.44
365.92	97.44
366.147	79.44
366.373	92.44
366.599	96.44
366.826	87.44
367.052	87.44
367.278	92.44
367.505	89.44
367.731	90.44
367.957	85.44
368.184	108.44
368.41	103.44
368.636	98.44
368.862	104.44
369.089	99.44
369.315	97.44
369.541	99.44
369.767	90.44
369.993	77.44
370.219	85.44
370.445	86.44
370.672	74.44
370.898	91.44
371.124	85.44
371.35	90.44
371.576	96.44
371.802	96.44
372.028	94.44
372.254	86.44
372.48	92.44
372.706	91.44
372.932	98.44
373.158	87.44
373.384	74.44
373.61	102.44
373.835	98.44
374.061	91.44
374.287	92.44
374.513	85.44
374.739	101.44
374.965	85.44
375.191	87.44
375.416	94.44
375.642	98.44
375.868	91.44
376.094	80.44
376.319	77.44
376.545	83.44
376.771	78.44
376.997	100.44
377.222	92.44
377.448	96.44
377.674	94.44
377.899	76.44
378.125	85.44
378.35	95.44
378.576	92.44
378.802	97.44
379.027	98.44
379.253	106.44
379.478	103.44
379.704	100.44
379.929	93.44
380.155	82.44
380.38	82.44
380.606	88.44
380.831	89.44
381.057	100.44
381.282	73.44
381.507	87.44
381.733	92.44
381.958	95.44
382.184	106.44
382.409	98.44
382.634	94.44
382.86	95.44
383.085	103.44
383.31	95.44
383.535	101.44
383.761	107.44
383.986	97.44
384.211	103.44
384.436	92.44
384.662	97.44
384.887	110.44
385.112	97.44
385.337	103.44
385.562	99.44
385.787	104.44
386.013	98.44
386.238	118.44
386.463	113.44
386.688	105.44
386.913	109.44
387.138	105.44
387.363	99.44
387.588	92.44
387.813	94.44
388.038	99.44
388.263	104.44
388.488	96.44
388.713	84.44
388.938	81.44
389.163	86.44
389.387	89.44
389.612	98.44
389.837	88.44
390.062	74.44
390.287	93.44
390.512	85.44
390.736	82.44
390.961	84.44
391.186	87.44
391.411	78.44
391.636	81.44
391.86	90.44
392.085	67.44
392.31	88.44
392.534	64.44
392.759	87.44
392.984	94.44
393.208	90.44
393.433	82.44
393.658	91.44
393.882	87.44
394.107	74.44
394.331	92.44
394.556	96.44
394.78	87.44
395.005	89.44
395.229	81.44
395.454	103.44
395.678	86.44
395.903	71.44
396.127	94.44
396.352	86.44
396.576	96.44
396.801	99.44
397.025	77.44
397.249	90.44
397.474	96.44
397.698	75.44
397.922	92.44
398.147	93.44
398.371	93.44
398.595	87.44
398.82	71.44
399.044	85.44
399.268	102.44
399.492	87.44
399.717	89.44
399.941	92.44
400.165	94.44
400.389	87.44
400.613	76.44
400.837	107.44
401.062	96.44
401.286	79.44
401.51	76.44
401.734	83.44
401.958	90.44
402.182	117.44
402.406	167.44
402.63	120.44
402.854	101.44
403.078	96.44
403.302	83.44
403.526	95.44
403.75	95.44
403.974	91.44
404.198	97.44
404.422	83.44
404.645	78.44
404.869	86.44
405.093	98.44
405.317	97.44
405.541	94.44
405.765	93.44
405.988	122.44
406.212	164.44
406.436	213.44
406.66	137.44
406.883	92.44
407.107	84.44
407.331	96.44
407.555	90.44
407.778	95.44
408.002	91.44
408.226	98.44
408.449	84.44
408.673	85.44
408.896	88.44
409.12	98.44
409.344	90.44
409.567	98.44
409.791	92.44
410.014	89.44
410.238	92.44
410.461	81.44
410.685	100.44
410.908	92.44
411.132	104.44
411.355	106.44
411.578	91.44
411.802	89.44
412.025	92.44
412.249	86.44
412.472	103.44
412.695	88.44
412.919	88.44
413.142	95.44
413.365	73.44
413.589	78.44
413.812	86.44
414.035	85.44
414.258	82.44
414.482	104.44
414.705	87.44
414.928	89.44
415.151	108.44
415.374	80.44
415.597	97.44
415.821	93.44
416.044	96.44
416.267	87.44
416.49	93.44
416.713	86.44
416.936	99.44
417.159	88.44
417.382	98.44
417.605	85.44
417.828	90.44
418.051	81.44
418.274	101.44
418.497	104.44
418.72	81.44
418.943	85.44
419.166	84.44
419.389	87.44
419.611	82.44
419.834	83.44
420.057	100.44
420.28	75.44
420.503	81.44
420.726	87.44
420.948	97.44
421.171	85.44
421.394	94.44
421.617	79.44
421.839	99.44
422.062	86.44
422.285	98.44
422.507	98.44
422.73	92.44
422.953	88.44
423.175	89.44
423.398	78.44
423.621	82.44
423.843	77.44
424.066	92.44
424.288	96.44
424.511	99.44
424.733	106.44
424.956	101.44
425.178	89.44
425.401	101.44
425.623	88.44
425.846	92.44
426.068	101.44
426.291	88.44
426.513	90.44
426.735	89.44
426.958	79.44
427.18	90.44
427.402	138.44
427.625	147.44
427.847	121.44
428.069	110.44
428.292	97.44
428.514	85.44
428.736	70.44
428.958	73.44
429.181	94.44
429.403	82.44
429.625	84.44
429.847	90.44
430.069	101.44
430.292	100.44
430.514	89.44
430.736	83.44
430.958	97.44
431.18	74.44
431.402	81.44
431.624	84.44
431.846	88.44
432.068	79.44
432.29	81.44
432.512	96.44
432.734	87.44
432.956	96.44
433.178	102.44
433.4	106.44
433.622	108.44
433.844	107.44
434.066	101.44
434.287	90.44
434.509	88.44
434.731	92.44
434.953	102.44
435.175	101.44
435.397	104.44
435.618	96.44
435.84	112.44
436.062	107.44
436.284	109.44
436.505	104.44
436.727	93.44
436.949	93.44
437.17	102.44
437.392	87.44
437.614	90.44
437.835	113.44
438.057	106.44
438.278	90.44
438.5	90.44
438.721	117.44
438.943	111.44
439.165	93.44
439.386	82.44
439.608	85.44
439.829	89.44
440.05	125.44
440.272	142.44
440.493	93.44
440.715	90.44
440.936	90.44
441.158	82.44
441.379	82.44
441.6	97.44
441.822	79.44
442.043	93.44
442.264	91.44
442.486	100.44
442.707	93.44
442.928	95.44
443.149	121.44
443.371	124.44
443.592	110.44
443.813	95.44
444.034	106.44
444.255	87.44
444.476	87.44
444.698	86.44
444.919	76.44
445.14	133.44
445.361	112.44
445.582	108.44
445.803	113.44
446.024	124.44
446.245	111.44
446.466	102.44
446.687	92.44
446.908	80.44
447.129	84.44
447.35	64.44
447.571	87.44
447.792	100.44
448.013	98.44
448.234	96.44
448.455	99.44
448.675	95.44
448.896	101.44
449.117	91.44
449.338	99.44
449.559	118.44
449.779	128.44
450	96.44
450.221	78.44
450.442	72.44
450.662	71.44
450.883	91.44
451.104	102.44
451.324	94.44
451.545	86.44
451.766	80.44
451.986	91.44
452.207	80.44
452.428	89.44
452.648	101.44
452.869	115.44
453.089	106.44
453.31	107.44
453.53	103.44
453.751	85.44
453.971	90.44
454.192	106.44
454.412	94.44
454.633	102.44
454.853	95.44
455.073	80.44
455.294	97.44
455.514	101.44
455.734	74.44
455.955	84.44
456.175	77.44
456.395	78.44
456.616	79.44
456.836	74.44
457.056	89.44
457.276	81.44
457.497	90.44
457.717	97.44
457.937	97.44
458.157	85.44
458.377	89.44
458.598	88.44
458.818	139.44
459.038	141.44
459.258	91.44
459.478	98.44
459.698	89.44
459.918	71.44
460.138	82.44
460.358	92.44
460.578	89.44
460.798	97.44
461.018	83.44
461.238	94.44
461.458	89.44
461.678	93.44
461.898	88.44
462.118	86.44
462.338	77.44
462.558	89.44
462.777	87.44
462.997	81.44
463.217	96.44
463.437	90.44
463.657	77.44
463.876	81.44
464.096	74.44
464.316	80.44
464.536	94.44
464.755	88.44
464.975	112.44
465.195	176.44
465.414	153.44
465.634	98.44
465.854	78.44
466.073	78.44
466.293	87.44
466.512	80.44
466.732	88.44
466.951	85.44
467.171	103.44
467.391	93.44
467.61	100.44
467.829	87.44
468.049	79.44
468.268	93.44
468.488	90.44
468.707	83.44
468.927	80.44
469.146	82.44
469.365	90.44
469.585	87.44
469.804	96.44
470.023	90.44
470.243	87.44
470.462	89.44
470.681	109.44
470.901	98.44
471.12	73.44
471.339	80.44
471.558	95.44
471.777	92.44
471.997	90.44
472.216	86.44
472.435	89.44
472.654	81.44
472.873	83.44
473.092	70.44
473.311	79.44
473.53	79.44
473.749	92.44
473.968	93.44
474.187	97.44
474.406	96.44
474.625	84.44
474.844	88.44
475.063	87.44
475.282	93.44
475.501	91.44
475.72	81.44
475.939	89.44
476.158	83.44
476.377	73.44
476.596	86.44
476.814	83.44
477.033	89.44
477.252	92.44
477.471	86.44
477.69	81.44
477.908	85.44
478.127	101.44
478.346	90.44
478.564	88.44
478.783	75.44
479.002	88.44
479.22	94.44
479.439	100.44
479.658	103.44
479.876	91.44
480.095	77.44
480.313	78.44
480.532	84.44
480.751	100.44
480.969	99.44
481.188	98.44
481.406	97.44
481.624	80.44
481.843	77.44
482.061	97.44
482.28	103.44
482.498	94.44
482.717	85.44
482.935	78.44
483.153	94.44
483.372	80.44
483.59	79.44
483.808	86.44
484.027	107.44
484.245	112.44
484.463	109.44
484.681	117.44
484.9	94.44
485.118	88.44
485.336	99.44
485.554	100.44
485.772	87.44
485.99	99.44
486.209	103.44
486.427	96.44
486.645	113.44
486.863	114.44
487.081	105.44
487.299	97.44
487.517	96.44
487.735	90.44
487.953	92.44
488.171	88.44
488.389	82.44
488.607	97.44
488.825	90.44
489.043	93.44
489.261	92.44
489.479	89.44
489.696	90.44
489.914	88.44
490.132	100.44
490.35	79.44
490.568	95.44
490.786	101.44
491.003	99.44
491.221	93.44
491.439	95.44
491.657	90.44
491.874	80.44
492.092	95.44
492.31	78.44
492.527	84.44
492.745	77.44
492.963	82.44
493.18	90.44
493.398	80.44
493.615	99.44
493.833	110.44
494.05	93.44
494.268	89.44
494.485	85.44
494.703	86.44
494.92	84.44
495.138	99.44
495.355	97.44
495.573	92.44
495.79	82.44
496.008	87.44
496.225	91.44
496.442	96.44
496.66	85.44
496.877	90.44
497.094	87.44
497.312	95.44
497.529	89.44
497.746	83.44
497.963	97.44
498.181	99.44
498.398	89.44
498.615	119.44
498.832	106.44
499.049	93.44
499.267	99.44
499.484	108.44
499.701	90.44
499.918	87.44
500.135	94.44
500.352	94.44
500.569	97.44
500.786	94.44
501.003	93.44
501.22	89.44
501.437	93.44
501.654	95.44
501.871	86.44
502.088	90.44
502.305	82.44
502.522	99.44
502.739	99.44
502.956	87.44
503.172	94.44
503.389	95.44
503.606	93.44
503.823	91.44
504.04	88.44
504.256	96.44
504.473	108.44
504.69	97.44
504.907	82.44
505.123	90.44
505.34	95.44
505.557	95.44
505.773	90.44
505.99	83.44
506.207	89.44
506.423	85.44
506.64	83.44
506.856	98.44
507.073	97.44
507.289	104.44
507.506	93.44
507.722	123.44
507.939	112.44
508.155	98.44
508.372	90.44
508.588	100.44
508.805	94.44
509.021	89.44
509.238	110.44
509.454	94.44
509.67	100.44
509.887	119.44
510.103	133.44
510.319	225.44
510.536	829.44
510.752	2582.44
510.968	711.44
511.184	159.44
511.401	108.44
511.617	101.44
511.833	103.44
512.049	86.44
512.265	100.44
512.481	97.44
512.698	90.44
512.914	86.44
513.13	99.44
513.346	94.44
513.562	76.44
513.778	105.44
513.994	102.44
514.21	106.44
514.426	133.44
514.642	122.44
514.858	133.44
515.074	173.44
515.29	463.44
515.506	1526.44
515.721	554.44
515.937	157.44
516.153	98.44
