Data from Uncirc_1995_H10_HRD10591_00099.txt Node
Date: Wed Jan 03 11:35:53 EST 2024
User: Yrep
Spectrometer: HR+D1059
Trigger mode: 1
Integration Time (sec): 1.000000E-1
Scans to average: 1
Electric dark correction enabled: true
Nonlinearity correction enabled: false
Boxcar width: 0
XAxis mode: Wavelengths
Number of Pixels in Spectrum: 2048
>>>>>Begin Spectral Data<<<<<
223.165	-9.62
223.4	-9.62
223.635	-9.62
223.869	-22.62
224.104	-25.62
224.338	-17.62
224.573	-2.62
224.808	-20.62
225.042	-3.62
225.277	1.38
225.511	-1.62
225.746	-6.62
225.98	6.38
226.215	17.38
226.449	3.38
226.683	26.38
226.918	27.38
227.152	28.38
227.387	39.38
227.621	32.38
227.856	41.38
228.09	50.38
228.324	49.38
228.559	65.38
228.793	167.38
229.027	488.38
229.262	536.38
229.496	634.38
229.73	840.38
229.964	823.38
230.199	562.38
230.433	516.38
230.667	479.38
230.901	478.38
231.136	456.38
231.37	487.38
231.604	459.38
231.838	482.38
232.072	477.38
232.306	470.38
232.541	471.38
232.775	484.38
233.009	488.38
233.243	500.38
233.477	490.38
233.711	499.38
233.945	536.38
234.179	543.38
234.413	532.38
234.647	538.38
234.881	533.38
235.115	553.38
235.349	560.38
235.583	576.38
235.817	621.38
236.051	670.38
236.285	599.38
236.519	623.38
236.753	739.38
236.987	931.38
237.221	1439.38
237.455	1579.38
237.689	892.38
237.922	774.38
238.156	776.38
238.39	718.38
238.624	668.38
238.858	674.38
239.091	672.38
239.325	695.38
239.559	714.38
239.793	715.38
240.027	774.38
240.26	944.38
240.494	1026.38
240.728	996.38
240.961	986.38
241.195	868.38
241.429	830.38
241.662	780.38
241.896	780.38
242.13	791.38
242.363	806.38
242.597	823.38
242.83	864.38
243.064	860.38
243.298	879.38
243.531	855.38
243.765	879.38
243.998	865.38
244.232	872.38
244.465	918.38
244.699	929.38
244.932	950.38
245.166	932.38
245.399	938.38
245.633	946.38
245.866	987.38
246.099	974.38
246.333	1014.38
246.566	994.38
246.8	1021.38
247.033	1059.38
247.266	1103.38
247.5	1174.38
247.733	1233.38
247.966	1241.38
248.2	1203.38
248.433	1242.38
248.666	1295.38
248.899	1404.38
249.133	1524.38
249.366	1501.38
249.599	1343.38
249.832	1268.38
250.066	1280.38
250.299	1267.38
250.532	1404.38
250.765	1548.38
250.998	1840.38
251.231	1766.38
251.465	1578.38
251.698	1492.38
251.931	1504.38
252.164	1455.38
252.397	1507.38
252.63	1547.38
252.863	1618.38
253.096	1766.38
253.329	1828.38
253.562	1755.38
253.795	1672.38
254.028	1661.38
254.261	1700.38
254.494	1886.38
254.727	2238.38
254.96	2372.38
255.193	2089.38
255.426	1859.38
255.659	1690.38
255.892	1641.38
256.124	1636.38
256.357	1641.38
256.59	1619.38
256.823	1554.38
257.056	1558.38
257.289	1595.38
257.521	1598.38
257.754	1644.38
257.987	1614.38
258.22	1547.38
258.452	1600.38
258.685	1599.38
258.918	1631.38
259.151	1673.38
259.383	1752.38
259.616	1822.38
259.849	1882.38
260.081	2049.38
260.314	2234.38
260.547	2124.38
260.779	1982.38
261.012	1888.38
261.244	1815.38
261.477	1785.38
261.71	1757.38
261.942	1795.38
262.175	1802.38
262.407	1787.38
262.64	1716.38
262.872	1697.38
263.105	1702.38
263.337	1714.38
263.57	1718.38
263.802	1684.38
264.035	1727.38
264.267	1763.38
264.499	1724.38
264.732	1740.38
264.964	1744.38
265.197	1822.38
265.429	1814.38
265.661	1757.38
265.894	1783.38
266.126	1830.38
266.358	1848.38
266.591	1846.38
266.823	1946.38
267.055	1976.38
267.287	1941.38
267.52	1945.38
267.752	1944.38
267.984	1933.38
268.216	1964.38
268.448	1979.38
268.681	2094.38
268.913	2214.38
269.145	2430.38
269.377	2504.38
269.609	2405.38
269.841	2352.38
270.073	2571.38
270.306	2776.38
270.538	2950.38
270.77	2801.38
271.002	2601.38
271.234	2595.38
271.466	2799.38
271.698	2867.38
271.93	2888.38
272.162	2808.38
272.394	2788.38
272.626	2626.38
272.858	2451.38
273.09	2390.38
273.322	2330.38
273.553	2312.38
273.785	2320.38
274.017	2362.38
274.249	2371.38
274.481	2355.38
274.713	2341.38
274.945	2403.38
275.176	2372.38
275.408	2361.38
275.64	2353.38
275.872	2266.38
276.104	2347.38
276.335	2382.38
276.567	2461.38
276.799	2619.38
277.031	2840.38
277.262	3028.38
277.494	2877.38
277.726	2695.38
277.957	2616.38
278.189	2522.38
278.421	2472.38
278.652	2462.38
278.884	2494.38
279.115	2481.38
279.347	2462.38
279.579	2416.38
279.81	2411.38
280.042	2423.38
280.273	2496.38
280.505	2503.38
280.736	2452.38
280.968	2457.38
281.199	2491.38
281.431	2523.38
281.662	2560.38
281.894	2573.38
282.125	2643.38
282.356	2731.38
282.588	2858.38
282.819	2759.38
283.051	2642.38
283.282	2609.38
283.513	2634.38
283.745	2678.38
283.976	2701.38
284.207	2755.38
284.439	2739.38
284.67	2744.38
284.901	2695.38
285.132	2684.38
285.364	2732.38
285.595	2710.38
285.826	2689.38
286.057	2732.38
286.288	2738.38
286.52	2767.38
286.751	2785.38
286.982	2736.38
287.213	2786.38
287.444	2853.38
287.675	2879.38
287.906	2998.38
288.138	3023.38
288.369	2950.38
288.6	3029.38
288.831	2944.38
289.062	2924.38
289.293	2950.38
289.524	2924.38
289.755	2883.38
289.986	2880.38
290.217	2858.38
290.448	2878.38
290.679	2898.38
290.91	2894.38
291.141	2875.38
291.371	2878.38
291.602	2921.38
291.833	2891.38
292.064	2880.38
292.295	2894.38
292.526	2966.38
292.757	2892.38
292.987	2892.38
293.218	2889.38
293.449	2925.38
293.68	2920.38
293.91	2926.38
294.141	2951.38
294.372	2934.38
294.603	2887.38
294.833	2946.38
295.064	3011.38
295.295	2986.38
295.525	2997.38
295.756	2992.38
295.987	3038.38
296.217	3256.38
296.448	3220.38
296.679	3047.38
296.909	3006.38
297.14	3049.38
297.37	3098.38
297.601	3132.38
297.831	3118.38
298.062	3139.38
298.292	3202.38
298.523	3253.38
298.753	3249.38
298.984	3183.38
299.214	3141.38
299.445	3126.38
299.675	3240.38
299.905	3255.38
300.136	3248.38
300.366	3267.38
300.597	3242.38
300.827	3361.38
301.057	3414.38
301.288	3527.38
301.518	3393.38
301.748	3411.38
301.979	3495.38
302.209	3482.38
302.439	3430.38
302.669	3385.38
302.9	3416.38
303.13	3380.38
303.36	3436.38
303.59	3523.38
303.82	3509.38
304.051	3425.38
304.281	3355.38
304.511	3413.38
304.741	3379.38
304.971	3414.38
305.201	3380.38
305.431	3360.38
305.661	3346.38
305.891	3396.38
306.121	3383.38
306.352	3415.38
306.582	3381.38
306.812	3272.38
307.042	3374.38
307.272	3339.38
307.502	3354.38
307.731	3370.38
307.961	3332.38
308.191	3313.38
308.421	3379.38
308.651	3372.38
308.881	3379.38
309.111	3426.38
309.341	3465.38
309.571	3551.38
309.8	3601.38
310.03	3651.38
310.26	3630.38
310.49	3656.38
310.72	3774.38
310.949	3812.38
311.179	3759.38
311.409	3665.38
311.639	3711.38
311.868	3689.38
312.098	3736.38
312.328	3899.38
312.557	3970.38
312.787	4024.38
313.017	3978.38
313.246	3877.38
313.476	3774.38
313.706	3855.38
313.935	3919.38
314.165	3990.38
314.394	4056.38
314.624	3979.38
314.853	3943.38
315.083	3877.38
315.312	3806.38
315.542	3835.38
315.771	3730.38
316.001	3738.38
316.23	3762.38
316.46	3814.38
316.689	3801.38
316.919	3910.38
317.148	3890.38
317.377	3838.38
317.607	3818.38
317.836	3810.38
318.065	3745.38
318.295	3791.38
318.524	3812.38
318.753	3754.38
318.983	3762.38
319.212	3704.38
319.441	3855.38
319.67	3824.38
319.9	3803.38
320.129	3764.38
320.358	3777.38
320.587	3832.38
320.816	3891.38
321.046	3928.38
321.275	3940.38
321.504	3908.38
321.733	3979.38
321.962	4000.38
322.191	4096.38
322.42	4168.38
322.649	4234.38
322.878	4281.38
323.108	4383.38
323.337	4587.38
323.566	4753.38
323.795	4973.38
324.024	5567.38
324.253	7177.38
324.482	10747.38
324.71	15133.38
324.939	15620.38
325.168	13014.38
325.397	6686.38
325.626	5304.38
325.855	4944.38
326.084	4802.38
326.313	4840.38
326.542	4965.38
326.77	5583.38
326.999	6939.38
327.228	10109.38
327.457	14260.38
327.686	13583.38
327.914	7411.38
328.143	5813.38
328.372	5394.38
328.6	5234.38
328.829	5240.38
329.058	5399.38
329.287	5276.38
329.515	4955.38
329.744	4848.38
329.972	4778.38
330.201	4952.38
330.43	5187.38
330.658	5442.38
330.887	5698.38
331.115	5351.38
331.344	5004.38
331.572	5007.38
331.801	5021.38
332.03	5081.38
332.258	4965.38
332.486	5007.38
332.715	5105.38
332.943	5274.38
333.172	5398.38
333.4	5464.38
333.629	5610.38
333.857	5683.38
334.085	5621.38
334.314	5529.38
334.542	5515.38
334.771	5486.38
334.999	5330.38
335.227	5246.38
335.455	5235.38
335.684	5153.38
335.912	5185.38
336.14	5108.38
336.369	4975.38
336.597	5079.38
336.825	4966.38
337.053	4959.38
337.281	4857.38
337.51	4841.38
337.738	4832.38
337.966	4798.38
338.194	4706.38
338.422	4656.38
338.65	4687.38
338.878	4632.38
339.106	4628.38
339.334	4603.38
339.562	4558.38
339.79	4500.38
340.018	4462.38
340.246	4446.38
340.474	4489.38
340.702	4491.38
340.93	4469.38
341.158	4464.38
341.386	4499.38
341.614	4542.38
341.842	4449.38
342.07	4439.38
342.298	4455.38
342.526	4334.38
342.754	4352.38
342.981	4468.38
343.209	4583.38
343.437	4786.38
343.665	5007.38
343.893	5245.38
344.12	5290.38
344.348	5066.38
344.576	4859.38
344.804	4773.38
345.031	4674.38
345.259	4673.38
345.487	4508.38
345.714	4398.38
345.942	4360.38
346.17	4334.38
346.397	4334.38
346.625	4299.38
346.853	4311.38
347.08	4232.38
347.308	4290.38
347.535	4385.38
347.763	4420.38
347.99	4350.38
348.218	4383.38
348.445	4363.38
348.673	4295.38
348.9	4300.38
349.128	4182.38
349.355	4182.38
349.583	4144.38
349.81	4121.38
350.037	4178.38
350.265	4129.38
350.492	4179.38
350.72	4141.38
350.947	4148.38
351.174	4236.38
351.402	4304.38
351.629	4209.38
351.856	4214.38
352.083	4310.38
352.311	4293.38
352.538	4326.38
352.765	4254.38
352.992	4257.38
353.22	4146.38
353.447	4148.38
353.674	4156.38
353.901	4090.38
354.128	4072.38
354.355	4069.38
354.583	4052.38
354.81	4012.38
355.037	4044.38
355.264	4023.38
355.491	4018.38
355.718	4005.38
355.945	4045.38
356.172	4075.38
356.399	4018.38
356.626	4043.38
356.853	4050.38
357.08	4038.38
357.307	4089.38
357.534	4074.38
357.761	4103.38
357.988	4064.38
358.215	4040.38
358.441	4098.38
358.668	4051.38
358.895	4148.38
359.122	4108.38
359.349	4153.38
359.576	4346.38
359.802	4494.38
360.029	4668.38
360.256	4610.38
360.483	4474.38
360.709	4320.38
360.936	4278.38
361.163	4345.38
361.39	4306.38
361.616	4301.38
361.843	4278.38
362.07	4232.38
362.296	4298.38
362.523	4279.38
362.749	4274.38
362.976	4161.38
363.203	4156.38
363.429	4068.38
363.656	4091.38
363.882	4177.38
364.109	4079.38
364.335	3998.38
364.562	4110.38
364.788	4124.38
365.015	4126.38
365.241	4077.38
365.468	4172.38
365.694	4177.38
365.92	4142.38
366.147	4118.38
366.373	4129.38
366.599	4086.38
366.826	4088.38
367.052	4125.38
367.278	4152.38
367.505	4162.38
367.731	4148.38
367.957	4119.38
368.184	4206.38
368.41	4206.38
368.636	4335.38
368.862	4314.38
369.089	4257.38
369.315	4162.38
369.541	4236.38
369.767	4239.38
369.993	4234.38
370.219	4199.38
370.445	4218.38
370.672	4298.38
370.898	4313.38
371.124	4374.38
371.35	4420.38
371.576	4377.38
371.802	4370.38
372.028	4342.38
372.254	4430.38
372.48	4471.38
372.706	4543.38
372.932	4574.38
373.158	4462.38
373.384	4441.38
373.61	4418.38
373.835	4469.38
374.061	4424.38
374.287	4520.38
374.513	4576.38
374.739	4740.38
374.965	4896.38
375.191	4842.38
375.416	4775.38
375.642	4654.38
375.868	4633.38
376.094	4547.38
376.319	4538.38
376.545	4528.38
376.771	4456.38
376.997	4407.38
377.222	4426.38
377.448	4427.38
377.674	4377.38
377.899	4369.38
378.125	4389.38
378.35	4450.38
378.576	4410.38
378.802	4312.38
379.027	4388.38
379.253	4396.38
379.478	4364.38
379.704	4379.38
379.929	4433.38
380.155	4388.38
380.38	4360.38
380.606	4492.38
380.831	4427.38
381.057	4460.38
381.282	4440.38
381.507	4464.38
381.733	4475.38
381.958	4575.38
382.184	4593.38
382.409	4532.38
382.634	4614.38
382.86	4684.38
383.085	4730.38
383.31	4736.38
383.535	4842.38
383.761	4910.38
383.986	4899.38
384.211	5105.38
384.436	5167.38
384.662	5154.38
384.887	5268.38
385.112	5252.38
385.337	5330.38
385.562	5407.38
385.787	5374.38
386.013	5392.38
386.238	5443.38
386.463	5383.38
386.688	5367.38
386.913	5239.38
387.138	5265.38
387.363	5259.38
387.588	5197.38
387.813	5238.38
388.038	5234.38
388.263	5242.38
388.488	5318.38
388.713	5235.38
388.938	5197.38
389.163	5233.38
389.387	5205.38
389.612	5202.38
389.837	5236.38
390.062	5156.38
390.287	5161.38
390.512	5166.38
390.736	5278.38
390.961	5345.38
391.186	5424.38
391.411	5560.38
391.636	5747.38
391.86	5838.38
392.085	5934.38
392.31	5806.38
392.534	5690.38
392.759	5613.38
392.984	5507.38
393.208	5536.38
393.433	5487.38
393.658	5471.38
393.882	5418.38
394.107	5576.38
394.331	5581.38
394.556	5621.38
394.78	5618.38
395.005	5699.38
395.229	5682.38
395.454	5911.38
395.678	5994.38
395.903	6000.38
396.127	5997.38
396.352	5813.38
396.576	5595.38
396.801	5623.38
397.025	5652.38
397.249	5778.38
397.474	5924.38
397.698	5982.38
397.922	6061.38
398.147	6190.38
398.371	6332.38
398.595	6399.38
398.82	6705.38
399.044	7283.38
399.268	8067.38
399.492	9173.38
399.717	9829.38
399.941	9568.38
400.165	9030.38
400.389	8286.38
400.613	7446.38
400.837	7033.38
401.062	6935.38
401.286	6680.38
401.51	6713.38
401.734	6659.38
401.958	6765.38
402.182	6905.38
402.406	6981.38
402.63	7051.38
402.854	7129.38
403.078	7221.38
403.302	7359.38
403.526	7525.38
403.75	7501.38
403.974	7603.38
404.198	7517.38
404.422	7690.38
404.645	7567.38
404.869	7436.38
405.093	7535.38
405.317	7695.38
405.541	7708.38
405.765	7377.38
405.988	7378.38
406.212	7629.38
406.436	7710.38
406.66	7914.38
406.883	7904.38
407.107	8566.38
407.331	8994.38
407.555	9619.38
407.778	9253.38
408.002	8544.38
408.226	8072.38
408.449	7963.38
408.673	7769.38
408.896	8043.38
409.12	8223.38
409.344	7666.38
409.567	7333.38
409.791	7249.38
410.014	7186.38
410.238	7084.38
410.461	7132.38
410.685	7260.38
410.908	7325.38
411.132	7564.38
411.355	7524.38
411.578	7199.38
411.802	6927.38
412.025	6961.38
412.249	6957.38
412.472	6993.38
412.695	6842.38
412.919	6667.38
413.142	6631.38
413.365	6548.38
413.589	6674.38
413.812	6536.38
414.035	6484.38
414.258	6481.38
414.482	6606.38
414.705	6541.38
414.928	6575.38
415.151	6520.38
415.374	6629.38
415.597	6390.38
415.821	6404.38
416.044	6477.38
416.267	6474.38
416.49	6355.38
416.713	6348.38
416.936	6471.38
417.159	6349.38
417.382	6508.38
417.605	6498.38
417.828	6709.38
418.051	6807.38
418.274	6729.38
418.497	6537.38
418.72	6706.38
418.943	6591.38
419.166	7014.38
419.389	7479.38
419.611	7352.38
419.834	7041.38
420.057	6899.38
420.28	6792.38
420.503	6495.38
420.726	6580.38
420.948	6806.38
421.171	7274.38
421.394	7195.38
421.617	6687.38
421.839	6614.38
422.062	6715.38
422.285	6948.38
422.507	7640.38
422.73	8193.38
422.953	7665.38
423.175	7233.38
423.398	7231.38
423.621	7243.38
423.843	7475.38
424.066	7516.38
424.288	7285.38
424.511	7534.38
424.733	8031.38
424.956	8451.38
425.178	7991.38
425.401	8126.38
425.623	8066.38
425.846	7048.38
426.068	6854.38
426.291	6713.38
426.513	6774.38
426.735	6827.38
426.958	7305.38
427.18	8075.38
427.402	9230.38
427.625	9264.38
427.847	7795.38
428.069	6896.38
428.292	6587.38
428.514	6313.38
428.736	6112.38
428.958	6195.38
429.181	5974.38
429.403	6010.38
429.625	6140.38
429.847	6484.38
430.069	7065.38
430.292	6571.38
430.514	6083.38
430.736	5955.38
430.958	5912.38
431.18	5879.38
431.402	5823.38
431.624	5830.38
431.846	5902.38
432.068	5966.38
432.29	6030.38
432.512	5914.38
432.734	6003.38
432.956	5921.38
433.178	5991.38
433.4	5918.38
433.622	5879.38
433.844	5877.38
434.066	6002.38
434.287	6107.38
434.509	6217.38
434.731	6513.38
434.953	6736.38
435.175	6840.38
435.397	6938.38
435.618	6771.38
435.84	7234.38
436.062	8086.38
436.284	8004.38
436.505	6748.38
436.727	6392.38
436.949	6285.38
437.17	5997.38
437.392	5939.38
437.614	6184.38
437.835	6562.38
438.057	7635.38
438.278	8332.38
438.5	8162.38
438.721	8984.38
438.943	7811.38
439.165	6542.38
439.386	6391.38
439.608	6419.38
439.829	6587.38
440.05	6829.38
440.272	7223.38
440.493	6685.38
440.715	6342.38
440.936	6337.38
441.158	6369.38
441.379	6459.38
441.6	6816.38
441.822	6979.38
442.043	7564.38
442.264	8319.38
442.486	7997.38
442.707	7091.38
442.928	6922.38
443.149	7080.38
443.371	7241.38
443.592	7930.38
443.813	8906.38
444.034	8953.38
444.255	7806.38
444.476	7645.38
444.698	7693.38
444.919	7748.38
445.14	7568.38
445.361	7451.38
445.582	7492.38
445.803	8122.38
446.024	8875.38
446.245	8563.38
446.466	7646.38
446.687	6738.38
446.908	6392.38
447.129	6075.38
447.35	5907.38
447.571	5777.38
447.792	5742.38
448.013	5847.38
448.234	6066.38
448.455	6726.38
448.675	8027.38
448.896	8400.38
449.117	7109.38
449.338	7229.38
449.559	8518.38
449.779	8711.38
450	6742.38
450.221	6015.38
450.442	5690.38
450.662	5702.38
450.883	5703.38
451.104	5792.38
451.324	5607.38
451.545	5496.38
451.766	5293.38
451.986	5238.38
452.207	5192.38
452.428	5223.38
452.648	5222.38
452.869	5235.38
453.089	5331.38
453.31	5426.38
453.53	5268.38
453.751	5139.38
453.971	5206.38
454.192	5306.38
454.412	5087.38
454.633	5115.38
454.853	5068.38
455.073	5042.38
455.294	5448.38
455.514	6103.38
455.734	5482.38
455.955	4941.38
456.175	4854.38
456.395	4830.38
456.616	4749.38
456.836	4850.38
457.056	4758.38
457.276	4683.38
457.497	4874.38
457.717	4880.38
457.937	5007.38
458.157	5007.38
458.377	5101.38
458.598	5434.38
458.818	6076.38
459.038	6875.38
459.258	6866.38
459.478	6008.38
459.698	5978.38
459.918	6055.38
460.138	6242.38
460.358	6452.38
460.578	6458.38
460.798	6557.38
461.018	6590.38
461.238	6438.38
461.458	6370.38
461.678	6422.38
461.898	6526.38
462.118	6540.38
462.338	6973.38
462.558	7029.38
462.777	7281.38
462.997	7838.38
463.217	8306.38
463.437	8128.38
463.657	7487.38
463.876	7332.38
464.096	7398.38
464.316	7341.38
464.536	7444.38
464.755	7132.38
464.975	7023.38
465.195	7121.38
465.414	7129.38
465.634	6417.38
465.854	5977.38
466.073	5774.38
466.293	5647.38
466.512	5467.38
466.732	5332.38
466.951	5373.38
467.171	5357.38
467.391	5475.38
467.61	5392.38
467.829	5347.38
468.049	5265.38
468.268	5170.38
468.488	5060.38
468.707	5092.38
468.927	5049.38
469.146	5073.38
469.365	5278.38
469.585	5186.38
469.804	5410.38
470.023	5574.38
470.243	5478.38
470.462	5644.38
470.681	5737.38
470.901	5602.38
471.12	5574.38
471.339	5452.38
471.558	5441.38
471.777	5288.38
471.997	5189.38
472.216	5157.38
472.435	5168.38
472.654	5128.38
472.873	4988.38
473.092	5052.38
473.311	5019.38
473.53	5115.38
473.749	5259.38
473.968	5865.38
474.187	6819.38
474.406	6406.38
474.625	5466.38
474.844	5278.38
475.063	5101.38
475.282	5085.38
475.501	5255.38
475.72	5250.38
475.939	5245.38
476.158	5356.38
476.377	5354.38
476.596	5334.38
476.814	5457.38
477.033	5554.38
477.252	5579.38
477.471	5702.38
477.69	5770.38
477.908	5883.38
478.127	6058.38
478.346	6114.38
478.564	6182.38
478.783	6337.38
479.002	6427.38
479.22	6437.38
479.439	6508.38
479.658	6570.38
479.876	6754.38
480.095	6982.38
480.313	7311.38
480.532	7189.38
480.751	7048.38
480.969	6925.38
481.188	6899.38
481.406	6662.38
481.624	6464.38
481.843	6329.38
482.061	6162.38
482.28	6056.38
482.498	6037.38
482.717	5966.38
482.935	6063.38
483.153	5968.38
483.372	6028.38
483.59	6015.38
483.808	5978.38
484.027	6123.38
484.245	6034.38
484.463	6166.38
484.681	6206.38
484.9	6262.38
485.118	6290.38
485.336	6302.38
485.554	6424.38
485.772	6413.38
485.99	6447.38
486.209	6490.38
486.427	6428.38
486.645	6487.38
486.863	6623.38
487.081	6569.38
487.299	6552.38
487.517	6436.38
487.735	6457.38
487.953	6455.38
