Data from Uncirc_1995_H10_HRD10591_00048.txt Node
Date: Wed Jan 03 11:35:43 EST 2024
User: Yrep
Spectrometer: HR+D1059
Trigger mode: 1
Integration Time (sec): 1.000000E-1
Scans to average: 1
Electric dark correction enabled: true
Nonlinearity correction enabled: false
Boxcar width: 0
XAxis mode: Wavelengths
Number of Pixels in Spectrum: 2048
>>>>>Begin Spectral Data<<<<<
223.165	-32.5
223.4	-32.5
223.635	-32.5
223.869	-26.5
224.104	-15.5
224.338	-13.5
224.573	-16.5
224.808	-14.5
225.042	-7.5
225.277	5.5
225.511	-0.5
225.746	-12.5
225.98	3.5
226.215	22.5
226.449	17.5
226.683	28.5
226.918	27.5
227.152	34.5
227.387	39.5
227.621	26.5
227.856	49.5
228.09	37.5
228.324	46.5
228.559	55.5
228.793	51.5
229.027	54.5
229.262	56.5
229.496	66.5
229.73	69.5
229.964	74.5
230.199	81.5
230.433	56.5
230.667	77.5
230.901	81.5
231.136	80.5
231.37	81.5
231.604	74.5
231.838	80.5
232.072	70.5
232.306	75.5
232.541	63.5
232.775	71.5
233.009	85.5
233.243	73.5
233.477	74.5
233.711	79.5
233.945	71.5
234.179	69.5
234.413	83.5
234.647	88.5
234.881	83.5
235.115	71.5
235.349	61.5
235.583	86.5
235.817	72.5
236.051	72.5
236.285	52.5
236.519	71.5
236.753	73.5
236.987	68.5
237.221	72.5
237.455	84.5
237.689	75.5
237.922	76.5
238.156	65.5
238.39	69.5
238.624	81.5
238.858	73.5
239.091	68.5
239.325	64.5
239.559	67.5
239.793	73.5
240.027	64.5
240.26	65.5
240.494	68.5
240.728	67.5
240.961	74.5
241.195	71.5
241.429	94.5
241.662	89.5
241.896	90.5
242.13	77.5
242.363	61.5
242.597	81.5
242.83	85.5
243.064	81.5
243.298	70.5
243.531	70.5
243.765	81.5
243.998	78.5
244.232	75.5
244.465	70.5
244.699	78.5
244.932	60.5
245.166	77.5
245.399	83.5
245.633	81.5
245.866	77.5
246.099	71.5
246.333	67.5
246.566	77.5
246.8	87.5
247.033	89.5
247.266	72.5
247.5	69.5
247.733	89.5
247.966	76.5
248.2	69.5
248.433	70.5
248.666	69.5
248.899	85.5
249.133	81.5
249.366	81.5
249.599	87.5
249.832	74.5
250.066	69.5
250.299	80.5
250.532	73.5
250.765	71.5
250.998	80.5
251.231	85.5
251.465	71.5
251.698	78.5
251.931	87.5
252.164	81.5
252.397	75.5
252.63	72.5
252.863	72.5
253.096	80.5
253.329	65.5
253.562	73.5
253.795	78.5
254.028	74.5
254.261	69.5
254.494	65.5
254.727	71.5
254.96	80.5
255.193	76.5
255.426	80.5
255.659	73.5
255.892	83.5
256.124	81.5
256.357	85.5
256.59	90.5
256.823	80.5
257.056	83.5
257.289	71.5
257.521	80.5
257.754	81.5
257.987	74.5
258.22	92.5
258.452	76.5
258.685	81.5
258.918	79.5
259.151	78.5
259.383	82.5
259.616	80.5
259.849	90.5
260.081	86.5
260.314	85.5
260.547	87.5
260.779	74.5
261.012	84.5
261.244	92.5
261.477	86.5
261.71	94.5
261.942	101.5
262.175	107.5
262.407	83.5
262.64	76.5
262.872	83.5
263.105	85.5
263.337	76.5
263.57	74.5
263.802	72.5
264.035	93.5
264.267	78.5
264.499	75.5
264.732	87.5
264.964	75.5
265.197	71.5
265.429	70.5
265.661	74.5
265.894	96.5
266.126	84.5
266.358	76.5
266.591	81.5
266.823	72.5
267.055	80.5
267.287	77.5
267.52	94.5
267.752	69.5
267.984	88.5
268.216	86.5
268.448	82.5
268.681	79.5
268.913	75.5
269.145	78.5
269.377	86.5
269.609	77.5
269.841	73.5
270.073	85.5
270.306	81.5
270.538	83.5
270.77	79.5
271.002	81.5
271.234	76.5
271.466	96.5
271.698	76.5
271.93	96.5
272.162	88.5
272.394	89.5
272.626	74.5
272.858	91.5
273.09	87.5
273.322	81.5
273.553	83.5
273.785	76.5
274.017	65.5
274.249	80.5
274.481	85.5
274.713	70.5
274.945	83.5
275.176	81.5
275.408	74.5
275.64	92.5
275.872	96.5
276.104	88.5
276.335	85.5
276.567	93.5
276.799	102.5
277.031	93.5
277.262	83.5
277.494	80.5
277.726	99.5
277.957	78.5
278.189	80.5
278.421	96.5
278.652	72.5
278.884	75.5
279.115	89.5
279.347	92.5
279.579	81.5
279.81	96.5
280.042	89.5
280.273	81.5
280.505	75.5
280.736	79.5
280.968	81.5
281.199	63.5
281.431	100.5
281.662	79.5
281.894	93.5
282.125	91.5
282.356	118.5
282.588	118.5
282.819	109.5
283.051	92.5
283.282	86.5
283.513	82.5
283.745	71.5
283.976	92.5
284.207	87.5
284.439	82.5
284.67	93.5
284.901	77.5
285.132	80.5
285.364	82.5
285.595	85.5
285.826	91.5
286.057	79.5
286.288	81.5
286.52	86.5
286.751	76.5
286.982	85.5
287.213	85.5
287.444	75.5
287.675	79.5
287.906	85.5
288.138	102.5
288.369	83.5
288.6	92.5
288.831	77.5
289.062	96.5
289.293	75.5
289.524	88.5
289.755	90.5
289.986	90.5
290.217	83.5
290.448	76.5
290.679	79.5
290.91	73.5
291.141	79.5
291.371	68.5
291.602	78.5
291.833	78.5
292.064	93.5
292.295	76.5
292.526	80.5
292.757	85.5
292.987	84.5
293.218	88.5
293.449	85.5
293.68	86.5
293.91	88.5
294.141	80.5
294.372	73.5
294.603	85.5
294.833	82.5
295.064	83.5
295.295	79.5
295.525	97.5
295.756	97.5
295.987	110.5
296.217	135.5
296.448	121.5
296.679	90.5
296.909	101.5
297.14	76.5
297.37	87.5
297.601	87.5
297.831	99.5
298.062	96.5
298.292	94.5
298.523	81.5
298.753	75.5
298.984	84.5
299.214	81.5
299.445	88.5
299.675	81.5
299.905	89.5
300.136	67.5
300.366	96.5
300.597	94.5
300.827	74.5
301.057	89.5
301.288	82.5
301.518	83.5
301.748	84.5
301.979	87.5
302.209	79.5
302.439	89.5
302.669	92.5
302.9	83.5
303.13	77.5
303.36	95.5
303.59	85.5
303.82	96.5
304.051	98.5
304.281	94.5
304.511	83.5
304.741	83.5
304.971	82.5
305.201	81.5
305.431	99.5
305.661	94.5
305.891	91.5
306.121	94.5
306.352	91.5
306.582	90.5
306.812	102.5
307.042	91.5
307.272	86.5
307.502	94.5
307.731	92.5
307.961	89.5
308.191	85.5
308.421	92.5
308.651	75.5
308.881	77.5
309.111	93.5
309.341	87.5
309.571	82.5
309.8	91.5
310.03	93.5
310.26	88.5
310.49	94.5
310.72	103.5
310.949	104.5
311.179	96.5
311.409	88.5
311.639	80.5
311.868	84.5
312.098	100.5
312.328	72.5
312.557	97.5
312.787	96.5
313.017	111.5
313.246	83.5
313.476	95.5
313.706	103.5
313.935	93.5
314.165	97.5
314.394	88.5
314.624	101.5
314.853	83.5
315.083	92.5
315.312	88.5
315.542	85.5
315.771	96.5
316.001	87.5
316.23	86.5
316.46	98.5
316.689	81.5
316.919	89.5
317.148	103.5
317.377	95.5
317.607	91.5
317.836	79.5
318.065	104.5
318.295	102.5
318.524	80.5
318.753	86.5
318.983	81.5
319.212	94.5
319.441	112.5
319.67	120.5
319.9	104.5
320.129	92.5
320.358	90.5
320.587	79.5
320.816	97.5
321.046	84.5
321.275	100.5
321.504	88.5
321.733	94.5
321.962	95.5
322.191	94.5
322.42	105.5
322.649	111.5
322.878	121.5
323.108	104.5
323.337	115.5
323.566	123.5
323.795	154.5
324.024	194.5
324.253	368.5
324.482	796.5
324.71	1656.5
324.939	2153.5
325.168	788.5
325.397	229.5
325.626	155.5
325.855	123.5
326.084	115.5
326.313	127.5
326.542	150.5
326.77	229.5
326.999	435.5
327.228	920.5
327.457	1667.5
327.686	1337.5
327.914	358.5
328.143	177.5
328.372	153.5
328.6	112.5
328.829	117.5
329.058	112.5
329.287	120.5
329.515	118.5
329.744	79.5
329.972	104.5
330.201	94.5
330.43	103.5
330.658	102.5
330.887	119.5
331.115	119.5
331.344	103.5
331.572	109.5
331.801	90.5
332.03	99.5
332.258	91.5
332.486	85.5
332.715	105.5
332.943	94.5
333.172	90.5
333.4	93.5
333.629	102.5
333.857	104.5
334.085	97.5
334.314	95.5
334.542	88.5
334.771	108.5
334.999	95.5
335.227	101.5
335.455	102.5
335.684	85.5
335.912	92.5
336.14	96.5
336.369	94.5
336.597	97.5
336.825	81.5
337.053	95.5
337.281	84.5
337.51	82.5
337.738	95.5
337.966	79.5
338.194	99.5
338.422	95.5
338.65	87.5
338.878	78.5
339.106	85.5
339.334	79.5
339.562	81.5
339.79	93.5
340.018	87.5
340.246	88.5
340.474	93.5
340.702	91.5
340.93	83.5
341.158	94.5
341.386	100.5
341.614	97.5
341.842	112.5
342.07	86.5
342.298	92.5
342.526	94.5
342.754	94.5
342.981	81.5
343.209	85.5
343.437	105.5
343.665	83.5
343.893	101.5
344.12	90.5
344.348	79.5
344.576	85.5
344.804	97.5
345.031	101.5
345.259	92.5
345.487	72.5
345.714	102.5
345.942	94.5
346.17	100.5
346.397	83.5
346.625	88.5
346.853	92.5
347.08	75.5
347.308	93.5
347.535	92.5
347.763	95.5
347.99	84.5
348.218	90.5
348.445	105.5
348.673	85.5
348.9	89.5
349.128	101.5
349.355	95.5
349.583	89.5
349.81	92.5
350.037	81.5
350.265	94.5
350.492	105.5
350.72	85.5
350.947	94.5
351.174	106.5
351.402	94.5
351.629	102.5
351.856	86.5
352.083	97.5
352.311	106.5
352.538	99.5
352.765	107.5
352.992	104.5
353.22	110.5
353.447	103.5
353.674	103.5
353.901	99.5
354.128	94.5
354.355	87.5
354.583	94.5
354.81	87.5
355.037	108.5
355.264	86.5
355.491	69.5
355.718	98.5
355.945	96.5
356.172	96.5
356.399	91.5
356.626	93.5
356.853	88.5
357.08	87.5
357.307	87.5
357.534	81.5
357.761	82.5
357.988	89.5
358.215	106.5
358.441	93.5
358.668	75.5
358.895	95.5
359.122	80.5
359.349	87.5
359.576	96.5
359.802	88.5
360.029	95.5
360.256	120.5
360.483	85.5
360.709	98.5
360.936	94.5
361.163	87.5
361.39	86.5
361.616	85.5
361.843	75.5
362.07	94.5
362.296	89.5
362.523	71.5
362.749	79.5
362.976	95.5
363.203	93.5
363.429	87.5
363.656	96.5
363.882	88.5
364.109	88.5
364.335	80.5
364.562	88.5
364.788	90.5
365.015	88.5
365.241	98.5
365.468	93.5
365.694	105.5
365.92	94.5
366.147	75.5
366.373	89.5
366.599	83.5
366.826	87.5
367.052	88.5
367.278	96.5
367.505	86.5
367.731	76.5
367.957	94.5
368.184	98.5
368.41	93.5
368.636	103.5
368.862	131.5
369.089	104.5
369.315	90.5
369.541	92.5
369.767	86.5
369.993	87.5
370.219	92.5
370.445	80.5
370.672	88.5
370.898	81.5
371.124	82.5
371.35	90.5
371.576	80.5
371.802	97.5
372.028	73.5
372.254	80.5
372.48	79.5
372.706	85.5
372.932	85.5
373.158	74.5
373.384	79.5
373.61	96.5
373.835	87.5
374.061	78.5
374.287	76.5
374.513	99.5
374.739	87.5
374.965	86.5
375.191	88.5
375.416	96.5
375.642	92.5
375.868	85.5
376.094	92.5
376.319	76.5
376.545	71.5
376.771	91.5
376.997	75.5
377.222	89.5
377.448	103.5
377.674	89.5
377.899	91.5
378.125	86.5
378.35	94.5
378.576	95.5
378.802	93.5
379.027	70.5
379.253	85.5
379.478	67.5
379.704	91.5
379.929	90.5
380.155	89.5
380.38	87.5
380.606	104.5
380.831	96.5
381.057	105.5
381.282	101.5
381.507	91.5
381.733	100.5
381.958	91.5
382.184	96.5
382.409	90.5
382.634	90.5
382.86	89.5
383.085	97.5
383.31	92.5
383.535	89.5
383.761	102.5
383.986	96.5
384.211	95.5
384.436	101.5
384.662	77.5
384.887	93.5
385.112	92.5
385.337	107.5
385.562	96.5
385.787	96.5
386.013	102.5
386.238	100.5
386.463	102.5
386.688	104.5
386.913	84.5
387.138	89.5
387.363	100.5
387.588	105.5
387.813	100.5
388.038	93.5
388.263	100.5
388.488	100.5
388.713	95.5
388.938	97.5
389.163	101.5
389.387	96.5
389.612	88.5
389.837	80.5
390.062	94.5
390.287	79.5
390.512	102.5
390.736	92.5
390.961	85.5
391.186	89.5
391.411	83.5
391.636	97.5
391.86	77.5
392.085	73.5
392.31	80.5
392.534	84.5
392.759	87.5
392.984	75.5
393.208	76.5
393.433	85.5
393.658	79.5
393.882	76.5
394.107	91.5
394.331	91.5
394.556	80.5
394.78	102.5
395.005	78.5
395.229	87.5
395.454	97.5
395.678	91.5
395.903	85.5
396.127	82.5
396.352	68.5
396.576	78.5
396.801	83.5
397.025	78.5
397.249	94.5
397.474	89.5
397.698	75.5
397.922	77.5
398.147	85.5
398.371	90.5
398.595	91.5
398.82	71.5
399.044	93.5
399.268	61.5
399.492	91.5
399.717	86.5
399.941	80.5
400.165	91.5
400.389	71.5
400.613	88.5
400.837	79.5
401.062	86.5
401.286	87.5
401.51	82.5
401.734	90.5
401.958	101.5
402.182	116.5
402.406	139.5
402.63	104.5
402.854	99.5
403.078	80.5
403.302	94.5
403.526	91.5
403.75	79.5
403.974	84.5
404.198	95.5
404.422	79.5
404.645	84.5
404.869	85.5
405.093	86.5
405.317	84.5
405.541	95.5
405.765	96.5
405.988	107.5
406.212	158.5
406.436	232.5
406.66	148.5
406.883	108.5
407.107	101.5
407.331	87.5
407.555	96.5
407.778	97.5
408.002	78.5
408.226	85.5
408.449	87.5
408.673	72.5
408.896	100.5
409.12	91.5
409.344	93.5
409.567	96.5
409.791	79.5
410.014	93.5
410.238	93.5
410.461	97.5
410.685	92.5
410.908	88.5
411.132	117.5
411.355	87.5
411.578	96.5
411.802	94.5
412.025	87.5
412.249	85.5
412.472	83.5
412.695	91.5
412.919	78.5
413.142	75.5
413.365	97.5
413.589	76.5
413.812	95.5
414.035	89.5
414.258	83.5
414.482	90.5
414.705	75.5
414.928	95.5
415.151	83.5
415.374	79.5
415.597	81.5
415.821	89.5
416.044	92.5
416.267	84.5
416.49	85.5
416.713	95.5
416.936	81.5
417.159	95.5
417.382	88.5
417.605	63.5
417.828	89.5
418.051	97.5
418.274	87.5
418.497	91.5
418.72	86.5
418.943	75.5
419.166	89.5
419.389	93.5
419.611	64.5
419.834	95.5
420.057	93.5
420.28	82.5
420.503	86.5
420.726	76.5
420.948	76.5
421.171	88.5
421.394	83.5
421.617	85.5
421.839	79.5
422.062	80.5
422.285	81.5
422.507	100.5
422.73	94.5
422.953	96.5
423.175	83.5
423.398	81.5
423.621	71.5
423.843	98.5
424.066	87.5
424.288	86.5
424.511	79.5
424.733	92.5
424.956	101.5
425.178	90.5
425.401	93.5
425.623	82.5
425.846	91.5
426.068	85.5
426.291	83.5
426.513	72.5
426.735	87.5
426.958	77.5
427.18	85.5
427.402	121.5
427.625	136.5
427.847	108.5
428.069	90.5
428.292	83.5
428.514	87.5
428.736	78.5
428.958	85.5
429.181	81.5
429.403	85.5
429.625	81.5
429.847	101.5
430.069	89.5
430.292	92.5
430.514	80.5
430.736	79.5
430.958	100.5
431.18	85.5
431.402	71.5
431.624	77.5
431.846	87.5
432.068	83.5
432.29	91.5
432.512	81.5
432.734	76.5
432.956	85.5
433.178	92.5
433.4	93.5
433.622	81.5
433.844	87.5
434.066	100.5
434.287	85.5
434.509	76.5
434.731	93.5
434.953	84.5
435.175	80.5
435.397	100.5
435.618	76.5
435.84	93.5
436.062	107.5
436.284	115.5
436.505	103.5
436.727	95.5
436.949	84.5
437.17	86.5
437.392	83.5
437.614	95.5
437.835	100.5
438.057	107.5
438.278	106.5
438.5	84.5
438.721	117.5
438.943	109.5
439.165	80.5
439.386	87.5
439.608	85.5
439.829	76.5
440.05	117.5
440.272	128.5
440.493	103.5
440.715	88.5
440.936	87.5
441.158	73.5
441.379	78.5
441.6	86.5
441.822	74.5
442.043	90.5
442.264	100.5
442.486	92.5
442.707	85.5
442.928	95.5
443.149	106.5
443.371	102.5
443.592	97.5
443.813	112.5
444.034	109.5
444.255	85.5
444.476	81.5
444.698	81.5
444.919	84.5
445.14	105.5
445.361	126.5
445.582	100.5
445.803	120.5
446.024	122.5
446.245	117.5
446.466	116.5
446.687	85.5
446.908	67.5
447.129	84.5
447.35	71.5
447.571	91.5
447.792	92.5
448.013	102.5
448.234	97.5
448.455	99.5
448.675	108.5
448.896	105.5
449.117	87.5
449.338	100.5
449.559	115.5
449.779	134.5
450	101.5
450.221	85.5
450.442	99.5
450.662	89.5
450.883	97.5
451.104	106.5
451.324	93.5
451.545	92.5
451.766	91.5
451.986	80.5
452.207	82.5
452.428	98.5
452.648	97.5
452.869	95.5
453.089	113.5
453.31	110.5
453.53	109.5
453.751	76.5
453.971	99.5
454.192	95.5
454.412	111.5
454.633	63.5
454.853	80.5
455.073	82.5
455.294	84.5
455.514	101.5
455.734	91.5
455.955	87.5
456.175	79.5
456.395	81.5
456.616	79.5
456.836	70.5
457.056	102.5
457.276	82.5
457.497	70.5
457.717	80.5
457.937	82.5
458.157	80.5
458.377	85.5
458.598	100.5
458.818	140.5
459.038	141.5
459.258	101.5
459.478	78.5
459.698	85.5
459.918	81.5
460.138	75.5
460.358	79.5
460.578	80.5
460.798	73.5
461.018	78.5
461.238	101.5
461.458	87.5
461.678	89.5
461.898	75.5
462.118	78.5
462.338	78.5
462.558	83.5
462.777	72.5
462.997	78.5
463.217	69.5
463.437	81.5
463.657	79.5
463.876	73.5
464.096	73.5
464.316	91.5
464.536	88.5
464.755	104.5
464.975	109.5
465.195	151.5
465.414	151.5
465.634	96.5
465.854	81.5
466.073	94.5
466.293	88.5
466.512	95.5
466.732	83.5
466.951	78.5
467.171	88.5
467.391	103.5
467.61	106.5
467.829	96.5
468.049	83.5
468.268	87.5
468.488	87.5
468.707	84.5
468.927	69.5
469.146	79.5
469.365	71.5
469.585	82.5
469.804	78.5
470.023	93.5
470.243	97.5
470.462	101.5
470.681	105.5
470.901	86.5
471.12	77.5
471.339	78.5
471.558	95.5
471.777	81.5
471.997	79.5
472.216	77.5
472.435	73.5
472.654	92.5
472.873	85.5
473.092	98.5
473.311	90.5
473.53	84.5
473.749	94.5
473.968	90.5
474.187	101.5
474.406	99.5
474.625	91.5
474.844	84.5
475.063	76.5
475.282	94.5
475.501	101.5
475.72	73.5
475.939	77.5
476.158	77.5
476.377	82.5
476.596	77.5
476.814	80.5
477.033	90.5
477.252	75.5
477.471	92.5
477.69	79.5
477.908	88.5
478.127	92.5
478.346	84.5
478.564	88.5
478.783	86.5
479.002	76.5
479.22	90.5
479.439	94.5
479.658	105.5
479.876	104.5
480.095	102.5
480.313	81.5
480.532	73.5
480.751	88.5
480.969	87.5
481.188	76.5
481.406	89.5
481.624	87.5
481.843	78.5
482.061	85.5
482.28	77.5
482.498	86.5
482.717	78.5
482.935	89.5
483.153	90.5
483.372	85.5
483.59	87.5
483.808	71.5
484.027	94.5
484.245	104.5
484.463	85.5
484.681	104.5
484.9	93.5
485.118	87.5
485.336	97.5
485.554	100.5
485.772	87.5
485.99	91.5
486.209	94.5
486.427	109.5
486.645	106.5
486.863	117.5
487.081	103.5
487.299	93.5
487.517	97.5
487.735	92.5
487.953	96.5
488.171	81.5
488.389	103.5
488.607	100.5
488.825	85.5
489.043	85.5
489.261	90.5
489.479	87.5
489.696	93.5
489.914	85.5
490.132	79.5
490.35	96.5
490.568	80.5
490.786	88.5
491.003	80.5
491.221	88.5
491.439	89.5
491.657	89.5
491.874	113.5
492.092	86.5
492.31	110.5
492.527	81.5
492.745	71.5
492.963	91.5
493.18	78.5
493.398	94.5
493.615	98.5
493.833	96.5
494.05	79.5
494.268	86.5
494.485	91.5
494.703	94.5
494.92	85.5
495.138	87.5
495.355	84.5
495.573	97.5
495.79	93.5
496.008	102.5
496.225	89.5
496.442	84.5
496.66	89.5
496.877	97.5
497.094	98.5
497.312	96.5
497.529	99.5
497.746	81.5
497.963	83.5
498.181	94.5
498.398	87.5
498.615	116.5
498.832	91.5
499.049	90.5
499.267	95.5
499.484	87.5
499.701	86.5
499.918	86.5
500.135	95.5
500.352	92.5
500.569	81.5
500.786	85.5
501.003	82.5
501.22	103.5
501.437	89.5
501.654	96.5
501.871	99.5
502.088	97.5
502.305	75.5
502.522	78.5
502.739	82.5
502.956	89.5
503.172	82.5
503.389	83.5
503.606	89.5
503.823	102.5
504.04	91.5
504.256	91.5
504.473	73.5
504.69	86.5
504.907	82.5
505.123	91.5
505.34	80.5
505.557	91.5
505.773	92.5
505.99	94.5
506.207	102.5
506.423	88.5
506.64	92.5
506.856	78.5
507.073	86.5
507.289	85.5
507.506	87.5
507.722	105.5
507.939	90.5
508.155	91.5
508.372	81.5
508.588	79.5
508.805	78.5
509.021	99.5
509.238	91.5
509.454	94.5
509.67	98.5
509.887	113.5
510.103	117.5
510.319	214.5
510.536	753.5
510.752	2363.5
510.968	623.5
511.184	153.5
511.401	97.5
511.617	85.5
511.833	77.5
512.049	95.5
512.265	96.5
512.481	100.5
512.698	86.5
512.914	90.5
513.13	93.5
513.346	78.5
513.562	103.5
513.778	92.5
513.994	103.5
514.21	101.5
514.426	105.5
514.642	121.5
514.858	111.5
515.074	163.5
515.29	436.5
515.506	1432.5
515.721	501.5
515.937	158.5
516.153	105.5
516.369	87.5
516.585	94.5
516.801	97.5
517.016	81.5
517.232	78.5
517.448	91.5
517.664	85.5
517.879	95.5
518.095	83.5
518.311	90.5
518.527	96.5
518.742	107.5
518.958	117.5
519.173	89.5
519.389	111.5
519.605	88.5
519.82	109.5
520.036	102.5
520.251	106.5
520.467	104.5
520.682	95.5
520.898	104.5
521.113	105.5
521.329	112.5
521.544	184.5
521.76	542.5
521.975	2323.5
522.19	1347.5
522.406	296.5
522.621	123.5
522.836	102.5
523.052	96.5
523.267	83.5
523.482	89.5
523.698	88.5
523.913	118.5
524.128	91.5
524.343	94.5
524.559	89.5
524.774	82.5
524.989	86.5
525.204	97.5
525.419	85.5
525.634	95.5
525.849	95.5
526.064	93.5
526.28	101.5
526.495	95.5
526.71	90.5
526.925	83.5
527.14	82.5
527.355	78.5
527.57	84.5
527.785	92.5
527.999	89.5
528.214	90.5
528.429	107.5
528.644	87.5
528.859	87.5
529.074	87.5
529.289	129.5
529.503	169.5
529.718	113.5
529.933	94.5
530.148	87.5
530.363	81.5
530.577	100.5
530.792	73.5
531.007	92.5
531.221	83.5
531.436	94.5
531.651	104.5
531.865	84.5
532.08	79.5
532.295	84.5
532.509	89.5
532.724	85.5
532.938	80.5
533.153	86.5
533.367	83.5
533.582	92.5
533.796	100.5
534.011	89.5
534.225	92.5
534.44	80.5
534.654	77.5
534.868	91.5
535.083	76.5
535.297	88.5
535.511	96.5
535.726	87.5
535.94	86.5
536.154	97.5
536.369	99.5
536.583	91.5
