Data from Uncirc_1995_H10_HRD10591_00076.txt Node
Date: Wed Jan 03 11:35:49 EST 2024
User: Yrep
Spectrometer: HR+D1059
Trigger mode: 1
Integration Time (sec): 1.000000E-1
Scans to average: 1
Electric dark correction enabled: true
Nonlinearity correction enabled: false
Boxcar width: 0
XAxis mode: Wavelengths
Number of Pixels in Spectrum: 2048
>>>>>Begin Spectral Data<<<<<
223.165	-29.06
223.4	-29.06
223.635	-29.06
223.869	-22.06
224.104	-20.06
224.338	-18.06
224.573	-20.06
224.808	-18.06
225.042	-18.06
225.277	-9.06
225.511	-4.06
225.746	8.94
225.98	10.94
226.215	19.94
226.449	31.94
226.683	20.94
226.918	32.94
227.152	32.94
227.387	32.94
227.621	25.94
227.856	45.94
228.09	42.94
228.324	46.94
228.559	50.94
228.793	72.94
229.027	68.94
229.262	74.94
229.496	78.94
229.73	93.94
229.964	76.94
230.199	87.94
230.433	82.94
230.667	94.94
230.901	78.94
231.136	81.94
231.37	85.94
231.604	72.94
231.838	88.94
232.072	81.94
232.306	79.94
232.541	84.94
232.775	80.94
233.009	78.94
233.243	88.94
233.477	83.94
233.711	87.94
233.945	104.94
234.179	87.94
234.413	85.94
234.647	79.94
234.881	83.94
235.115	81.94
235.349	81.94
235.583	60.94
235.817	84.94
236.051	70.94
236.285	92.94
236.519	81.94
236.753	78.94
236.987	75.94
237.221	93.94
237.455	81.94
237.689	81.94
237.922	80.94
238.156	81.94
238.39	87.94
238.624	64.94
238.858	81.94
239.091	66.94
239.325	79.94
239.559	75.94
239.793	91.94
240.027	62.94
240.26	90.94
240.494	74.94
240.728	81.94
240.961	80.94
241.195	76.94
241.429	75.94
241.662	68.94
241.896	78.94
242.13	85.94
242.363	65.94
242.597	84.94
242.83	81.94
243.064	66.94
243.298	79.94
243.531	86.94
243.765	75.94
243.998	73.94
244.232	86.94
244.465	84.94
244.699	87.94
244.932	90.94
245.166	88.94
245.399	92.94
245.633	77.94
245.866	83.94
246.099	79.94
246.333	77.94
246.566	82.94
246.8	86.94
247.033	91.94
247.266	68.94
247.5	84.94
247.733	75.94
247.966	88.94
248.2	77.94
248.433	84.94
248.666	79.94
248.899	86.94
249.133	84.94
249.366	97.94
249.599	100.94
249.832	77.94
250.066	76.94
250.299	82.94
250.532	81.94
250.765	90.94
250.998	88.94
251.231	96.94
251.465	82.94
251.698	85.94
251.931	87.94
252.164	84.94
252.397	93.94
252.63	88.94
252.863	80.94
253.096	92.94
253.329	92.94
253.562	77.94
253.795	79.94
254.028	89.94
254.261	76.94
254.494	65.94
254.727	82.94
254.96	84.94
255.193	86.94
255.426	80.94
255.659	77.94
255.892	85.94
256.124	83.94
256.357	93.94
256.59	85.94
256.823	92.94
257.056	88.94
257.289	69.94
257.521	76.94
257.754	59.94
257.987	83.94
258.22	77.94
258.452	78.94
258.685	82.94
258.918	87.94
259.151	78.94
259.383	77.94
259.616	76.94
259.849	71.94
260.081	88.94
260.314	88.94
260.547	86.94
260.779	88.94
261.012	84.94
261.244	80.94
261.477	90.94
261.71	95.94
261.942	104.94
262.175	110.94
262.407	94.94
262.64	104.94
262.872	89.94
263.105	80.94
263.337	88.94
263.57	88.94
263.802	99.94
264.035	82.94
264.267	66.94
264.499	77.94
264.732	76.94
264.964	81.94
265.197	77.94
265.429	76.94
265.661	91.94
265.894	78.94
266.126	92.94
266.358	79.94
266.591	83.94
266.823	97.94
267.055	78.94
267.287	81.94
267.52	85.94
267.752	74.94
267.984	71.94
268.216	80.94
268.448	75.94
268.681	87.94
268.913	88.94
269.145	102.94
269.377	91.94
269.609	82.94
269.841	88.94
270.073	79.94
270.306	94.94
270.538	80.94
270.77	84.94
271.002	86.94
271.234	92.94
271.466	84.94
271.698	93.94
271.93	100.94
272.162	76.94
272.394	91.94
272.626	88.94
272.858	82.94
273.09	94.94
273.322	85.94
273.553	97.94
273.785	70.94
274.017	101.94
274.249	69.94
274.481	80.94
274.713	85.94
274.945	87.94
275.176	96.94
275.408	80.94
275.64	91.94
275.872	80.94
276.104	82.94
276.335	92.94
276.567	97.94
276.799	98.94
277.031	97.94
277.262	100.94
277.494	96.94
277.726	86.94
277.957	92.94
278.189	101.94
278.421	79.94
278.652	84.94
278.884	82.94
279.115	81.94
279.347	85.94
279.579	76.94
279.81	80.94
280.042	82.94
280.273	78.94
280.505	80.94
280.736	83.94
280.968	74.94
281.199	84.94
281.431	86.94
281.662	97.94
281.894	93.94
282.125	94.94
282.356	122.94
282.588	145.94
282.819	106.94
283.051	105.94
283.282	82.94
283.513	93.94
283.745	88.94
283.976	95.94
284.207	77.94
284.439	76.94
284.67	86.94
284.901	97.94
285.132	86.94
285.364	84.94
285.595	84.94
285.826	81.94
286.057	89.94
286.288	96.94
286.52	87.94
286.751	92.94
286.982	76.94
287.213	77.94
287.444	91.94
287.675	92.94
287.906	87.94
288.138	93.94
288.369	85.94
288.6	94.94
288.831	89.94
289.062	101.94
289.293	105.94
289.524	98.94
289.755	99.94
289.986	77.94
290.217	89.94
290.448	93.94
290.679	97.94
290.91	103.94
291.141	77.94
291.371	107.94
291.602	82.94
291.833	86.94
292.064	91.94
292.295	90.94
292.526	95.94
292.757	94.94
292.987	99.94
293.218	110.94
293.449	85.94
293.68	85.94
293.91	93.94
294.141	88.94
294.372	99.94
294.603	90.94
294.833	78.94
295.064	89.94
295.295	84.94
295.525	89.94
295.756	104.94
295.987	125.94
296.217	129.94
296.448	110.94
296.679	75.94
296.909	109.94
297.14	99.94
297.37	85.94
297.601	80.94
297.831	89.94
298.062	94.94
298.292	91.94
298.523	97.94
298.753	94.94
298.984	82.94
299.214	89.94
299.445	87.94
299.675	88.94
299.905	94.94
300.136	101.94
300.366	89.94
300.597	95.94
300.827	97.94
301.057	99.94
301.288	104.94
301.518	91.94
301.748	75.94
301.979	108.94
302.209	89.94
302.439	76.94
302.669	100.94
302.9	81.94
303.13	91.94
303.36	88.94
303.59	100.94
303.82	94.94
304.051	99.94
304.281	82.94
304.511	98.94
304.741	84.94
304.971	83.94
305.201	85.94
305.431	85.94
305.661	90.94
305.891	87.94
306.121	82.94
306.352	112.94
306.582	98.94
306.812	97.94
307.042	82.94
307.272	97.94
307.502	84.94
307.731	96.94
307.961	89.94
308.191	90.94
308.421	93.94
308.651	101.94
308.881	94.94
309.111	97.94
309.341	84.94
309.571	98.94
309.8	108.94
310.03	110.94
310.26	88.94
310.49	86.94
310.72	89.94
310.949	102.94
311.179	113.94
311.409	103.94
311.639	89.94
311.868	99.94
312.098	93.94
312.328	103.94
312.557	92.94
312.787	101.94
313.017	97.94
313.246	96.94
313.476	98.94
313.706	89.94
313.935	101.94
314.165	100.94
314.394	84.94
314.624	100.94
314.853	90.94
315.083	99.94
315.312	79.94
315.542	90.94
315.771	86.94
316.001	95.94
316.23	98.94
316.46	95.94
316.689	83.94
316.919	87.94
317.148	92.94
317.377	95.94
317.607	96.94
317.836	88.94
318.065	102.94
318.295	99.94
318.524	79.94
318.753	79.94
318.983	94.94
319.212	93.94
319.441	109.94
319.67	90.94
319.9	93.94
320.129	101.94
320.358	89.94
320.587	107.94
320.816	109.94
321.046	102.94
321.275	97.94
321.504	99.94
321.733	100.94
321.962	105.94
322.191	117.94
322.42	121.94
322.649	112.94
322.878	118.94
323.108	121.94
323.337	130.94
323.566	155.94
323.795	154.94
324.024	206.94
324.253	414.94
324.482	911.94
324.71	1893.94
324.939	2490.94
325.168	891.94
325.397	266.94
325.626	165.94
325.855	131.94
326.084	122.94
326.313	142.94
326.542	180.94
326.77	235.94
326.999	521.94
327.228	1002.94
327.457	1898.94
327.686	1517.94
327.914	398.94
328.143	200.94
328.372	157.94
328.6	129.94
328.829	111.94
329.058	122.94
329.287	129.94
329.515	116.94
329.744	101.94
329.972	91.94
330.201	100.94
330.43	101.94
330.658	131.94
330.887	137.94
331.115	119.94
331.344	100.94
331.572	122.94
331.801	101.94
332.03	102.94
332.258	95.94
332.486	95.94
332.715	88.94
332.943	88.94
333.172	97.94
333.4	98.94
333.629	118.94
333.857	108.94
334.085	112.94
334.314	102.94
334.542	91.94
334.771	94.94
334.999	96.94
335.227	108.94
335.455	110.94
335.684	102.94
335.912	88.94
336.14	96.94
336.369	107.94
336.597	105.94
336.825	100.94
337.053	85.94
337.281	85.94
337.51	96.94
337.738	96.94
337.966	96.94
338.194	116.94
338.422	100.94
338.65	98.94
338.878	102.94
339.106	88.94
339.334	86.94
339.562	93.94
339.79	93.94
340.018	91.94
340.246	100.94
340.474	90.94
340.702	89.94
340.93	96.94
341.158	93.94
341.386	101.94
341.614	97.94
341.842	90.94
342.07	94.94
342.298	97.94
342.526	88.94
342.754	77.94
342.981	80.94
343.209	81.94
343.437	81.94
343.665	98.94
343.893	103.94
344.12	101.94
344.348	99.94
344.576	86.94
344.804	83.94
345.031	90.94
345.259	97.94
345.487	96.94
345.714	86.94
345.942	104.94
346.17	89.94
346.397	91.94
346.625	93.94
346.853	105.94
347.08	106.94
347.308	101.94
347.535	105.94
347.763	92.94
347.99	92.94
348.218	113.94
348.445	103.94
348.673	94.94
348.9	101.94
349.128	97.94
349.355	90.94
349.583	94.94
349.81	98.94
350.037	103.94
350.265	99.94
350.492	100.94
350.72	92.94
350.947	97.94
351.174	108.94
351.402	111.94
351.629	105.94
351.856	106.94
352.083	118.94
352.311	111.94
352.538	110.94
352.765	108.94
352.992	96.94
353.22	108.94
353.447	94.94
353.674	101.94
353.901	84.94
354.128	93.94
354.355	96.94
354.583	112.94
354.81	106.94
355.037	93.94
355.264	105.94
355.491	113.94
355.718	97.94
355.945	110.94
356.172	113.94
356.399	95.94
356.626	96.94
356.853	98.94
357.08	101.94
357.307	93.94
357.534	86.94
357.761	104.94
357.988	98.94
358.215	86.94
358.441	99.94
358.668	91.94
358.895	80.94
359.122	108.94
359.349	89.94
359.576	92.94
359.802	104.94
360.029	101.94
360.256	104.94
360.483	105.94
360.709	113.94
360.936	100.94
361.163	94.94
361.39	97.94
361.616	96.94
361.843	94.94
362.07	94.94
362.296	97.94
362.523	92.94
362.749	91.94
362.976	102.94
363.203	93.94
363.429	93.94
363.656	94.94
363.882	84.94
364.109	94.94
364.335	101.94
364.562	91.94
364.788	86.94
365.015	82.94
365.241	109.94
365.468	110.94
365.694	108.94
365.92	99.94
366.147	101.94
366.373	84.94
366.599	99.94
366.826	93.94
367.052	91.94
367.278	95.94
367.505	95.94
367.731	85.94
367.957	105.94
368.184	104.94
368.41	98.94
368.636	118.94
368.862	124.94
369.089	110.94
369.315	97.94
369.541	94.94
369.767	102.94
369.993	92.94
370.219	97.94
370.445	95.94
370.672	89.94
370.898	85.94
371.124	86.94
371.35	98.94
371.576	89.94
371.802	97.94
372.028	92.94
372.254	96.94
372.48	92.94
372.706	99.94
372.932	84.94
373.158	83.94
373.384	98.94
373.61	96.94
373.835	83.94
374.061	90.94
374.287	95.94
374.513	84.94
374.739	88.94
374.965	92.94
375.191	94.94
375.416	81.94
375.642	94.94
375.868	90.94
376.094	97.94
376.319	88.94
376.545	94.94
376.771	103.94
376.997	105.94
377.222	93.94
377.448	77.94
377.674	81.94
377.899	93.94
378.125	98.94
378.35	91.94
378.576	95.94
378.802	85.94
379.027	111.94
379.253	98.94
379.478	91.94
379.704	96.94
379.929	90.94
380.155	99.94
380.38	88.94
380.606	92.94
380.831	94.94
381.057	89.94
381.282	94.94
381.507	91.94
381.733	99.94
381.958	88.94
382.184	92.94
382.409	96.94
382.634	97.94
382.86	99.94
383.085	92.94
383.31	89.94
383.535	117.94
383.761	102.94
383.986	95.94
384.211	113.94
384.436	96.94
384.662	95.94
384.887	106.94
385.112	107.94
385.337	102.94
385.562	97.94
385.787	104.94
386.013	116.94
386.238	115.94
386.463	99.94
386.688	114.94
386.913	109.94
387.138	97.94
387.363	95.94
387.588	113.94
387.813	110.94
388.038	93.94
388.263	99.94
388.488	113.94
388.713	102.94
388.938	108.94
389.163	105.94
389.387	105.94
389.612	98.94
389.837	90.94
390.062	98.94
390.287	94.94
390.512	96.94
390.736	83.94
390.961	101.94
391.186	107.94
391.411	91.94
391.636	100.94
391.86	92.94
392.085	96.94
392.31	90.94
392.534	84.94
392.759	94.94
392.984	91.94
393.208	86.94
393.433	91.94
393.658	99.94
393.882	85.94
394.107	92.94
394.331	90.94
394.556	84.94
394.78	94.94
395.005	83.94
395.229	88.94
395.454	101.94
395.678	86.94
395.903	78.94
396.127	75.94
396.352	78.94
396.576	88.94
396.801	89.94
397.025	97.94
397.249	91.94
397.474	96.94
397.698	84.94
397.922	89.94
398.147	84.94
398.371	93.94
398.595	92.94
398.82	95.94
399.044	83.94
399.268	89.94
399.492	100.94
399.717	99.94
399.941	87.94
400.165	102.94
400.389	89.94
400.613	81.94
400.837	91.94
401.062	81.94
401.286	91.94
401.51	101.94
401.734	92.94
401.958	103.94
402.182	133.94
402.406	155.94
402.63	115.94
402.854	92.94
403.078	94.94
403.302	82.94
403.526	91.94
403.75	84.94
403.974	85.94
404.198	93.94
404.422	88.94
404.645	97.94
404.869	95.94
405.093	100.94
405.317	104.94
405.541	103.94
405.765	94.94
405.988	128.94
406.212	168.94
406.436	229.94
406.66	154.94
406.883	99.94
407.107	97.94
407.331	87.94
407.555	112.94
407.778	84.94
408.002	94.94
408.226	98.94
408.449	100.94
408.673	79.94
408.896	99.94
409.12	109.94
409.344	103.94
409.567	85.94
409.791	107.94
410.014	98.94
410.238	93.94
410.461	90.94
410.685	108.94
410.908	104.94
411.132	111.94
411.355	102.94
411.578	92.94
411.802	91.94
412.025	94.94
412.249	104.94
412.472	90.94
412.695	81.94
412.919	90.94
413.142	101.94
413.365	90.94
413.589	90.94
413.812	94.94
414.035	93.94
414.258	99.94
414.482	104.94
414.705	96.94
414.928	95.94
415.151	92.94
415.374	97.94
415.597	90.94
415.821	107.94
416.044	88.94
416.267	98.94
416.49	85.94
416.713	92.94
416.936	87.94
417.159	98.94
417.382	90.94
417.605	98.94
417.828	94.94
418.051	104.94
418.274	90.94
418.497	90.94
418.72	95.94
418.943	96.94
419.166	75.94
419.389	85.94
419.611	90.94
419.834	101.94
420.057	99.94
420.28	62.94
420.503	87.94
420.726	88.94
420.948	82.94
421.171	97.94
421.394	82.94
421.617	90.94
421.839	99.94
422.062	97.94
422.285	103.94
422.507	117.94
422.73	101.94
422.953	94.94
423.175	101.94
423.398	80.94
423.621	76.94
423.843	91.94
424.066	86.94
424.288	100.94
424.511	92.94
424.733	98.94
424.956	98.94
425.178	105.94
425.401	97.94
425.623	99.94
425.846	102.94
426.068	91.94
426.291	84.94
426.513	95.94
426.735	91.94
426.958	96.94
427.18	106.94
427.402	141.94
427.625	157.94
427.847	126.94
428.069	100.94
428.292	93.94
428.514	86.94
428.736	96.94
428.958	81.94
429.181	87.94
429.403	91.94
429.625	95.94
429.847	100.94
430.069	97.94
430.292	88.94
430.514	84.94
430.736	88.94
430.958	97.94
431.18	92.94
431.402	86.94
431.624	88.94
431.846	81.94
432.068	101.94
432.29	97.94
432.512	87.94
432.734	99.94
432.956	81.94
433.178	97.94
433.4	106.94
433.622	87.94
433.844	95.94
434.066	82.94
434.287	100.94
434.509	94.94
434.731	90.94
434.953	91.94
435.175	86.94
435.397	85.94
435.618	97.94
435.84	109.94
436.062	129.94
436.284	117.94
436.505	113.94
436.727	96.94
436.949	96.94
437.17	98.94
437.392	98.94
437.614	95.94
437.835	112.94
438.057	126.94
438.278	112.94
438.5	102.94
438.721	125.94
438.943	109.94
439.165	91.94
439.386	86.94
439.608	84.94
439.829	102.94
440.05	116.94
440.272	133.94
440.493	97.94
440.715	97.94
440.936	83.94
441.158	98.94
441.379	76.94
441.6	93.94
441.822	91.94
442.043	94.94
442.264	101.94
442.486	102.94
442.707	105.94
442.928	114.94
443.149	126.94
443.371	119.94
443.592	120.94
443.813	116.94
444.034	121.94
444.255	88.94
444.476	93.94
444.698	82.94
444.919	84.94
445.14	131.94
445.361	120.94
445.582	124.94
445.803	117.94
446.024	131.94
446.245	138.94
446.466	108.94
446.687	96.94
446.908	93.94
447.129	90.94
447.35	93.94
447.571	101.94
447.792	99.94
448.013	95.94
448.234	112.94
448.455	117.94
448.675	118.94
448.896	120.94
449.117	93.94
449.338	102.94
449.559	125.94
449.779	130.94
450	78.94
450.221	88.94
450.442	85.94
450.662	88.94
450.883	88.94
451.104	121.94
451.324	99.94
451.545	88.94
451.766	87.94
451.986	94.94
452.207	93.94
452.428	95.94
452.648	96.94
452.869	115.94
453.089	122.94
453.31	100.94
453.53	80.94
453.751	88.94
453.971	93.94
454.192	114.94
454.412	82.94
454.633	89.94
454.853	88.94
455.073	102.94
455.294	93.94
455.514	92.94
455.734	101.94
455.955	91.94
456.175	78.94
456.395	90.94
456.616	94.94
456.836	96.94
457.056	78.94
457.276	85.94
457.497	92.94
457.717	100.94
457.937	92.94
458.157	86.94
458.377	108.94
458.598	115.94
458.818	149.94
459.038	177.94
459.258	133.94
459.478	97.94
459.698	94.94
459.918	102.94
460.138	92.94
460.358	94.94
460.578	96.94
460.798	85.94
461.018	93.94
461.238	85.94
461.458	90.94
461.678	89.94
461.898	82.94
462.118	78.94
462.338	80.94
462.558	99.94
462.777	90.94
462.997	85.94
463.217	95.94
463.437	107.94
463.657	92.94
463.876	94.94
464.096	78.94
464.316	96.94
464.536	102.94
464.755	115.94
464.975	121.94
465.195	161.94
465.414	158.94
465.634	109.94
465.854	92.94
466.073	93.94
466.293	72.94
466.512	100.94
466.732	98.94
466.951	70.94
467.171	105.94
467.391	92.94
467.61	107.94
467.829	92.94
468.049	90.94
468.268	82.94
468.488	92.94
468.707	93.94
468.927	84.94
469.146	97.94
469.365	84.94
469.585	84.94
469.804	93.94
470.023	91.94
470.243	91.94
470.462	114.94
470.681	114.94
470.901	88.94
471.12	107.94
471.339	102.94
471.558	68.94
471.777	82.94
471.997	96.94
472.216	110.94
472.435	108.94
472.654	93.94
472.873	83.94
473.092	100.94
473.311	93.94
473.53	84.94
473.749	90.94
473.968	92.94
474.187	109.94
474.406	96.94
474.625	84.94
474.844	107.94
475.063	88.94
475.282	89.94
475.501	96.94
475.72	90.94
475.939	81.94
476.158	98.94
476.377	93.94
476.596	88.94
476.814	96.94
477.033	91.94
477.252	80.94
477.471	73.94
477.69	92.94
477.908	95.94
478.127	99.94
478.346	97.94
478.564	93.94
478.783	108.94
479.002	86.94
479.22	94.94
479.439	121.94
479.658	93.94
479.876	102.94
480.095	94.94
480.313	97.94
480.532	103.94
480.751	91.94
480.969	87.94
481.188	100.94
481.406	101.94
481.624	99.94
481.843	96.94
482.061	84.94
482.28	95.94
482.498	95.94
482.717	85.94
482.935	83.94
483.153	106.94
483.372	96.94
483.59	93.94
483.808	88.94
484.027	112.94
484.245	97.94
484.463	108.94
484.681	118.94
484.9	90.94
485.118	85.94
485.336	83.94
485.554	102.94
485.772	112.94
485.99	103.94
486.209	95.94
486.427	114.94
486.645	92.94
486.863	132.94
487.081	110.94
487.299	106.94
487.517	90.94
487.735	102.94
487.953	102.94
488.171	97.94
488.389	101.94
488.607	94.94
488.825	90.94
489.043	98.94
489.261	100.94
489.479	80.94
489.696	93.94
489.914	100.94
490.132	78.94
490.35	104.94
490.568	94.94
490.786	105.94
491.003	91.94
491.221	90.94
491.439	90.94
491.657	89.94
491.874	102.94
492.092	92.94
492.31	102.94
492.527	102.94
492.745	88.94
492.963	101.94
493.18	92.94
493.398	100.94
493.615	93.94
493.833	111.94
494.05	105.94
494.268	100.94
494.485	95.94
494.703	72.94
494.92	85.94
495.138	99.94
495.355	101.94
495.573	95.94
495.79	79.94
496.008	94.94
496.225	87.94
496.442	90.94
496.66	90.94
496.877	93.94
497.094	99.94
497.312	81.94
497.529	81.94
497.746	100.94
497.963	104.94
498.181	94.94
498.398	100.94
498.615	108.94
498.832	106.94
499.049	93.94
499.267	97.94
499.484	90.94
499.701	101.94
499.918	96.94
500.135	84.94
500.352	105.94
500.569	99.94
500.786	104.94
501.003	93.94
501.22	100.94
501.437	108.94
501.654	98.94
501.871	102.94
502.088	99.94
502.305	91.94
502.522	73.94
502.739	95.94
502.956	97.94
503.172	101.94
503.389	93.94
503.606	105.94
503.823	96.94
504.04	97.94
504.256	97.94
504.473	83.94
504.69	88.94
504.907	102.94
505.123	114.94
505.34	87.94
505.557	113.94
505.773	94.94
505.99	97.94
506.207	78.94
506.423	73.94
506.64	99.94
506.856	91.94
507.073	98.94
507.289	100.94
507.506	94.94
507.722	126.94
507.939	95.94
508.155	87.94
508.372	105.94
508.588	100.94
508.805	93.94
509.021	97.94
509.238	95.94
509.454	94.94
509.67	98.94
509.887	112.94
510.103	150.94
510.319	221.94
510.536	804.94
510.752	2529.94
510.968	701.94
511.184	143.94
511.401	109.94
511.617	111.94
511.833	88.94
512.049	98.94
512.265	95.94
512.481	101.94
512.698	95.94
512.914	108.94
513.13	98.94
513.346	99.94
513.562	92.94
513.778	96.94
513.994	109.94
514.21	108.94
514.426	116.94
514.642	141.94
514.858	130.94
