Data from Uncirc_1995_H10_HRD10591_00044.txt Node
Date: Wed Jan 03 11:35:42 EST 2024
User: Yrep
Spectrometer: HR+D1059
Trigger mode: 1
Integration Time (sec): 1.000000E-1
Scans to average: 1
Electric dark correction enabled: true
Nonlinearity correction enabled: false
Boxcar width: 0
XAxis mode: Wavelengths
Number of Pixels in Spectrum: 2048
>>>>>Begin Spectral Data<<<<<
223.165	-24.62
223.4	-24.62
223.635	-24.62
223.869	-11.62
224.104	-28.62
224.338	-19.62
224.573	-12.62
224.808	-15.62
225.042	-12.62
225.277	-3.62
225.511	5.38
225.746	10.38
225.98	17.38
226.215	12.38
226.449	-1.62
226.683	25.38
226.918	27.38
227.152	32.38
227.387	35.38
227.621	37.38
227.856	43.38
228.09	45.38
228.324	42.38
228.559	49.38
228.793	43.38
229.027	55.38
229.262	69.38
229.496	69.38
229.73	77.38
229.964	76.38
230.199	75.38
230.433	79.38
230.667	75.38
230.901	76.38
231.136	63.38
231.37	72.38
231.604	77.38
231.838	81.38
232.072	73.38
232.306	82.38
232.541	88.38
232.775	82.38
233.009	73.38
233.243	86.38
233.477	85.38
233.711	71.38
233.945	75.38
234.179	76.38
234.413	70.38
234.647	81.38
234.881	57.38
235.115	75.38
235.349	74.38
235.583	80.38
235.817	78.38
236.051	82.38
236.285	77.38
236.519	76.38
236.753	77.38
236.987	77.38
237.221	73.38
237.455	80.38
237.689	83.38
237.922	67.38
238.156	84.38
238.39	83.38
238.624	79.38
238.858	83.38
239.091	76.38
239.325	74.38
239.559	73.38
239.793	89.38
240.027	77.38
240.26	84.38
240.494	84.38
240.728	82.38
240.961	85.38
241.195	75.38
241.429	75.38
241.662	74.38
241.896	67.38
242.13	73.38
242.363	86.38
242.597	78.38
242.83	69.38
243.064	75.38
243.298	76.38
243.531	73.38
243.765	83.38
243.998	75.38
244.232	80.38
244.465	89.38
244.699	81.38
244.932	74.38
245.166	70.38
245.399	74.38
245.633	60.38
245.866	63.38
246.099	83.38
246.333	71.38
246.566	73.38
246.8	74.38
247.033	78.38
247.266	79.38
247.5	82.38
247.733	75.38
247.966	75.38
248.2	82.38
248.433	77.38
248.666	88.38
248.899	87.38
249.133	77.38
249.366	91.38
249.599	95.38
249.832	81.38
250.066	77.38
250.299	78.38
250.532	81.38
250.765	75.38
250.998	73.38
251.231	79.38
251.465	74.38
251.698	71.38
251.931	73.38
252.164	81.38
252.397	71.38
252.63	77.38
252.863	87.38
253.096	81.38
253.329	72.38
253.562	83.38
253.795	66.38
254.028	72.38
254.261	92.38
254.494	74.38
254.727	66.38
254.96	81.38
255.193	85.38
255.426	78.38
255.659	83.38
255.892	83.38
256.124	91.38
256.357	78.38
256.59	80.38
256.823	81.38
257.056	89.38
257.289	92.38
257.521	86.38
257.754	88.38
257.987	84.38
258.22	93.38
258.452	77.38
258.685	85.38
258.918	77.38
259.151	76.38
259.383	75.38
259.616	68.38
259.849	84.38
260.081	90.38
260.314	77.38
260.547	86.38
260.779	82.38
261.012	86.38
261.244	84.38
261.477	84.38
261.71	84.38
261.942	95.38
262.175	114.38
262.407	77.38
262.64	75.38
262.872	84.38
263.105	100.38
263.337	53.38
263.57	77.38
263.802	91.38
264.035	81.38
264.267	86.38
264.499	93.38
264.732	87.38
264.964	80.38
265.197	78.38
265.429	71.38
265.661	78.38
265.894	83.38
266.126	83.38
266.358	63.38
266.591	88.38
266.823	86.38
267.055	78.38
267.287	97.38
267.52	78.38
267.752	62.38
267.984	85.38
268.216	81.38
268.448	66.38
268.681	89.38
268.913	77.38
269.145	83.38
269.377	72.38
269.609	86.38
269.841	85.38
270.073	87.38
270.306	82.38
270.538	71.38
270.77	76.38
271.002	77.38
271.234	72.38
271.466	83.38
271.698	94.38
271.93	67.38
272.162	92.38
272.394	84.38
272.626	79.38
272.858	90.38
273.09	83.38
273.322	95.38
273.553	88.38
273.785	72.38
274.017	78.38
274.249	83.38
274.481	81.38
274.713	78.38
274.945	93.38
275.176	92.38
275.408	88.38
275.64	96.38
275.872	85.38
276.104	67.38
276.335	71.38
276.567	84.38
276.799	92.38
277.031	94.38
277.262	77.38
277.494	78.38
277.726	87.38
277.957	75.38
278.189	80.38
278.421	74.38
278.652	94.38
278.884	56.38
279.115	75.38
279.347	91.38
279.579	85.38
279.81	83.38
280.042	80.38
280.273	75.38
280.505	75.38
280.736	67.38
280.968	98.38
281.199	91.38
281.431	94.38
281.662	90.38
281.894	82.38
282.125	89.38
282.356	113.38
282.588	139.38
282.819	114.38
283.051	89.38
283.282	87.38
283.513	94.38
283.745	88.38
283.976	85.38
284.207	71.38
284.439	71.38
284.67	83.38
284.901	96.38
285.132	94.38
285.364	85.38
285.595	82.38
285.826	78.38
286.057	84.38
286.288	73.38
286.52	89.38
286.751	90.38
286.982	98.38
287.213	95.38
287.444	84.38
287.675	72.38
287.906	92.38
288.138	82.38
288.369	87.38
288.6	86.38
288.831	86.38
289.062	86.38
289.293	87.38
289.524	82.38
289.755	86.38
289.986	84.38
290.217	86.38
290.448	96.38
290.679	86.38
290.91	85.38
291.141	79.38
291.371	89.38
291.602	87.38
291.833	88.38
292.064	85.38
292.295	90.38
292.526	99.38
292.757	78.38
292.987	83.38
293.218	101.38
293.449	79.38
293.68	92.38
293.91	88.38
294.141	89.38
294.372	88.38
294.603	90.38
294.833	74.38
295.064	97.38
295.295	87.38
295.525	82.38
295.756	84.38
295.987	103.38
296.217	128.38
296.448	112.38
296.679	95.38
296.909	89.38
297.14	95.38
297.37	77.38
297.601	81.38
297.831	94.38
298.062	99.38
298.292	81.38
298.523	89.38
298.753	82.38
298.984	84.38
299.214	94.38
299.445	92.38
299.675	86.38
299.905	95.38
300.136	101.38
300.366	98.38
300.597	90.38
300.827	94.38
301.057	98.38
301.288	96.38
301.518	82.38
301.748	81.38
301.979	86.38
302.209	87.38
302.439	84.38
302.669	86.38
302.9	85.38
303.13	90.38
303.36	82.38
303.59	94.38
303.82	96.38
304.051	85.38
304.281	81.38
304.511	86.38
304.741	86.38
304.971	91.38
305.201	92.38
305.431	91.38
305.661	86.38
305.891	84.38
306.121	95.38
306.352	111.38
306.582	87.38
306.812	97.38
307.042	86.38
307.272	92.38
307.502	101.38
307.731	81.38
307.961	82.38
308.191	81.38
308.421	86.38
308.651	91.38
308.881	67.38
309.111	87.38
309.341	89.38
309.571	98.38
309.8	89.38
310.03	89.38
310.26	92.38
310.49	95.38
310.72	93.38
310.949	108.38
311.179	89.38
311.409	96.38
311.639	92.38
311.868	87.38
312.098	100.38
312.328	92.38
312.557	95.38
312.787	98.38
313.017	111.38
313.246	86.38
313.476	95.38
313.706	87.38
313.935	91.38
314.165	93.38
314.394	91.38
314.624	89.38
314.853	89.38
315.083	102.38
315.312	91.38
315.542	95.38
315.771	90.38
316.001	83.38
316.23	89.38
316.46	95.38
316.689	87.38
316.919	88.38
317.148	108.38
317.377	91.38
317.607	81.38
317.836	76.38
318.065	78.38
318.295	81.38
318.524	93.38
318.753	84.38
318.983	90.38
319.212	106.38
319.441	93.38
319.67	99.38
319.9	105.38
320.129	95.38
320.358	103.38
320.587	98.38
320.816	94.38
321.046	83.38
321.275	94.38
321.504	104.38
321.733	91.38
321.962	96.38
322.191	94.38
322.42	89.38
322.649	104.38
322.878	103.38
323.108	103.38
323.337	119.38
323.566	110.38
323.795	143.38
324.024	204.38
324.253	366.38
324.482	770.38
324.71	1542.38
324.939	2017.38
325.168	749.38
325.397	231.38
325.626	136.38
325.855	124.38
326.084	116.38
326.313	121.38
326.542	140.38
326.77	209.38
326.999	432.38
327.228	855.38
327.457	1592.38
327.686	1243.38
327.914	343.38
328.143	190.38
328.372	127.38
328.6	117.38
328.829	114.38
329.058	118.38
329.287	123.38
329.515	111.38
329.744	106.38
329.972	98.38
330.201	106.38
330.43	107.38
330.658	111.38
330.887	117.38
331.115	102.38
331.344	91.38
331.572	107.38
331.801	91.38
332.03	92.38
332.258	93.38
332.486	99.38
332.715	94.38
332.943	93.38
333.172	93.38
333.4	87.38
333.629	108.38
333.857	112.38
334.085	94.38
334.314	96.38
334.542	98.38
334.771	105.38
334.999	97.38
335.227	83.38
335.455	87.38
335.684	76.38
335.912	83.38
336.14	98.38
336.369	96.38
336.597	93.38
336.825	85.38
337.053	93.38
337.281	90.38
337.51	91.38
337.738	92.38
337.966	92.38
338.194	107.38
338.422	91.38
338.65	91.38
338.878	85.38
339.106	77.38
339.334	90.38
339.562	97.38
339.79	93.38
340.018	83.38
340.246	98.38
340.474	95.38
340.702	83.38
340.93	79.38
341.158	81.38
341.386	93.38
341.614	88.38
341.842	82.38
342.07	98.38
342.298	93.38
342.526	89.38
342.754	90.38
342.981	80.38
343.209	83.38
343.437	103.38
343.665	81.38
343.893	78.38
344.12	99.38
344.348	85.38
344.576	82.38
344.804	90.38
345.031	98.38
345.259	99.38
345.487	94.38
345.714	87.38
345.942	83.38
346.17	86.38
346.397	83.38
346.625	101.38
346.853	92.38
347.08	86.38
347.308	94.38
347.535	93.38
347.763	104.38
347.99	96.38
348.218	95.38
348.445	96.38
348.673	93.38
348.9	98.38
349.128	95.38
349.355	96.38
349.583	81.38
349.81	89.38
350.037	101.38
350.265	105.38
350.492	105.38
350.72	86.38
350.947	113.38
351.174	112.38
351.402	110.38
351.629	107.38
351.856	109.38
352.083	78.38
352.311	101.38
352.538	110.38
352.765	102.38
352.992	102.38
353.22	106.38
353.447	99.38
353.674	97.38
353.901	90.38
354.128	79.38
354.355	95.38
354.583	95.38
354.81	104.38
355.037	93.38
355.264	87.38
355.491	79.38
355.718	93.38
355.945	95.38
356.172	97.38
356.399	90.38
356.626	98.38
356.853	106.38
357.08	107.38
357.307	97.38
357.534	89.38
357.761	86.38
357.988	91.38
358.215	104.38
358.441	95.38
358.668	87.38
358.895	88.38
359.122	84.38
359.349	88.38
359.576	71.38
359.802	88.38
360.029	104.38
360.256	108.38
360.483	86.38
360.709	88.38
360.936	89.38
361.163	80.38
361.39	97.38
361.616	95.38
361.843	77.38
362.07	90.38
362.296	84.38
362.523	80.38
362.749	97.38
362.976	79.38
363.203	98.38
363.429	89.38
363.656	84.38
363.882	79.38
364.109	89.38
364.335	87.38
364.562	88.38
364.788	91.38
365.015	91.38
365.241	94.38
365.468	112.38
365.694	95.38
365.92	108.38
366.147	92.38
366.373	103.38
366.599	77.38
366.826	73.38
367.052	86.38
367.278	103.38
367.505	85.38
367.731	84.38
367.957	82.38
368.184	82.38
368.41	96.38
368.636	90.38
368.862	112.38
369.089	97.38
369.315	79.38
369.541	78.38
369.767	90.38
369.993	100.38
370.219	88.38
370.445	90.38
370.672	91.38
370.898	94.38
371.124	103.38
371.35	96.38
371.576	78.38
371.802	85.38
372.028	80.38
372.254	85.38
372.48	89.38
372.706	80.38
372.932	90.38
373.158	73.38
373.384	97.38
373.61	85.38
373.835	93.38
374.061	97.38
374.287	101.38
374.513	81.38
374.739	94.38
374.965	80.38
375.191	100.38
375.416	89.38
375.642	89.38
375.868	102.38
376.094	84.38
376.319	88.38
376.545	86.38
376.771	83.38
376.997	80.38
377.222	79.38
377.448	96.38
377.674	82.38
377.899	89.38
378.125	93.38
378.35	82.38
378.576	103.38
378.802	82.38
379.027	89.38
379.253	85.38
379.478	90.38
379.704	87.38
379.929	97.38
380.155	98.38
380.38	92.38
380.606	82.38
380.831	99.38
381.057	91.38
381.282	86.38
381.507	89.38
381.733	94.38
381.958	97.38
382.184	95.38
382.409	97.38
382.634	103.38
382.86	90.38
383.085	102.38
383.31	97.38
383.535	101.38
383.761	85.38
383.986	98.38
384.211	97.38
384.436	104.38
384.662	103.38
384.887	106.38
385.112	117.38
385.337	104.38
385.562	107.38
385.787	110.38
386.013	105.38
386.238	101.38
386.463	106.38
386.688	105.38
386.913	112.38
387.138	86.38
387.363	109.38
387.588	102.38
387.813	97.38
388.038	98.38
388.263	111.38
388.488	100.38
388.713	100.38
388.938	105.38
389.163	94.38
389.387	99.38
389.612	87.38
389.837	109.38
390.062	82.38
390.287	109.38
390.512	95.38
390.736	91.38
390.961	99.38
391.186	79.38
391.411	78.38
391.636	79.38
391.86	80.38
392.085	87.38
392.31	87.38
392.534	98.38
392.759	78.38
392.984	90.38
393.208	80.38
393.433	88.38
393.658	98.38
393.882	79.38
394.107	89.38
394.331	89.38
394.556	88.38
394.78	91.38
395.005	105.38
395.229	84.38
395.454	101.38
395.678	93.38
395.903	78.38
396.127	92.38
396.352	85.38
396.576	80.38
396.801	88.38
397.025	96.38
397.249	96.38
397.474	84.38
397.698	86.38
397.922	94.38
398.147	87.38
398.371	73.38
398.595	87.38
398.82	83.38
399.044	92.38
399.268	76.38
399.492	82.38
399.717	79.38
399.941	78.38
400.165	85.38
400.389	86.38
400.613	86.38
400.837	95.38
401.062	81.38
401.286	87.38
401.51	96.38
401.734	81.38
401.958	114.38
402.182	126.38
402.406	135.38
402.63	122.38
402.854	90.38
403.078	91.38
403.302	82.38
403.526	88.38
403.75	74.38
403.974	80.38
404.198	94.38
404.422	93.38
404.645	94.38
404.869	82.38
405.093	88.38
405.317	88.38
405.541	92.38
405.765	102.38
405.988	109.38
406.212	162.38
406.436	177.38
406.66	129.38
406.883	88.38
407.107	105.38
407.331	92.38
407.555	81.38
407.778	104.38
408.002	91.38
408.226	83.38
408.449	87.38
408.673	89.38
408.896	93.38
409.12	86.38
409.344	81.38
409.567	104.38
409.791	107.38
410.014	92.38
410.238	95.38
410.461	90.38
410.685	83.38
410.908	95.38
411.132	109.38
411.355	99.38
411.578	87.38
411.802	87.38
412.025	88.38
412.249	76.38
412.472	89.38
412.695	85.38
412.919	84.38
413.142	87.38
413.365	97.38
413.589	90.38
413.812	91.38
414.035	87.38
414.258	76.38
414.482	88.38
414.705	82.38
414.928	85.38
415.151	95.38
415.374	87.38
415.597	89.38
415.821	92.38
416.044	91.38
416.267	88.38
416.49	89.38
416.713	94.38
416.936	84.38
417.159	95.38
417.382	83.38
417.605	90.38
417.828	85.38
418.051	85.38
418.274	85.38
418.497	76.38
418.72	75.38
418.943	80.38
419.166	88.38
419.389	98.38
419.611	94.38
419.834	97.38
420.057	102.38
420.28	93.38
420.503	84.38
420.726	73.38
420.948	93.38
421.171	93.38
421.394	75.38
421.617	76.38
421.839	95.38
422.062	81.38
422.285	86.38
422.507	98.38
422.73	85.38
422.953	93.38
423.175	93.38
423.398	98.38
423.621	94.38
423.843	79.38
424.066	83.38
424.288	91.38
424.511	91.38
424.733	91.38
424.956	91.38
425.178	96.38
425.401	102.38
425.623	109.38
425.846	95.38
426.068	91.38
426.291	91.38
426.513	78.38
426.735	83.38
426.958	95.38
427.18	97.38
427.402	115.38
427.625	146.38
427.847	124.38
428.069	90.38
428.292	87.38
428.514	92.38
428.736	89.38
428.958	91.38
429.181	73.38
429.403	85.38
429.625	90.38
429.847	80.38
430.069	97.38
430.292	96.38
430.514	85.38
430.736	85.38
430.958	98.38
431.18	85.38
431.402	73.38
431.624	92.38
431.846	84.38
432.068	81.38
432.29	85.38
432.512	94.38
432.734	86.38
432.956	80.38
433.178	90.38
433.4	82.38
433.622	83.38
433.844	87.38
434.066	87.38
434.287	81.38
434.509	84.38
434.731	88.38
434.953	82.38
435.175	94.38
435.397	89.38
435.618	85.38
435.84	90.38
436.062	105.38
436.284	99.38
436.505	83.38
436.727	97.38
436.949	88.38
437.17	95.38
437.392	90.38
437.614	90.38
437.835	107.38
438.057	107.38
438.278	96.38
438.5	104.38
438.721	100.38
438.943	100.38
439.165	94.38
439.386	94.38
439.608	91.38
439.829	104.38
440.05	107.38
440.272	126.38
440.493	81.38
440.715	81.38
440.936	96.38
441.158	84.38
441.379	85.38
441.6	79.38
441.822	99.38
442.043	82.38
442.264	90.38
442.486	96.38
442.707	90.38
442.928	99.38
443.149	124.38
443.371	123.38
443.592	105.38
443.813	114.38
444.034	104.38
444.255	89.38
444.476	89.38
444.698	81.38
444.919	82.38
445.14	107.38
445.361	118.38
445.582	102.38
445.803	112.38
446.024	118.38
446.245	121.38
446.466	85.38
446.687	95.38
446.908	97.38
447.129	92.38
447.35	99.38
447.571	96.38
447.792	92.38
448.013	97.38
448.234	107.38
448.455	89.38
448.675	105.38
448.896	118.38
449.117	90.38
449.338	108.38
449.559	129.38
449.779	116.38
450	94.38
450.221	84.38
450.442	98.38
450.662	95.38
450.883	96.38
451.104	97.38
451.324	101.38
451.545	92.38
451.766	90.38
451.986	91.38
452.207	89.38
452.428	91.38
452.648	89.38
452.869	102.38
453.089	104.38
453.31	110.38
453.53	95.38
453.751	80.38
453.971	96.38
454.192	91.38
454.412	87.38
454.633	93.38
454.853	86.38
455.073	93.38
455.294	85.38
455.514	106.38
455.734	102.38
455.955	82.38
456.175	81.38
456.395	75.38
456.616	79.38
456.836	99.38
457.056	89.38
457.276	78.38
457.497	96.38
457.717	96.38
457.937	90.38
458.157	97.38
458.377	99.38
458.598	90.38
458.818	137.38
459.038	135.38
459.258	107.38
459.478	93.38
459.698	69.38
459.918	79.38
460.138	77.38
460.358	91.38
460.578	96.38
460.798	99.38
461.018	79.38
461.238	87.38
461.458	89.38
461.678	83.38
461.898	75.38
462.118	91.38
462.338	88.38
462.558	82.38
462.777	80.38
462.997	82.38
463.217	77.38
463.437	82.38
463.657	102.38
463.876	80.38
464.096	79.38
464.316	86.38
464.536	89.38
464.755	100.38
464.975	96.38
465.195	137.38
465.414	151.38
465.634	105.38
465.854	92.38
466.073	87.38
466.293	80.38
466.512	79.38
466.732	83.38
466.951	92.38
467.171	79.38
467.391	104.38
467.61	85.38
467.829	97.38
468.049	75.38
468.268	83.38
468.488	87.38
468.707	73.38
468.927	81.38
469.146	81.38
469.365	92.38
469.585	94.38
469.804	96.38
470.023	102.38
470.243	87.38
470.462	77.38
470.681	105.38
470.901	75.38
471.12	83.38
471.339	89.38
471.558	86.38
471.777	86.38
471.997	88.38
472.216	97.38
472.435	87.38
472.654	91.38
472.873	99.38
473.092	65.38
473.311	90.38
473.53	77.38
473.749	93.38
473.968	89.38
474.187	100.38
474.406	101.38
474.625	81.38
474.844	85.38
475.063	80.38
475.282	77.38
475.501	93.38
475.72	88.38
475.939	96.38
476.158	89.38
476.377	86.38
476.596	76.38
476.814	83.38
477.033	95.38
477.252	69.38
477.471	93.38
477.69	93.38
477.908	83.38
478.127	86.38
478.346	83.38
478.564	98.38
478.783	104.38
479.002	96.38
479.22	88.38
479.439	98.38
479.658	95.38
479.876	91.38
480.095	94.38
480.313	92.38
480.532	80.38
480.751	87.38
480.969	91.38
481.188	105.38
481.406	91.38
481.624	86.38
481.843	94.38
482.061	90.38
482.28	98.38
482.498	99.38
482.717	93.38
482.935	102.38
483.153	78.38
483.372	81.38
483.59	82.38
483.808	98.38
484.027	97.38
484.245	89.38
484.463	84.38
484.681	101.38
484.9	93.38
485.118	85.38
485.336	95.38
485.554	95.38
485.772	92.38
485.99	99.38
486.209	117.38
486.427	96.38
486.645	102.38
486.863	104.38
487.081	99.38
487.299	99.38
487.517	106.38
487.735	92.38
487.953	109.38
488.171	88.38
488.389	95.38
488.607	98.38
488.825	88.38
489.043	83.38
489.261	96.38
489.479	97.38
489.696	87.38
489.914	82.38
490.132	90.38
490.35	100.38
490.568	97.38
490.786	83.38
491.003	86.38
491.221	85.38
491.439	96.38
491.657	107.38
491.874	90.38
492.092	92.38
492.31	86.38
492.527	93.38
492.745	102.38
492.963	114.38
493.18	82.38
493.398	92.38
493.615	107.38
493.833	91.38
494.05	102.38
494.268	89.38
494.485	90.38
494.703	98.38
494.92	78.38
495.138	90.38
495.355	91.38
495.573	91.38
495.79	89.38
496.008	91.38
496.225	90.38
496.442	85.38
496.66	92.38
496.877	99.38
497.094	88.38
497.312	97.38
497.529	87.38
497.746	81.38
497.963	88.38
498.181	106.38
498.398	102.38
498.615	99.38
498.832	111.38
499.049	96.38
499.267	90.38
499.484	90.38
499.701	80.38
499.918	99.38
500.135	103.38
500.352	97.38
500.569	83.38
500.786	96.38
501.003	83.38
501.22	86.38
501.437	90.38
501.654	102.38
501.871	111.38
502.088	83.38
502.305	88.38
502.522	96.38
502.739	97.38
502.956	96.38
503.172	96.38
503.389	98.38
503.606	103.38
503.823	97.38
504.04	97.38
504.256	90.38
504.473	84.38
504.69	84.38
504.907	91.38
505.123	74.38
505.34	99.38
505.557	96.38
505.773	98.38
505.99	92.38
506.207	79.38
506.423	90.38
506.64	96.38
506.856	85.38
507.073	80.38
507.289	94.38
507.506	98.38
507.722	109.38
507.939	110.38
508.155	88.38
508.372	93.38
508.588	82.38
508.805	103.38
509.021	92.38
509.238	101.38
509.454	86.38
509.67	104.38
509.887	110.38
510.103	128.38
510.319	211.38
510.536	712.38
510.752	2185.38
510.968	565.38
511.184	141.38
511.401	103.38
511.617	98.38
511.833	102.38
512.049	97.38
512.265	96.38
512.481	92.38
512.698	103.38
512.914	88.38
513.13	85.38
513.346	108.38
513.562	105.38
513.778	106.38
513.994	91.38
514.21	107.38
514.426	103.38
514.642	128.38
514.858	102.38
515.074	145.38
515.29	401.38
515.506	1264.38
515.721	475.38
515.937	144.38
516.153	91.38
516.369	92.38
516.585	88.38
