Data from Uncirc_1995_H10_HRD10591_00098.txt Node
Date: Wed Jan 03 11:35:53 EST 2024
User: Yrep
Spectrometer: HR+D1059
Trigger mode: 1
Integration Time (sec): 1.000000E-1
Scans to average: 1
Electric dark correction enabled: true
Nonlinearity correction enabled: false
Boxcar width: 0
XAxis mode: Wavelengths
Number of Pixels in Spectrum: 2048
>>>>>Begin Spectral Data<<<<<
223.165	-21.12
223.4	-21.12
223.635	-21.12
223.869	-25.12
224.104	-32.12
224.338	-22.12
224.573	-9.12
224.808	-3.12
225.042	-20.12
225.277	-3.12
225.511	-1.12
225.746	-1.12
225.98	15.88
226.215	21.88
226.449	12.88
226.683	31.88
226.918	23.88
227.152	31.88
227.387	32.88
227.621	31.88
227.856	49.88
228.09	52.88
228.324	43.88
228.559	50.88
228.793	57.88
229.027	57.88
229.262	54.88
229.496	71.88
229.73	80.88
229.964	81.88
230.199	57.88
230.433	86.88
230.667	98.88
230.901	92.88
231.136	78.88
231.37	73.88
231.604	62.88
231.838	71.88
232.072	59.88
232.306	77.88
232.541	88.88
232.775	76.88
233.009	83.88
233.243	74.88
233.477	86.88
233.711	77.88
233.945	77.88
234.179	64.88
234.413	69.88
234.647	82.88
234.881	69.88
235.115	71.88
235.349	66.88
235.583	83.88
235.817	87.88
236.051	77.88
236.285	69.88
236.519	59.88
236.753	79.88
236.987	84.88
237.221	92.88
237.455	84.88
237.689	79.88
237.922	90.88
238.156	74.88
238.39	80.88
238.624	82.88
238.858	84.88
239.091	71.88
239.325	68.88
239.559	71.88
239.793	78.88
240.027	71.88
240.26	79.88
240.494	78.88
240.728	81.88
240.961	82.88
241.195	78.88
241.429	82.88
241.662	76.88
241.896	73.88
242.13	69.88
242.363	66.88
242.597	88.88
242.83	74.88
243.064	69.88
243.298	77.88
243.531	73.88
243.765	63.88
243.998	80.88
244.232	74.88
244.465	82.88
244.699	79.88
244.932	70.88
245.166	84.88
245.399	78.88
245.633	74.88
245.866	70.88
246.099	62.88
246.333	58.88
246.566	65.88
246.8	71.88
247.033	81.88
247.266	73.88
247.5	71.88
247.733	73.88
247.966	79.88
248.2	69.88
248.433	83.88
248.666	84.88
248.899	69.88
249.133	73.88
249.366	90.88
249.599	106.88
249.832	84.88
250.066	84.88
250.299	81.88
250.532	81.88
250.765	91.88
250.998	91.88
251.231	90.88
251.465	85.88
251.698	81.88
251.931	80.88
252.164	87.88
252.397	86.88
252.63	89.88
252.863	69.88
253.096	83.88
253.329	89.88
253.562	85.88
253.795	85.88
254.028	69.88
254.261	77.88
254.494	79.88
254.727	79.88
254.96	93.88
255.193	95.88
255.426	87.88
255.659	77.88
255.892	82.88
256.124	72.88
256.357	78.88
256.59	71.88
256.823	75.88
257.056	83.88
257.289	76.88
257.521	96.88
257.754	80.88
257.987	67.88
258.22	79.88
258.452	104.88
258.685	85.88
258.918	82.88
259.151	69.88
259.383	85.88
259.616	85.88
259.849	71.88
260.081	65.88
260.314	81.88
260.547	82.88
260.779	80.88
261.012	72.88
261.244	87.88
261.477	83.88
261.71	79.88
261.942	103.88
262.175	98.88
262.407	91.88
262.64	75.88
262.872	92.88
263.105	86.88
263.337	85.88
263.57	89.88
263.802	94.88
264.035	81.88
264.267	81.88
264.499	74.88
264.732	85.88
264.964	90.88
265.197	79.88
265.429	84.88
265.661	83.88
265.894	79.88
266.126	77.88
266.358	78.88
266.591	79.88
266.823	69.88
267.055	85.88
267.287	85.88
267.52	65.88
267.752	89.88
267.984	85.88
268.216	87.88
268.448	86.88
268.681	91.88
268.913	85.88
269.145	90.88
269.377	83.88
269.609	76.88
269.841	90.88
270.073	81.88
270.306	69.88
270.538	69.88
270.77	94.88
271.002	79.88
271.234	90.88
271.466	92.88
271.698	82.88
271.93	98.88
272.162	90.88
272.394	89.88
272.626	90.88
272.858	89.88
273.09	84.88
273.322	87.88
273.553	78.88
273.785	95.88
274.017	83.88
274.249	88.88
274.481	89.88
274.713	83.88
274.945	88.88
275.176	83.88
275.408	88.88
275.64	90.88
275.872	80.88
276.104	85.88
276.335	90.88
276.567	73.88
276.799	90.88
277.031	88.88
277.262	92.88
277.494	78.88
277.726	73.88
277.957	74.88
278.189	89.88
278.421	83.88
278.652	70.88
278.884	76.88
279.115	92.88
279.347	101.88
279.579	81.88
279.81	76.88
280.042	74.88
280.273	87.88
280.505	89.88
280.736	83.88
280.968	87.88
281.199	98.88
281.431	88.88
281.662	80.88
281.894	86.88
282.125	97.88
282.356	109.88
282.588	115.88
282.819	115.88
283.051	84.88
283.282	87.88
283.513	82.88
283.745	87.88
283.976	75.88
284.207	76.88
284.439	94.88
284.67	89.88
284.901	77.88
285.132	85.88
285.364	89.88
285.595	85.88
285.826	77.88
286.057	99.88
286.288	84.88
286.52	80.88
286.751	82.88
286.982	86.88
287.213	91.88
287.444	104.88
287.675	105.88
287.906	94.88
288.138	97.88
288.369	103.88
288.6	82.88
288.831	93.88
289.062	85.88
289.293	82.88
289.524	75.88
289.755	79.88
289.986	93.88
290.217	69.88
290.448	77.88
290.679	88.88
290.91	91.88
291.141	65.88
291.371	78.88
291.602	87.88
291.833	91.88
292.064	93.88
292.295	84.88
292.526	91.88
292.757	94.88
292.987	93.88
293.218	86.88
293.449	106.88
293.68	92.88
293.91	99.88
294.141	97.88
294.372	74.88
294.603	88.88
294.833	91.88
295.064	83.88
295.295	86.88
295.525	71.88
295.756	78.88
295.987	106.88
296.217	128.88
296.448	118.88
296.679	80.88
296.909	88.88
297.14	89.88
297.37	83.88
297.601	65.88
297.831	88.88
298.062	84.88
298.292	93.88
298.523	81.88
298.753	84.88
298.984	95.88
299.214	102.88
299.445	86.88
299.675	101.88
299.905	80.88
300.136	96.88
300.366	90.88
300.597	76.88
300.827	90.88
301.057	87.88
301.288	104.88
301.518	97.88
301.748	90.88
301.979	97.88
302.209	90.88
302.439	80.88
302.669	86.88
302.9	88.88
303.13	94.88
303.36	95.88
303.59	97.88
303.82	85.88
304.051	100.88
304.281	90.88
304.511	92.88
304.741	72.88
304.971	90.88
305.201	89.88
305.431	90.88
305.661	89.88
305.891	100.88
306.121	88.88
306.352	94.88
306.582	99.88
306.812	80.88
307.042	101.88
307.272	86.88
307.502	83.88
307.731	109.88
307.961	98.88
308.191	99.88
308.421	81.88
308.651	102.88
308.881	79.88
309.111	85.88
309.341	85.88
309.571	98.88
309.8	96.88
310.03	98.88
310.26	97.88
310.49	91.88
310.72	86.88
310.949	87.88
311.179	98.88
311.409	94.88
311.639	96.88
311.868	94.88
312.098	104.88
312.328	93.88
312.557	97.88
312.787	93.88
313.017	82.88
313.246	95.88
313.476	97.88
313.706	86.88
313.935	87.88
314.165	91.88
314.394	84.88
314.624	83.88
314.853	98.88
315.083	101.88
315.312	93.88
315.542	83.88
315.771	81.88
316.001	102.88
316.23	99.88
316.46	91.88
316.689	72.88
316.919	85.88
317.148	87.88
317.377	84.88
317.607	76.88
317.836	100.88
318.065	85.88
318.295	79.88
318.524	86.88
318.753	91.88
318.983	90.88
319.212	97.88
319.441	112.88
319.67	101.88
319.9	82.88
320.129	96.88
320.358	87.88
320.587	85.88
320.816	89.88
321.046	91.88
321.275	100.88
321.504	85.88
321.733	90.88
321.962	98.88
322.191	97.88
322.42	114.88
322.649	97.88
322.878	114.88
323.108	116.88
323.337	120.88
323.566	120.88
323.795	155.88
324.024	192.88
324.253	368.88
324.482	830.88
324.71	1733.88
324.939	2296.88
325.168	831.88
325.397	242.88
325.626	135.88
325.855	123.88
326.084	117.88
326.313	139.88
326.542	163.88
326.77	229.88
326.999	462.88
327.228	1004.88
327.457	1781.88
327.686	1423.88
327.914	389.88
328.143	182.88
328.372	140.88
328.6	108.88
328.829	105.88
329.058	97.88
329.287	114.88
329.515	107.88
329.744	112.88
329.972	94.88
330.201	103.88
330.43	114.88
330.658	99.88
330.887	132.88
331.115	104.88
331.344	99.88
331.572	105.88
331.801	97.88
332.03	103.88
332.258	122.88
332.486	96.88
332.715	89.88
332.943	104.88
333.172	89.88
333.4	95.88
333.629	117.88
333.857	98.88
334.085	91.88
334.314	94.88
334.542	102.88
334.771	95.88
334.999	107.88
335.227	88.88
335.455	95.88
335.684	94.88
335.912	85.88
336.14	105.88
336.369	90.88
336.597	87.88
336.825	97.88
337.053	89.88
337.281	93.88
337.51	80.88
337.738	97.88
337.966	101.88
338.194	97.88
338.422	94.88
338.65	96.88
338.878	84.88
339.106	93.88
339.334	94.88
339.562	75.88
339.79	84.88
340.018	99.88
340.246	92.88
340.474	80.88
340.702	85.88
340.93	94.88
341.158	96.88
341.386	100.88
341.614	85.88
341.842	81.88
342.07	78.88
342.298	96.88
342.526	98.88
342.754	101.88
342.981	83.88
343.209	93.88
343.437	94.88
343.665	86.88
343.893	88.88
344.12	89.88
344.348	90.88
344.576	80.88
344.804	80.88
345.031	97.88
345.259	93.88
345.487	92.88
345.714	91.88
345.942	90.88
346.17	91.88
346.397	86.88
346.625	92.88
346.853	93.88
347.08	104.88
347.308	99.88
347.535	96.88
347.763	94.88
347.99	106.88
348.218	108.88
348.445	91.88
348.673	91.88
348.9	97.88
349.128	96.88
349.355	107.88
349.583	98.88
349.81	108.88
350.037	97.88
350.265	86.88
350.492	89.88
350.72	90.88
350.947	105.88
351.174	110.88
351.402	103.88
351.629	102.88
351.856	93.88
352.083	107.88
352.311	109.88
352.538	117.88
352.765	114.88
352.992	108.88
353.22	92.88
353.447	103.88
353.674	99.88
353.901	111.88
354.128	90.88
354.355	78.88
354.583	101.88
354.81	89.88
355.037	83.88
355.264	86.88
355.491	82.88
355.718	89.88
355.945	104.88
356.172	99.88
356.399	88.88
356.626	86.88
356.853	91.88
357.08	90.88
357.307	88.88
357.534	93.88
357.761	94.88
357.988	81.88
358.215	80.88
358.441	80.88
358.668	90.88
358.895	90.88
359.122	113.88
359.349	105.88
359.576	77.88
359.802	89.88
360.029	99.88
360.256	101.88
360.483	96.88
360.709	82.88
360.936	109.88
361.163	86.88
361.39	96.88
361.616	101.88
361.843	82.88
362.07	87.88
362.296	74.88
362.523	95.88
362.749	100.88
362.976	81.88
363.203	84.88
363.429	86.88
363.656	87.88
363.882	88.88
364.109	91.88
364.335	79.88
364.562	89.88
364.788	101.88
365.015	93.88
365.241	98.88
365.468	107.88
365.694	101.88
365.92	85.88
366.147	78.88
366.373	79.88
366.599	67.88
366.826	79.88
367.052	73.88
367.278	106.88
367.505	80.88
367.731	94.88
367.957	63.88
368.184	91.88
368.41	96.88
368.636	102.88
368.862	99.88
369.089	108.88
369.315	80.88
369.541	88.88
369.767	90.88
369.993	94.88
370.219	78.88
370.445	92.88
370.672	87.88
370.898	83.88
371.124	107.88
371.35	86.88
371.576	86.88
371.802	89.88
372.028	87.88
372.254	84.88
372.48	98.88
372.706	80.88
372.932	82.88
373.158	83.88
373.384	87.88
373.61	90.88
373.835	102.88
374.061	92.88
374.287	71.88
374.513	77.88
374.739	96.88
374.965	87.88
375.191	89.88
375.416	86.88
375.642	80.88
375.868	89.88
376.094	80.88
376.319	90.88
376.545	81.88
376.771	89.88
376.997	83.88
377.222	84.88
377.448	98.88
377.674	78.88
377.899	91.88
378.125	99.88
378.35	86.88
378.576	82.88
378.802	84.88
379.027	89.88
379.253	104.88
379.478	89.88
379.704	78.88
379.929	89.88
380.155	89.88
380.38	75.88
380.606	87.88
380.831	98.88
381.057	104.88
381.282	85.88
381.507	88.88
381.733	97.88
381.958	90.88
382.184	91.88
382.409	101.88
382.634	105.88
382.86	99.88
383.085	105.88
383.31	108.88
383.535	110.88
383.761	94.88
383.986	90.88
384.211	86.88
384.436	79.88
384.662	87.88
384.887	91.88
385.112	97.88
385.337	111.88
385.562	85.88
385.787	80.88
386.013	117.88
386.238	98.88
386.463	93.88
386.688	96.88
386.913	98.88
387.138	97.88
387.363	98.88
387.588	98.88
387.813	96.88
388.038	109.88
388.263	95.88
388.488	105.88
388.713	102.88
388.938	88.88
389.163	83.88
389.387	102.88
389.612	95.88
389.837	87.88
390.062	92.88
390.287	96.88
390.512	94.88
390.736	82.88
390.961	73.88
391.186	93.88
391.411	99.88
391.636	86.88
391.86	88.88
392.085	90.88
392.31	87.88
392.534	77.88
392.759	90.88
392.984	89.88
393.208	87.88
393.433	82.88
393.658	84.88
393.882	92.88
394.107	76.88
394.331	93.88
394.556	87.88
394.78	89.88
395.005	91.88
395.229	81.88
395.454	84.88
395.678	95.88
395.903	79.88
396.127	85.88
396.352	102.88
396.576	90.88
396.801	78.88
397.025	85.88
397.249	89.88
397.474	90.88
397.698	90.88
397.922	85.88
398.147	72.88
398.371	79.88
398.595	93.88
398.82	96.88
399.044	84.88
399.268	76.88
399.492	86.88
399.717	77.88
399.941	85.88
400.165	96.88
400.389	81.88
400.613	91.88
400.837	105.88
401.062	83.88
401.286	83.88
401.51	74.88
401.734	78.88
401.958	96.88
402.182	119.88
402.406	160.88
402.63	95.88
402.854	95.88
403.078	96.88
403.302	92.88
403.526	91.88
403.75	75.88
403.974	86.88
404.198	94.88
404.422	82.88
404.645	83.88
404.869	81.88
405.093	87.88
405.317	94.88
405.541	96.88
405.765	81.88
405.988	103.88
406.212	161.88
406.436	207.88
406.66	126.88
406.883	102.88
407.107	100.88
407.331	92.88
407.555	89.88
407.778	90.88
408.002	83.88
408.226	82.88
408.449	83.88
408.673	82.88
408.896	103.88
409.12	101.88
409.344	89.88
409.567	83.88
409.791	90.88
410.014	93.88
410.238	108.88
410.461	93.88
410.685	90.88
410.908	92.88
411.132	101.88
411.355	95.88
411.578	86.88
411.802	79.88
412.025	90.88
412.249	82.88
412.472	88.88
412.695	80.88
412.919	96.88
413.142	86.88
413.365	86.88
413.589	78.88
413.812	81.88
414.035	86.88
414.258	77.88
414.482	92.88
414.705	76.88
414.928	93.88
415.151	92.88
415.374	88.88
415.597	87.88
415.821	89.88
416.044	106.88
416.267	101.88
416.49	79.88
416.713	94.88
416.936	97.88
417.159	80.88
417.382	98.88
417.605	88.88
417.828	77.88
418.051	78.88
418.274	78.88
418.497	84.88
418.72	78.88
418.943	97.88
419.166	87.88
419.389	85.88
419.611	89.88
419.834	82.88
420.057	95.88
420.28	83.88
420.503	100.88
420.726	85.88
420.948	88.88
421.171	86.88
421.394	94.88
421.617	92.88
421.839	92.88
422.062	93.88
422.285	93.88
422.507	99.88
422.73	91.88
422.953	86.88
423.175	85.88
423.398	80.88
423.621	77.88
423.843	87.88
424.066	96.88
424.288	94.88
424.511	83.88
424.733	85.88
424.956	105.88
425.178	96.88
425.401	91.88
425.623	89.88
425.846	86.88
426.068	94.88
426.291	68.88
426.513	97.88
426.735	77.88
426.958	98.88
427.18	110.88
427.402	153.88
427.625	151.88
427.847	115.88
428.069	107.88
428.292	92.88
428.514	85.88
428.736	73.88
428.958	81.88
429.181	79.88
429.403	66.88
429.625	89.88
429.847	87.88
430.069	97.88
430.292	88.88
430.514	83.88
430.736	87.88
430.958	90.88
431.18	84.88
431.402	87.88
431.624	86.88
431.846	72.88
432.068	90.88
432.29	91.88
432.512	71.88
432.734	95.88
432.956	80.88
433.178	93.88
433.4	97.88
433.622	88.88
433.844	94.88
434.066	86.88
434.287	89.88
434.509	78.88
434.731	86.88
434.953	88.88
435.175	95.88
435.397	86.88
435.618	90.88
435.84	107.88
436.062	123.88
436.284	108.88
436.505	109.88
436.727	100.88
436.949	96.88
437.17	98.88
437.392	74.88
437.614	93.88
437.835	107.88
438.057	114.88
438.278	99.88
438.5	103.88
438.721	131.88
438.943	112.88
439.165	88.88
439.386	89.88
439.608	105.88
439.829	106.88
440.05	117.88
440.272	142.88
440.493	105.88
440.715	89.88
440.936	88.88
441.158	78.88
441.379	102.88
441.6	82.88
441.822	92.88
442.043	89.88
442.264	96.88
442.486	90.88
442.707	97.88
442.928	93.88
443.149	122.88
443.371	126.88
443.592	99.88
443.813	105.88
444.034	107.88
444.255	103.88
444.476	85.88
444.698	86.88
444.919	80.88
445.14	119.88
445.361	113.88
445.582	117.88
445.803	120.88
446.024	117.88
446.245	139.88
446.466	117.88
446.687	98.88
446.908	74.88
447.129	94.88
447.35	90.88
447.571	102.88
447.792	89.88
448.013	94.88
448.234	98.88
448.455	94.88
448.675	106.88
448.896	110.88
449.117	104.88
449.338	96.88
449.559	135.88
449.779	125.88
450	99.88
450.221	91.88
450.442	97.88
450.662	94.88
450.883	97.88
451.104	105.88
451.324	93.88
451.545	92.88
451.766	87.88
451.986	91.88
452.207	101.88
452.428	69.88
452.648	102.88
452.869	112.88
453.089	113.88
453.31	114.88
453.53	97.88
453.751	93.88
453.971	109.88
454.192	109.88
454.412	85.88
454.633	66.88
454.853	82.88
455.073	83.88
455.294	94.88
455.514	92.88
455.734	95.88
455.955	87.88
456.175	95.88
456.395	83.88
456.616	89.88
456.836	85.88
457.056	78.88
457.276	85.88
457.497	90.88
457.717	89.88
457.937	85.88
458.157	94.88
458.377	87.88
458.598	106.88
458.818	146.88
459.038	142.88
459.258	135.88
459.478	83.88
459.698	82.88
459.918	96.88
460.138	87.88
460.358	77.88
460.578	84.88
460.798	91.88
461.018	80.88
461.238	83.88
461.458	73.88
461.678	87.88
461.898	88.88
462.118	93.88
462.338	90.88
462.558	94.88
462.777	78.88
462.997	72.88
463.217	84.88
463.437	85.88
463.657	97.88
463.876	91.88
464.096	89.88
464.316	92.88
464.536	101.88
464.755	88.88
464.975	98.88
465.195	155.88
465.414	150.88
465.634	93.88
465.854	85.88
466.073	81.88
466.293	92.88
466.512	98.88
466.732	87.88
466.951	80.88
467.171	92.88
467.391	96.88
467.61	86.88
467.829	93.88
468.049	99.88
468.268	84.88
468.488	82.88
468.707	84.88
468.927	89.88
469.146	91.88
469.365	93.88
469.585	97.88
469.804	89.88
470.023	85.88
470.243	82.88
470.462	97.88
470.681	102.88
470.901	81.88
471.12	98.88
471.339	91.88
471.558	79.88
471.777	90.88
471.997	96.88
472.216	95.88
472.435	75.88
472.654	83.88
472.873	84.88
473.092	93.88
473.311	98.88
473.53	82.88
473.749	82.88
473.968	83.88
474.187	86.88
474.406	77.88
474.625	86.88
474.844	84.88
475.063	85.88
475.282	105.88
475.501	86.88
475.72	90.88
475.939	90.88
476.158	87.88
476.377	74.88
476.596	96.88
476.814	90.88
477.033	94.88
477.252	77.88
477.471	87.88
477.69	89.88
477.908	86.88
478.127	97.88
478.346	83.88
478.564	87.88
478.783	91.88
479.002	93.88
479.22	83.88
479.439	97.88
479.658	90.88
479.876	90.88
480.095	74.88
480.313	107.88
480.532	82.88
480.751	72.88
480.969	104.88
481.188	102.88
481.406	76.88
481.624	90.88
481.843	91.88
482.061	102.88
482.28	86.88
482.498	105.88
482.717	93.88
482.935	78.88
483.153	79.88
483.372	75.88
483.59	77.88
483.808	84.88
484.027	88.88
484.245	90.88
484.463	99.88
484.681	94.88
484.9	84.88
485.118	99.88
485.336	99.88
485.554	96.88
485.772	84.88
485.99	103.88
486.209	104.88
486.427	104.88
486.645	94.88
486.863	103.88
487.081	91.88
487.299	105.88
487.517	90.88
487.735	92.88
487.953	81.88
488.171	92.88
488.389	95.88
488.607	81.88
488.825	88.88
489.043	86.88
489.261	97.88
489.479	89.88
489.696	83.88
489.914	82.88
490.132	94.88
490.35	89.88
490.568	87.88
490.786	82.88
491.003	81.88
491.221	85.88
491.439	87.88
491.657	93.88
491.874	81.88
492.092	83.88
492.31	88.88
492.527	76.88
492.745	79.88
492.963	90.88
493.18	82.88
493.398	91.88
493.615	91.88
493.833	96.88
494.05	87.88
494.268	99.88
494.485	79.88
494.703	84.88
494.92	81.88
495.138	79.88
495.355	94.88
495.573	80.88
495.79	97.88
496.008	110.88
496.225	95.88
496.442	89.88
496.66	94.88
496.877	77.88
497.094	111.88
497.312	86.88
497.529	86.88
497.746	91.88
497.963	92.88
498.181	78.88
498.398	105.88
498.615	105.88
498.832	97.88
499.049	98.88
499.267	96.88
499.484	89.88
499.701	98.88
499.918	90.88
500.135	90.88
500.352	101.88
500.569	88.88
500.786	97.88
501.003	78.88
501.22	88.88
501.437	92.88
501.654	106.88
501.871	92.88
502.088	98.88
502.305	90.88
502.522	104.88
502.739	87.88
502.956	97.88
503.172	91.88
503.389	94.88
503.606	96.88
503.823	93.88
504.04	110.88
504.256	90.88
504.473	85.88
504.69	97.88
504.907	87.88
505.123	94.88
505.34	101.88
505.557	93.88
505.773	89.88
505.99	91.88
506.207	85.88
506.423	92.88
506.64	89.88
506.856	82.88
507.073	97.88
507.289	89.88
507.506	91.88
507.722	104.88
507.939	107.88
508.155	86.88
508.372	96.88
508.588	90.88
508.805	97.88
509.021	99.88
509.238	106.88
509.454	95.88
509.67	110.88
509.887	114.88
510.103	142.88
510.319	233.88
510.536	772.88
510.752	2457.88
510.968	658.88
511.184	157.88
511.401	111.88
511.617	95.88
511.833	103.88
512.049	79.88
512.265	84.88
512.481	99.88
512.698	98.88
512.914	96.88
513.13	81.88
513.346	82.88
513.562	79.88
513.778	106.88
513.994	89.88
514.21	101.88
514.426	101.88
514.642	126.88
514.858	120.88
515.074	163.88
515.29	431.88
515.506	1377.88
515.721	523.88
515.937	146.88
516.153	107.88
516.369	104.88
516.585	99.88
