Data from Uncirc_1995_H10_HRD10591_00017.txt Node
Date: Wed Jan 03 11:35:37 EST 2024
User: Yrep
Spectrometer: HR+D1059
Trigger mode: 1
Integration Time (sec): 1.000000E-1
Scans to average: 1
Electric dark correction enabled: true
Nonlinearity correction enabled: false
Boxcar width: 0
XAxis mode: Wavelengths
Number of Pixels in Spectrum: 2048
>>>>>Begin Spectral Data<<<<<
223.165	-14.62
223.4	-14.62
223.635	-14.62
223.869	-20.62
224.104	-16.62
224.338	-9.62
224.573	-7.62
224.808	-11.62
225.042	-12.62
225.277	-10.62
225.511	-23.62
225.746	1.38
225.98	7.38
226.215	16.38
226.449	17.38
226.683	28.38
226.918	25.38
227.152	31.38
227.387	33.38
227.621	36.38
227.856	36.38
228.09	47.38
228.324	44.38
228.559	75.38
228.793	171.38
229.027	454.38
229.262	534.38
229.496	592.38
229.73	776.38
229.964	790.38
230.199	538.38
230.433	469.38
230.667	480.38
230.901	458.38
231.136	447.38
231.37	456.38
231.604	441.38
231.838	470.38
232.072	446.38
232.306	457.38
232.541	454.38
232.775	484.38
233.009	470.38
233.243	470.38
233.477	489.38
233.711	477.38
233.945	501.38
234.179	520.38
234.413	504.38
234.647	538.38
234.881	532.38
235.115	534.38
235.349	559.38
235.583	556.38
235.817	593.38
236.051	635.38
236.285	629.38
236.519	623.38
236.753	686.38
236.987	902.38
237.221	1306.38
237.455	1433.38
237.689	895.38
237.922	762.38
238.156	727.38
238.39	695.38
238.624	673.38
238.858	632.38
239.091	648.38
239.325	674.38
239.559	697.38
239.793	690.38
240.027	765.38
240.26	904.38
240.494	946.38
240.728	930.38
240.961	902.38
241.195	818.38
241.429	788.38
241.662	794.38
241.896	778.38
242.13	769.38
242.363	790.38
242.597	823.38
242.83	848.38
243.064	849.38
243.298	852.38
243.531	846.38
243.765	814.38
243.998	855.38
244.232	857.38
244.465	868.38
244.699	910.38
244.932	918.38
245.166	922.38
245.399	920.38
245.633	912.38
245.866	920.38
246.099	927.38
246.333	940.38
246.566	968.38
246.8	998.38
247.033	1030.38
247.266	1058.38
247.5	1111.38
247.733	1145.38
247.966	1163.38
248.2	1134.38
248.433	1138.38
248.666	1187.38
248.899	1344.38
249.133	1430.38
249.366	1437.38
249.599	1318.38
249.832	1200.38
250.066	1222.38
250.299	1231.38
250.532	1329.38
250.765	1521.38
250.998	1714.38
251.231	1671.38
251.465	1528.38
251.698	1434.38
251.931	1416.38
252.164	1427.38
252.397	1437.38
252.63	1482.38
252.863	1559.38
253.096	1649.38
253.329	1779.38
253.562	1649.38
253.795	1593.38
254.028	1615.38
254.261	1638.38
254.494	1758.38
254.727	2102.38
254.96	2232.38
255.193	1978.38
255.426	1761.38
255.659	1668.38
255.892	1622.38
256.124	1552.38
256.357	1556.38
256.59	1527.38
256.823	1519.38
257.056	1508.38
257.289	1527.38
257.521	1556.38
257.754	1576.38
257.987	1561.38
258.22	1522.38
258.452	1548.38
258.685	1564.38
258.918	1570.38
259.151	1630.38
259.383	1733.38
259.616	1707.38
259.849	1741.38
260.081	1900.38
260.314	2074.38
260.547	2021.38
260.779	1878.38
261.012	1814.38
261.244	1759.38
261.477	1681.38
261.71	1722.38
261.942	1762.38
262.175	1724.38
262.407	1686.38
262.64	1625.38
262.872	1652.38
263.105	1622.38
263.337	1655.38
263.57	1668.38
263.802	1686.38
264.035	1681.38
264.267	1674.38
264.499	1697.38
264.732	1712.38
264.964	1725.38
265.197	1696.38
265.429	1728.38
265.661	1702.38
265.894	1742.38
266.126	1750.38
266.358	1779.38
266.591	1785.38
266.823	1854.38
267.055	1885.38
267.287	1867.38
267.52	1862.38
267.752	1833.38
267.984	1828.38
268.216	1924.38
268.448	1927.38
268.681	1998.38
268.913	2102.38
269.145	2314.38
269.377	2386.38
269.609	2317.38
269.841	2273.38
270.073	2354.38
270.306	2665.38
270.538	2782.38
270.77	2660.38
271.002	2525.38
271.234	2456.38
271.466	2610.38
271.698	2768.38
271.93	2751.38
272.162	2702.38
272.394	2661.38
272.626	2524.38
272.858	2378.38
273.09	2339.38
273.322	2304.38
273.553	2265.38
273.785	2215.38
274.017	2246.38
274.249	2289.38
274.481	2282.38
274.713	2273.38
274.945	2266.38
275.176	2285.38
275.408	2290.38
275.64	2286.38
275.872	2268.38
276.104	2333.38
276.335	2310.38
276.567	2413.38
276.799	2537.38
277.031	2698.38
277.262	2840.38
277.494	2736.38
277.726	2572.38
277.957	2486.38
278.189	2425.38
278.421	2420.38
278.652	2389.38
278.884	2348.38
279.115	2350.38
279.347	2389.38
279.579	2396.38
279.81	2347.38
280.042	2376.38
280.273	2386.38
280.505	2437.38
280.736	2413.38
280.968	2456.38
281.199	2396.38
281.431	2460.38
281.662	2436.38
281.894	2431.38
282.125	2502.38
282.356	2707.38
282.588	2731.38
282.819	2590.38
283.051	2528.38
283.282	2474.38
283.513	2547.38
283.745	2655.38
283.976	2630.38
284.207	2615.38
284.439	2617.38
284.67	2597.38
284.901	2679.38
285.132	2627.38
285.364	2640.38
285.595	2636.38
285.826	2628.38
286.057	2709.38
286.288	2640.38
286.52	2670.38
286.751	2687.38
286.982	2718.38
287.213	2710.38
287.444	2779.38
287.675	2793.38
287.906	2863.38
288.138	2886.38
288.369	2919.38
288.6	2877.38
288.831	2846.38
289.062	2833.38
289.293	2800.38
289.524	2828.38
289.755	2825.38
289.986	2835.38
290.217	2785.38
290.448	2804.38
290.679	2798.38
290.91	2815.38
291.141	2804.38
291.371	2810.38
291.602	2860.38
291.833	2815.38
292.064	2804.38
292.295	2796.38
292.526	2847.38
292.757	2808.38
292.987	2762.38
293.218	2804.38
293.449	2851.38
293.68	2844.38
293.91	2843.38
294.141	2848.38
294.372	2799.38
294.603	2848.38
294.833	2834.38
295.064	2848.38
295.295	2895.38
295.525	2904.38
295.756	2927.38
295.987	2948.38
296.217	3148.38
296.448	3078.38
296.679	2944.38
296.909	2902.38
297.14	3001.38
297.37	2988.38
297.601	3066.38
297.831	2975.38
298.062	3032.38
298.292	3077.38
298.523	3111.38
298.753	3115.38
298.984	3054.38
299.214	3097.38
299.445	3069.38
299.675	3128.38
299.905	3188.38
300.136	3076.38
300.366	3111.38
300.597	3198.38
300.827	3230.38
301.057	3293.38
301.288	3375.38
301.518	3317.38
301.748	3345.38
301.979	3366.38
302.209	3375.38
302.439	3335.38
302.669	3306.38
302.9	3327.38
303.13	3260.38
303.36	3289.38
303.59	3356.38
303.82	3417.38
304.051	3318.38
304.281	3364.38
304.511	3263.38
304.741	3279.38
304.971	3297.38
305.201	3244.38
305.431	3244.38
305.661	3314.38
305.891	3259.38
306.121	3270.38
306.352	3275.38
306.582	3215.38
306.812	3229.38
307.042	3237.38
307.272	3199.38
307.502	3220.38
307.731	3249.38
307.961	3197.38
308.191	3280.38
308.421	3257.38
308.651	3239.38
308.881	3265.38
309.111	3320.38
309.341	3344.38
309.571	3386.38
309.8	3455.38
310.03	3503.38
310.26	3503.38
310.49	3451.38
310.72	3619.38
310.949	3652.38
311.179	3688.38
311.409	3528.38
311.639	3530.38
311.868	3550.38
312.098	3609.38
312.328	3708.38
312.557	3821.38
312.787	3916.38
313.017	3725.38
313.246	3719.38
313.476	3622.38
313.706	3648.38
313.935	3781.38
314.165	3881.38
314.394	3833.38
314.624	3828.38
314.853	3754.38
315.083	3713.38
315.312	3730.38
315.542	3704.38
315.771	3647.38
316.001	3631.38
316.23	3622.38
316.46	3626.38
316.689	3674.38
316.919	3690.38
317.148	3707.38
317.377	3646.38
317.607	3658.38
317.836	3711.38
318.065	3606.38
318.295	3607.38
318.524	3628.38
318.753	3598.38
318.983	3634.38
319.212	3662.38
319.441	3724.38
319.67	3691.38
319.9	3608.38
320.129	3634.38
320.358	3737.38
320.587	3661.38
320.816	3720.38
321.046	3805.38
321.275	3737.38
321.504	3767.38
321.733	3768.38
321.962	3828.38
322.191	3905.38
322.42	4019.38
322.649	4089.38
322.878	4081.38
323.108	4147.38
323.337	4315.38
323.566	4522.38
323.795	4755.38
324.024	5243.38
324.253	6629.38
324.482	9862.38
324.71	14413.38
324.939	15618.38
325.168	11348.38
325.397	6139.38
325.626	4992.38
325.855	4681.38
326.084	4545.38
326.313	4613.38
326.542	4670.38
326.77	5185.38
326.999	6488.38
327.228	9369.38
327.457	13486.38
327.686	12756.38
327.914	6828.38
328.143	5498.38
328.372	5168.38
328.6	4967.38
328.829	5013.38
329.058	5108.38
329.287	4977.38
329.515	4763.38
329.744	4564.38
329.972	4573.38
330.201	4645.38
330.43	4856.38
330.658	5117.38
330.887	5448.38
331.115	5092.38
331.344	4798.38
331.572	4795.38
331.801	4860.38
332.03	4828.38
332.258	4829.38
332.486	4864.38
332.715	4941.38
332.943	5158.38
333.172	5317.38
333.4	5393.38
333.629	5452.38
333.857	5487.38
334.085	5411.38
334.314	5345.38
334.542	5251.38
334.771	5255.38
334.999	5136.38
335.227	5134.38
335.455	5046.38
335.684	4956.38
335.912	4982.38
336.14	4858.38
336.369	4855.38
336.597	4852.38
336.825	4818.38
337.053	4743.38
337.281	4715.38
337.51	4718.38
337.738	4650.38
337.966	4548.38
338.194	4558.38
338.422	4543.38
338.65	4538.38
338.878	4552.38
339.106	4434.38
339.334	4507.38
339.562	4397.38
339.79	4337.38
340.018	4335.38
340.246	4341.38
340.474	4331.38
340.702	4340.38
340.93	4359.38
341.158	4333.38
341.386	4300.38
341.614	4398.38
341.842	4312.38
342.07	4252.38
342.298	4273.38
342.526	4193.38
342.754	4243.38
342.981	4217.38
343.209	4411.38
343.437	4628.38
343.665	4849.38
343.893	5116.38
344.12	5160.38
344.348	4944.38
344.576	4716.38
344.804	4607.38
345.031	4557.38
345.259	4508.38
345.487	4344.38
345.714	4292.38
345.942	4229.38
346.17	4213.38
346.397	4140.38
346.625	4176.38
346.853	4136.38
347.08	4129.38
347.308	4189.38
347.535	4164.38
347.763	4262.38
347.99	4213.38
348.218	4259.38
348.445	4272.38
348.673	4139.38
348.9	4139.38
349.128	4051.38
349.355	4007.38
349.583	4028.38
349.81	4036.38
350.037	4012.38
350.265	4019.38
350.492	4040.38
350.72	3943.38
350.947	4041.38
351.174	4145.38
351.402	4167.38
351.629	4076.38
351.856	4094.38
352.083	4105.38
352.311	4102.38
352.538	4124.38
352.765	4086.38
352.992	4087.38
353.22	4037.38
353.447	4018.38
353.674	3933.38
353.901	3931.38
354.128	3898.38
354.355	3928.38
354.583	3908.38
354.81	3931.38
355.037	3933.38
355.264	3901.38
355.491	3895.38
355.718	3919.38
355.945	3901.38
356.172	3848.38
356.399	3916.38
356.626	3894.38
356.853	3964.38
357.08	3902.38
357.307	3884.38
357.534	3912.38
357.761	3953.38
357.988	3918.38
358.215	3994.38
358.441	3951.38
358.668	3902.38
358.895	3984.38
359.122	4000.38
359.349	4067.38
359.576	4098.38
359.802	4328.38
360.029	4513.38
360.256	4484.38
360.483	4290.38
360.709	4063.38
360.936	4080.38
361.163	4143.38
361.39	4138.38
361.616	4078.38
361.843	4077.38
362.07	4102.38
362.296	4057.38
362.523	4046.38
362.749	4054.38
362.976	4022.38
363.203	3959.38
363.429	3972.38
363.656	4027.38
363.882	4030.38
364.109	3948.38
364.335	3978.38
364.562	4000.38
364.788	3978.38
365.015	3985.38
365.241	4013.38
365.468	3996.38
365.694	4046.38
365.92	4027.38
366.147	4038.38
366.373	3976.38
366.599	4003.38
366.826	3938.38
367.052	3954.38
367.278	4068.38
367.505	3995.38
367.731	4032.38
367.957	4034.38
368.184	4079.38
368.41	4148.38
368.636	4184.38
368.862	4248.38
369.089	4126.38
369.315	4077.38
369.541	4051.38
369.767	4135.38
369.993	4162.38
370.219	4083.38
370.445	4171.38
370.672	4166.38
370.898	4157.38
371.124	4221.38
371.35	4262.38
371.576	4308.38
371.802	4240.38
372.028	4212.38
372.254	4237.38
372.48	4288.38
372.706	4398.38
372.932	4440.38
373.158	4360.38
373.384	4315.38
373.61	4321.38
373.835	4369.38
374.061	4307.38
374.287	4394.38
374.513	4458.38
374.739	4577.38
374.965	4727.38
375.191	4678.38
375.416	4660.38
375.642	4449.38
375.868	4481.38
376.094	4399.38
376.319	4328.38
376.545	4302.38
376.771	4326.38
376.997	4293.38
377.222	4316.38
377.448	4217.38
377.674	4283.38
377.899	4273.38
378.125	4248.38
378.35	4246.38
378.576	4231.38
378.802	4217.38
379.027	4198.38
379.253	4306.38
379.478	4252.38
379.704	4258.38
379.929	4273.38
380.155	4294.38
380.38	4280.38
380.606	4318.38
380.831	4309.38
381.057	4357.38
381.282	4289.38
381.507	4335.38
381.733	4350.38
381.958	4372.38
382.184	4462.38
382.409	4452.38
382.634	4522.38
382.86	4581.38
383.085	4616.38
383.31	4629.38
383.535	4698.38
383.761	4821.38
383.986	4815.38
384.211	4948.38
384.436	4991.38
384.662	5124.38
384.887	5102.38
385.112	5120.38
385.337	5226.38
385.562	5246.38
385.787	5214.38
386.013	5246.38
386.238	5228.38
386.463	5291.38
386.688	5272.38
386.913	5144.38
387.138	5135.38
387.363	5161.38
387.588	5006.38
387.813	5160.38
388.038	5132.38
388.263	5167.38
388.488	5199.38
388.713	5124.38
388.938	5017.38
389.163	5142.38
389.387	5095.38
389.612	4984.38
389.837	5078.38
390.062	5044.38
390.287	5088.38
390.512	5022.38
390.736	5109.38
390.961	5247.38
391.186	5276.38
391.411	5444.38
391.636	5609.38
391.86	5745.38
392.085	5783.38
392.31	5665.38
392.534	5544.38
392.759	5454.38
392.984	5340.38
393.208	5349.38
393.433	5309.38
393.658	5286.38
393.882	5340.38
394.107	5320.38
394.331	5397.38
394.556	5377.38
394.78	5476.38
395.005	5466.38
395.229	5487.38
395.454	5695.38
395.678	5735.38
395.903	5773.38
396.127	5776.38
396.352	5655.38
396.576	5468.38
396.801	5435.38
397.025	5438.38
397.249	5658.38
397.474	5842.38
397.698	5781.38
397.922	5932.38
398.147	6030.38
398.371	6085.38
398.595	6240.38
398.82	6468.38
399.044	7032.38
399.268	7904.38
399.492	8952.38
399.717	9629.38
399.941	9348.38
400.165	8642.38
400.389	7968.38
400.613	7225.38
400.837	6794.38
401.062	6617.38
401.286	6433.38
401.51	6523.38
401.734	6412.38
401.958	6593.38
402.182	6641.38
402.406	6776.38
402.63	6818.38
402.854	6925.38
403.078	7067.38
403.302	7220.38
403.526	7344.38
403.75	7277.38
403.974	7328.38
404.198	7388.38
404.422	7448.38
404.645	7331.38
404.869	7216.38
405.093	7438.38
405.317	7403.38
405.541	7408.38
405.765	7193.38
405.988	7139.38
406.212	7296.38
406.436	7451.38
406.66	7604.38
406.883	7655.38
407.107	8316.38
407.331	8725.38
407.555	9340.38
407.778	8900.38
408.002	8183.38
408.226	7886.38
408.449	7666.38
408.673	7589.38
408.896	7740.38
409.12	7812.38
409.344	7494.38
409.567	7148.38
409.791	7124.38
410.014	6967.38
410.238	6921.38
410.461	6989.38
410.685	6993.38
410.908	7122.38
411.132	7315.38
411.355	7339.38
411.578	6934.38
411.802	6729.38
412.025	6792.38
412.249	6734.38
412.472	6742.38
412.695	6641.38
412.919	6430.38
413.142	6423.38
413.365	6364.38
413.589	6416.38
413.812	6326.38
414.035	6273.38
414.258	6384.38
414.482	6397.38
414.705	6354.38
414.928	6350.38
415.151	6352.38
415.374	6318.38
415.597	6271.38
415.821	6164.38
416.044	6219.38
416.267	6150.38
416.49	6177.38
416.713	6172.38
416.936	6221.38
417.159	6269.38
417.382	6288.38
417.605	6281.38
417.828	6418.38
418.051	6576.38
418.274	6463.38
418.497	6263.38
418.72	6570.38
418.943	6480.38
419.166	6874.38
419.389	7211.38
419.611	7038.38
419.834	6798.38
420.057	6730.38
420.28	6446.38
420.503	6351.38
420.726	6420.38
420.948	6608.38
421.171	6997.38
421.394	6946.38
421.617	6488.38
421.839	6468.38
422.062	6654.38
422.285	6768.38
422.507	7353.38
422.73	7837.38
422.953	7276.38
423.175	7022.38
423.398	7009.38
423.621	7074.38
423.843	7234.38
424.066	7129.38
424.288	7049.38
424.511	7216.38
424.733	7675.38
424.956	8186.38
425.178	7666.38
425.401	7781.38
425.623	7663.38
425.846	6740.38
426.068	6582.38
426.291	6448.38
426.513	6525.38
426.735	6644.38
426.958	7100.38
427.18	7726.38
427.402	8769.38
427.625	8789.38
427.847	7440.38
428.069	6626.38
428.292	6311.38
428.514	6032.38
428.736	5976.38
428.958	6004.38
429.181	5798.38
429.403	5805.38
429.625	5887.38
429.847	6245.38
430.069	6721.38
430.292	6363.38
430.514	5836.38
430.736	5866.38
430.958	5770.38
431.18	5640.38
431.402	5645.38
431.624	5618.38
431.846	5727.38
432.068	5750.38
432.29	5811.38
432.512	5664.38
432.734	5772.38
432.956	5679.38
433.178	5776.38
433.4	5800.38
433.622	5673.38
433.844	5757.38
434.066	5798.38
434.287	5922.38
434.509	6150.38
434.731	6304.38
434.953	6415.38
435.175	6600.38
435.397	6677.38
435.618	6542.38
435.84	6944.38
436.062	7692.38
436.284	7673.38
436.505	6504.38
436.727	6167.38
436.949	5880.38
437.17	5832.38
437.392	5806.38
437.614	5994.38
437.835	6207.38
438.057	7162.38
438.278	7838.38
438.5	7784.38
438.721	8550.38
438.943	7468.38
439.165	6416.38
439.386	6221.38
439.608	6204.38
439.829	6352.38
440.05	6582.38
440.272	6969.38
440.493	6368.38
440.715	6173.38
440.936	6070.38
441.158	6107.38
441.379	6188.38
441.6	6535.38
441.822	6676.38
442.043	7253.38
442.264	7964.38
442.486	7649.38
442.707	6872.38
442.928	6663.38
443.149	6878.38
443.371	7097.38
443.592	7590.38
443.813	8567.38
444.034	8483.38
444.255	7580.38
444.476	7433.38
444.698	7545.38
444.919	7609.38
445.14	7389.38
445.361	7231.38
445.582	7235.38
445.803	7781.38
446.024	8420.38
446.245	8093.38
446.466	7310.38
446.687	6461.38
446.908	6129.38
447.129	5725.38
447.35	5692.38
447.571	5655.38
447.792	5542.38
448.013	5648.38
448.234	5782.38
448.455	6406.38
448.675	7558.38
448.896	8018.38
449.117	6621.38
449.338	6796.38
449.559	8059.38
449.779	8246.38
450	6426.38
450.221	5709.38
450.442	5536.38
450.662	5458.38
450.883	5525.38
451.104	5633.38
451.324	5470.38
451.545	5283.38
451.766	5197.38
451.986	5068.38
452.207	5062.38
452.428	5057.38
452.648	5072.38
452.869	5035.38
453.089	5163.38
453.31	5283.38
453.53	5071.38
453.751	4985.38
453.971	5047.38
454.192	5151.38
454.412	4905.38
454.633	4941.38
454.853	4869.38
455.073	4953.38
455.294	5272.38
455.514	5740.38
455.734	5310.38
455.955	4869.38
456.175	4699.38
456.395	4692.38
456.616	4657.38
456.836	4632.38
457.056	4652.38
457.276	4592.38
457.497	4712.38
457.717	4662.38
457.937	4754.38
458.157	4780.38
458.377	4938.38
458.598	5300.38
458.818	5910.38
459.038	6645.38
459.258	6553.38
459.478	5818.38
459.698	5799.38
459.918	5898.38
460.138	6093.38
460.358	6248.38
460.578	6325.38
460.798	6360.38
461.018	6370.38
461.238	6261.38
461.458	6188.38
461.678	6167.38
461.898	6377.38
462.118	6384.38
462.338	6614.38
462.558	6840.38
462.777	7220.38
462.997	7742.38
463.217	8193.38
463.437	7913.38
463.657	7387.38
463.876	7120.38
464.096	7194.38
464.316	7179.38
464.536	7198.38
464.755	6908.38
464.975	6805.38
465.195	6958.38
465.414	6888.38
465.634	6139.38
465.854	5853.38
466.073	5615.38
466.293	5436.38
466.512	5275.38
466.732	5188.38
466.951	5243.38
467.171	5216.38
467.391	5292.38
467.61	5319.38
467.829	5248.38
468.049	5182.38
468.268	5042.38
468.488	4962.38
468.707	4917.38
468.927	5025.38
469.146	4984.38
469.365	5067.38
469.585	5053.38
469.804	5264.38
470.023	5518.38
470.243	5457.38
470.462	5440.38
470.681	5616.38
470.901	5500.38
471.12	5371.38
471.339	5271.38
471.558	5272.38
471.777	5194.38
471.997	5050.38
472.216	4973.38
472.435	5027.38
472.654	4933.38
472.873	4841.38
473.092	4916.38
473.311	4942.38
473.53	4996.38
473.749	5063.38
473.968	5570.38
474.187	6502.38
474.406	6153.38
474.625	5293.38
474.844	5018.38
475.063	4985.38
475.282	4999.38
475.501	5029.38
475.72	5148.38
475.939	5095.38
476.158	5160.38
476.377	5225.38
476.596	5214.38
476.814	5350.38
477.033	5294.38
477.252	5342.38
477.471	5580.38
477.69	5592.38
477.908	5777.38
478.127	5848.38
478.346	5947.38
478.564	6068.38
478.783	6156.38
479.002	6200.38
479.22	6274.38
479.439	6390.38
479.658	6492.38
479.876	6560.38
480.095	6698.38
480.313	7163.38
480.532	7068.38
480.751	6812.38
480.969	6724.38
481.188	6549.38
481.406	6394.38
481.624	6153.38
481.843	6086.38
482.061	5968.38
482.28	5931.38
482.498	5914.38
482.717	5803.38
482.935	5866.38
483.153	5880.38
483.372	5869.38
483.59	5832.38
483.808	5882.38
484.027	5863.38
484.245	5932.38
484.463	6007.38
484.681	6071.38
484.9	6136.38
485.118	6137.38
485.336	6182.38
485.554	6269.38
485.772	6320.38
485.99	6259.38
486.209	6338.38
486.427	6253.38
486.645	6378.38
486.863	6472.38
487.081	6407.38
487.299	6263.38
487.517	6406.38
487.735	6302.38
487.953	6355.38
