Data from Uncirc_1995_H10_HRD10591_00059.txt Node
Date: Wed Jan 03 11:35:45 EST 2024
User: Yrep
Spectrometer: HR+D1059
Trigger mode: 1
Integration Time (sec): 1.000000E-1
Scans to average: 1
Electric dark correction enabled: true
Nonlinearity correction enabled: false
Boxcar width: 0
XAxis mode: Wavelengths
Number of Pixels in Spectrum: 2048
>>>>>Begin Spectral Data<<<<<
223.165	-5.62
223.4	-5.62
223.635	-5.62
223.869	-25.62
224.104	-19.62
224.338	-24.62
224.573	-11.62
224.808	-20.62
225.042	-10.62
225.277	0.38
225.511	-4.62
225.746	1.38
225.98	-0.62
226.215	12.38
226.449	12.38
226.683	25.38
226.918	23.38
227.152	48.38
227.387	32.38
227.621	27.38
227.856	36.38
228.09	43.38
228.324	32.38
228.559	59.38
228.793	49.38
229.027	57.38
229.262	68.38
229.496	69.38
229.73	74.38
229.964	70.38
230.199	51.38
230.433	82.38
230.667	77.38
230.901	70.38
231.136	88.38
231.37	82.38
231.604	65.38
231.838	75.38
232.072	83.38
232.306	81.38
232.541	79.38
232.775	80.38
233.009	87.38
233.243	73.38
233.477	87.38
233.711	71.38
233.945	76.38
234.179	91.38
234.413	87.38
234.647	80.38
234.881	84.38
235.115	76.38
235.349	85.38
235.583	83.38
235.817	67.38
236.051	76.38
236.285	69.38
236.519	63.38
236.753	75.38
236.987	78.38
237.221	88.38
237.455	67.38
237.689	87.38
237.922	69.38
238.156	76.38
238.39	75.38
238.624	71.38
238.858	69.38
239.091	70.38
239.325	71.38
239.559	72.38
239.793	84.38
240.027	68.38
240.26	77.38
240.494	81.38
240.728	66.38
240.961	74.38
241.195	74.38
241.429	67.38
241.662	74.38
241.896	75.38
242.13	68.38
242.363	77.38
242.597	63.38
242.83	74.38
243.064	67.38
243.298	66.38
243.531	86.38
243.765	80.38
243.998	77.38
244.232	70.38
244.465	76.38
244.699	71.38
244.932	83.38
245.166	86.38
245.399	72.38
245.633	73.38
245.866	77.38
246.099	78.38
246.333	64.38
246.566	79.38
246.8	89.38
247.033	73.38
247.266	74.38
247.5	71.38
247.733	77.38
247.966	100.38
248.2	77.38
248.433	74.38
248.666	76.38
248.899	83.38
249.133	86.38
249.366	84.38
249.599	95.38
249.832	89.38
250.066	72.38
250.299	79.38
250.532	83.38
250.765	80.38
250.998	78.38
251.231	74.38
251.465	77.38
251.698	86.38
251.931	72.38
252.164	73.38
252.397	61.38
252.63	87.38
252.863	71.38
253.096	79.38
253.329	88.38
253.562	94.38
253.795	88.38
254.028	89.38
254.261	73.38
254.494	68.38
254.727	62.38
254.96	77.38
255.193	75.38
255.426	96.38
255.659	65.38
255.892	86.38
256.124	80.38
256.357	70.38
256.59	79.38
256.823	71.38
257.056	79.38
257.289	72.38
257.521	78.38
257.754	78.38
257.987	78.38
258.22	88.38
258.452	93.38
258.685	69.38
258.918	82.38
259.151	82.38
259.383	64.38
259.616	90.38
259.849	60.38
260.081	73.38
260.314	75.38
260.547	67.38
260.779	66.38
261.012	69.38
261.244	80.38
261.477	90.38
261.71	80.38
261.942	93.38
262.175	118.38
262.407	76.38
262.64	69.38
262.872	76.38
263.105	78.38
263.337	61.38
263.57	91.38
263.802	81.38
264.035	99.38
264.267	71.38
264.499	90.38
264.732	84.38
264.964	79.38
265.197	85.38
265.429	80.38
265.661	78.38
265.894	71.38
266.126	74.38
266.358	76.38
266.591	73.38
266.823	99.38
267.055	81.38
267.287	94.38
267.52	102.38
267.752	97.38
267.984	81.38
268.216	78.38
268.448	68.38
268.681	75.38
268.913	70.38
269.145	88.38
269.377	80.38
269.609	79.38
269.841	82.38
270.073	74.38
270.306	84.38
270.538	83.38
270.77	80.38
271.002	96.38
271.234	79.38
271.466	79.38
271.698	102.38
271.93	82.38
272.162	81.38
272.394	87.38
272.626	75.38
272.858	81.38
273.09	88.38
273.322	77.38
273.553	80.38
273.785	83.38
274.017	75.38
274.249	83.38
274.481	89.38
274.713	87.38
274.945	91.38
275.176	79.38
275.408	85.38
275.64	76.38
275.872	84.38
276.104	102.38
276.335	70.38
276.567	97.38
276.799	106.38
277.031	94.38
277.262	81.38
277.494	93.38
277.726	85.38
277.957	76.38
278.189	101.38
278.421	93.38
278.652	78.38
278.884	87.38
279.115	84.38
279.347	89.38
279.579	76.38
279.81	91.38
280.042	85.38
280.273	84.38
280.505	76.38
280.736	90.38
280.968	96.38
281.199	79.38
281.431	78.38
281.662	84.38
281.894	86.38
282.125	109.38
282.356	119.38
282.588	133.38
282.819	95.38
283.051	82.38
283.282	75.38
283.513	88.38
283.745	94.38
283.976	87.38
284.207	79.38
284.439	92.38
284.67	75.38
284.901	71.38
285.132	86.38
285.364	75.38
285.595	85.38
285.826	85.38
286.057	76.38
286.288	92.38
286.52	90.38
286.751	79.38
286.982	63.38
287.213	70.38
287.444	75.38
287.675	91.38
287.906	92.38
288.138	83.38
288.369	88.38
288.6	86.38
288.831	88.38
289.062	99.38
289.293	100.38
289.524	82.38
289.755	82.38
289.986	91.38
290.217	74.38
290.448	92.38
290.679	87.38
290.91	92.38
291.141	85.38
291.371	89.38
291.602	91.38
291.833	91.38
292.064	85.38
292.295	85.38
292.526	81.38
292.757	87.38
292.987	84.38
293.218	73.38
293.449	87.38
293.68	86.38
293.91	91.38
294.141	97.38
294.372	83.38
294.603	88.38
294.833	92.38
295.064	88.38
295.295	90.38
295.525	88.38
295.756	93.38
295.987	99.38
296.217	118.38
296.448	131.38
296.679	83.38
296.909	83.38
297.14	89.38
297.37	112.38
297.601	88.38
297.831	83.38
298.062	80.38
298.292	84.38
298.523	106.38
298.753	83.38
298.984	87.38
299.214	84.38
299.445	97.38
299.675	89.38
299.905	99.38
300.136	95.38
300.366	83.38
300.597	85.38
300.827	92.38
301.057	89.38
301.288	94.38
301.518	85.38
301.748	97.38
301.979	88.38
302.209	83.38
302.439	92.38
302.669	84.38
302.9	86.38
303.13	92.38
303.36	95.38
303.59	91.38
303.82	112.38
304.051	84.38
304.281	96.38
304.511	94.38
304.741	80.38
304.971	95.38
305.201	82.38
305.431	84.38
305.661	80.38
305.891	92.38
306.121	84.38
306.352	102.38
306.582	109.38
306.812	73.38
307.042	76.38
307.272	84.38
307.502	96.38
307.731	90.38
307.961	67.38
308.191	93.38
308.421	73.38
308.651	101.38
308.881	83.38
309.111	86.38
309.341	96.38
309.571	101.38
309.8	98.38
310.03	87.38
310.26	106.38
310.49	88.38
310.72	86.38
310.949	94.38
311.179	92.38
311.409	81.38
311.639	84.38
311.868	93.38
312.098	90.38
312.328	89.38
312.557	95.38
312.787	85.38
313.017	87.38
313.246	84.38
313.476	85.38
313.706	85.38
313.935	87.38
314.165	94.38
314.394	110.38
314.624	100.38
314.853	101.38
315.083	84.38
315.312	93.38
315.542	77.38
315.771	88.38
316.001	97.38
316.23	81.38
316.46	81.38
316.689	77.38
316.919	94.38
317.148	80.38
317.377	100.38
317.607	96.38
317.836	91.38
318.065	96.38
318.295	92.38
318.524	76.38
318.753	84.38
318.983	106.38
319.212	101.38
319.441	97.38
319.67	104.38
319.9	96.38
320.129	92.38
320.358	89.38
320.587	97.38
320.816	107.38
321.046	106.38
321.275	92.38
321.504	104.38
321.733	85.38
321.962	92.38
322.191	95.38
322.42	105.38
322.649	103.38
322.878	106.38
323.108	109.38
323.337	107.38
323.566	135.38
323.795	147.38
324.024	190.38
324.253	401.38
324.482	880.38
324.71	1797.38
324.939	2412.38
325.168	883.38
325.397	251.38
325.626	165.38
325.855	120.38
326.084	117.38
326.313	136.38
326.542	148.38
326.77	224.38
326.999	475.38
327.228	961.38
327.457	1810.38
327.686	1433.38
327.914	374.38
328.143	199.38
328.372	147.38
328.6	133.38
328.829	113.38
329.058	97.38
329.287	115.38
329.515	91.38
329.744	112.38
329.972	110.38
330.201	95.38
330.43	97.38
330.658	101.38
330.887	126.38
331.115	109.38
331.344	88.38
331.572	96.38
331.801	83.38
332.03	110.38
332.258	102.38
332.486	83.38
332.715	87.38
332.943	74.38
333.172	94.38
333.4	89.38
333.629	96.38
333.857	100.38
334.085	92.38
334.314	102.38
334.542	99.38
334.771	89.38
334.999	91.38
335.227	92.38
335.455	92.38
335.684	97.38
335.912	101.38
336.14	103.38
336.369	91.38
336.597	96.38
336.825	87.38
337.053	93.38
337.281	83.38
337.51	80.38
337.738	75.38
337.966	94.38
338.194	92.38
338.422	87.38
338.65	93.38
338.878	78.38
339.106	86.38
339.334	87.38
339.562	96.38
339.79	77.38
340.018	75.38
340.246	84.38
340.474	95.38
340.702	95.38
340.93	82.38
341.158	86.38
341.386	95.38
341.614	93.38
341.842	84.38
342.07	90.38
342.298	88.38
342.526	104.38
342.754	96.38
342.981	96.38
343.209	87.38
343.437	88.38
343.665	90.38
343.893	96.38
344.12	94.38
344.348	95.38
344.576	98.38
344.804	81.38
345.031	84.38
345.259	91.38
345.487	91.38
345.714	103.38
345.942	86.38
346.17	94.38
346.397	80.38
346.625	99.38
346.853	81.38
347.08	99.38
347.308	90.38
347.535	93.38
347.763	73.38
347.99	91.38
348.218	102.38
348.445	83.38
348.673	113.38
348.9	90.38
349.128	101.38
349.355	101.38
349.583	79.38
349.81	90.38
350.037	88.38
350.265	79.38
350.492	83.38
350.72	88.38
350.947	95.38
351.174	112.38
351.402	103.38
351.629	103.38
351.856	107.38
352.083	107.38
352.311	98.38
352.538	105.38
352.765	98.38
352.992	109.38
353.22	102.38
353.447	104.38
353.674	100.38
353.901	102.38
354.128	99.38
354.355	94.38
354.583	85.38
354.81	92.38
355.037	91.38
355.264	103.38
355.491	91.38
355.718	77.38
355.945	85.38
356.172	94.38
356.399	95.38
356.626	86.38
356.853	81.38
357.08	88.38
357.307	92.38
357.534	90.38
357.761	84.38
357.988	97.38
358.215	82.38
358.441	99.38
358.668	88.38
358.895	81.38
359.122	89.38
359.349	79.38
359.576	67.38
359.802	76.38
360.029	107.38
360.256	92.38
360.483	101.38
360.709	79.38
360.936	78.38
361.163	91.38
361.39	88.38
361.616	101.38
361.843	87.38
362.07	92.38
362.296	83.38
362.523	88.38
362.749	70.38
362.976	69.38
363.203	103.38
363.429	76.38
363.656	90.38
363.882	100.38
364.109	97.38
364.335	92.38
364.562	99.38
364.788	81.38
365.015	104.38
365.241	97.38
365.468	102.38
365.694	104.38
365.92	91.38
366.147	90.38
366.373	80.38
366.599	97.38
366.826	92.38
367.052	87.38
367.278	100.38
367.505	95.38
367.731	81.38
367.957	91.38
368.184	104.38
368.41	101.38
368.636	110.38
368.862	119.38
369.089	105.38
369.315	88.38
369.541	89.38
369.767	87.38
369.993	94.38
370.219	88.38
370.445	85.38
370.672	86.38
370.898	87.38
371.124	75.38
371.35	86.38
371.576	93.38
371.802	90.38
372.028	88.38
372.254	90.38
372.48	79.38
372.706	85.38
372.932	76.38
373.158	68.38
373.384	79.38
373.61	91.38
373.835	87.38
374.061	93.38
374.287	100.38
374.513	70.38
374.739	93.38
374.965	74.38
375.191	93.38
375.416	85.38
375.642	79.38
375.868	89.38
376.094	97.38
376.319	83.38
376.545	95.38
376.771	79.38
376.997	93.38
377.222	95.38
377.448	75.38
377.674	83.38
377.899	79.38
378.125	88.38
378.35	96.38
378.576	94.38
378.802	78.38
379.027	77.38
379.253	88.38
379.478	90.38
379.704	95.38
379.929	104.38
380.155	90.38
380.38	83.38
380.606	90.38
380.831	95.38
381.057	85.38
381.282	87.38
381.507	99.38
381.733	93.38
381.958	83.38
382.184	95.38
382.409	89.38
382.634	97.38
382.86	81.38
383.085	84.38
383.31	97.38
383.535	105.38
383.761	91.38
383.986	94.38
384.211	80.38
384.436	93.38
384.662	90.38
384.887	86.38
385.112	94.38
385.337	102.38
385.562	92.38
385.787	104.38
386.013	111.38
386.238	102.38
386.463	99.38
386.688	99.38
386.913	102.38
387.138	109.38
387.363	99.38
387.588	103.38
387.813	102.38
388.038	92.38
388.263	110.38
388.488	97.38
388.713	108.38
388.938	89.38
389.163	78.38
389.387	83.38
389.612	95.38
389.837	83.38
390.062	101.38
390.287	97.38
390.512	86.38
390.736	94.38
390.961	83.38
391.186	94.38
391.411	100.38
391.636	93.38
391.86	85.38
392.085	87.38
392.31	74.38
392.534	75.38
392.759	72.38
392.984	91.38
393.208	75.38
393.433	88.38
393.658	78.38
393.882	75.38
394.107	76.38
394.331	75.38
394.556	89.38
394.78	84.38
395.005	83.38
395.229	76.38
395.454	83.38
395.678	89.38
395.903	95.38
396.127	94.38
396.352	88.38
396.576	84.38
396.801	70.38
397.025	57.38
397.249	79.38
397.474	87.38
397.698	78.38
397.922	101.38
398.147	97.38
398.371	83.38
398.595	91.38
398.82	81.38
399.044	84.38
399.268	71.38
399.492	83.38
399.717	93.38
399.941	83.38
400.165	96.38
400.389	83.38
400.613	84.38
400.837	80.38
401.062	100.38
401.286	69.38
401.51	83.38
401.734	75.38
401.958	110.38
402.182	133.38
402.406	153.38
402.63	108.38
402.854	77.38
403.078	69.38
403.302	90.38
403.526	101.38
403.75	85.38
403.974	74.38
404.198	80.38
404.422	76.38
404.645	76.38
404.869	93.38
405.093	100.38
405.317	99.38
405.541	106.38
405.765	99.38
405.988	122.38
406.212	169.38
406.436	222.38
406.66	141.38
406.883	98.38
407.107	90.38
407.331	91.38
407.555	97.38
407.778	90.38
408.002	77.38
408.226	90.38
408.449	90.38
408.673	101.38
408.896	85.38
409.12	96.38
409.344	96.38
409.567	72.38
409.791	87.38
410.014	83.38
410.238	88.38
410.461	83.38
410.685	85.38
410.908	88.38
411.132	107.38
411.355	83.38
411.578	79.38
411.802	75.38
412.025	81.38
412.249	77.38
412.472	92.38
412.695	83.38
412.919	86.38
413.142	88.38
413.365	102.38
413.589	75.38
413.812	88.38
414.035	85.38
414.258	92.38
414.482	87.38
414.705	89.38
414.928	86.38
415.151	95.38
415.374	84.38
415.597	85.38
415.821	74.38
416.044	90.38
416.267	84.38
416.49	100.38
416.713	80.38
416.936	90.38
417.159	81.38
417.382	73.38
417.605	91.38
417.828	77.38
418.051	89.38
418.274	85.38
418.497	96.38
418.72	84.38
418.943	88.38
419.166	88.38
419.389	85.38
419.611	85.38
419.834	78.38
420.057	69.38
420.28	83.38
420.503	84.38
420.726	77.38
420.948	79.38
421.171	86.38
421.394	83.38
421.617	87.38
421.839	82.38
422.062	86.38
422.285	91.38
422.507	92.38
422.73	102.38
422.953	93.38
423.175	83.38
423.398	90.38
423.621	79.38
423.843	87.38
424.066	79.38
424.288	81.38
424.511	98.38
424.733	88.38
424.956	91.38
425.178	85.38
425.401	102.38
425.623	88.38
425.846	93.38
426.068	100.38
426.291	96.38
426.513	80.38
426.735	91.38
426.958	106.38
427.18	106.38
427.402	121.38
427.625	151.38
427.847	106.38
428.069	84.38
428.292	87.38
428.514	70.38
428.736	77.38
428.958	74.38
429.181	81.38
429.403	81.38
429.625	86.38
429.847	100.38
430.069	100.38
430.292	85.38
430.514	78.38
430.736	84.38
430.958	81.38
431.18	80.38
431.402	81.38
431.624	95.38
431.846	87.38
432.068	86.38
432.29	82.38
432.512	92.38
432.734	85.38
432.956	99.38
433.178	92.38
433.4	94.38
433.622	97.38
433.844	91.38
434.066	98.38
434.287	94.38
434.509	80.38
434.731	79.38
434.953	79.38
435.175	79.38
435.397	91.38
435.618	91.38
435.84	101.38
436.062	118.38
436.284	100.38
436.505	100.38
436.727	92.38
436.949	91.38
437.17	83.38
437.392	72.38
437.614	98.38
437.835	91.38
438.057	119.38
438.278	107.38
438.5	107.38
438.721	108.38
438.943	89.38
439.165	97.38
439.386	90.38
439.608	102.38
439.829	101.38
440.05	112.38
440.272	133.38
440.493	104.38
440.715	89.38
440.936	68.38
441.158	91.38
441.379	64.38
441.6	102.38
441.822	95.38
442.043	87.38
442.264	97.38
442.486	86.38
442.707	83.38
442.928	103.38
443.149	103.38
443.371	117.38
443.592	116.38
443.813	113.38
444.034	97.38
444.255	86.38
444.476	89.38
444.698	87.38
444.919	75.38
445.14	137.38
445.361	124.38
445.582	122.38
445.803	123.38
446.024	123.38
446.245	128.38
446.466	116.38
446.687	83.38
446.908	78.38
447.129	89.38
447.35	93.38
447.571	59.38
447.792	87.38
448.013	99.38
448.234	93.38
448.455	109.38
448.675	113.38
448.896	108.38
449.117	87.38
449.338	92.38
449.559	127.38
449.779	129.38
450	86.38
450.221	72.38
450.442	91.38
450.662	85.38
450.883	102.38
451.104	102.38
451.324	81.38
451.545	81.38
451.766	88.38
451.986	86.38
452.207	91.38
452.428	98.38
452.648	77.38
452.869	100.38
453.089	121.38
453.31	112.38
453.53	89.38
453.751	98.38
453.971	83.38
454.192	102.38
454.412	84.38
454.633	89.38
454.853	87.38
455.073	83.38
455.294	81.38
455.514	86.38
455.734	91.38
455.955	75.38
456.175	84.38
456.395	77.38
456.616	95.38
456.836	96.38
457.056	86.38
457.276	92.38
457.497	82.38
457.717	73.38
457.937	77.38
458.157	76.38
458.377	92.38
458.598	98.38
458.818	131.38
459.038	153.38
459.258	107.38
459.478	73.38
459.698	83.38
459.918	86.38
460.138	75.38
460.358	103.38
460.578	76.38
460.798	93.38
461.018	87.38
461.238	91.38
461.458	98.38
461.678	94.38
461.898	79.38
462.118	77.38
462.338	77.38
462.558	90.38
462.777	84.38
462.997	65.38
463.217	81.38
463.437	76.38
463.657	80.38
463.876	83.38
464.096	83.38
464.316	84.38
464.536	103.38
464.755	92.38
464.975	102.38
465.195	155.38
465.414	169.38
465.634	86.38
465.854	81.38
466.073	84.38
466.293	80.38
466.512	82.38
466.732	81.38
466.951	90.38
467.171	87.38
467.391	96.38
467.61	92.38
467.829	83.38
468.049	87.38
468.268	90.38
468.488	82.38
468.707	67.38
468.927	80.38
469.146	91.38
469.365	87.38
469.585	98.38
469.804	96.38
470.023	95.38
470.243	76.38
470.462	94.38
470.681	102.38
470.901	80.38
471.12	77.38
471.339	79.38
471.558	88.38
471.777	92.38
471.997	89.38
472.216	84.38
472.435	68.38
472.654	83.38
472.873	93.38
473.092	100.38
473.311	76.38
473.53	80.38
473.749	80.38
473.968	95.38
474.187	89.38
474.406	100.38
474.625	72.38
474.844	74.38
475.063	80.38
475.282	86.38
475.501	85.38
475.72	96.38
475.939	93.38
476.158	74.38
476.377	96.38
476.596	93.38
476.814	87.38
477.033	95.38
477.252	81.38
477.471	78.38
477.69	79.38
477.908	90.38
478.127	89.38
478.346	80.38
478.564	83.38
478.783	90.38
479.002	87.38
479.22	91.38
479.439	106.38
479.658	92.38
479.876	92.38
480.095	96.38
480.313	88.38
480.532	89.38
480.751	78.38
480.969	96.38
481.188	96.38
481.406	93.38
481.624	93.38
481.843	94.38
482.061	99.38
482.28	73.38
482.498	93.38
482.717	79.38
482.935	89.38
483.153	87.38
483.372	89.38
483.59	93.38
483.808	93.38
484.027	85.38
484.245	95.38
484.463	89.38
484.681	108.38
484.9	84.38
485.118	93.38
485.336	100.38
485.554	77.38
485.772	110.38
485.99	90.38
486.209	101.38
486.427	117.38
486.645	112.38
486.863	121.38
487.081	91.38
487.299	87.38
487.517	83.38
487.735	105.38
487.953	97.38
488.171	105.38
488.389	92.38
488.607	92.38
488.825	92.38
489.043	94.38
489.261	89.38
489.479	90.38
489.696	94.38
489.914	83.38
490.132	79.38
490.35	84.38
490.568	95.38
490.786	85.38
491.003	91.38
491.221	94.38
491.439	95.38
491.657	87.38
491.874	94.38
492.092	83.38
492.31	89.38
492.527	85.38
492.745	81.38
492.963	78.38
493.18	77.38
493.398	82.38
493.615	95.38
493.833	75.38
494.05	82.38
494.268	100.38
494.485	93.38
494.703	82.38
494.92	85.38
495.138	100.38
495.355	71.38
495.573	87.38
495.79	90.38
496.008	78.38
496.225	94.38
496.442	90.38
496.66	83.38
496.877	100.38
497.094	92.38
497.312	90.38
497.529	100.38
497.746	85.38
497.963	89.38
498.181	95.38
498.398	103.38
498.615	93.38
498.832	95.38
499.049	88.38
499.267	95.38
499.484	92.38
499.701	94.38
499.918	99.38
500.135	82.38
500.352	91.38
500.569	83.38
500.786	90.38
501.003	100.38
501.22	81.38
501.437	102.38
501.654	103.38
501.871	103.38
502.088	86.38
502.305	93.38
502.522	87.38
502.739	93.38
502.956	101.38
503.172	96.38
503.389	83.38
503.606	97.38
503.823	94.38
504.04	86.38
504.256	90.38
504.473	94.38
504.69	80.38
504.907	87.38
505.123	93.38
505.34	75.38
505.557	70.38
505.773	99.38
505.99	74.38
506.207	74.38
506.423	88.38
506.64	93.38
506.856	88.38
507.073	89.38
507.289	94.38
507.506	100.38
507.722	112.38
507.939	108.38
508.155	99.38
508.372	102.38
508.588	75.38
508.805	89.38
509.021	101.38
509.238	97.38
509.454	104.38
509.67	104.38
509.887	124.38
510.103	136.38
510.319	227.38
510.536	832.38
510.752	2627.38
510.968	714.38
511.184	155.38
511.401	111.38
511.617	91.38
511.833	92.38
512.049	45.38
512.265	89.38
512.481	78.38
512.698	92.38
512.914	103.38
513.13	82.38
513.346	90.38
513.562	93.38
513.778	96.38
513.994	91.38
514.21	98.38
514.426	119.38
514.642	133.38
514.858	122.38
515.074	176.38
515.29	482.38
515.506	1571.38
515.721	553.38
515.937	148.38
516.153	106.38
516.369	100.38
516.585	90.38
