Data from Uncirc_1995_H10_HRD10591_00041.txt Node
Date: Wed Jan 03 11:35:42 EST 2024
User: Yrep
Spectrometer: HR+D1059
Trigger mode: 1
Integration Time (sec): 1.000000E-1
Scans to average: 1
Electric dark correction enabled: true
Nonlinearity correction enabled: false
Boxcar width: 0
XAxis mode: Wavelengths
Number of Pixels in Spectrum: 2048
>>>>>Begin Spectral Data<<<<<
223.165	-19.69
223.4	-19.69
223.635	-19.69
223.869	-29.69
224.104	-18.69
224.338	-17.69
224.573	-25.69
224.808	-8.69
225.042	4.31
225.277	-12.69
225.511	-2.69
225.746	6.31
225.98	17.31
226.215	18.31
226.449	15.31
226.683	10.31
226.918	30.31
227.152	33.31
227.387	37.31
227.621	36.31
227.856	54.31
228.09	54.31
228.324	72.31
228.559	64.31
228.793	54.31
229.027	62.31
229.262	67.31
229.496	74.31
229.73	74.31
229.964	69.31
230.199	79.31
230.433	56.31
230.667	87.31
230.901	74.31
231.136	90.31
231.37	77.31
231.604	82.31
231.838	80.31
232.072	78.31
232.306	85.31
232.541	75.31
232.775	83.31
233.009	98.31
233.243	94.31
233.477	76.31
233.711	72.31
233.945	83.31
234.179	82.31
234.413	94.31
234.647	81.31
234.881	84.31
235.115	78.31
235.349	83.31
235.583	86.31
235.817	70.31
236.051	80.31
236.285	69.31
236.519	90.31
236.753	74.31
236.987	77.31
237.221	89.31
237.455	81.31
237.689	87.31
237.922	66.31
238.156	86.31
238.39	81.31
238.624	77.31
238.858	72.31
239.091	78.31
239.325	83.31
239.559	89.31
239.793	86.31
240.027	88.31
240.26	85.31
240.494	77.31
240.728	82.31
240.961	73.31
241.195	90.31
241.429	83.31
241.662	68.31
241.896	85.31
242.13	78.31
242.363	93.31
242.597	83.31
242.83	78.31
243.064	85.31
243.298	74.31
243.531	78.31
243.765	82.31
243.998	88.31
244.232	88.31
244.465	84.31
244.699	69.31
244.932	94.31
245.166	75.31
245.399	77.31
245.633	80.31
245.866	84.31
246.099	79.31
246.333	74.31
246.566	80.31
246.8	80.31
247.033	84.31
247.266	86.31
247.5	72.31
247.733	79.31
247.966	79.31
248.2	80.31
248.433	80.31
248.666	70.31
248.899	76.31
249.133	84.31
249.366	95.31
249.599	86.31
249.832	89.31
250.066	81.31
250.299	92.31
250.532	84.31
250.765	81.31
250.998	81.31
251.231	79.31
251.465	66.31
251.698	75.31
251.931	70.31
252.164	92.31
252.397	79.31
252.63	92.31
252.863	91.31
253.096	80.31
253.329	80.31
253.562	102.31
253.795	97.31
254.028	88.31
254.261	78.31
254.494	84.31
254.727	68.31
254.96	65.31
255.193	80.31
255.426	71.31
255.659	82.31
255.892	70.31
256.124	84.31
256.357	93.31
256.59	75.31
256.823	88.31
257.056	86.31
257.289	68.31
257.521	92.31
257.754	86.31
257.987	91.31
258.22	82.31
258.452	80.31
258.685	88.31
258.918	75.31
259.151	83.31
259.383	94.31
259.616	88.31
259.849	87.31
260.081	96.31
260.314	81.31
260.547	95.31
260.779	77.31
261.012	78.31
261.244	102.31
261.477	89.31
261.71	88.31
261.942	110.31
262.175	110.31
262.407	82.31
262.64	77.31
262.872	86.31
263.105	96.31
263.337	103.31
263.57	73.31
263.802	78.31
264.035	98.31
264.267	81.31
264.499	82.31
264.732	82.31
264.964	81.31
265.197	91.31
265.429	89.31
265.661	88.31
265.894	90.31
266.126	93.31
266.358	98.31
266.591	84.31
266.823	77.31
267.055	92.31
267.287	77.31
267.52	81.31
267.752	75.31
267.984	82.31
268.216	77.31
268.448	97.31
268.681	88.31
268.913	98.31
269.145	91.31
269.377	94.31
269.609	77.31
269.841	81.31
270.073	89.31
270.306	77.31
270.538	93.31
270.77	88.31
271.002	89.31
271.234	90.31
271.466	95.31
271.698	94.31
271.93	83.31
272.162	80.31
272.394	90.31
272.626	88.31
272.858	90.31
273.09	82.31
273.322	81.31
273.553	92.31
273.785	91.31
274.017	84.31
274.249	67.31
274.481	81.31
274.713	78.31
274.945	87.31
275.176	80.31
275.408	78.31
275.64	74.31
275.872	102.31
276.104	86.31
276.335	103.31
276.567	102.31
276.799	109.31
277.031	97.31
277.262	74.31
277.494	87.31
277.726	106.31
277.957	103.31
278.189	93.31
278.421	89.31
278.652	99.31
278.884	84.31
279.115	85.31
279.347	78.31
279.579	88.31
279.81	76.31
280.042	74.31
280.273	85.31
280.505	86.31
280.736	68.31
280.968	88.31
281.199	91.31
281.431	83.31
281.662	95.31
281.894	86.31
282.125	87.31
282.356	105.31
282.588	121.31
282.819	105.31
283.051	83.31
283.282	92.31
283.513	93.31
283.745	92.31
283.976	102.31
284.207	94.31
284.439	83.31
284.67	84.31
284.901	84.31
285.132	76.31
285.364	82.31
285.595	90.31
285.826	86.31
286.057	95.31
286.288	90.31
286.52	88.31
286.751	80.31
286.982	82.31
287.213	88.31
287.444	82.31
287.675	79.31
287.906	89.31
288.138	89.31
288.369	96.31
288.6	96.31
288.831	84.31
289.062	84.31
289.293	76.31
289.524	100.31
289.755	100.31
289.986	76.31
290.217	92.31
290.448	91.31
290.679	84.31
290.91	94.31
291.141	89.31
291.371	100.31
291.602	91.31
291.833	85.31
292.064	76.31
292.295	102.31
292.526	96.31
292.757	101.31
292.987	100.31
293.218	97.31
293.449	82.31
293.68	80.31
293.91	88.31
294.141	105.31
294.372	93.31
294.603	90.31
294.833	94.31
295.064	90.31
295.295	75.31
295.525	78.31
295.756	94.31
295.987	92.31
296.217	133.31
296.448	116.31
296.679	107.31
296.909	84.31
297.14	105.31
297.37	91.31
297.601	88.31
297.831	98.31
298.062	90.31
298.292	84.31
298.523	78.31
298.753	96.31
298.984	90.31
299.214	87.31
299.445	87.31
299.675	94.31
299.905	105.31
300.136	82.31
300.366	84.31
300.597	97.31
300.827	98.31
301.057	105.31
301.288	103.31
301.518	94.31
301.748	92.31
301.979	95.31
302.209	95.31
302.439	86.31
302.669	85.31
302.9	77.31
303.13	89.31
303.36	91.31
303.59	106.31
303.82	101.31
304.051	85.31
304.281	93.31
304.511	99.31
304.741	101.31
304.971	92.31
305.201	83.31
305.431	85.31
305.661	88.31
305.891	101.31
306.121	102.31
306.352	111.31
306.582	105.31
306.812	91.31
307.042	78.31
307.272	86.31
307.502	80.31
307.731	93.31
307.961	88.31
308.191	86.31
308.421	86.31
308.651	101.31
308.881	79.31
309.111	85.31
309.341	94.31
309.571	93.31
309.8	97.31
310.03	98.31
310.26	103.31
310.49	109.31
310.72	89.31
310.949	100.31
311.179	85.31
311.409	87.31
311.639	98.31
311.868	82.31
312.098	105.31
312.328	95.31
312.557	94.31
312.787	103.31
313.017	108.31
313.246	91.31
313.476	88.31
313.706	87.31
313.935	91.31
314.165	98.31
314.394	113.31
314.624	90.31
314.853	88.31
315.083	87.31
315.312	86.31
315.542	88.31
315.771	92.31
316.001	92.31
316.23	88.31
316.46	95.31
316.689	100.31
316.919	86.31
317.148	84.31
317.377	95.31
317.607	95.31
317.836	87.31
318.065	98.31
318.295	92.31
318.524	89.31
318.753	100.31
318.983	87.31
319.212	98.31
319.441	113.31
319.67	105.31
319.9	108.31
320.129	93.31
320.358	115.31
320.587	100.31
320.816	92.31
321.046	95.31
321.275	99.31
321.504	94.31
321.733	100.31
321.962	87.31
322.191	97.31
322.42	128.31
322.649	115.31
322.878	113.31
323.108	109.31
323.337	120.31
323.566	136.31
323.795	140.31
324.024	200.31
324.253	391.31
324.482	804.31
324.71	1605.31
324.939	2130.31
325.168	796.31
325.397	257.31
325.626	158.31
325.855	137.31
326.084	124.31
326.313	129.31
326.542	153.31
326.77	226.31
326.999	459.31
327.228	920.31
327.457	1636.31
327.686	1324.31
327.914	380.31
328.143	189.31
328.372	142.31
328.6	133.31
328.829	132.31
329.058	114.31
329.287	124.31
329.515	108.31
329.744	105.31
329.972	101.31
330.201	108.31
330.43	105.31
330.658	119.31
330.887	131.31
331.115	111.31
331.344	112.31
331.572	109.31
331.801	106.31
332.03	89.31
332.258	104.31
332.486	79.31
332.715	101.31
332.943	107.31
333.172	88.31
333.4	112.31
333.629	106.31
333.857	113.31
334.085	100.31
334.314	98.31
334.542	104.31
334.771	94.31
334.999	95.31
335.227	99.31
335.455	104.31
335.684	99.31
335.912	88.31
336.14	92.31
336.369	91.31
336.597	110.31
336.825	101.31
337.053	97.31
337.281	86.31
337.51	70.31
337.738	80.31
337.966	112.31
338.194	85.31
338.422	93.31
338.65	98.31
338.878	94.31
339.106	93.31
339.334	94.31
339.562	85.31
339.79	90.31
340.018	99.31
340.246	94.31
340.474	88.31
340.702	92.31
340.93	91.31
341.158	90.31
341.386	80.31
341.614	78.31
341.842	93.31
342.07	84.31
342.298	98.31
342.526	92.31
342.754	99.31
342.981	85.31
343.209	101.31
343.437	96.31
343.665	104.31
343.893	101.31
344.12	104.31
344.348	92.31
344.576	107.31
344.804	101.31
345.031	99.31
345.259	91.31
345.487	85.31
345.714	90.31
345.942	92.31
346.17	114.31
346.397	86.31
346.625	96.31
346.853	104.31
347.08	98.31
347.308	92.31
347.535	94.31
347.763	98.31
347.99	97.31
348.218	99.31
348.445	95.31
348.673	83.31
348.9	98.31
349.128	94.31
349.355	95.31
349.583	101.31
349.81	87.31
350.037	96.31
350.265	108.31
350.492	113.31
350.72	82.31
350.947	108.31
351.174	101.31
351.402	91.31
351.629	100.31
351.856	98.31
352.083	93.31
352.311	101.31
352.538	103.31
352.765	101.31
352.992	112.31
353.22	106.31
353.447	106.31
353.674	106.31
353.901	105.31
354.128	89.31
354.355	91.31
354.583	96.31
354.81	108.31
355.037	111.31
355.264	109.31
355.491	100.31
355.718	88.31
355.945	98.31
356.172	90.31
356.399	110.31
356.626	88.31
356.853	91.31
357.08	91.31
357.307	99.31
357.534	90.31
357.761	95.31
357.988	91.31
358.215	88.31
358.441	91.31
358.668	92.31
358.895	95.31
359.122	102.31
359.349	99.31
359.576	104.31
359.802	92.31
360.029	110.31
360.256	108.31
360.483	98.31
360.709	92.31
360.936	88.31
361.163	80.31
361.39	111.31
361.616	92.31
361.843	92.31
362.07	86.31
362.296	95.31
362.523	102.31
362.749	95.31
362.976	97.31
363.203	95.31
363.429	91.31
363.656	87.31
363.882	86.31
364.109	82.31
364.335	98.31
364.562	91.31
364.788	105.31
365.015	85.31
365.241	110.31
365.468	110.31
365.694	111.31
365.92	106.31
366.147	97.31
366.373	97.31
366.599	86.31
366.826	84.31
367.052	96.31
367.278	82.31
367.505	89.31
367.731	94.31
367.957	90.31
368.184	86.31
368.41	88.31
368.636	108.31
368.862	127.31
369.089	111.31
369.315	98.31
369.541	92.31
369.767	96.31
369.993	98.31
370.219	100.31
370.445	94.31
370.672	90.31
370.898	98.31
371.124	102.31
371.35	97.31
371.576	77.31
371.802	95.31
372.028	80.31
372.254	90.31
372.48	99.31
372.706	89.31
372.932	80.31
373.158	94.31
373.384	88.31
373.61	76.31
373.835	98.31
374.061	93.31
374.287	108.31
374.513	89.31
374.739	88.31
374.965	80.31
375.191	91.31
375.416	88.31
375.642	84.31
375.868	96.31
376.094	94.31
376.319	85.31
376.545	92.31
376.771	87.31
376.997	98.31
377.222	96.31
377.448	93.31
377.674	94.31
377.899	82.31
378.125	93.31
378.35	102.31
378.576	105.31
378.802	92.31
379.027	88.31
379.253	96.31
379.478	98.31
379.704	76.31
379.929	89.31
380.155	85.31
380.38	90.31
380.606	84.31
380.831	84.31
381.057	103.31
381.282	95.31
381.507	117.31
381.733	98.31
381.958	110.31
382.184	95.31
382.409	101.31
382.634	97.31
382.86	107.31
383.085	98.31
383.31	111.31
383.535	115.31
383.761	108.31
383.986	98.31
384.211	94.31
384.436	96.31
384.662	95.31
384.887	113.31
385.112	113.31
385.337	104.31
385.562	109.31
385.787	95.31
386.013	102.31
386.238	111.31
386.463	95.31
386.688	115.31
386.913	106.31
387.138	91.31
387.363	102.31
387.588	103.31
387.813	121.31
388.038	117.31
388.263	113.31
388.488	113.31
388.713	120.31
388.938	86.31
389.163	104.31
389.387	99.31
389.612	90.31
389.837	90.31
390.062	98.31
390.287	107.31
390.512	106.31
390.736	93.31
390.961	89.31
391.186	85.31
391.411	86.31
391.636	66.31
391.86	91.31
392.085	78.31
392.31	93.31
392.534	85.31
392.759	85.31
392.984	91.31
393.208	89.31
393.433	74.31
393.658	85.31
393.882	92.31
394.107	91.31
394.331	90.31
394.556	84.31
394.78	112.31
395.005	77.31
395.229	96.31
395.454	88.31
395.678	88.31
395.903	93.31
396.127	109.31
396.352	92.31
396.576	86.31
396.801	96.31
397.025	93.31
397.249	87.31
397.474	73.31
397.698	89.31
397.922	97.31
398.147	83.31
398.371	83.31
398.595	81.31
398.82	85.31
399.044	85.31
399.268	90.31
399.492	82.31
399.717	85.31
399.941	103.31
400.165	91.31
400.389	89.31
400.613	92.31
400.837	85.31
401.062	85.31
401.286	86.31
401.51	95.31
401.734	84.31
401.958	103.31
402.182	115.31
402.406	155.31
402.63	112.31
402.854	98.31
403.078	89.31
403.302	90.31
403.526	77.31
403.75	98.31
403.974	100.31
404.198	86.31
404.422	97.31
404.645	91.31
404.869	76.31
405.093	90.31
405.317	90.31
405.541	114.31
405.765	102.31
405.988	111.31
406.212	153.31
406.436	216.31
406.66	126.31
406.883	100.31
407.107	107.31
407.331	101.31
407.555	110.31
407.778	96.31
408.002	81.31
408.226	92.31
408.449	84.31
408.673	93.31
408.896	93.31
409.12	94.31
409.344	97.31
409.567	90.31
409.791	99.31
410.014	103.31
410.238	101.31
410.461	88.31
410.685	99.31
410.908	95.31
411.132	123.31
411.355	88.31
411.578	94.31
411.802	97.31
412.025	95.31
412.249	100.31
412.472	96.31
412.695	85.31
412.919	84.31
413.142	76.31
413.365	88.31
413.589	90.31
413.812	101.31
414.035	91.31
414.258	94.31
414.482	89.31
414.705	94.31
414.928	74.31
415.151	97.31
415.374	98.31
415.597	84.31
415.821	79.31
416.044	104.31
416.267	82.31
416.49	96.31
416.713	77.31
416.936	69.31
417.159	81.31
417.382	82.31
417.605	97.31
417.828	87.31
418.051	92.31
418.274	85.31
418.497	97.31
418.72	86.31
418.943	91.31
419.166	94.31
419.389	92.31
419.611	94.31
419.834	99.31
420.057	93.31
420.28	92.31
420.503	100.31
420.726	87.31
420.948	91.31
421.171	101.31
421.394	92.31
421.617	96.31
421.839	90.31
422.062	99.31
422.285	96.31
422.507	98.31
422.73	98.31
422.953	85.31
423.175	97.31
423.398	104.31
423.621	81.31
423.843	80.31
424.066	92.31
424.288	91.31
424.511	83.31
424.733	103.31
424.956	99.31
425.178	90.31
425.401	98.31
425.623	94.31
425.846	80.31
426.068	98.31
426.291	109.31
426.513	104.31
426.735	81.31
426.958	101.31
427.18	97.31
427.402	141.31
427.625	139.31
427.847	129.31
428.069	106.31
428.292	91.31
428.514	87.31
428.736	83.31
428.958	80.31
429.181	85.31
429.403	80.31
429.625	92.31
429.847	84.31
430.069	90.31
430.292	94.31
430.514	93.31
430.736	85.31
430.958	92.31
431.18	71.31
431.402	93.31
431.624	85.31
431.846	91.31
432.068	77.31
432.29	99.31
432.512	92.31
432.734	80.31
432.956	106.31
433.178	87.31
433.4	99.31
433.622	111.31
433.844	96.31
434.066	73.31
434.287	90.31
434.509	77.31
434.731	89.31
434.953	84.31
435.175	84.31
435.397	96.31
435.618	90.31
435.84	102.31
436.062	124.31
436.284	108.31
436.505	97.31
436.727	108.31
436.949	98.31
437.17	86.31
437.392	89.31
437.614	82.31
437.835	106.31
438.057	107.31
438.278	96.31
438.5	90.31
438.721	102.31
438.943	90.31
439.165	88.31
439.386	104.31
439.608	96.31
439.829	102.31
440.05	121.31
440.272	132.31
440.493	101.31
440.715	97.31
440.936	102.31
441.158	96.31
441.379	90.31
441.6	94.31
441.822	89.31
442.043	101.31
442.264	101.31
442.486	103.31
442.707	106.31
442.928	101.31
443.149	128.31
443.371	124.31
443.592	104.31
443.813	115.31
444.034	114.31
444.255	92.31
444.476	98.31
444.698	114.31
444.919	80.31
445.14	121.31
445.361	117.31
445.582	105.31
445.803	130.31
446.024	122.31
446.245	131.31
446.466	108.31
446.687	102.31
446.908	110.31
447.129	81.31
447.35	82.31
447.571	89.31
447.792	111.31
448.013	99.31
448.234	102.31
448.455	86.31
448.675	104.31
448.896	124.31
449.117	101.31
449.338	93.31
449.559	117.31
449.779	130.31
450	100.31
450.221	80.31
450.442	85.31
450.662	110.31
450.883	100.31
451.104	109.31
451.324	95.31
451.545	99.31
451.766	75.31
451.986	99.31
452.207	92.31
452.428	91.31
452.648	103.31
452.869	99.31
453.089	107.31
453.31	127.31
453.53	74.31
453.751	94.31
453.971	108.31
454.192	114.31
454.412	89.31
454.633	92.31
454.853	93.31
455.073	89.31
455.294	101.31
455.514	99.31
455.734	90.31
455.955	80.31
456.175	88.31
456.395	90.31
456.616	91.31
456.836	73.31
457.056	89.31
457.276	92.31
457.497	86.31
457.717	76.31
457.937	88.31
458.157	108.31
458.377	92.31
458.598	101.31
458.818	144.31
459.038	137.31
459.258	120.31
459.478	91.31
459.698	94.31
459.918	96.31
460.138	113.31
460.358	96.31
460.578	83.31
460.798	93.31
461.018	94.31
461.238	92.31
461.458	73.31
461.678	68.31
461.898	88.31
462.118	91.31
462.338	81.31
462.558	90.31
462.777	80.31
462.997	89.31
463.217	82.31
463.437	93.31
463.657	94.31
463.876	82.31
464.096	80.31
464.316	81.31
464.536	97.31
464.755	77.31
464.975	98.31
465.195	160.31
465.414	136.31
465.634	113.31
465.854	90.31
466.073	94.31
466.293	82.31
466.512	84.31
466.732	94.31
466.951	81.31
467.171	100.31
467.391	99.31
467.61	103.31
467.829	104.31
468.049	85.31
468.268	92.31
468.488	74.31
468.707	88.31
468.927	77.31
469.146	92.31
469.365	80.31
469.585	91.31
469.804	101.31
470.023	102.31
470.243	100.31
470.462	105.31
470.681	108.31
470.901	82.31
471.12	87.31
471.339	85.31
471.558	99.31
471.777	96.31
471.997	101.31
472.216	83.31
472.435	90.31
472.654	92.31
472.873	98.31
473.092	88.31
473.311	83.31
473.53	93.31
473.749	85.31
473.968	95.31
474.187	106.31
474.406	107.31
474.625	87.31
474.844	89.31
475.063	88.31
475.282	94.31
475.501	85.31
475.72	94.31
475.939	84.31
476.158	80.31
476.377	76.31
476.596	95.31
476.814	112.31
477.033	103.31
477.252	94.31
477.471	92.31
477.69	93.31
477.908	85.31
478.127	87.31
478.346	94.31
478.564	89.31
478.783	102.31
479.002	107.31
479.22	86.31
479.439	108.31
479.658	94.31
479.876	87.31
480.095	94.31
480.313	101.31
480.532	83.31
480.751	85.31
480.969	91.31
481.188	105.31
481.406	86.31
481.624	72.31
481.843	89.31
482.061	98.31
482.28	110.31
482.498	94.31
482.717	81.31
482.935	90.31
483.153	99.31
483.372	101.31
483.59	80.31
483.808	100.31
484.027	95.31
484.245	94.31
484.463	108.31
484.681	104.31
484.9	107.31
485.118	89.31
485.336	101.31
485.554	98.31
485.772	106.31
485.99	99.31
486.209	106.31
486.427	112.31
486.645	118.31
486.863	106.31
487.081	101.31
487.299	91.31
487.517	105.31
487.735	103.31
487.953	105.31
488.171	94.31
488.389	102.31
488.607	100.31
488.825	108.31
489.043	85.31
489.261	102.31
489.479	80.31
489.696	86.31
489.914	76.31
490.132	90.31
490.35	98.31
490.568	90.31
490.786	93.31
491.003	82.31
491.221	103.31
491.439	91.31
491.657	83.31
491.874	84.31
492.092	97.31
492.31	98.31
492.527	88.31
492.745	70.31
492.963	93.31
493.18	94.31
493.398	102.31
493.615	105.31
493.833	97.31
494.05	110.31
494.268	96.31
494.485	92.31
494.703	98.31
494.92	100.31
495.138	80.31
495.355	84.31
495.573	109.31
495.79	87.31
496.008	82.31
496.225	111.31
496.442	97.31
496.66	96.31
496.877	94.31
497.094	102.31
497.312	75.31
497.529	84.31
497.746	95.31
497.963	88.31
498.181	91.31
498.398	81.31
498.615	115.31
498.832	98.31
499.049	91.31
499.267	91.31
499.484	87.31
499.701	94.31
499.918	97.31
500.135	92.31
500.352	99.31
500.569	90.31
500.786	97.31
501.003	88.31
501.22	85.31
501.437	94.31
501.654	90.31
501.871	102.31
502.088	95.31
502.305	104.31
502.522	95.31
502.739	95.31
502.956	93.31
503.172	92.31
503.389	85.31
503.606	110.31
503.823	93.31
504.04	85.31
504.256	104.31
504.473	108.31
504.69	84.31
504.907	86.31
505.123	94.31
505.34	91.31
505.557	85.31
505.773	96.31
505.99	94.31
506.207	95.31
506.423	89.31
506.64	87.31
506.856	97.31
507.073	97.31
507.289	99.31
507.506	111.31
507.722	115.31
507.939	125.31
508.155	101.31
508.372	93.31
508.588	99.31
508.805	117.31
509.021	89.31
509.238	90.31
509.454	106.31
509.67	111.31
509.887	110.31
510.103	140.31
510.319	222.31
510.536	726.31
510.752	2274.31
510.968	632.31
511.184	160.31
511.401	104.31
511.617	104.31
511.833	93.31
512.049	92.31
512.265	96.31
512.481	102.31
512.698	96.31
512.914	96.31
513.13	88.31
513.346	97.31
513.562	96.31
513.778	103.31
513.994	108.31
514.21	94.31
514.426	111.31
514.642	122.31
514.858	117.31
515.074	181.31
