Data from Uncirc_1995_H10_HRD10591_00037.txt Node
Date: Wed Jan 03 11:35:41 EST 2024
User: Yrep
Spectrometer: HR+D1059
Trigger mode: 1
Integration Time (sec): 1.000000E-1
Scans to average: 1
Electric dark correction enabled: true
Nonlinearity correction enabled: false
Boxcar width: 0
XAxis mode: Wavelengths
Number of Pixels in Spectrum: 2048
>>>>>Begin Spectral Data<<<<<
223.165	-23.62
223.4	-23.62
223.635	-23.62
223.869	-6.62
224.104	-7.62
224.338	-5.62
224.573	-16.62
224.808	-9.62
225.042	-9.62
225.277	-3.62
225.511	16.38
225.746	9.38
225.98	4.38
226.215	2.38
226.449	-5.62
226.683	12.38
226.918	18.38
227.152	25.38
227.387	40.38
227.621	36.38
227.856	44.38
228.09	58.38
228.324	54.38
228.559	66.38
228.793	53.38
229.027	63.38
229.262	65.38
229.496	71.38
229.73	73.38
229.964	91.38
230.199	68.38
230.433	84.38
230.667	73.38
230.901	78.38
231.136	68.38
231.37	72.38
231.604	90.38
231.838	78.38
232.072	80.38
232.306	72.38
232.541	81.38
232.775	77.38
233.009	86.38
233.243	76.38
233.477	77.38
233.711	77.38
233.945	84.38
234.179	80.38
234.413	73.38
234.647	83.38
234.881	88.38
235.115	68.38
235.349	69.38
235.583	77.38
235.817	82.38
236.051	78.38
236.285	72.38
236.519	79.38
236.753	75.38
236.987	87.38
237.221	76.38
237.455	80.38
237.689	84.38
237.922	77.38
238.156	92.38
238.39	63.38
238.624	72.38
238.858	77.38
239.091	72.38
239.325	76.38
239.559	101.38
239.793	77.38
240.027	76.38
240.26	76.38
240.494	73.38
240.728	67.38
240.961	77.38
241.195	72.38
241.429	71.38
241.662	81.38
241.896	85.38
242.13	76.38
242.363	86.38
242.597	88.38
242.83	81.38
243.064	79.38
243.298	88.38
243.531	62.38
243.765	67.38
243.998	84.38
244.232	68.38
244.465	79.38
244.699	81.38
244.932	79.38
245.166	86.38
245.399	79.38
245.633	84.38
245.866	77.38
246.099	75.38
246.333	75.38
246.566	78.38
246.8	92.38
247.033	69.38
247.266	72.38
247.5	83.38
247.733	74.38
247.966	68.38
248.2	87.38
248.433	94.38
248.666	89.38
248.899	94.38
249.133	84.38
249.366	88.38
249.599	88.38
249.832	71.38
250.066	87.38
250.299	84.38
250.532	79.38
250.765	87.38
250.998	80.38
251.231	79.38
251.465	79.38
251.698	89.38
251.931	70.38
252.164	83.38
252.397	96.38
252.63	81.38
252.863	94.38
253.096	78.38
253.329	87.38
253.562	81.38
253.795	107.38
254.028	90.38
254.261	93.38
254.494	95.38
254.727	81.38
254.96	75.38
255.193	93.38
255.426	75.38
255.659	88.38
255.892	83.38
256.124	79.38
256.357	75.38
256.59	78.38
256.823	89.38
257.056	86.38
257.289	79.38
257.521	74.38
257.754	75.38
257.987	79.38
258.22	74.38
258.452	79.38
258.685	80.38
258.918	88.38
259.151	74.38
259.383	85.38
259.616	71.38
259.849	91.38
260.081	82.38
260.314	65.38
260.547	95.38
260.779	72.38
261.012	89.38
261.244	76.38
261.477	89.38
261.71	93.38
261.942	99.38
262.175	110.38
262.407	91.38
262.64	79.38
262.872	81.38
263.105	81.38
263.337	78.38
263.57	76.38
263.802	82.38
264.035	70.38
264.267	92.38
264.499	88.38
264.732	92.38
264.964	88.38
265.197	79.38
265.429	87.38
265.661	95.38
265.894	92.38
266.126	81.38
266.358	91.38
266.591	87.38
266.823	81.38
267.055	85.38
267.287	85.38
267.52	78.38
267.752	76.38
267.984	99.38
268.216	84.38
268.448	81.38
268.681	78.38
268.913	75.38
269.145	75.38
269.377	64.38
269.609	83.38
269.841	89.38
270.073	80.38
270.306	74.38
270.538	91.38
270.77	91.38
271.002	106.38
271.234	82.38
271.466	74.38
271.698	100.38
271.93	79.38
272.162	87.38
272.394	85.38
272.626	79.38
272.858	71.38
273.09	90.38
273.322	87.38
273.553	81.38
273.785	68.38
274.017	81.38
274.249	77.38
274.481	87.38
274.713	97.38
274.945	84.38
275.176	83.38
275.408	75.38
275.64	87.38
275.872	79.38
276.104	78.38
276.335	96.38
276.567	98.38
276.799	101.38
277.031	112.38
277.262	92.38
277.494	84.38
277.726	83.38
277.957	85.38
278.189	92.38
278.421	87.38
278.652	73.38
278.884	90.38
279.115	81.38
279.347	100.38
279.579	87.38
279.81	92.38
280.042	97.38
280.273	75.38
280.505	80.38
280.736	85.38
280.968	91.38
281.199	71.38
281.431	96.38
281.662	95.38
281.894	94.38
282.125	97.38
282.356	106.38
282.588	128.38
282.819	107.38
283.051	91.38
283.282	89.38
283.513	93.38
283.745	83.38
283.976	93.38
284.207	89.38
284.439	97.38
284.67	100.38
284.901	98.38
285.132	93.38
285.364	85.38
285.595	88.38
285.826	82.38
286.057	81.38
286.288	88.38
286.52	78.38
286.751	88.38
286.982	94.38
287.213	79.38
287.444	84.38
287.675	95.38
287.906	78.38
288.138	95.38
288.369	101.38
288.6	91.38
288.831	89.38
289.062	99.38
289.293	107.38
289.524	89.38
289.755	91.38
289.986	72.38
290.217	87.38
290.448	87.38
290.679	82.38
290.91	90.38
291.141	81.38
291.371	90.38
291.602	65.38
291.833	89.38
292.064	84.38
292.295	95.38
292.526	99.38
292.757	106.38
292.987	95.38
293.218	79.38
293.449	96.38
293.68	91.38
293.91	96.38
294.141	92.38
294.372	78.38
294.603	88.38
294.833	87.38
295.064	88.38
295.295	91.38
295.525	90.38
295.756	104.38
295.987	115.38
296.217	132.38
296.448	118.38
296.679	92.38
296.909	87.38
297.14	89.38
297.37	89.38
297.601	90.38
297.831	78.38
298.062	77.38
298.292	97.38
298.523	85.38
298.753	96.38
298.984	79.38
299.214	80.38
299.445	87.38
299.675	105.38
299.905	99.38
300.136	72.38
300.366	84.38
300.597	98.38
300.827	78.38
301.057	99.38
301.288	110.38
301.518	74.38
301.748	95.38
301.979	100.38
302.209	95.38
302.439	87.38
302.669	79.38
302.9	96.38
303.13	95.38
303.36	92.38
303.59	100.38
303.82	115.38
304.051	88.38
304.281	92.38
304.511	102.38
304.741	90.38
304.971	89.38
305.201	89.38
305.431	98.38
305.661	83.38
305.891	99.38
306.121	83.38
306.352	99.38
306.582	104.38
306.812	103.38
307.042	89.38
307.272	100.38
307.502	94.38
307.731	93.38
307.961	79.38
308.191	97.38
308.421	85.38
308.651	79.38
308.881	96.38
309.111	103.38
309.341	100.38
309.571	105.38
309.8	97.38
310.03	95.38
310.26	91.38
310.49	90.38
310.72	95.38
310.949	96.38
311.179	99.38
311.409	87.38
311.639	94.38
311.868	98.38
312.098	95.38
312.328	92.38
312.557	95.38
312.787	101.38
313.017	107.38
313.246	96.38
313.476	97.38
313.706	102.38
313.935	89.38
314.165	98.38
314.394	107.38
314.624	99.38
314.853	109.38
315.083	97.38
315.312	97.38
315.542	80.38
315.771	83.38
316.001	100.38
316.23	82.38
316.46	87.38
316.689	92.38
316.919	87.38
317.148	97.38
317.377	87.38
317.607	100.38
317.836	84.38
318.065	101.38
318.295	98.38
318.524	104.38
318.753	96.38
318.983	100.38
319.212	109.38
319.441	107.38
319.67	96.38
319.9	99.38
320.129	92.38
320.358	80.38
320.587	109.38
320.816	105.38
321.046	101.38
321.275	108.38
321.504	83.38
321.733	88.38
321.962	105.38
322.191	96.38
322.42	110.38
322.649	110.38
322.878	112.38
323.108	111.38
323.337	116.38
323.566	139.38
323.795	153.38
324.024	196.38
324.253	399.38
324.482	810.38
324.71	1661.38
324.939	2192.38
325.168	800.38
325.397	233.38
325.626	142.38
325.855	139.38
326.084	120.38
326.313	137.38
326.542	134.38
326.77	232.38
326.999	464.38
327.228	927.38
327.457	1707.38
327.686	1313.38
327.914	371.38
328.143	193.38
328.372	157.38
328.6	115.38
328.829	134.38
329.058	137.38
329.287	121.38
329.515	114.38
329.744	103.38
329.972	108.38
330.201	106.38
330.43	108.38
330.658	116.38
330.887	131.38
331.115	122.38
331.344	106.38
331.572	110.38
331.801	111.38
332.03	105.38
332.258	101.38
332.486	99.38
332.715	89.38
332.943	98.38
333.172	100.38
333.4	93.38
333.629	99.38
333.857	111.38
334.085	103.38
334.314	82.38
334.542	91.38
334.771	110.38
334.999	97.38
335.227	112.38
335.455	98.38
335.684	102.38
335.912	90.38
336.14	108.38
336.369	103.38
336.597	105.38
336.825	108.38
337.053	87.38
337.281	106.38
337.51	103.38
337.738	93.38
337.966	98.38
338.194	95.38
338.422	105.38
338.65	111.38
338.878	92.38
339.106	100.38
339.334	95.38
339.562	94.38
339.79	82.38
340.018	101.38
340.246	93.38
340.474	104.38
340.702	94.38
340.93	93.38
341.158	107.38
341.386	104.38
341.614	99.38
341.842	108.38
342.07	110.38
342.298	98.38
342.526	84.38
342.754	99.38
342.981	92.38
343.209	101.38
343.437	106.38
343.665	98.38
343.893	103.38
344.12	96.38
344.348	81.38
344.576	89.38
344.804	86.38
345.031	91.38
345.259	99.38
345.487	97.38
345.714	91.38
345.942	101.38
346.17	101.38
346.397	95.38
346.625	98.38
346.853	92.38
347.08	90.38
347.308	88.38
347.535	93.38
347.763	89.38
347.99	96.38
348.218	92.38
348.445	102.38
348.673	96.38
348.9	87.38
349.128	101.38
349.355	98.38
349.583	109.38
349.81	94.38
350.037	87.38
350.265	89.38
350.492	110.38
350.72	96.38
350.947	110.38
351.174	114.38
351.402	113.38
351.629	99.38
351.856	114.38
352.083	102.38
352.311	99.38
352.538	123.38
352.765	123.38
352.992	123.38
353.22	114.38
353.447	106.38
353.674	91.38
353.901	94.38
354.128	98.38
354.355	93.38
354.583	107.38
354.81	91.38
355.037	81.38
355.264	91.38
355.491	99.38
355.718	79.38
355.945	92.38
356.172	99.38
356.399	95.38
356.626	112.38
356.853	113.38
357.08	83.38
357.307	93.38
357.534	91.38
357.761	91.38
357.988	92.38
358.215	105.38
358.441	101.38
358.668	91.38
358.895	90.38
359.122	106.38
359.349	98.38
359.576	98.38
359.802	84.38
360.029	110.38
360.256	99.38
360.483	96.38
360.709	92.38
360.936	88.38
361.163	96.38
361.39	89.38
361.616	107.38
361.843	90.38
362.07	85.38
362.296	100.38
362.523	90.38
362.749	107.38
362.976	95.38
363.203	84.38
363.429	88.38
363.656	92.38
363.882	85.38
364.109	96.38
364.335	95.38
364.562	92.38
364.788	96.38
365.015	104.38
365.241	96.38
365.468	113.38
365.694	95.38
365.92	76.38
366.147	94.38
366.373	108.38
366.599	84.38
366.826	92.38
367.052	98.38
367.278	94.38
367.505	84.38
367.731	95.38
367.957	83.38
368.184	90.38
368.41	108.38
368.636	90.38
368.862	115.38
369.089	120.38
369.315	107.38
369.541	71.38
369.767	85.38
369.993	98.38
370.219	90.38
370.445	77.38
370.672	77.38
370.898	89.38
371.124	93.38
371.35	96.38
371.576	84.38
371.802	78.38
372.028	100.38
372.254	91.38
372.48	90.38
372.706	96.38
372.932	105.38
373.158	97.38
373.384	83.38
373.61	92.38
373.835	101.38
374.061	95.38
374.287	100.38
374.513	92.38
374.739	89.38
374.965	89.38
375.191	89.38
375.416	112.38
375.642	90.38
375.868	87.38
376.094	89.38
376.319	89.38
376.545	99.38
376.771	91.38
376.997	88.38
377.222	99.38
377.448	99.38
377.674	83.38
377.899	92.38
378.125	90.38
378.35	91.38
378.576	97.38
378.802	88.38
379.027	95.38
379.253	106.38
379.478	75.38
379.704	92.38
379.929	101.38
380.155	93.38
380.38	98.38
380.606	96.38
380.831	105.38
381.057	101.38
381.282	90.38
381.507	83.38
381.733	93.38
381.958	97.38
382.184	102.38
382.409	98.38
382.634	115.38
382.86	105.38
383.085	105.38
383.31	92.38
383.535	100.38
383.761	109.38
383.986	104.38
384.211	106.38
384.436	105.38
384.662	99.38
384.887	101.38
385.112	115.38
385.337	91.38
385.562	108.38
385.787	99.38
386.013	120.38
386.238	117.38
386.463	108.38
386.688	119.38
386.913	93.38
387.138	101.38
387.363	99.38
387.588	91.38
387.813	87.38
388.038	101.38
388.263	109.38
388.488	114.38
388.713	95.38
388.938	97.38
389.163	100.38
389.387	108.38
389.612	101.38
389.837	83.38
390.062	86.38
390.287	91.38
390.512	104.38
390.736	87.38
390.961	94.38
391.186	96.38
391.411	89.38
391.636	108.38
391.86	96.38
392.085	89.38
392.31	91.38
392.534	79.38
392.759	87.38
392.984	91.38
393.208	84.38
393.433	89.38
393.658	97.38
393.882	88.38
394.107	83.38
394.331	97.38
394.556	87.38
394.78	99.38
395.005	91.38
395.229	98.38
395.454	69.38
395.678	83.38
395.903	81.38
396.127	84.38
396.352	91.38
396.576	82.38
396.801	94.38
397.025	79.38
397.249	90.38
397.474	98.38
397.698	75.38
397.922	101.38
398.147	101.38
398.371	86.38
398.595	93.38
398.82	76.38
399.044	99.38
399.268	77.38
399.492	91.38
399.717	88.38
399.941	94.38
400.165	105.38
400.389	97.38
400.613	98.38
400.837	93.38
401.062	106.38
401.286	77.38
401.51	89.38
401.734	92.38
401.958	100.38
402.182	121.38
402.406	141.38
402.63	115.38
402.854	90.38
403.078	111.38
403.302	93.38
403.526	100.38
403.75	83.38
403.974	91.38
404.198	92.38
404.422	99.38
404.645	89.38
404.869	82.38
405.093	84.38
405.317	95.38
405.541	88.38
405.765	106.38
405.988	113.38
406.212	170.38
406.436	223.38
406.66	148.38
406.883	99.38
407.107	90.38
407.331	84.38
407.555	99.38
407.778	96.38
408.002	101.38
408.226	76.38
408.449	81.38
408.673	95.38
408.896	78.38
409.12	99.38
409.344	102.38
409.567	92.38
409.791	98.38
410.014	95.38
410.238	92.38
410.461	93.38
410.685	102.38
410.908	100.38
411.132	110.38
411.355	108.38
411.578	91.38
411.802	91.38
412.025	87.38
412.249	91.38
412.472	86.38
412.695	99.38
412.919	81.38
413.142	85.38
413.365	84.38
413.589	93.38
413.812	83.38
414.035	88.38
414.258	88.38
414.482	90.38
414.705	90.38
414.928	86.38
415.151	99.38
415.374	98.38
415.597	82.38
415.821	94.38
416.044	78.38
416.267	92.38
416.49	83.38
416.713	108.38
416.936	95.38
417.159	95.38
417.382	89.38
417.605	94.38
417.828	101.38
418.051	108.38
418.274	93.38
418.497	93.38
418.72	95.38
418.943	95.38
419.166	95.38
419.389	87.38
419.611	90.38
419.834	88.38
420.057	89.38
420.28	88.38
420.503	89.38
420.726	79.38
420.948	84.38
421.171	102.38
421.394	90.38
421.617	85.38
421.839	97.38
422.062	87.38
422.285	91.38
422.507	100.38
422.73	94.38
422.953	96.38
423.175	99.38
423.398	104.38
423.621	98.38
423.843	90.38
424.066	91.38
424.288	82.38
424.511	103.38
424.733	99.38
424.956	93.38
425.178	99.38
425.401	102.38
425.623	91.38
425.846	96.38
426.068	107.38
426.291	82.38
426.513	99.38
426.735	96.38
426.958	94.38
427.18	104.38
427.402	141.38
427.625	161.38
427.847	119.38
428.069	99.38
428.292	92.38
428.514	92.38
428.736	94.38
428.958	92.38
429.181	96.38
429.403	89.38
429.625	87.38
429.847	101.38
430.069	81.38
430.292	91.38
430.514	77.38
430.736	93.38
430.958	98.38
431.18	94.38
431.402	79.38
431.624	79.38
431.846	111.38
432.068	84.38
432.29	85.38
432.512	85.38
432.734	79.38
432.956	91.38
433.178	96.38
433.4	104.38
433.622	92.38
433.844	75.38
434.066	107.38
434.287	91.38
434.509	97.38
434.731	89.38
434.953	92.38
435.175	95.38
435.397	88.38
435.618	77.38
435.84	92.38
436.062	107.38
436.284	101.38
436.505	111.38
436.727	100.38
436.949	105.38
437.17	102.38
437.392	112.38
437.614	92.38
437.835	113.38
438.057	110.38
438.278	112.38
438.5	92.38
438.721	120.38
438.943	96.38
439.165	91.38
439.386	99.38
439.608	92.38
439.829	99.38
440.05	118.38
440.272	126.38
440.493	96.38
440.715	85.38
440.936	101.38
441.158	104.38
441.379	85.38
441.6	88.38
441.822	95.38
442.043	109.38
442.264	110.38
442.486	106.38
442.707	100.38
442.928	101.38
443.149	121.38
443.371	133.38
443.592	104.38
443.813	108.38
444.034	100.38
444.255	91.38
444.476	91.38
444.698	84.38
444.919	87.38
445.14	129.38
445.361	140.38
445.582	116.38
445.803	138.38
446.024	131.38
446.245	137.38
446.466	112.38
446.687	98.38
446.908	94.38
447.129	94.38
447.35	106.38
447.571	106.38
447.792	87.38
448.013	94.38
448.234	104.38
448.455	98.38
448.675	114.38
448.896	120.38
449.117	97.38
449.338	112.38
449.559	125.38
449.779	130.38
450	97.38
450.221	96.38
450.442	90.38
450.662	90.38
450.883	111.38
451.104	111.38
451.324	101.38
451.545	95.38
451.766	84.38
451.986	89.38
452.207	106.38
452.428	91.38
452.648	100.38
452.869	113.38
453.089	105.38
453.31	116.38
453.53	93.38
453.751	82.38
453.971	106.38
454.192	116.38
454.412	93.38
454.633	80.38
454.853	108.38
455.073	93.38
455.294	84.38
455.514	97.38
455.734	82.38
455.955	80.38
456.175	83.38
456.395	79.38
456.616	82.38
456.836	93.38
457.056	93.38
457.276	79.38
457.497	80.38
457.717	96.38
457.937	86.38
458.157	96.38
458.377	93.38
458.598	121.38
458.818	147.38
459.038	153.38
459.258	121.38
459.478	85.38
459.698	103.38
459.918	90.38
460.138	94.38
460.358	82.38
460.578	82.38
460.798	96.38
461.018	96.38
461.238	97.38
461.458	84.38
461.678	106.38
461.898	93.38
462.118	97.38
462.338	85.38
462.558	87.38
462.777	80.38
462.997	75.38
463.217	85.38
463.437	90.38
463.657	84.38
463.876	94.38
464.096	102.38
464.316	99.38
464.536	92.38
464.755	98.38
464.975	105.38
465.195	163.38
465.414	142.38
465.634	101.38
465.854	82.38
466.073	92.38
466.293	80.38
466.512	89.38
466.732	87.38
466.951	93.38
467.171	93.38
467.391	83.38
467.61	96.38
467.829	94.38
468.049	89.38
468.268	96.38
468.488	86.38
468.707	95.38
468.927	67.38
469.146	79.38
469.365	96.38
469.585	97.38
469.804	93.38
470.023	97.38
470.243	83.38
470.462	100.38
470.681	94.38
470.901	99.38
471.12	98.38
471.339	95.38
471.558	88.38
471.777	80.38
471.997	76.38
472.216	94.38
472.435	92.38
472.654	88.38
472.873	96.38
473.092	91.38
473.311	98.38
473.53	79.38
473.749	96.38
473.968	100.38
474.187	106.38
474.406	91.38
474.625	83.38
474.844	87.38
475.063	91.38
475.282	96.38
475.501	85.38
475.72	83.38
475.939	97.38
476.158	88.38
476.377	100.38
476.596	89.38
476.814	97.38
477.033	75.38
477.252	81.38
477.471	89.38
477.69	97.38
477.908	93.38
478.127	96.38
478.346	94.38
478.564	91.38
478.783	96.38
479.002	85.38
479.22	94.38
479.439	100.38
479.658	97.38
479.876	106.38
480.095	93.38
480.313	90.38
480.532	63.38
480.751	91.38
480.969	92.38
481.188	108.38
481.406	95.38
481.624	76.38
481.843	103.38
482.061	92.38
482.28	97.38
482.498	90.38
482.717	84.38
482.935	87.38
483.153	83.38
483.372	93.38
483.59	84.38
483.808	97.38
484.027	92.38
484.245	88.38
484.463	92.38
484.681	107.38
484.9	90.38
485.118	107.38
485.336	100.38
485.554	101.38
485.772	101.38
485.99	103.38
486.209	107.38
486.427	96.38
486.645	111.38
486.863	94.38
487.081	103.38
487.299	86.38
487.517	86.38
487.735	96.38
487.953	92.38
488.171	87.38
488.389	82.38
488.607	100.38
488.825	105.38
489.043	98.38
489.261	98.38
489.479	89.38
489.696	106.38
489.914	88.38
490.132	81.38
490.35	86.38
490.568	94.38
490.786	90.38
491.003	88.38
491.221	100.38
491.439	105.38
491.657	87.38
491.874	99.38
492.092	93.38
492.31	107.38
492.527	96.38
492.745	93.38
492.963	91.38
493.18	95.38
493.398	101.38
493.615	109.38
493.833	80.38
494.05	83.38
494.268	98.38
494.485	86.38
494.703	95.38
494.92	88.38
495.138	79.38
495.355	85.38
495.573	96.38
495.79	73.38
496.008	106.38
496.225	96.38
496.442	79.38
496.66	94.38
496.877	95.38
497.094	88.38
497.312	77.38
497.529	98.38
497.746	100.38
497.963	90.38
498.181	90.38
498.398	94.38
498.615	99.38
498.832	107.38
499.049	110.38
499.267	113.38
499.484	87.38
499.701	97.38
499.918	90.38
500.135	78.38
500.352	88.38
500.569	93.38
500.786	94.38
501.003	88.38
501.22	78.38
501.437	92.38
501.654	100.38
501.871	111.38
502.088	91.38
502.305	93.38
502.522	101.38
502.739	107.38
502.956	98.38
503.172	94.38
503.389	88.38
503.606	104.38
503.823	96.38
504.04	109.38
504.256	91.38
504.473	106.38
504.69	88.38
504.907	80.38
505.123	96.38
505.34	99.38
505.557	97.38
505.773	97.38
505.99	106.38
506.207	87.38
506.423	87.38
506.64	86.38
506.856	92.38
507.073	86.38
507.289	100.38
507.506	99.38
507.722	123.38
507.939	137.38
508.155	90.38
508.372	87.38
508.588	88.38
508.805	99.38
509.021	111.38
509.238	90.38
509.454	98.38
509.67	104.38
509.887	114.38
510.103	123.38
510.319	211.38
510.536	829.38
510.752	2488.38
510.968	673.38
511.184	164.38
511.401	96.38
511.617	109.38
511.833	95.38
512.049	98.38
512.265	87.38
512.481	76.38
512.698	83.38
512.914	91.38
513.13	93.38
513.346	91.38
513.562	113.38
513.778	111.38
513.994	98.38
514.21	98.38
514.426	113.38
514.642	122.38
514.858	125.38
515.074	173.38
515.29	465.38
