Data from Uncirc_1995_H10_HRD10591_00097.txt Node
Date: Wed Jan 03 11:35:53 EST 2024
User: Yrep
Spectrometer: HR+D1059
Trigger mode: 1
Integration Time (sec): 1.000000E-1
Scans to average: 1
Electric dark correction enabled: true
Nonlinearity correction enabled: false
Boxcar width: 0
XAxis mode: Wavelengths
Number of Pixels in Spectrum: 2048
>>>>>Begin Spectral Data<<<<<
223.165	-15.12
223.4	-15.12
223.635	-15.12
223.869	-14.12
224.104	-12.12
224.338	-13.12
224.573	-12.12
224.808	-14.12
225.042	-16.12
225.277	8.88
225.511	-9.12
225.746	-3.12
225.98	3.88
226.215	6.88
226.449	17.88
226.683	27.88
226.918	10.88
227.152	32.88
227.387	24.88
227.621	30.88
227.856	44.88
228.09	46.88
228.324	48.88
228.559	48.88
228.793	65.88
229.027	62.88
229.262	77.88
229.496	58.88
229.73	78.88
229.964	91.88
230.199	77.88
230.433	78.88
230.667	73.88
230.901	81.88
231.136	85.88
231.37	75.88
231.604	91.88
231.838	78.88
232.072	69.88
232.306	76.88
232.541	80.88
232.775	71.88
233.009	59.88
233.243	92.88
233.477	79.88
233.711	86.88
233.945	86.88
234.179	85.88
234.413	77.88
234.647	83.88
234.881	74.88
235.115	78.88
235.349	84.88
235.583	74.88
235.817	82.88
236.051	81.88
236.285	66.88
236.519	68.88
236.753	67.88
236.987	80.88
237.221	73.88
237.455	95.88
237.689	84.88
237.922	70.88
238.156	83.88
238.39	80.88
238.624	87.88
238.858	74.88
239.091	75.88
239.325	67.88
239.559	88.88
239.793	90.88
240.027	76.88
240.26	74.88
240.494	76.88
240.728	82.88
240.961	84.88
241.195	90.88
241.429	80.88
241.662	73.88
241.896	83.88
242.13	62.88
242.363	78.88
242.597	74.88
242.83	66.88
243.064	79.88
243.298	74.88
243.531	82.88
243.765	78.88
243.998	74.88
244.232	74.88
244.465	94.88
244.699	76.88
244.932	79.88
245.166	77.88
245.399	84.88
245.633	76.88
245.866	79.88
246.099	62.88
246.333	88.88
246.566	84.88
246.8	82.88
247.033	82.88
247.266	69.88
247.5	77.88
247.733	73.88
247.966	94.88
248.2	86.88
248.433	64.88
248.666	76.88
248.899	69.88
249.133	76.88
249.366	88.88
249.599	101.88
249.832	92.88
250.066	82.88
250.299	81.88
250.532	76.88
250.765	65.88
250.998	82.88
251.231	80.88
251.465	73.88
251.698	75.88
251.931	88.88
252.164	83.88
252.397	83.88
252.63	89.88
252.863	75.88
253.096	76.88
253.329	83.88
253.562	87.88
253.795	86.88
254.028	73.88
254.261	85.88
254.494	89.88
254.727	88.88
254.96	81.88
255.193	72.88
255.426	62.88
255.659	67.88
255.892	87.88
256.124	73.88
256.357	72.88
256.59	79.88
256.823	77.88
257.056	79.88
257.289	85.88
257.521	87.88
257.754	80.88
257.987	98.88
258.22	75.88
258.452	68.88
258.685	88.88
258.918	69.88
259.151	79.88
259.383	75.88
259.616	89.88
259.849	74.88
260.081	70.88
260.314	76.88
260.547	76.88
260.779	76.88
261.012	92.88
261.244	86.88
261.477	88.88
261.71	84.88
261.942	111.88
262.175	118.88
262.407	91.88
262.64	66.88
262.872	74.88
263.105	99.88
263.337	88.88
263.57	91.88
263.802	89.88
264.035	68.88
264.267	80.88
264.499	88.88
264.732	89.88
264.964	95.88
265.197	88.88
265.429	81.88
265.661	81.88
265.894	92.88
266.126	79.88
266.358	83.88
266.591	74.88
266.823	74.88
267.055	80.88
267.287	72.88
267.52	93.88
267.752	108.88
267.984	101.88
268.216	86.88
268.448	94.88
268.681	79.88
268.913	80.88
269.145	74.88
269.377	93.88
269.609	84.88
269.841	76.88
270.073	84.88
270.306	78.88
270.538	96.88
270.77	88.88
271.002	94.88
271.234	95.88
271.466	75.88
271.698	76.88
271.93	91.88
272.162	91.88
272.394	96.88
272.626	85.88
272.858	89.88
273.09	91.88
273.322	81.88
273.553	78.88
273.785	89.88
274.017	91.88
274.249	81.88
274.481	67.88
274.713	82.88
274.945	85.88
275.176	87.88
275.408	87.88
275.64	91.88
275.872	77.88
276.104	84.88
276.335	82.88
276.567	107.88
276.799	103.88
277.031	93.88
277.262	97.88
277.494	89.88
277.726	102.88
277.957	83.88
278.189	86.88
278.421	93.88
278.652	84.88
278.884	84.88
279.115	78.88
279.347	88.88
279.579	89.88
279.81	92.88
280.042	90.88
280.273	84.88
280.505	86.88
280.736	83.88
280.968	86.88
281.199	86.88
281.431	78.88
281.662	85.88
281.894	77.88
282.125	93.88
282.356	103.88
282.588	134.88
282.819	109.88
283.051	86.88
283.282	93.88
283.513	98.88
283.745	88.88
283.976	85.88
284.207	86.88
284.439	72.88
284.67	94.88
284.901	92.88
285.132	74.88
285.364	89.88
285.595	83.88
285.826	93.88
286.057	90.88
286.288	90.88
286.52	79.88
286.751	89.88
286.982	97.88
287.213	85.88
287.444	86.88
287.675	103.88
287.906	97.88
288.138	86.88
288.369	82.88
288.6	81.88
288.831	66.88
289.062	91.88
289.293	81.88
289.524	94.88
289.755	90.88
289.986	95.88
290.217	79.88
290.448	96.88
290.679	91.88
290.91	85.88
291.141	89.88
291.371	93.88
291.602	78.88
291.833	96.88
292.064	95.88
292.295	85.88
292.526	86.88
292.757	86.88
292.987	86.88
293.218	106.88
293.449	96.88
293.68	76.88
293.91	90.88
294.141	89.88
294.372	95.88
294.603	77.88
294.833	84.88
295.064	88.88
295.295	83.88
295.525	84.88
295.756	104.88
295.987	110.88
296.217	141.88
296.448	135.88
296.679	102.88
296.909	84.88
297.14	105.88
297.37	87.88
297.601	86.88
297.831	81.88
298.062	78.88
298.292	92.88
298.523	107.88
298.753	88.88
298.984	77.88
299.214	78.88
299.445	83.88
299.675	98.88
299.905	88.88
300.136	97.88
300.366	105.88
300.597	98.88
300.827	101.88
301.057	100.88
301.288	89.88
301.518	95.88
301.748	90.88
301.979	97.88
302.209	85.88
302.439	88.88
302.669	90.88
302.9	93.88
303.13	86.88
303.36	101.88
303.59	109.88
303.82	113.88
304.051	99.88
304.281	96.88
304.511	106.88
304.741	93.88
304.971	101.88
305.201	83.88
305.431	100.88
305.661	83.88
305.891	105.88
306.121	101.88
306.352	105.88
306.582	101.88
306.812	98.88
307.042	100.88
307.272	95.88
307.502	85.88
307.731	95.88
307.961	101.88
308.191	89.88
308.421	101.88
308.651	114.88
308.881	94.88
309.111	83.88
309.341	93.88
309.571	86.88
309.8	95.88
310.03	88.88
310.26	120.88
310.49	89.88
310.72	93.88
310.949	90.88
311.179	88.88
311.409	94.88
311.639	91.88
311.868	96.88
312.098	91.88
312.328	95.88
312.557	101.88
312.787	90.88
313.017	90.88
313.246	86.88
313.476	101.88
313.706	98.88
313.935	87.88
314.165	85.88
314.394	87.88
314.624	88.88
314.853	104.88
315.083	80.88
315.312	88.88
315.542	81.88
315.771	102.88
316.001	90.88
316.23	97.88
316.46	76.88
316.689	95.88
316.919	97.88
317.148	87.88
317.377	101.88
317.607	105.88
317.836	97.88
318.065	76.88
318.295	93.88
318.524	102.88
318.753	101.88
318.983	75.88
319.212	99.88
319.441	96.88
319.67	128.88
319.9	100.88
320.129	98.88
320.358	96.88
320.587	95.88
320.816	104.88
321.046	95.88
321.275	89.88
321.504	90.88
321.733	86.88
321.962	89.88
322.191	106.88
322.42	110.88
322.649	102.88
322.878	111.88
323.108	100.88
323.337	140.88
323.566	116.88
323.795	128.88
324.024	225.88
324.253	432.88
324.482	865.88
324.71	1773.88
324.939	2393.88
325.168	868.88
325.397	256.88
325.626	161.88
325.855	140.88
326.084	118.88
326.313	133.88
326.542	157.88
326.77	242.88
326.999	479.88
327.228	986.88
327.457	1838.88
327.686	1459.88
327.914	378.88
328.143	192.88
328.372	147.88
328.6	128.88
328.829	123.88
329.058	132.88
329.287	139.88
329.515	106.88
329.744	107.88
329.972	93.88
330.201	98.88
330.43	110.88
330.658	123.88
330.887	125.88
331.115	114.88
331.344	108.88
331.572	114.88
331.801	94.88
332.03	98.88
332.258	89.88
332.486	110.88
332.715	95.88
332.943	91.88
333.172	102.88
333.4	100.88
333.629	101.88
333.857	122.88
334.085	114.88
334.314	101.88
334.542	98.88
334.771	85.88
334.999	88.88
335.227	100.88
335.455	116.88
335.684	116.88
335.912	98.88
336.14	109.88
336.369	102.88
336.597	104.88
336.825	100.88
337.053	94.88
337.281	96.88
337.51	93.88
337.738	95.88
337.966	100.88
338.194	112.88
338.422	99.88
338.65	89.88
338.878	103.88
339.106	76.88
339.334	104.88
339.562	96.88
339.79	89.88
340.018	93.88
340.246	81.88
340.474	91.88
340.702	90.88
340.93	96.88
341.158	82.88
341.386	92.88
341.614	97.88
341.842	100.88
342.07	94.88
342.298	98.88
342.526	88.88
342.754	97.88
342.981	96.88
343.209	100.88
343.437	120.88
343.665	93.88
343.893	91.88
344.12	100.88
344.348	102.88
344.576	91.88
344.804	102.88
345.031	93.88
345.259	83.88
345.487	96.88
345.714	86.88
345.942	103.88
346.17	99.88
346.397	99.88
346.625	111.88
346.853	104.88
347.08	82.88
347.308	101.88
347.535	115.88
347.763	100.88
347.99	91.88
348.218	100.88
348.445	115.88
348.673	97.88
348.9	95.88
349.128	101.88
349.355	92.88
349.583	101.88
349.81	102.88
350.037	96.88
350.265	95.88
350.492	90.88
350.72	85.88
350.947	93.88
351.174	101.88
351.402	108.88
351.629	109.88
351.856	99.88
352.083	101.88
352.311	124.88
352.538	120.88
352.765	107.88
352.992	109.88
353.22	108.88
353.447	102.88
353.674	96.88
353.901	100.88
354.128	94.88
354.355	97.88
354.583	100.88
354.81	107.88
355.037	105.88
355.264	88.88
355.491	96.88
355.718	94.88
355.945	93.88
356.172	95.88
356.399	92.88
356.626	98.88
356.853	96.88
357.08	81.88
357.307	97.88
357.534	94.88
357.761	88.88
357.988	105.88
358.215	103.88
358.441	92.88
358.668	78.88
358.895	99.88
359.122	79.88
359.349	86.88
359.576	88.88
359.802	109.88
360.029	102.88
360.256	99.88
360.483	94.88
360.709	83.88
360.936	97.88
361.163	87.88
361.39	97.88
361.616	81.88
361.843	84.88
362.07	82.88
362.296	96.88
362.523	81.88
362.749	84.88
362.976	88.88
363.203	91.88
363.429	99.88
363.656	94.88
363.882	89.88
364.109	91.88
364.335	87.88
364.562	90.88
364.788	89.88
365.015	96.88
365.241	94.88
365.468	111.88
365.694	102.88
365.92	89.88
366.147	85.88
366.373	86.88
366.599	94.88
366.826	101.88
367.052	90.88
367.278	93.88
367.505	92.88
367.731	94.88
367.957	104.88
368.184	97.88
368.41	98.88
368.636	108.88
368.862	120.88
369.089	109.88
369.315	88.88
369.541	93.88
369.767	96.88
369.993	98.88
370.219	91.88
370.445	98.88
370.672	87.88
370.898	73.88
371.124	85.88
371.35	81.88
371.576	101.88
371.802	102.88
372.028	91.88
372.254	82.88
372.48	72.88
372.706	100.88
372.932	83.88
373.158	81.88
373.384	92.88
373.61	91.88
373.835	92.88
374.061	91.88
374.287	98.88
374.513	96.88
374.739	88.88
374.965	86.88
375.191	99.88
375.416	89.88
375.642	91.88
375.868	94.88
376.094	96.88
376.319	102.88
376.545	88.88
376.771	100.88
376.997	76.88
377.222	100.88
377.448	93.88
377.674	93.88
377.899	85.88
378.125	91.88
378.35	94.88
378.576	83.88
378.802	91.88
379.027	99.88
379.253	87.88
379.478	104.88
379.704	77.88
379.929	98.88
380.155	97.88
380.38	93.88
380.606	83.88
380.831	103.88
381.057	87.88
381.282	101.88
381.507	88.88
381.733	105.88
381.958	98.88
382.184	93.88
382.409	105.88
382.634	106.88
382.86	86.88
383.085	96.88
383.31	98.88
383.535	97.88
383.761	108.88
383.986	95.88
384.211	98.88
384.436	114.88
384.662	109.88
384.887	89.88
385.112	86.88
385.337	110.88
385.562	97.88
385.787	92.88
386.013	102.88
386.238	112.88
386.463	105.88
386.688	102.88
386.913	98.88
387.138	93.88
387.363	106.88
387.588	100.88
387.813	97.88
388.038	87.88
388.263	110.88
388.488	112.88
388.713	92.88
388.938	94.88
389.163	90.88
389.387	99.88
389.612	92.88
389.837	101.88
390.062	98.88
390.287	101.88
390.512	97.88
390.736	97.88
390.961	93.88
391.186	98.88
391.411	106.88
391.636	82.88
391.86	93.88
392.085	91.88
392.31	88.88
392.534	90.88
392.759	82.88
392.984	89.88
393.208	91.88
393.433	94.88
393.658	91.88
393.882	103.88
394.107	90.88
394.331	90.88
394.556	93.88
394.78	97.88
395.005	85.88
395.229	91.88
395.454	92.88
395.678	86.88
395.903	84.88
396.127	76.88
396.352	74.88
396.576	83.88
396.801	91.88
397.025	86.88
397.249	96.88
397.474	94.88
397.698	88.88
397.922	90.88
398.147	81.88
398.371	90.88
398.595	87.88
398.82	88.88
399.044	89.88
399.268	98.88
399.492	88.88
399.717	73.88
399.941	100.88
400.165	93.88
400.389	77.88
400.613	87.88
400.837	87.88
401.062	99.88
401.286	93.88
401.51	89.88
401.734	97.88
401.958	98.88
402.182	130.88
402.406	159.88
402.63	115.88
402.854	92.88
403.078	82.88
403.302	92.88
403.526	92.88
403.75	84.88
403.974	88.88
404.198	93.88
404.422	83.88
404.645	84.88
404.869	79.88
405.093	105.88
405.317	96.88
405.541	97.88
405.765	102.88
405.988	123.88
406.212	180.88
406.436	240.88
406.66	163.88
406.883	93.88
407.107	99.88
407.331	113.88
407.555	90.88
407.778	94.88
408.002	96.88
408.226	86.88
408.449	91.88
408.673	82.88
408.896	101.88
409.12	97.88
409.344	100.88
409.567	86.88
409.791	98.88
410.014	83.88
410.238	96.88
410.461	94.88
410.685	102.88
410.908	99.88
411.132	104.88
411.355	96.88
411.578	93.88
411.802	99.88
412.025	97.88
412.249	98.88
412.472	95.88
412.695	85.88
412.919	90.88
413.142	92.88
413.365	100.88
413.589	97.88
413.812	85.88
414.035	95.88
414.258	96.88
414.482	85.88
414.705	95.88
414.928	91.88
415.151	94.88
415.374	85.88
415.597	93.88
415.821	82.88
416.044	94.88
416.267	91.88
416.49	106.88
416.713	87.88
416.936	110.88
417.159	89.88
417.382	84.88
417.605	99.88
417.828	93.88
418.051	89.88
418.274	103.88
418.497	79.88
418.72	92.88
418.943	94.88
419.166	91.88
419.389	82.88
419.611	96.88
419.834	83.88
420.057	89.88
420.28	79.88
420.503	85.88
420.726	90.88
420.948	90.88
421.171	108.88
421.394	91.88
421.617	99.88
421.839	93.88
422.062	84.88
422.285	96.88
422.507	107.88
422.73	101.88
422.953	99.88
423.175	95.88
423.398	83.88
423.621	83.88
423.843	93.88
424.066	81.88
424.288	88.88
424.511	97.88
424.733	92.88
424.956	98.88
425.178	93.88
425.401	119.88
425.623	86.88
425.846	99.88
426.068	98.88
426.291	77.88
426.513	97.88
426.735	107.88
426.958	95.88
427.18	110.88
427.402	126.88
427.625	154.88
427.847	113.88
428.069	91.88
428.292	92.88
428.514	100.88
428.736	86.88
428.958	98.88
429.181	90.88
429.403	84.88
429.625	88.88
429.847	92.88
430.069	104.88
430.292	96.88
430.514	86.88
430.736	99.88
430.958	88.88
431.18	86.88
431.402	89.88
431.624	90.88
431.846	92.88
432.068	89.88
432.29	86.88
432.512	83.88
432.734	85.88
432.956	82.88
433.178	100.88
433.4	89.88
433.622	94.88
433.844	109.88
434.066	92.88
434.287	85.88
434.509	108.88
434.731	89.88
434.953	84.88
435.175	102.88
435.397	106.88
435.618	104.88
435.84	111.88
436.062	120.88
436.284	107.88
436.505	100.88
436.727	102.88
436.949	100.88
437.17	92.88
437.392	85.88
437.614	96.88
437.835	123.88
438.057	120.88
438.278	98.88
438.5	93.88
438.721	126.88
438.943	109.88
439.165	99.88
439.386	88.88
439.608	93.88
439.829	83.88
440.05	114.88
440.272	141.88
440.493	98.88
440.715	86.88
440.936	85.88
441.158	83.88
441.379	108.88
441.6	103.88
441.822	115.88
442.043	96.88
442.264	90.88
442.486	101.88
442.707	102.88
442.928	113.88
443.149	114.88
443.371	129.88
443.592	107.88
443.813	113.88
444.034	120.88
444.255	90.88
444.476	93.88
444.698	112.88
444.919	94.88
445.14	121.88
445.361	118.88
445.582	118.88
445.803	131.88
446.024	139.88
446.245	132.88
446.466	127.88
446.687	97.88
446.908	98.88
447.129	99.88
447.35	90.88
447.571	93.88
447.792	111.88
448.013	99.88
448.234	93.88
448.455	109.88
448.675	110.88
448.896	115.88
449.117	87.88
449.338	95.88
449.559	137.88
449.779	125.88
450	104.88
450.221	93.88
450.442	98.88
450.662	97.88
450.883	103.88
451.104	110.88
451.324	98.88
451.545	92.88
451.766	93.88
451.986	99.88
452.207	92.88
452.428	85.88
452.648	93.88
452.869	108.88
453.089	114.88
453.31	122.88
453.53	84.88
453.751	91.88
453.971	104.88
454.192	116.88
454.412	87.88
454.633	98.88
454.853	99.88
455.073	82.88
455.294	84.88
455.514	98.88
455.734	93.88
455.955	83.88
456.175	99.88
456.395	91.88
456.616	80.88
456.836	82.88
457.056	78.88
457.276	96.88
457.497	81.88
457.717	89.88
457.937	83.88
458.157	83.88
458.377	87.88
458.598	102.88
458.818	157.88
459.038	157.88
459.258	110.88
459.478	96.88
459.698	93.88
459.918	83.88
460.138	80.88
460.358	101.88
460.578	86.88
460.798	108.88
461.018	81.88
461.238	83.88
461.458	83.88
461.678	97.88
461.898	89.88
462.118	86.88
462.338	85.88
462.558	88.88
462.777	91.88
462.997	97.88
463.217	94.88
463.437	101.88
463.657	96.88
463.876	92.88
464.096	85.88
464.316	86.88
464.536	99.88
464.755	108.88
464.975	110.88
465.195	171.88
465.414	158.88
465.634	99.88
465.854	97.88
466.073	90.88
466.293	102.88
466.512	88.88
466.732	86.88
466.951	77.88
467.171	94.88
467.391	96.88
467.61	100.88
467.829	86.88
468.049	85.88
468.268	101.88
468.488	87.88
468.707	83.88
468.927	81.88
469.146	83.88
469.365	93.88
469.585	92.88
469.804	107.88
470.023	99.88
470.243	98.88
470.462	89.88
470.681	98.88
470.901	88.88
471.12	92.88
471.339	88.88
471.558	94.88
471.777	80.88
471.997	83.88
472.216	84.88
472.435	90.88
472.654	92.88
472.873	94.88
473.092	93.88
473.311	86.88
473.53	81.88
473.749	94.88
473.968	91.88
474.187	112.88
474.406	89.88
474.625	80.88
474.844	97.88
475.063	90.88
475.282	98.88
475.501	92.88
475.72	84.88
475.939	91.88
476.158	91.88
476.377	82.88
476.596	92.88
476.814	93.88
477.033	90.88
477.252	88.88
477.471	87.88
477.69	87.88
477.908	105.88
478.127	85.88
478.346	95.88
478.564	100.88
478.783	107.88
479.002	98.88
479.22	93.88
479.439	107.88
479.658	105.88
479.876	91.88
480.095	100.88
480.313	94.88
480.532	97.88
480.751	95.88
480.969	101.88
481.188	101.88
481.406	115.88
481.624	86.88
481.843	90.88
482.061	86.88
482.28	104.88
482.498	98.88
482.717	93.88
482.935	95.88
483.153	94.88
483.372	97.88
483.59	99.88
483.808	84.88
484.027	86.88
484.245	90.88
484.463	76.88
484.681	92.88
484.9	92.88
485.118	80.88
485.336	102.88
485.554	94.88
485.772	101.88
485.99	103.88
486.209	114.88
486.427	121.88
486.645	106.88
486.863	113.88
487.081	85.88
487.299	96.88
487.517	93.88
487.735	96.88
487.953	102.88
488.171	90.88
488.389	88.88
488.607	104.88
488.825	93.88
489.043	76.88
489.261	92.88
489.479	85.88
489.696	96.88
489.914	81.88
490.132	96.88
490.35	100.88
490.568	97.88
490.786	79.88
491.003	98.88
491.221	94.88
491.439	95.88
491.657	120.88
491.874	87.88
492.092	88.88
492.31	99.88
492.527	103.88
492.745	80.88
492.963	96.88
493.18	87.88
493.398	96.88
493.615	88.88
493.833	97.88
494.05	101.88
494.268	109.88
494.485	90.88
494.703	85.88
494.92	91.88
495.138	80.88
495.355	93.88
495.573	85.88
495.79	87.88
496.008	102.88
496.225	90.88
496.442	90.88
496.66	96.88
496.877	94.88
497.094	89.88
497.312	93.88
497.529	88.88
497.746	82.88
497.963	100.88
498.181	84.88
498.398	101.88
498.615	106.88
498.832	105.88
499.049	98.88
499.267	91.88
499.484	78.88
499.701	81.88
499.918	79.88
500.135	90.88
500.352	99.88
500.569	96.88
500.786	86.88
501.003	94.88
501.22	79.88
501.437	94.88
501.654	101.88
501.871	98.88
502.088	106.88
502.305	100.88
502.522	86.88
502.739	84.88
502.956	95.88
503.172	85.88
503.389	99.88
503.606	99.88
503.823	85.88
504.04	104.88
504.256	96.88
504.473	94.88
504.69	82.88
504.907	99.88
505.123	87.88
505.34	100.88
505.557	88.88
505.773	85.88
505.99	94.88
506.207	89.88
506.423	93.88
506.64	84.88
506.856	100.88
507.073	92.88
507.289	101.88
507.506	98.88
507.722	114.88
507.939	134.88
508.155	101.88
508.372	98.88
508.588	101.88
508.805	94.88
509.021	82.88
509.238	106.88
509.454	103.88
509.67	100.88
509.887	113.88
510.103	141.88
510.319	221.88
510.536	852.88
510.752	2640.88
510.968	715.88
511.184	160.88
511.401	132.88
511.617	109.88
511.833	89.88
512.049	88.88
512.265	88.88
512.481	94.88
512.698	83.88
512.914	78.88
513.13	93.88
513.346	76.88
513.562	102.88
513.778	98.88
513.994	89.88
514.21	104.88
514.426	117.88
514.642	125.88
514.858	139.88
515.074	169.88
515.29	469.88
