Data from Uncirc_1995_H10_HRD10591_00068.txt Node
Date: Wed Jan 03 11:35:47 EST 2024
User: Yrep
Spectrometer: HR+D1059
Trigger mode: 1
Integration Time (sec): 1.000000E-1
Scans to average: 1
Electric dark correction enabled: true
Nonlinearity correction enabled: false
Boxcar width: 0
XAxis mode: Wavelengths
Number of Pixels in Spectrum: 2048
>>>>>Begin Spectral Data<<<<<
223.165	-6.88
223.4	-6.88
223.635	-6.88
223.869	-14.88
224.104	-30.88
224.338	-19.88
224.573	-14.88
224.808	-14.88
225.042	-4.88
225.277	-1.88
225.511	4.12
225.746	-0.88
225.98	7.12
226.215	13.12
226.449	15.12
226.683	17.12
226.918	28.12
227.152	25.12
227.387	34.12
227.621	46.12
227.856	49.12
228.09	33.12
228.324	48.12
228.559	40.12
228.793	66.12
229.027	73.12
229.262	54.12
229.496	60.12
229.73	75.12
229.964	87.12
230.199	72.12
230.433	67.12
230.667	69.12
230.901	67.12
231.136	85.12
231.37	88.12
231.604	72.12
231.838	74.12
232.072	62.12
232.306	94.12
232.541	85.12
232.775	83.12
233.009	95.12
233.243	86.12
233.477	79.12
233.711	90.12
233.945	82.12
234.179	93.12
234.413	86.12
234.647	91.12
234.881	92.12
235.115	70.12
235.349	89.12
235.583	81.12
235.817	82.12
236.051	80.12
236.285	80.12
236.519	88.12
236.753	69.12
236.987	84.12
237.221	96.12
237.455	78.12
237.689	88.12
237.922	59.12
238.156	75.12
238.39	80.12
238.624	70.12
238.858	92.12
239.091	80.12
239.325	79.12
239.559	80.12
239.793	76.12
240.027	72.12
240.26	92.12
240.494	89.12
240.728	82.12
240.961	66.12
241.195	88.12
241.429	89.12
241.662	84.12
241.896	69.12
242.13	72.12
242.363	84.12
242.597	76.12
242.83	61.12
243.064	84.12
243.298	77.12
243.531	67.12
243.765	79.12
243.998	80.12
244.232	93.12
244.465	88.12
244.699	89.12
244.932	82.12
245.166	85.12
245.399	85.12
245.633	91.12
245.866	82.12
246.099	69.12
246.333	80.12
246.566	69.12
246.8	82.12
247.033	94.12
247.266	88.12
247.5	88.12
247.733	87.12
247.966	60.12
248.2	78.12
248.433	81.12
248.666	73.12
248.899	98.12
249.133	99.12
249.366	83.12
249.599	100.12
249.832	75.12
250.066	80.12
250.299	84.12
250.532	90.12
250.765	90.12
250.998	88.12
251.231	84.12
251.465	76.12
251.698	76.12
251.931	91.12
252.164	85.12
252.397	85.12
252.63	82.12
252.863	82.12
253.096	85.12
253.329	110.12
253.562	79.12
253.795	82.12
254.028	79.12
254.261	81.12
254.494	76.12
254.727	82.12
254.96	82.12
255.193	86.12
255.426	92.12
255.659	69.12
255.892	78.12
256.124	97.12
256.357	86.12
256.59	93.12
256.823	74.12
257.056	77.12
257.289	85.12
257.521	77.12
257.754	81.12
257.987	76.12
258.22	72.12
258.452	79.12
258.685	83.12
258.918	66.12
259.151	78.12
259.383	88.12
259.616	85.12
259.849	89.12
260.081	96.12
260.314	86.12
260.547	87.12
260.779	101.12
261.012	85.12
261.244	85.12
261.477	92.12
261.71	108.12
261.942	102.12
262.175	122.12
262.407	86.12
262.64	90.12
262.872	84.12
263.105	92.12
263.337	95.12
263.57	66.12
263.802	75.12
264.035	96.12
264.267	90.12
264.499	74.12
264.732	96.12
264.964	88.12
265.197	82.12
265.429	81.12
265.661	94.12
265.894	95.12
266.126	82.12
266.358	88.12
266.591	110.12
266.823	84.12
267.055	65.12
267.287	96.12
267.52	94.12
267.752	94.12
267.984	87.12
268.216	88.12
268.448	87.12
268.681	103.12
268.913	88.12
269.145	89.12
269.377	85.12
269.609	91.12
269.841	82.12
270.073	80.12
270.306	91.12
270.538	96.12
270.77	92.12
271.002	73.12
271.234	94.12
271.466	91.12
271.698	76.12
271.93	70.12
272.162	88.12
272.394	84.12
272.626	75.12
272.858	94.12
273.09	96.12
273.322	103.12
273.553	92.12
273.785	73.12
274.017	86.12
274.249	96.12
274.481	80.12
274.713	77.12
274.945	80.12
275.176	90.12
275.408	96.12
275.64	72.12
275.872	83.12
276.104	83.12
276.335	91.12
276.567	100.12
276.799	115.12
277.031	102.12
277.262	93.12
277.494	91.12
277.726	93.12
277.957	93.12
278.189	83.12
278.421	90.12
278.652	76.12
278.884	82.12
279.115	85.12
279.347	86.12
279.579	80.12
279.81	93.12
280.042	92.12
280.273	75.12
280.505	77.12
280.736	95.12
280.968	84.12
281.199	88.12
281.431	81.12
281.662	96.12
281.894	105.12
282.125	118.12
282.356	130.12
282.588	127.12
282.819	112.12
283.051	91.12
283.282	104.12
283.513	94.12
283.745	100.12
283.976	84.12
284.207	90.12
284.439	85.12
284.67	90.12
284.901	96.12
285.132	82.12
285.364	84.12
285.595	89.12
285.826	95.12
286.057	86.12
286.288	80.12
286.52	84.12
286.751	89.12
286.982	81.12
287.213	96.12
287.444	77.12
287.675	83.12
287.906	94.12
288.138	110.12
288.369	106.12
288.6	86.12
288.831	88.12
289.062	82.12
289.293	80.12
289.524	91.12
289.755	101.12
289.986	84.12
290.217	77.12
290.448	84.12
290.679	98.12
290.91	89.12
291.141	85.12
291.371	105.12
291.602	98.12
291.833	94.12
292.064	90.12
292.295	104.12
292.526	97.12
292.757	90.12
292.987	87.12
293.218	90.12
293.449	89.12
293.68	101.12
293.91	96.12
294.141	90.12
294.372	96.12
294.603	78.12
294.833	86.12
295.064	87.12
295.295	105.12
295.525	93.12
295.756	90.12
295.987	110.12
296.217	129.12
296.448	119.12
296.679	99.12
296.909	105.12
297.14	91.12
297.37	78.12
297.601	90.12
297.831	77.12
298.062	94.12
298.292	97.12
298.523	86.12
298.753	63.12
298.984	92.12
299.214	101.12
299.445	99.12
299.675	93.12
299.905	97.12
300.136	92.12
300.366	99.12
300.597	97.12
300.827	80.12
301.057	104.12
301.288	105.12
301.518	99.12
301.748	96.12
301.979	99.12
302.209	90.12
302.439	90.12
302.669	94.12
302.9	71.12
303.13	85.12
303.36	93.12
303.59	91.12
303.82	100.12
304.051	92.12
304.281	91.12
304.511	92.12
304.741	85.12
304.971	101.12
305.201	94.12
305.431	96.12
305.661	78.12
305.891	93.12
306.121	85.12
306.352	100.12
306.582	98.12
306.812	101.12
307.042	102.12
307.272	79.12
307.502	98.12
307.731	100.12
307.961	102.12
308.191	92.12
308.421	98.12
308.651	97.12
308.881	90.12
309.111	95.12
309.341	93.12
309.571	107.12
309.8	106.12
310.03	94.12
310.26	100.12
310.49	84.12
310.72	94.12
310.949	99.12
311.179	108.12
311.409	87.12
311.639	88.12
311.868	96.12
312.098	89.12
312.328	94.12
312.557	107.12
312.787	92.12
313.017	109.12
313.246	98.12
313.476	85.12
313.706	87.12
313.935	109.12
314.165	84.12
314.394	109.12
314.624	100.12
314.853	111.12
315.083	98.12
315.312	94.12
315.542	98.12
315.771	104.12
316.001	95.12
316.23	112.12
316.46	84.12
316.689	100.12
316.919	100.12
317.148	89.12
317.377	85.12
317.607	105.12
317.836	93.12
318.065	101.12
318.295	92.12
318.524	76.12
318.753	93.12
318.983	92.12
319.212	98.12
319.441	111.12
319.67	96.12
319.9	96.12
320.129	93.12
320.358	107.12
320.587	107.12
320.816	106.12
321.046	90.12
321.275	88.12
321.504	93.12
321.733	100.12
321.962	101.12
322.191	94.12
322.42	105.12
322.649	110.12
322.878	112.12
323.108	116.12
323.337	134.12
323.566	130.12
323.795	143.12
324.024	199.12
324.253	415.12
324.482	842.12
324.71	1732.12
324.939	2304.12
325.168	829.12
325.397	264.12
325.626	130.12
325.855	140.12
326.084	144.12
326.313	138.12
326.542	167.12
326.77	225.12
326.999	464.12
327.228	996.12
327.457	1790.12
327.686	1444.12
327.914	384.12
328.143	185.12
328.372	154.12
328.6	123.12
328.829	104.12
329.058	130.12
329.287	117.12
329.515	112.12
329.744	108.12
329.972	105.12
330.201	110.12
330.43	113.12
330.658	126.12
330.887	140.12
331.115	106.12
331.344	102.12
331.572	110.12
331.801	97.12
332.03	97.12
332.258	91.12
332.486	99.12
332.715	102.12
332.943	103.12
333.172	94.12
333.4	102.12
333.629	103.12
333.857	127.12
334.085	110.12
334.314	96.12
334.542	108.12
334.771	94.12
334.999	108.12
335.227	88.12
335.455	105.12
335.684	102.12
335.912	99.12
336.14	99.12
336.369	94.12
336.597	77.12
336.825	94.12
337.053	97.12
337.281	89.12
337.51	93.12
337.738	89.12
337.966	104.12
338.194	97.12
338.422	101.12
338.65	91.12
338.878	86.12
339.106	95.12
339.334	96.12
339.562	99.12
339.79	96.12
340.018	104.12
340.246	89.12
340.474	102.12
340.702	103.12
340.93	104.12
341.158	81.12
341.386	101.12
341.614	93.12
341.842	89.12
342.07	93.12
342.298	98.12
342.526	84.12
342.754	77.12
342.981	97.12
343.209	86.12
343.437	92.12
343.665	94.12
343.893	107.12
344.12	109.12
344.348	93.12
344.576	102.12
344.804	95.12
345.031	91.12
345.259	84.12
345.487	112.12
345.714	95.12
345.942	93.12
346.17	92.12
346.397	89.12
346.625	88.12
346.853	81.12
347.08	94.12
347.308	98.12
347.535	88.12
347.763	87.12
347.99	100.12
348.218	104.12
348.445	109.12
348.673	105.12
348.9	95.12
349.128	98.12
349.355	92.12
349.583	94.12
349.81	103.12
350.037	98.12
350.265	98.12
350.492	87.12
350.72	116.12
350.947	99.12
351.174	117.12
351.402	109.12
351.629	103.12
351.856	101.12
352.083	105.12
352.311	97.12
352.538	109.12
352.765	104.12
352.992	110.12
353.22	120.12
353.447	104.12
353.674	109.12
353.901	106.12
354.128	94.12
354.355	109.12
354.583	107.12
354.81	93.12
355.037	97.12
355.264	97.12
355.491	117.12
355.718	91.12
355.945	104.12
356.172	93.12
356.399	98.12
356.626	98.12
356.853	95.12
357.08	108.12
357.307	84.12
357.534	99.12
357.761	101.12
357.988	97.12
358.215	104.12
358.441	110.12
358.668	79.12
358.895	86.12
359.122	96.12
359.349	94.12
359.576	102.12
359.802	92.12
360.029	105.12
360.256	107.12
360.483	90.12
360.709	100.12
360.936	89.12
361.163	102.12
361.39	108.12
361.616	81.12
361.843	88.12
362.07	101.12
362.296	98.12
362.523	101.12
362.749	99.12
362.976	81.12
363.203	91.12
363.429	89.12
363.656	86.12
363.882	96.12
364.109	103.12
364.335	98.12
364.562	88.12
364.788	85.12
365.015	105.12
365.241	100.12
365.468	115.12
365.694	105.12
365.92	111.12
366.147	101.12
366.373	92.12
366.599	94.12
366.826	97.12
367.052	91.12
367.278	81.12
367.505	96.12
367.731	108.12
367.957	96.12
368.184	87.12
368.41	105.12
368.636	108.12
368.862	113.12
369.089	120.12
369.315	93.12
369.541	90.12
369.767	75.12
369.993	95.12
370.219	95.12
370.445	95.12
370.672	105.12
370.898	82.12
371.124	87.12
371.35	100.12
371.576	89.12
371.802	84.12
372.028	98.12
372.254	89.12
372.48	101.12
372.706	92.12
372.932	86.12
373.158	83.12
373.384	85.12
373.61	94.12
373.835	79.12
374.061	86.12
374.287	93.12
374.513	104.12
374.739	94.12
374.965	87.12
375.191	94.12
375.416	78.12
375.642	99.12
375.868	93.12
376.094	97.12
376.319	95.12
376.545	80.12
376.771	91.12
376.997	96.12
377.222	95.12
377.448	93.12
377.674	101.12
377.899	96.12
378.125	93.12
378.35	90.12
378.576	101.12
378.802	102.12
379.027	94.12
379.253	77.12
379.478	96.12
379.704	102.12
379.929	92.12
380.155	92.12
380.38	99.12
380.606	101.12
380.831	97.12
381.057	96.12
381.282	88.12
381.507	96.12
381.733	93.12
381.958	96.12
382.184	87.12
382.409	105.12
382.634	107.12
382.86	94.12
383.085	102.12
383.31	119.12
383.535	99.12
383.761	101.12
383.986	89.12
384.211	100.12
384.436	98.12
384.662	94.12
384.887	96.12
385.112	110.12
385.337	104.12
385.562	108.12
385.787	99.12
386.013	104.12
386.238	108.12
386.463	117.12
386.688	108.12
386.913	96.12
387.138	100.12
387.363	107.12
387.588	101.12
387.813	93.12
388.038	114.12
388.263	104.12
388.488	108.12
388.713	102.12
388.938	106.12
389.163	91.12
389.387	110.12
389.612	98.12
389.837	108.12
390.062	102.12
390.287	88.12
390.512	97.12
390.736	79.12
390.961	103.12
391.186	89.12
391.411	105.12
391.636	94.12
391.86	109.12
392.085	91.12
392.31	81.12
392.534	76.12
392.759	97.12
392.984	93.12
393.208	89.12
393.433	91.12
393.658	80.12
393.882	89.12
394.107	81.12
394.331	92.12
394.556	80.12
394.78	96.12
395.005	104.12
395.229	89.12
395.454	76.12
395.678	96.12
395.903	98.12
396.127	79.12
396.352	93.12
396.576	102.12
396.801	94.12
397.025	108.12
397.249	90.12
397.474	84.12
397.698	92.12
397.922	95.12
398.147	89.12
398.371	89.12
398.595	93.12
398.82	79.12
399.044	89.12
399.268	88.12
399.492	98.12
399.717	91.12
399.941	88.12
400.165	93.12
400.389	102.12
400.613	97.12
400.837	96.12
401.062	92.12
401.286	85.12
401.51	92.12
401.734	94.12
401.958	112.12
402.182	129.12
402.406	176.12
402.63	120.12
402.854	96.12
403.078	101.12
403.302	92.12
403.526	98.12
403.75	96.12
403.974	94.12
404.198	85.12
404.422	93.12
404.645	94.12
404.869	101.12
405.093	99.12
405.317	106.12
405.541	94.12
405.765	100.12
405.988	126.12
406.212	180.12
406.436	244.12
406.66	149.12
406.883	109.12
407.107	98.12
407.331	96.12
407.555	92.12
407.778	102.12
408.002	91.12
408.226	92.12
408.449	96.12
408.673	86.12
408.896	86.12
409.12	106.12
409.344	80.12
409.567	96.12
409.791	91.12
410.014	93.12
410.238	101.12
410.461	91.12
410.685	94.12
410.908	109.12
411.132	100.12
411.355	120.12
411.578	107.12
411.802	97.12
412.025	82.12
412.249	91.12
412.472	97.12
412.695	102.12
412.919	105.12
413.142	110.12
413.365	91.12
413.589	94.12
413.812	87.12
414.035	92.12
414.258	96.12
414.482	92.12
414.705	91.12
414.928	101.12
415.151	107.12
415.374	92.12
415.597	88.12
415.821	95.12
416.044	88.12
416.267	103.12
416.49	112.12
416.713	104.12
416.936	92.12
417.159	81.12
417.382	91.12
417.605	91.12
417.828	91.12
418.051	101.12
418.274	96.12
418.497	100.12
418.72	85.12
418.943	89.12
419.166	104.12
419.389	94.12
419.611	82.12
419.834	106.12
420.057	96.12
420.28	92.12
420.503	94.12
420.726	93.12
420.948	97.12
421.171	90.12
421.394	93.12
421.617	85.12
421.839	102.12
422.062	103.12
422.285	105.12
422.507	99.12
422.73	101.12
422.953	88.12
423.175	84.12
423.398	88.12
423.621	92.12
423.843	105.12
424.066	101.12
424.288	74.12
424.511	86.12
424.733	93.12
424.956	115.12
425.178	110.12
425.401	114.12
425.623	96.12
425.846	95.12
426.068	94.12
426.291	81.12
426.513	92.12
426.735	92.12
426.958	100.12
427.18	108.12
427.402	129.12
427.625	160.12
427.847	131.12
428.069	117.12
428.292	107.12
428.514	96.12
428.736	81.12
428.958	96.12
429.181	84.12
429.403	88.12
429.625	99.12
429.847	106.12
430.069	92.12
430.292	93.12
430.514	98.12
430.736	91.12
430.958	81.12
431.18	82.12
431.402	90.12
431.624	92.12
431.846	82.12
432.068	86.12
432.29	77.12
432.512	87.12
432.734	84.12
432.956	75.12
433.178	102.12
433.4	99.12
433.622	98.12
433.844	93.12
434.066	102.12
434.287	91.12
434.509	96.12
434.731	99.12
434.953	81.12
435.175	80.12
435.397	84.12
435.618	93.12
435.84	101.12
436.062	122.12
436.284	118.12
436.505	105.12
436.727	111.12
436.949	82.12
437.17	82.12
437.392	93.12
437.614	100.12
437.835	110.12
438.057	111.12
438.278	118.12
438.5	108.12
438.721	117.12
438.943	105.12
439.165	87.12
439.386	87.12
439.608	107.12
439.829	108.12
440.05	116.12
440.272	126.12
440.493	104.12
440.715	85.12
440.936	88.12
441.158	102.12
441.379	96.12
441.6	105.12
441.822	97.12
442.043	83.12
442.264	108.12
442.486	106.12
442.707	98.12
442.928	101.12
443.149	131.12
443.371	126.12
443.592	112.12
443.813	99.12
444.034	106.12
444.255	98.12
444.476	80.12
444.698	81.12
444.919	96.12
445.14	120.12
445.361	121.12
445.582	119.12
445.803	128.12
446.024	115.12
446.245	129.12
446.466	112.12
446.687	85.12
446.908	85.12
447.129	101.12
447.35	91.12
447.571	109.12
447.792	90.12
448.013	85.12
448.234	115.12
448.455	96.12
448.675	129.12
448.896	103.12
449.117	105.12
449.338	106.12
449.559	123.12
449.779	120.12
450	104.12
450.221	98.12
450.442	97.12
450.662	90.12
450.883	111.12
451.104	116.12
451.324	91.12
451.545	98.12
451.766	94.12
451.986	98.12
452.207	94.12
452.428	93.12
452.648	107.12
452.869	100.12
453.089	109.12
453.31	129.12
453.53	102.12
453.751	94.12
453.971	105.12
454.192	120.12
454.412	96.12
454.633	78.12
454.853	81.12
455.073	101.12
455.294	90.12
455.514	93.12
455.734	92.12
455.955	88.12
456.175	92.12
456.395	92.12
456.616	89.12
456.836	93.12
457.056	96.12
457.276	86.12
457.497	97.12
457.717	95.12
457.937	93.12
458.157	85.12
458.377	94.12
458.598	110.12
458.818	147.12
459.038	161.12
459.258	118.12
459.478	86.12
459.698	82.12
459.918	88.12
460.138	92.12
460.358	97.12
460.578	104.12
460.798	81.12
461.018	82.12
461.238	94.12
461.458	89.12
461.678	94.12
461.898	80.12
462.118	88.12
462.338	84.12
462.558	80.12
462.777	99.12
462.997	87.12
463.217	80.12
463.437	82.12
463.657	78.12
463.876	88.12
464.096	85.12
464.316	95.12
464.536	99.12
464.755	95.12
464.975	121.12
465.195	176.12
465.414	165.12
465.634	104.12
465.854	98.12
466.073	97.12
466.293	92.12
466.512	84.12
466.732	103.12
466.951	87.12
467.171	97.12
467.391	92.12
467.61	89.12
467.829	98.12
468.049	108.12
468.268	84.12
468.488	80.12
468.707	88.12
468.927	97.12
469.146	92.12
469.365	100.12
469.585	76.12
469.804	108.12
470.023	91.12
470.243	83.12
470.462	96.12
470.681	107.12
470.901	80.12
471.12	93.12
471.339	98.12
471.558	92.12
471.777	89.12
471.997	100.12
472.216	87.12
472.435	106.12
472.654	96.12
472.873	84.12
473.092	85.12
473.311	92.12
473.53	94.12
473.749	102.12
473.968	101.12
474.187	102.12
474.406	97.12
474.625	97.12
474.844	91.12
475.063	92.12
475.282	93.12
475.501	84.12
475.72	95.12
475.939	73.12
476.158	94.12
476.377	88.12
476.596	94.12
476.814	98.12
477.033	93.12
477.252	89.12
477.471	94.12
477.69	87.12
477.908	78.12
478.127	102.12
478.346	98.12
478.564	87.12
478.783	99.12
479.002	98.12
479.22	93.12
479.439	103.12
479.658	99.12
479.876	86.12
480.095	85.12
480.313	97.12
480.532	101.12
480.751	89.12
480.969	101.12
481.188	95.12
481.406	96.12
481.624	98.12
481.843	107.12
482.061	98.12
482.28	86.12
482.498	100.12
482.717	99.12
482.935	105.12
483.153	88.12
483.372	72.12
483.59	86.12
483.808	92.12
484.027	101.12
484.245	108.12
484.463	92.12
484.681	84.12
484.9	105.12
485.118	95.12
485.336	92.12
485.554	115.12
485.772	97.12
485.99	104.12
486.209	105.12
486.427	103.12
486.645	101.12
486.863	123.12
487.081	100.12
487.299	93.12
487.517	104.12
487.735	104.12
487.953	89.12
488.171	91.12
488.389	99.12
488.607	105.12
488.825	86.12
489.043	88.12
489.261	85.12
489.479	103.12
489.696	94.12
489.914	101.12
490.132	71.12
490.35	96.12
490.568	93.12
490.786	96.12
491.003	100.12
491.221	95.12
491.439	102.12
491.657	86.12
491.874	89.12
492.092	108.12
492.31	96.12
492.527	98.12
492.745	91.12
492.963	101.12
493.18	92.12
493.398	106.12
493.615	99.12
493.833	84.12
494.05	86.12
494.268	99.12
494.485	96.12
494.703	99.12
494.92	98.12
495.138	99.12
495.355	103.12
495.573	100.12
495.79	83.12
496.008	100.12
496.225	105.12
496.442	88.12
496.66	102.12
496.877	91.12
497.094	94.12
497.312	98.12
497.529	84.12
497.746	81.12
497.963	96.12
498.181	94.12
498.398	107.12
498.615	94.12
498.832	108.12
499.049	100.12
499.267	96.12
499.484	91.12
499.701	97.12
499.918	94.12
500.135	99.12
500.352	100.12
500.569	93.12
500.786	106.12
501.003	94.12
501.22	101.12
501.437	102.12
501.654	92.12
501.871	104.12
502.088	98.12
502.305	88.12
502.522	86.12
502.739	89.12
502.956	95.12
503.172	101.12
503.389	86.12
503.606	112.12
503.823	93.12
504.04	86.12
504.256	89.12
504.473	87.12
504.69	104.12
504.907	90.12
505.123	101.12
505.34	81.12
505.557	92.12
505.773	89.12
505.99	81.12
506.207	93.12
506.423	82.12
506.64	93.12
506.856	98.12
507.073	92.12
507.289	94.12
507.506	107.12
507.722	112.12
507.939	114.12
508.155	94.12
508.372	109.12
508.588	90.12
508.805	96.12
509.021	94.12
509.238	107.12
509.454	101.12
509.67	112.12
509.887	110.12
510.103	149.12
510.319	220.12
510.536	847.12
510.752	2687.12
510.968	725.12
511.184	165.12
511.401	129.12
511.617	109.12
511.833	86.12
512.049	108.12
512.265	101.12
512.481	85.12
512.698	84.12
512.914	98.12
513.13	96.12
513.346	83.12
513.562	93.12
513.778	93.12
513.994	98.12
514.21	103.12
514.426	118.12
