Data from Uncirc_1995_H10_HRD10591_00094.txt Node
Date: Wed Jan 03 11:35:52 EST 2024
User: Yrep
Spectrometer: HR+D1059
Trigger mode: 1
Integration Time (sec): 1.000000E-1
Scans to average: 1
Electric dark correction enabled: true
Nonlinearity correction enabled: false
Boxcar width: 0
XAxis mode: Wavelengths
Number of Pixels in Spectrum: 2048
>>>>>Begin Spectral Data<<<<<
223.165	-18.81
223.4	-18.81
223.635	-18.81
223.869	-28.81
224.104	-28.81
224.338	-21.81
224.573	-4.81
224.808	-11.81
225.042	-10.81
225.277	-4.81
225.511	9.19
225.746	-4.81
225.98	5.19
226.215	9.19
226.449	22.19
226.683	25.19
226.918	19.19
227.152	45.19
227.387	62.19
227.621	32.19
227.856	51.19
228.09	61.19
228.324	62.19
228.559	54.19
228.793	65.19
229.027	76.19
229.262	71.19
229.496	54.19
229.73	73.19
229.964	85.19
230.199	72.19
230.433	88.19
230.667	81.19
230.901	89.19
231.136	84.19
231.37	90.19
231.604	97.19
231.838	84.19
232.072	92.19
232.306	84.19
232.541	94.19
232.775	91.19
233.009	83.19
233.243	69.19
233.477	81.19
233.711	87.19
233.945	91.19
234.179	81.19
234.413	83.19
234.647	102.19
234.881	90.19
235.115	80.19
235.349	84.19
235.583	90.19
235.817	80.19
236.051	81.19
236.285	88.19
236.519	79.19
236.753	84.19
236.987	79.19
237.221	93.19
237.455	82.19
237.689	88.19
237.922	81.19
238.156	79.19
238.39	85.19
238.624	76.19
238.858	85.19
239.091	69.19
239.325	91.19
239.559	90.19
239.793	86.19
240.027	88.19
240.26	75.19
240.494	88.19
240.728	76.19
240.961	83.19
241.195	112.19
241.429	89.19
241.662	82.19
241.896	70.19
242.13	92.19
242.363	85.19
242.597	88.19
242.83	87.19
243.064	83.19
243.298	87.19
243.531	81.19
243.765	90.19
243.998	78.19
244.232	87.19
244.465	72.19
244.699	105.19
244.932	82.19
245.166	91.19
245.399	89.19
245.633	81.19
245.866	79.19
246.099	88.19
246.333	94.19
246.566	71.19
246.8	87.19
247.033	79.19
247.266	89.19
247.5	77.19
247.733	95.19
247.966	83.19
248.2	81.19
248.433	83.19
248.666	85.19
248.899	78.19
249.133	76.19
249.366	86.19
249.599	108.19
249.832	88.19
250.066	86.19
250.299	91.19
250.532	83.19
250.765	81.19
250.998	77.19
251.231	83.19
251.465	83.19
251.698	94.19
251.931	73.19
252.164	83.19
252.397	80.19
252.63	84.19
252.863	93.19
253.096	93.19
253.329	96.19
253.562	86.19
253.795	92.19
254.028	85.19
254.261	109.19
254.494	92.19
254.727	91.19
254.96	88.19
255.193	89.19
255.426	81.19
255.659	89.19
255.892	83.19
256.124	76.19
256.357	81.19
256.59	92.19
256.823	86.19
257.056	91.19
257.289	86.19
257.521	89.19
257.754	89.19
257.987	76.19
258.22	107.19
258.452	77.19
258.685	89.19
258.918	90.19
259.151	88.19
259.383	111.19
259.616	84.19
259.849	73.19
260.081	78.19
260.314	91.19
260.547	94.19
260.779	75.19
261.012	103.19
261.244	75.19
261.477	92.19
261.71	108.19
261.942	105.19
262.175	105.19
262.407	91.19
262.64	92.19
262.872	81.19
263.105	86.19
263.337	98.19
263.57	87.19
263.802	91.19
264.035	99.19
264.267	88.19
264.499	92.19
264.732	72.19
264.964	79.19
265.197	95.19
265.429	95.19
265.661	97.19
265.894	95.19
266.126	83.19
266.358	80.19
266.591	68.19
266.823	87.19
267.055	79.19
267.287	92.19
267.52	87.19
267.752	100.19
267.984	88.19
268.216	86.19
268.448	97.19
268.681	85.19
268.913	96.19
269.145	93.19
269.377	79.19
269.609	80.19
269.841	88.19
270.073	94.19
270.306	86.19
270.538	98.19
270.77	89.19
271.002	104.19
271.234	90.19
271.466	90.19
271.698	91.19
271.93	91.19
272.162	81.19
272.394	86.19
272.626	74.19
272.858	91.19
273.09	96.19
273.322	102.19
273.553	87.19
273.785	80.19
274.017	95.19
274.249	83.19
274.481	90.19
274.713	103.19
274.945	88.19
275.176	86.19
275.408	91.19
275.64	92.19
275.872	85.19
276.104	84.19
276.335	95.19
276.567	100.19
276.799	111.19
277.031	91.19
277.262	96.19
277.494	98.19
277.726	90.19
277.957	98.19
278.189	99.19
278.421	95.19
278.652	82.19
278.884	88.19
279.115	91.19
279.347	105.19
279.579	102.19
279.81	95.19
280.042	89.19
280.273	87.19
280.505	94.19
280.736	76.19
280.968	90.19
281.199	95.19
281.431	93.19
281.662	87.19
281.894	89.19
282.125	105.19
282.356	102.19
282.588	132.19
282.819	113.19
283.051	99.19
283.282	93.19
283.513	80.19
283.745	93.19
283.976	91.19
284.207	85.19
284.439	77.19
284.67	100.19
284.901	83.19
285.132	96.19
285.364	104.19
285.595	101.19
285.826	98.19
286.057	84.19
286.288	93.19
286.52	77.19
286.751	89.19
286.982	107.19
287.213	89.19
287.444	93.19
287.675	93.19
287.906	99.19
288.138	87.19
288.369	103.19
288.6	101.19
288.831	106.19
289.062	86.19
289.293	85.19
289.524	83.19
289.755	77.19
289.986	99.19
290.217	83.19
290.448	96.19
290.679	92.19
290.91	101.19
291.141	86.19
291.371	101.19
291.602	93.19
291.833	95.19
292.064	88.19
292.295	90.19
292.526	83.19
292.757	97.19
292.987	91.19
293.218	89.19
293.449	90.19
293.68	101.19
293.91	81.19
294.141	97.19
294.372	92.19
294.603	92.19
294.833	75.19
295.064	88.19
295.295	97.19
295.525	106.19
295.756	109.19
295.987	121.19
296.217	146.19
296.448	114.19
296.679	105.19
296.909	87.19
297.14	84.19
297.37	95.19
297.601	100.19
297.831	75.19
298.062	99.19
298.292	96.19
298.523	100.19
298.753	84.19
298.984	99.19
299.214	96.19
299.445	83.19
299.675	112.19
299.905	91.19
300.136	98.19
300.366	72.19
300.597	95.19
300.827	112.19
301.057	102.19
301.288	111.19
301.518	104.19
301.748	99.19
301.979	102.19
302.209	99.19
302.439	105.19
302.669	79.19
302.9	103.19
303.13	98.19
303.36	103.19
303.59	104.19
303.82	115.19
304.051	79.19
304.281	102.19
304.511	94.19
304.741	96.19
304.971	89.19
305.201	96.19
305.431	103.19
305.661	94.19
305.891	92.19
306.121	97.19
306.352	110.19
306.582	109.19
306.812	90.19
307.042	104.19
307.272	94.19
307.502	94.19
307.731	93.19
307.961	96.19
308.191	94.19
308.421	99.19
308.651	97.19
308.881	90.19
309.111	84.19
309.341	98.19
309.571	105.19
309.8	93.19
310.03	96.19
310.26	95.19
310.49	98.19
310.72	101.19
310.949	105.19
311.179	112.19
311.409	107.19
311.639	115.19
311.868	119.19
312.098	86.19
312.328	112.19
312.557	105.19
312.787	109.19
313.017	106.19
313.246	101.19
313.476	98.19
313.706	82.19
313.935	103.19
314.165	111.19
314.394	92.19
314.624	111.19
314.853	101.19
315.083	93.19
315.312	108.19
315.542	93.19
315.771	102.19
316.001	108.19
316.23	99.19
316.46	89.19
316.689	105.19
316.919	116.19
317.148	95.19
317.377	87.19
317.607	89.19
317.836	99.19
318.065	85.19
318.295	110.19
318.524	92.19
318.753	107.19
318.983	108.19
319.212	110.19
319.441	112.19
319.67	113.19
319.9	100.19
320.129	82.19
320.358	93.19
320.587	91.19
320.816	113.19
321.046	113.19
321.275	104.19
321.504	101.19
321.733	97.19
321.962	109.19
322.191	95.19
322.42	108.19
322.649	112.19
322.878	110.19
323.108	113.19
323.337	129.19
323.566	140.19
323.795	164.19
324.024	191.19
324.253	415.19
324.482	856.19
324.71	1799.19
324.939	2384.19
325.168	864.19
325.397	259.19
325.626	153.19
325.855	132.19
326.084	127.19
326.313	123.19
326.542	155.19
326.77	228.19
326.999	475.19
327.228	984.19
327.457	1798.19
327.686	1417.19
327.914	396.19
328.143	202.19
328.372	151.19
328.6	134.19
328.829	111.19
329.058	124.19
329.287	144.19
329.515	107.19
329.744	99.19
329.972	109.19
330.201	108.19
330.43	115.19
330.658	128.19
330.887	141.19
331.115	99.19
331.344	97.19
331.572	102.19
331.801	93.19
332.03	103.19
332.258	99.19
332.486	95.19
332.715	98.19
332.943	82.19
333.172	103.19
333.4	101.19
333.629	97.19
333.857	119.19
334.085	110.19
334.314	94.19
334.542	93.19
334.771	95.19
334.999	104.19
335.227	80.19
335.455	104.19
335.684	91.19
335.912	113.19
336.14	113.19
336.369	103.19
336.597	114.19
336.825	98.19
337.053	92.19
337.281	99.19
337.51	90.19
337.738	98.19
337.966	107.19
338.194	95.19
338.422	107.19
338.65	99.19
338.878	92.19
339.106	90.19
339.334	96.19
339.562	84.19
339.79	83.19
340.018	108.19
340.246	108.19
340.474	105.19
340.702	101.19
340.93	100.19
341.158	104.19
341.386	111.19
341.614	96.19
341.842	104.19
342.07	95.19
342.298	86.19
342.526	109.19
342.754	86.19
342.981	93.19
343.209	109.19
343.437	93.19
343.665	100.19
343.893	112.19
344.12	102.19
344.348	98.19
344.576	86.19
344.804	92.19
345.031	95.19
345.259	99.19
345.487	111.19
345.714	102.19
345.942	100.19
346.17	83.19
346.397	90.19
346.625	111.19
346.853	97.19
347.08	85.19
347.308	95.19
347.535	98.19
347.763	93.19
347.99	102.19
348.218	102.19
348.445	111.19
348.673	100.19
348.9	102.19
349.128	100.19
349.355	97.19
349.583	99.19
349.81	102.19
350.037	114.19
350.265	106.19
350.492	99.19
350.72	96.19
350.947	110.19
351.174	103.19
351.402	111.19
351.629	93.19
351.856	94.19
352.083	111.19
352.311	120.19
352.538	129.19
352.765	130.19
352.992	99.19
353.22	103.19
353.447	113.19
353.674	110.19
353.901	97.19
354.128	109.19
354.355	103.19
354.583	105.19
354.81	99.19
355.037	108.19
355.264	91.19
355.491	101.19
355.718	95.19
355.945	103.19
356.172	101.19
356.399	103.19
356.626	92.19
356.853	98.19
357.08	99.19
357.307	109.19
357.534	94.19
357.761	90.19
357.988	101.19
358.215	96.19
358.441	98.19
358.668	88.19
358.895	88.19
359.122	92.19
359.349	87.19
359.576	100.19
359.802	96.19
360.029	115.19
360.256	119.19
360.483	100.19
360.709	83.19
360.936	98.19
361.163	93.19
361.39	109.19
361.616	104.19
361.843	90.19
362.07	101.19
362.296	105.19
362.523	107.19
362.749	101.19
362.976	100.19
363.203	112.19
363.429	85.19
363.656	100.19
363.882	94.19
364.109	86.19
364.335	88.19
364.562	99.19
364.788	91.19
365.015	99.19
365.241	105.19
365.468	107.19
365.694	109.19
365.92	109.19
366.147	108.19
366.373	88.19
366.599	92.19
366.826	103.19
367.052	83.19
367.278	91.19
367.505	95.19
367.731	100.19
367.957	97.19
368.184	101.19
368.41	102.19
368.636	113.19
368.862	117.19
369.089	117.19
369.315	101.19
369.541	91.19
369.767	88.19
369.993	115.19
370.219	100.19
370.445	111.19
370.672	89.19
370.898	89.19
371.124	102.19
371.35	90.19
371.576	83.19
371.802	82.19
372.028	99.19
372.254	83.19
372.48	104.19
372.706	95.19
372.932	85.19
373.158	90.19
373.384	99.19
373.61	91.19
373.835	108.19
374.061	100.19
374.287	100.19
374.513	100.19
374.739	101.19
374.965	98.19
375.191	109.19
375.416	102.19
375.642	104.19
375.868	94.19
376.094	94.19
376.319	79.19
376.545	85.19
376.771	88.19
376.997	98.19
377.222	83.19
377.448	107.19
377.674	98.19
377.899	94.19
378.125	91.19
378.35	95.19
378.576	88.19
378.802	103.19
379.027	99.19
379.253	91.19
379.478	92.19
379.704	88.19
379.929	92.19
380.155	92.19
380.38	100.19
380.606	92.19
380.831	110.19
381.057	99.19
381.282	110.19
381.507	106.19
381.733	110.19
381.958	90.19
382.184	95.19
382.409	106.19
382.634	97.19
382.86	104.19
383.085	93.19
383.31	101.19
383.535	97.19
383.761	102.19
383.986	95.19
384.211	95.19
384.436	100.19
384.662	95.19
384.887	101.19
385.112	86.19
385.337	107.19
385.562	112.19
385.787	96.19
386.013	124.19
386.238	118.19
386.463	94.19
386.688	113.19
386.913	100.19
387.138	115.19
387.363	94.19
387.588	99.19
387.813	103.19
388.038	109.19
388.263	107.19
388.488	101.19
388.713	105.19
388.938	108.19
389.163	98.19
389.387	116.19
389.612	102.19
389.837	97.19
390.062	99.19
390.287	95.19
390.512	88.19
390.736	78.19
390.961	81.19
391.186	102.19
391.411	103.19
391.636	108.19
391.86	89.19
392.085	96.19
392.31	90.19
392.534	81.19
392.759	100.19
392.984	86.19
393.208	81.19
393.433	94.19
393.658	95.19
393.882	89.19
394.107	89.19
394.331	101.19
394.556	75.19
394.78	93.19
395.005	96.19
395.229	98.19
395.454	98.19
395.678	87.19
395.903	85.19
396.127	97.19
396.352	104.19
396.576	92.19
396.801	92.19
397.025	97.19
397.249	94.19
397.474	104.19
397.698	93.19
397.922	87.19
398.147	84.19
398.371	88.19
398.595	85.19
398.82	88.19
399.044	87.19
399.268	81.19
399.492	87.19
399.717	107.19
399.941	97.19
400.165	107.19
400.389	89.19
400.613	93.19
400.837	89.19
401.062	109.19
401.286	97.19
401.51	103.19
401.734	99.19
401.958	96.19
402.182	133.19
402.406	156.19
402.63	123.19
402.854	83.19
403.078	93.19
403.302	103.19
403.526	88.19
403.75	100.19
403.974	94.19
404.198	84.19
404.422	91.19
404.645	89.19
404.869	102.19
405.093	97.19
405.317	105.19
405.541	112.19
405.765	113.19
405.988	124.19
406.212	179.19
406.436	243.19
406.66	159.19
406.883	99.19
407.107	95.19
407.331	108.19
407.555	105.19
407.778	112.19
408.002	92.19
408.226	81.19
408.449	85.19
408.673	76.19
408.896	95.19
409.12	104.19
409.344	98.19
409.567	86.19
409.791	93.19
410.014	98.19
410.238	96.19
410.461	80.19
410.685	89.19
410.908	98.19
411.132	105.19
411.355	96.19
411.578	108.19
411.802	104.19
412.025	101.19
412.249	88.19
412.472	81.19
412.695	91.19
412.919	79.19
413.142	88.19
413.365	95.19
413.589	89.19
413.812	81.19
414.035	78.19
414.258	83.19
414.482	103.19
414.705	75.19
414.928	89.19
415.151	92.19
415.374	107.19
415.597	91.19
415.821	90.19
416.044	94.19
416.267	94.19
416.49	94.19
416.713	86.19
416.936	103.19
417.159	94.19
417.382	107.19
417.605	94.19
417.828	93.19
418.051	95.19
418.274	93.19
418.497	102.19
418.72	97.19
418.943	107.19
419.166	87.19
419.389	85.19
419.611	95.19
419.834	90.19
420.057	83.19
420.28	84.19
420.503	84.19
420.726	90.19
420.948	91.19
421.171	100.19
421.394	96.19
421.617	81.19
421.839	89.19
422.062	87.19
422.285	96.19
422.507	98.19
422.73	112.19
422.953	110.19
423.175	94.19
423.398	84.19
423.621	81.19
423.843	96.19
424.066	99.19
424.288	96.19
424.511	105.19
424.733	98.19
424.956	100.19
425.178	110.19
425.401	91.19
425.623	112.19
425.846	92.19
426.068	81.19
426.291	93.19
426.513	100.19
426.735	95.19
426.958	99.19
427.18	111.19
427.402	126.19
427.625	165.19
427.847	119.19
428.069	98.19
428.292	105.19
428.514	103.19
428.736	80.19
428.958	87.19
429.181	110.19
429.403	97.19
429.625	80.19
429.847	92.19
430.069	115.19
430.292	96.19
430.514	98.19
430.736	97.19
430.958	99.19
431.18	86.19
431.402	98.19
431.624	81.19
431.846	100.19
432.068	91.19
432.29	94.19
432.512	97.19
432.734	103.19
432.956	106.19
433.178	89.19
433.4	95.19
433.622	97.19
433.844	90.19
434.066	83.19
434.287	100.19
434.509	87.19
434.731	92.19
434.953	93.19
435.175	93.19
435.397	107.19
435.618	113.19
435.84	107.19
436.062	135.19
436.284	122.19
436.505	94.19
436.727	96.19
436.949	99.19
437.17	87.19
437.392	95.19
437.614	111.19
437.835	109.19
438.057	124.19
438.278	97.19
438.5	101.19
438.721	119.19
438.943	103.19
439.165	79.19
439.386	84.19
439.608	90.19
439.829	94.19
440.05	116.19
440.272	141.19
440.493	106.19
440.715	88.19
440.936	95.19
441.158	86.19
441.379	86.19
441.6	97.19
441.822	99.19
442.043	98.19
442.264	105.19
442.486	105.19
442.707	101.19
442.928	115.19
443.149	135.19
443.371	148.19
443.592	110.19
443.813	103.19
444.034	103.19
444.255	104.19
444.476	94.19
444.698	86.19
444.919	84.19
445.14	129.19
445.361	114.19
445.582	120.19
445.803	131.19
446.024	141.19
446.245	147.19
446.466	120.19
446.687	94.19
446.908	104.19
447.129	89.19
447.35	100.19
447.571	100.19
447.792	103.19
448.013	100.19
448.234	108.19
448.455	105.19
448.675	118.19
448.896	113.19
449.117	107.19
449.338	101.19
449.559	135.19
449.779	141.19
450	101.19
450.221	78.19
450.442	84.19
450.662	107.19
450.883	104.19
451.104	117.19
451.324	101.19
451.545	84.19
451.766	80.19
451.986	89.19
452.207	85.19
452.428	98.19
452.648	94.19
452.869	89.19
453.089	118.19
453.31	136.19
453.53	88.19
453.751	92.19
453.971	102.19
454.192	105.19
454.412	75.19
454.633	91.19
454.853	75.19
455.073	92.19
455.294	112.19
455.514	96.19
455.734	88.19
455.955	95.19
456.175	89.19
456.395	77.19
456.616	77.19
456.836	84.19
457.056	103.19
457.276	92.19
457.497	91.19
457.717	86.19
457.937	81.19
458.157	97.19
458.377	96.19
458.598	111.19
458.818	146.19
459.038	155.19
459.258	114.19
459.478	90.19
459.698	99.19
459.918	97.19
460.138	79.19
460.358	95.19
460.578	87.19
460.798	95.19
461.018	90.19
461.238	86.19
461.458	87.19
461.678	84.19
461.898	103.19
462.118	83.19
462.338	94.19
462.558	92.19
462.777	99.19
462.997	82.19
463.217	100.19
463.437	81.19
463.657	89.19
463.876	84.19
464.096	93.19
464.316	93.19
464.536	94.19
464.755	94.19
464.975	112.19
465.195	160.19
465.414	158.19
465.634	106.19
465.854	79.19
466.073	97.19
466.293	101.19
466.512	98.19
466.732	95.19
466.951	91.19
467.171	103.19
467.391	79.19
467.61	93.19
467.829	99.19
468.049	97.19
468.268	89.19
468.488	85.19
468.707	97.19
468.927	84.19
469.146	85.19
469.365	96.19
469.585	94.19
469.804	85.19
470.023	98.19
470.243	96.19
470.462	100.19
470.681	107.19
470.901	102.19
471.12	100.19
471.339	95.19
471.558	89.19
471.777	89.19
471.997	100.19
472.216	85.19
472.435	105.19
472.654	95.19
472.873	84.19
473.092	79.19
473.311	89.19
473.53	90.19
473.749	104.19
473.968	100.19
474.187	107.19
474.406	103.19
474.625	81.19
474.844	95.19
475.063	86.19
475.282	93.19
475.501	83.19
475.72	88.19
475.939	91.19
476.158	92.19
476.377	87.19
476.596	93.19
476.814	104.19
477.033	92.19
477.252	109.19
477.471	101.19
477.69	92.19
477.908	109.19
478.127	91.19
478.346	86.19
478.564	100.19
478.783	104.19
479.002	95.19
479.22	93.19
479.439	86.19
479.658	102.19
479.876	107.19
480.095	87.19
480.313	93.19
480.532	103.19
480.751	103.19
480.969	87.19
481.188	133.19
481.406	92.19
481.624	88.19
481.843	93.19
482.061	105.19
482.28	83.19
482.498	89.19
482.717	84.19
482.935	94.19
483.153	98.19
483.372	92.19
483.59	70.19
483.808	77.19
484.027	92.19
484.245	105.19
484.463	80.19
484.681	93.19
484.9	100.19
485.118	98.19
485.336	95.19
485.554	109.19
485.772	104.19
485.99	112.19
486.209	107.19
486.427	110.19
486.645	110.19
486.863	134.19
487.081	112.19
487.299	96.19
487.517	103.19
487.735	91.19
487.953	105.19
488.171	86.19
488.389	89.19
488.607	121.19
488.825	99.19
489.043	89.19
489.261	77.19
489.479	110.19
489.696	91.19
489.914	95.19
490.132	91.19
490.35	95.19
490.568	102.19
490.786	93.19
491.003	99.19
491.221	103.19
491.439	87.19
491.657	101.19
491.874	108.19
492.092	105.19
492.31	91.19
492.527	85.19
492.745	101.19
492.963	89.19
493.18	95.19
493.398	80.19
493.615	99.19
493.833	109.19
494.05	111.19
494.268	93.19
494.485	91.19
494.703	101.19
494.92	112.19
495.138	97.19
495.355	103.19
495.573	94.19
495.79	84.19
496.008	85.19
496.225	97.19
496.442	91.19
496.66	91.19
496.877	80.19
497.094	95.19
497.312	104.19
497.529	95.19
497.746	74.19
497.963	83.19
498.181	99.19
498.398	104.19
498.615	120.19
498.832	89.19
499.049	94.19
499.267	96.19
499.484	85.19
499.701	97.19
499.918	102.19
500.135	93.19
500.352	96.19
500.569	88.19
500.786	91.19
501.003	93.19
501.22	100.19
501.437	94.19
501.654	105.19
501.871	114.19
502.088	88.19
502.305	95.19
502.522	95.19
502.739	102.19
502.956	92.19
503.172	90.19
503.389	94.19
503.606	102.19
503.823	98.19
504.04	100.19
504.256	91.19
504.473	89.19
504.69	104.19
504.907	85.19
505.123	79.19
505.34	96.19
505.557	106.19
505.773	95.19
505.99	82.19
506.207	91.19
506.423	93.19
506.64	99.19
506.856	81.19
507.073	102.19
507.289	103.19
507.506	74.19
507.722	108.19
507.939	133.19
508.155	96.19
508.372	102.19
508.588	99.19
508.805	110.19
509.021	112.19
509.238	102.19
509.454	110.19
509.67	113.19
509.887	125.19
510.103	137.19
510.319	231.19
510.536	857.19
510.752	2589.19
510.968	733.19
511.184	160.19
511.401	117.19
511.617	105.19
511.833	91.19
512.049	89.19
512.265	103.19
512.481	99.19
512.698	101.19
512.914	99.19
513.13	103.19
513.346	94.19
513.562	101.19
