Data from Uncirc_1995_H10_HRD10591_00071.txt Node
Date: Wed Jan 03 11:35:48 EST 2024
User: Yrep
Spectrometer: HR+D1059
Trigger mode: 1
Integration Time (sec): 1.000000E-1
Scans to average: 1
Electric dark correction enabled: true
Nonlinearity correction enabled: false
Boxcar width: 0
XAxis mode: Wavelengths
Number of Pixels in Spectrum: 2048
>>>>>Begin Spectral Data<<<<<
223.165	-5.38
223.4	-5.38
223.635	-5.38
223.869	-18.38
224.104	-24.38
224.338	-19.38
224.573	-4.38
224.808	-14.38
225.042	3.62
225.277	0.62
225.511	-4.38
225.746	12.62
225.98	-1.38
226.215	-0.38
226.449	16.62
226.683	4.62
226.918	23.62
227.152	30.62
227.387	24.62
227.621	28.62
227.856	42.62
228.09	42.62
228.324	41.62
228.559	55.62
228.793	59.62
229.027	61.62
229.262	77.62
229.496	83.62
229.73	86.62
229.964	72.62
230.199	72.62
230.433	64.62
230.667	58.62
230.901	76.62
231.136	71.62
231.37	72.62
231.604	86.62
231.838	77.62
232.072	70.62
232.306	67.62
232.541	78.62
232.775	76.62
233.009	83.62
233.243	80.62
233.477	67.62
233.711	75.62
233.945	85.62
234.179	73.62
234.413	79.62
234.647	78.62
234.881	87.62
235.115	74.62
235.349	85.62
235.583	89.62
235.817	93.62
236.051	85.62
236.285	71.62
236.519	74.62
236.753	75.62
236.987	77.62
237.221	86.62
237.455	80.62
237.689	61.62
237.922	71.62
238.156	77.62
238.39	71.62
238.624	73.62
238.858	66.62
239.091	69.62
239.325	81.62
239.559	75.62
239.793	65.62
240.027	80.62
240.26	78.62
240.494	83.62
240.728	73.62
240.961	86.62
241.195	75.62
241.429	62.62
241.662	82.62
241.896	77.62
242.13	80.62
242.363	68.62
242.597	69.62
242.83	69.62
243.064	73.62
243.298	77.62
243.531	65.62
243.765	69.62
243.998	74.62
244.232	81.62
244.465	80.62
244.699	78.62
244.932	69.62
245.166	73.62
245.399	82.62
245.633	66.62
245.866	67.62
246.099	76.62
246.333	55.62
246.566	73.62
246.8	81.62
247.033	95.62
247.266	86.62
247.5	71.62
247.733	62.62
247.966	73.62
248.2	77.62
248.433	66.62
248.666	69.62
248.899	67.62
249.133	81.62
249.366	92.62
249.599	87.62
249.832	86.62
250.066	71.62
250.299	75.62
250.532	76.62
250.765	63.62
250.998	79.62
251.231	72.62
251.465	90.62
251.698	77.62
251.931	81.62
252.164	75.62
252.397	78.62
252.63	68.62
252.863	62.62
253.096	81.62
253.329	65.62
253.562	82.62
253.795	83.62
254.028	85.62
254.261	77.62
254.494	77.62
254.727	75.62
254.96	79.62
255.193	78.62
255.426	74.62
255.659	69.62
255.892	76.62
256.124	82.62
256.357	70.62
256.59	79.62
256.823	79.62
257.056	74.62
257.289	79.62
257.521	89.62
257.754	83.62
257.987	75.62
258.22	95.62
258.452	74.62
258.685	74.62
258.918	67.62
259.151	79.62
259.383	82.62
259.616	74.62
259.849	78.62
260.081	84.62
260.314	69.62
260.547	70.62
260.779	67.62
261.012	78.62
261.244	72.62
261.477	74.62
261.71	94.62
261.942	91.62
262.175	101.62
262.407	89.62
262.64	72.62
262.872	87.62
263.105	77.62
263.337	64.62
263.57	63.62
263.802	88.62
264.035	81.62
264.267	89.62
264.499	78.62
264.732	79.62
264.964	85.62
265.197	72.62
265.429	73.62
265.661	68.62
265.894	71.62
266.126	89.62
266.358	101.62
266.591	73.62
266.823	79.62
267.055	84.62
267.287	88.62
267.52	75.62
267.752	77.62
267.984	83.62
268.216	84.62
268.448	77.62
268.681	76.62
268.913	75.62
269.145	85.62
269.377	80.62
269.609	70.62
269.841	82.62
270.073	74.62
270.306	63.62
270.538	87.62
270.77	108.62
271.002	89.62
271.234	101.62
271.466	92.62
271.698	73.62
271.93	102.62
272.162	81.62
272.394	89.62
272.626	92.62
272.858	79.62
273.09	77.62
273.322	71.62
273.553	73.62
273.785	81.62
274.017	90.62
274.249	79.62
274.481	80.62
274.713	79.62
274.945	94.62
275.176	86.62
275.408	83.62
275.64	77.62
275.872	71.62
276.104	79.62
276.335	83.62
276.567	88.62
276.799	105.62
277.031	89.62
277.262	85.62
277.494	82.62
277.726	83.62
277.957	75.62
278.189	84.62
278.421	99.62
278.652	74.62
278.884	81.62
279.115	87.62
279.347	70.62
279.579	84.62
279.81	81.62
280.042	75.62
280.273	81.62
280.505	87.62
280.736	82.62
280.968	79.62
281.199	79.62
281.431	76.62
281.662	80.62
281.894	94.62
282.125	103.62
282.356	107.62
282.588	141.62
282.819	108.62
283.051	78.62
283.282	82.62
283.513	78.62
283.745	77.62
283.976	94.62
284.207	84.62
284.439	86.62
284.67	84.62
284.901	85.62
285.132	77.62
285.364	86.62
285.595	84.62
285.826	84.62
286.057	88.62
286.288	84.62
286.52	80.62
286.751	88.62
286.982	97.62
287.213	87.62
287.444	100.62
287.675	81.62
287.906	92.62
288.138	77.62
288.369	95.62
288.6	84.62
288.831	74.62
289.062	91.62
289.293	88.62
289.524	81.62
289.755	86.62
289.986	78.62
290.217	87.62
290.448	96.62
290.679	87.62
290.91	89.62
291.141	83.62
291.371	82.62
291.602	78.62
291.833	91.62
292.064	86.62
292.295	90.62
292.526	93.62
292.757	85.62
292.987	89.62
293.218	74.62
293.449	79.62
293.68	89.62
293.91	82.62
294.141	95.62
294.372	82.62
294.603	98.62
294.833	74.62
295.064	80.62
295.295	82.62
295.525	91.62
295.756	105.62
295.987	108.62
296.217	131.62
296.448	116.62
296.679	79.62
296.909	63.62
297.14	81.62
297.37	89.62
297.601	66.62
297.831	87.62
298.062	95.62
298.292	74.62
298.523	75.62
298.753	99.62
298.984	86.62
299.214	91.62
299.445	95.62
299.675	91.62
299.905	93.62
300.136	72.62
300.366	87.62
300.597	82.62
300.827	96.62
301.057	93.62
301.288	103.62
301.518	94.62
301.748	79.62
301.979	86.62
302.209	84.62
302.439	86.62
302.669	87.62
302.9	89.62
303.13	83.62
303.36	96.62
303.59	99.62
303.82	103.62
304.051	94.62
304.281	92.62
304.511	75.62
304.741	86.62
304.971	81.62
305.201	83.62
305.431	79.62
305.661	101.62
305.891	90.62
306.121	73.62
306.352	92.62
306.582	102.62
306.812	86.62
307.042	82.62
307.272	83.62
307.502	102.62
307.731	98.62
307.961	96.62
308.191	102.62
308.421	84.62
308.651	88.62
308.881	89.62
309.111	82.62
309.341	96.62
309.571	78.62
309.8	89.62
310.03	89.62
310.26	91.62
310.49	94.62
310.72	102.62
310.949	101.62
311.179	102.62
311.409	77.62
311.639	92.62
311.868	98.62
312.098	74.62
312.328	78.62
312.557	102.62
312.787	102.62
313.017	91.62
313.246	85.62
313.476	97.62
313.706	106.62
313.935	95.62
314.165	92.62
314.394	107.62
314.624	104.62
314.853	107.62
315.083	91.62
315.312	99.62
315.542	86.62
315.771	94.62
316.001	108.62
316.23	90.62
316.46	80.62
316.689	65.62
316.919	82.62
317.148	89.62
317.377	103.62
317.607	92.62
317.836	99.62
318.065	73.62
318.295	86.62
318.524	87.62
318.753	79.62
318.983	88.62
319.212	94.62
319.441	100.62
319.67	84.62
319.9	98.62
320.129	92.62
320.358	83.62
320.587	74.62
320.816	91.62
321.046	102.62
321.275	93.62
321.504	94.62
321.733	82.62
321.962	99.62
322.191	95.62
322.42	95.62
322.649	107.62
322.878	101.62
323.108	101.62
323.337	120.62
323.566	123.62
323.795	152.62
324.024	207.62
324.253	406.62
324.482	899.62
324.71	1899.62
324.939	2501.62
325.168	927.62
325.397	265.62
325.626	146.62
325.855	149.62
326.084	126.62
326.313	121.62
326.542	164.62
326.77	250.62
326.999	508.62
327.228	1045.62
327.457	1911.62
327.686	1525.62
327.914	385.62
328.143	205.62
328.372	147.62
328.6	129.62
328.829	116.62
329.058	116.62
329.287	124.62
329.515	106.62
329.744	93.62
329.972	107.62
330.201	87.62
330.43	108.62
330.658	106.62
330.887	118.62
331.115	107.62
331.344	77.62
331.572	104.62
331.801	88.62
332.03	98.62
332.258	100.62
332.486	86.62
332.715	80.62
332.943	89.62
333.172	73.62
333.4	95.62
333.629	93.62
333.857	101.62
334.085	106.62
334.314	89.62
334.542	91.62
334.771	96.62
334.999	92.62
335.227	90.62
335.455	79.62
335.684	89.62
335.912	82.62
336.14	89.62
336.369	94.62
336.597	88.62
336.825	94.62
337.053	94.62
337.281	84.62
337.51	81.62
337.738	95.62
337.966	97.62
338.194	98.62
338.422	97.62
338.65	81.62
338.878	91.62
339.106	86.62
339.334	94.62
339.562	94.62
339.79	75.62
340.018	85.62
340.246	89.62
340.474	93.62
340.702	90.62
340.93	76.62
341.158	88.62
341.386	88.62
341.614	91.62
341.842	88.62
342.07	82.62
342.298	83.62
342.526	95.62
342.754	71.62
342.981	95.62
343.209	88.62
343.437	89.62
343.665	92.62
343.893	84.62
344.12	72.62
344.348	75.62
344.576	83.62
344.804	81.62
345.031	86.62
345.259	87.62
345.487	87.62
345.714	87.62
345.942	85.62
346.17	98.62
346.397	77.62
346.625	87.62
346.853	97.62
347.08	86.62
347.308	76.62
347.535	90.62
347.763	97.62
347.99	107.62
348.218	101.62
348.445	105.62
348.673	94.62
348.9	82.62
349.128	85.62
349.355	92.62
349.583	69.62
349.81	82.62
350.037	83.62
350.265	90.62
350.492	90.62
350.72	89.62
350.947	98.62
351.174	95.62
351.402	98.62
351.629	91.62
351.856	83.62
352.083	101.62
352.311	95.62
352.538	100.62
352.765	89.62
352.992	112.62
353.22	104.62
353.447	87.62
353.674	110.62
353.901	86.62
354.128	84.62
354.355	102.62
354.583	106.62
354.81	98.62
355.037	94.62
355.264	80.62
355.491	85.62
355.718	90.62
355.945	86.62
356.172	101.62
356.399	86.62
356.626	97.62
356.853	100.62
357.08	92.62
357.307	98.62
357.534	83.62
357.761	86.62
357.988	77.62
358.215	82.62
358.441	75.62
358.668	90.62
358.895	99.62
359.122	74.62
359.349	81.62
359.576	87.62
359.802	104.62
360.029	105.62
360.256	104.62
360.483	101.62
360.709	95.62
360.936	93.62
361.163	92.62
361.39	98.62
361.616	91.62
361.843	93.62
362.07	92.62
362.296	84.62
362.523	84.62
362.749	76.62
362.976	72.62
363.203	89.62
363.429	91.62
363.656	87.62
363.882	90.62
364.109	104.62
364.335	96.62
364.562	90.62
364.788	110.62
365.015	82.62
365.241	87.62
365.468	97.62
365.694	92.62
365.92	91.62
366.147	89.62
366.373	89.62
366.599	81.62
366.826	75.62
367.052	79.62
367.278	90.62
367.505	95.62
367.731	92.62
367.957	85.62
368.184	87.62
368.41	103.62
368.636	109.62
368.862	99.62
369.089	95.62
369.315	85.62
369.541	96.62
369.767	81.62
369.993	90.62
370.219	75.62
370.445	84.62
370.672	92.62
370.898	71.62
371.124	78.62
371.35	79.62
371.576	89.62
371.802	84.62
372.028	73.62
372.254	61.62
372.48	77.62
372.706	90.62
372.932	89.62
373.158	80.62
373.384	65.62
373.61	90.62
373.835	91.62
374.061	85.62
374.287	81.62
374.513	82.62
374.739	78.62
374.965	88.62
375.191	80.62
375.416	77.62
375.642	83.62
375.868	84.62
376.094	90.62
376.319	81.62
376.545	83.62
376.771	85.62
376.997	99.62
377.222	91.62
377.448	83.62
377.674	90.62
377.899	85.62
378.125	82.62
378.35	76.62
378.576	89.62
378.802	71.62
379.027	86.62
379.253	83.62
379.478	75.62
379.704	87.62
379.929	83.62
380.155	82.62
380.38	78.62
380.606	94.62
380.831	85.62
381.057	89.62
381.282	89.62
381.507	82.62
381.733	97.62
381.958	86.62
382.184	94.62
382.409	100.62
382.634	85.62
382.86	100.62
383.085	97.62
383.31	77.62
383.535	103.62
383.761	89.62
383.986	94.62
384.211	84.62
384.436	90.62
384.662	93.62
384.887	100.62
385.112	98.62
385.337	90.62
385.562	96.62
385.787	95.62
386.013	102.62
386.238	103.62
386.463	113.62
386.688	103.62
386.913	79.62
387.138	92.62
387.363	93.62
387.588	100.62
387.813	92.62
388.038	93.62
388.263	102.62
388.488	99.62
388.713	75.62
388.938	81.62
389.163	81.62
389.387	109.62
389.612	92.62
389.837	81.62
390.062	92.62
390.287	103.62
390.512	90.62
390.736	87.62
390.961	90.62
391.186	93.62
391.411	96.62
391.636	75.62
391.86	73.62
392.085	92.62
392.31	76.62
392.534	87.62
392.759	87.62
392.984	84.62
393.208	80.62
393.433	86.62
393.658	93.62
393.882	77.62
394.107	78.62
394.331	85.62
394.556	80.62
394.78	81.62
395.005	84.62
395.229	81.62
395.454	86.62
395.678	85.62
395.903	81.62
396.127	72.62
396.352	72.62
396.576	76.62
396.801	74.62
397.025	84.62
397.249	90.62
397.474	81.62
397.698	101.62
397.922	94.62
398.147	92.62
398.371	85.62
398.595	87.62
398.82	84.62
399.044	95.62
399.268	75.62
399.492	78.62
399.717	90.62
399.941	79.62
400.165	75.62
400.389	78.62
400.613	99.62
400.837	74.62
401.062	73.62
401.286	87.62
401.51	83.62
401.734	82.62
401.958	91.62
402.182	121.62
402.406	148.62
402.63	99.62
402.854	95.62
403.078	77.62
403.302	82.62
403.526	92.62
403.75	74.62
403.974	82.62
404.198	84.62
404.422	87.62
404.645	81.62
404.869	77.62
405.093	93.62
405.317	98.62
405.541	91.62
405.765	110.62
405.988	113.62
406.212	167.62
406.436	226.62
406.66	124.62
406.883	93.62
407.107	82.62
407.331	86.62
407.555	100.62
407.778	84.62
408.002	76.62
408.226	87.62
408.449	65.62
408.673	90.62
408.896	83.62
409.12	91.62
409.344	72.62
409.567	94.62
409.791	81.62
410.014	81.62
410.238	59.62
410.461	67.62
410.685	85.62
410.908	91.62
411.132	113.62
411.355	94.62
411.578	94.62
411.802	89.62
412.025	84.62
412.249	89.62
412.472	83.62
412.695	86.62
412.919	81.62
413.142	82.62
413.365	94.62
413.589	89.62
413.812	87.62
414.035	89.62
414.258	89.62
414.482	79.62
414.705	84.62
414.928	95.62
415.151	73.62
415.374	84.62
415.597	84.62
415.821	74.62
416.044	76.62
416.267	90.62
416.49	83.62
416.713	74.62
416.936	78.62
417.159	84.62
417.382	79.62
417.605	85.62
417.828	95.62
418.051	90.62
418.274	90.62
418.497	77.62
418.72	78.62
418.943	78.62
419.166	87.62
419.389	84.62
419.611	81.62
419.834	82.62
420.057	77.62
420.28	95.62
420.503	79.62
420.726	87.62
420.948	95.62
421.171	85.62
421.394	82.62
421.617	95.62
421.839	82.62
422.062	78.62
422.285	88.62
422.507	102.62
422.73	98.62
422.953	94.62
423.175	85.62
423.398	89.62
423.621	77.62
423.843	94.62
424.066	90.62
424.288	75.62
424.511	86.62
424.733	91.62
424.956	107.62
425.178	103.62
425.401	109.62
425.623	91.62
425.846	92.62
426.068	88.62
426.291	75.62
426.513	81.62
426.735	91.62
426.958	93.62
427.18	98.62
427.402	134.62
427.625	165.62
427.847	123.62
428.069	81.62
428.292	69.62
428.514	80.62
428.736	81.62
428.958	73.62
429.181	82.62
429.403	78.62
429.625	81.62
429.847	79.62
430.069	90.62
430.292	91.62
430.514	77.62
430.736	82.62
430.958	86.62
431.18	86.62
431.402	76.62
431.624	88.62
431.846	87.62
432.068	72.62
432.29	90.62
432.512	87.62
432.734	79.62
432.956	74.62
433.178	98.62
433.4	85.62
433.622	83.62
433.844	85.62
434.066	86.62
434.287	84.62
434.509	86.62
434.731	89.62
434.953	91.62
435.175	87.62
435.397	91.62
435.618	69.62
435.84	102.62
436.062	113.62
436.284	119.62
436.505	90.62
436.727	95.62
436.949	97.62
437.17	90.62
437.392	80.62
437.614	96.62
437.835	103.62
438.057	109.62
438.278	101.62
438.5	107.62
438.721	109.62
438.943	97.62
439.165	96.62
439.386	62.62
439.608	87.62
439.829	86.62
440.05	108.62
440.272	126.62
440.493	95.62
440.715	83.62
440.936	77.62
441.158	86.62
441.379	78.62
441.6	81.62
441.822	90.62
442.043	74.62
442.264	95.62
442.486	118.62
442.707	69.62
442.928	98.62
443.149	118.62
443.371	118.62
443.592	102.62
443.813	105.62
444.034	89.62
444.255	86.62
444.476	86.62
444.698	89.62
444.919	101.62
445.14	126.62
445.361	118.62
445.582	106.62
445.803	115.62
446.024	125.62
446.245	124.62
446.466	114.62
446.687	70.62
446.908	87.62
447.129	87.62
447.35	71.62
447.571	85.62
447.792	87.62
448.013	94.62
448.234	86.62
448.455	85.62
448.675	96.62
448.896	93.62
449.117	86.62
449.338	97.62
449.559	94.62
449.779	112.62
450	82.62
450.221	86.62
450.442	93.62
450.662	87.62
450.883	101.62
451.104	93.62
451.324	83.62
451.545	73.62
451.766	80.62
451.986	88.62
452.207	89.62
452.428	83.62
452.648	103.62
452.869	110.62
453.089	105.62
453.31	112.62
453.53	73.62
453.751	103.62
453.971	92.62
454.192	95.62
454.412	79.62
454.633	91.62
454.853	72.62
455.073	75.62
455.294	70.62
455.514	86.62
455.734	85.62
455.955	97.62
456.175	78.62
456.395	71.62
456.616	78.62
456.836	78.62
457.056	70.62
457.276	74.62
457.497	74.62
457.717	71.62
457.937	66.62
458.157	84.62
458.377	83.62
458.598	91.62
458.818	125.62
459.038	167.62
459.258	98.62
459.478	79.62
459.698	74.62
459.918	82.62
460.138	85.62
460.358	62.62
460.578	85.62
460.798	72.62
461.018	87.62
461.238	73.62
461.458	93.62
461.678	75.62
461.898	89.62
462.118	85.62
462.338	81.62
462.558	83.62
462.777	86.62
462.997	79.62
463.217	77.62
463.437	88.62
463.657	83.62
463.876	89.62
464.096	91.62
464.316	89.62
464.536	80.62
464.755	88.62
464.975	103.62
465.195	151.62
465.414	155.62
465.634	98.62
465.854	93.62
466.073	93.62
466.293	74.62
466.512	85.62
466.732	83.62
466.951	79.62
467.171	83.62
467.391	93.62
467.61	89.62
467.829	87.62
468.049	88.62
468.268	69.62
468.488	80.62
468.707	88.62
468.927	83.62
469.146	81.62
469.365	88.62
469.585	87.62
469.804	99.62
470.023	108.62
470.243	84.62
470.462	97.62
470.681	110.62
470.901	77.62
471.12	92.62
471.339	84.62
471.558	93.62
471.777	86.62
471.997	78.62
472.216	82.62
472.435	73.62
472.654	85.62
472.873	78.62
473.092	78.62
473.311	65.62
473.53	73.62
473.749	94.62
473.968	93.62
474.187	104.62
474.406	98.62
474.625	86.62
474.844	76.62
475.063	90.62
475.282	79.62
475.501	78.62
475.72	88.62
475.939	84.62
476.158	73.62
476.377	83.62
476.596	78.62
476.814	83.62
477.033	77.62
477.252	92.62
477.471	81.62
477.69	101.62
477.908	79.62
478.127	84.62
478.346	86.62
478.564	85.62
478.783	91.62
479.002	95.62
479.22	77.62
479.439	95.62
479.658	110.62
479.876	86.62
480.095	83.62
480.313	75.62
480.532	86.62
480.751	81.62
480.969	84.62
481.188	92.62
481.406	88.62
481.624	89.62
481.843	79.62
482.061	97.62
482.28	92.62
482.498	81.62
482.717	87.62
482.935	82.62
483.153	75.62
483.372	75.62
483.59	79.62
483.808	92.62
484.027	81.62
484.245	84.62
484.463	85.62
484.681	95.62
484.9	91.62
485.118	79.62
485.336	87.62
485.554	83.62
485.772	84.62
485.99	106.62
486.209	98.62
486.427	110.62
486.645	87.62
486.863	91.62
487.081	94.62
487.299	101.62
487.517	80.62
487.735	90.62
487.953	83.62
488.171	92.62
488.389	101.62
488.607	81.62
488.825	81.62
489.043	91.62
489.261	82.62
489.479	81.62
489.696	85.62
489.914	87.62
490.132	86.62
490.35	96.62
490.568	80.62
490.786	95.62
491.003	87.62
491.221	86.62
491.439	93.62
491.657	91.62
491.874	92.62
492.092	85.62
492.31	77.62
492.527	101.62
492.745	71.62
492.963	76.62
493.18	96.62
493.398	79.62
493.615	84.62
493.833	97.62
494.05	93.62
494.268	83.62
494.485	87.62
494.703	100.62
494.92	101.62
495.138	87.62
495.355	85.62
495.573	89.62
495.79	82.62
496.008	104.62
496.225	83.62
496.442	75.62
496.66	88.62
496.877	83.62
497.094	71.62
497.312	95.62
497.529	73.62
497.746	76.62
497.963	89.62
498.181	87.62
498.398	84.62
498.615	111.62
498.832	104.62
499.049	89.62
499.267	94.62
499.484	81.62
499.701	83.62
499.918	81.62
500.135	86.62
500.352	80.62
500.569	93.62
500.786	100.62
501.003	87.62
501.22	92.62
501.437	95.62
501.654	96.62
501.871	95.62
502.088	87.62
502.305	92.62
502.522	105.62
502.739	82.62
502.956	86.62
503.172	71.62
503.389	81.62
503.606	92.62
503.823	113.62
504.04	94.62
504.256	102.62
504.473	77.62
504.69	77.62
504.907	90.62
505.123	89.62
505.34	69.62
505.557	80.62
505.773	95.62
505.99	93.62
506.207	90.62
506.423	89.62
506.64	101.62
506.856	94.62
507.073	92.62
507.289	84.62
507.506	105.62
507.722	108.62
507.939	117.62
508.155	97.62
508.372	90.62
508.588	89.62
508.805	90.62
509.021	94.62
509.238	110.62
509.454	93.62
509.67	100.62
509.887	108.62
510.103	107.62
510.319	226.62
510.536	821.62
510.752	2550.62
510.968	697.62
511.184	155.62
511.401	106.62
511.617	92.62
511.833	79.62
512.049	81.62
512.265	90.62
512.481	81.62
512.698	95.62
512.914	83.62
513.13	93.62
513.346	85.62
513.562	100.62
513.778	102.62
513.994	106.62
514.21	103.62
514.426	116.62
514.642	125.62
514.858	118.62
515.074	168.62
515.29	452.62
515.506	1542.62
515.721	533.62
515.937	153.62
516.153	104.62
516.369	98.62
516.585	100.62
516.801	97.62
517.016	93.62
517.232	96.62
