Data from Uncirc_1995_H10_HRD10591_00027.txt Node
Date: Wed Jan 03 11:35:39 EST 2024
User: Yrep
Spectrometer: HR+D1059
Trigger mode: 1
Integration Time (sec): 1.000000E-1
Scans to average: 1
Electric dark correction enabled: true
Nonlinearity correction enabled: false
Boxcar width: 0
XAxis mode: Wavelengths
Number of Pixels in Spectrum: 2048
>>>>>Begin Spectral Data<<<<<
223.165	-37.06
223.4	-37.06
223.635	-37.06
223.869	-19.06
224.104	-13.06
224.338	-15.06
224.573	-9.06
224.808	-19.06
225.042	-8.06
225.277	-3.06
225.511	-6.06
225.746	5.94
225.98	13.94
226.215	7.94
226.449	18.94
226.683	30.94
226.918	20.94
227.152	30.94
227.387	34.94
227.621	46.94
227.856	45.94
228.09	49.94
228.324	56.94
228.559	67.94
228.793	61.94
229.027	55.94
229.262	61.94
229.496	62.94
229.73	69.94
229.964	70.94
230.199	76.94
230.433	76.94
230.667	71.94
230.901	86.94
231.136	73.94
231.37	88.94
231.604	82.94
231.838	78.94
232.072	91.94
232.306	82.94
232.541	79.94
232.775	76.94
233.009	88.94
233.243	82.94
233.477	82.94
233.711	89.94
233.945	75.94
234.179	81.94
234.413	84.94
234.647	74.94
234.881	72.94
235.115	73.94
235.349	76.94
235.583	74.94
235.817	70.94
236.051	78.94
236.285	79.94
236.519	91.94
236.753	70.94
236.987	82.94
237.221	86.94
237.455	90.94
237.689	76.94
237.922	75.94
238.156	75.94
238.39	71.94
238.624	72.94
238.858	92.94
239.091	78.94
239.325	74.94
239.559	79.94
239.793	70.94
240.027	73.94
240.26	87.94
240.494	85.94
240.728	78.94
240.961	86.94
241.195	83.94
241.429	80.94
241.662	82.94
241.896	81.94
242.13	72.94
242.363	81.94
242.597	71.94
242.83	75.94
243.064	62.94
243.298	63.94
243.531	79.94
243.765	88.94
243.998	80.94
244.232	82.94
244.465	83.94
244.699	78.94
244.932	66.94
245.166	74.94
245.399	79.94
245.633	81.94
245.866	90.94
246.099	83.94
246.333	78.94
246.566	83.94
246.8	87.94
247.033	84.94
247.266	78.94
247.5	78.94
247.733	95.94
247.966	73.94
248.2	70.94
248.433	90.94
248.666	78.94
248.899	82.94
249.133	79.94
249.366	102.94
249.599	83.94
249.832	81.94
250.066	75.94
250.299	81.94
250.532	80.94
250.765	80.94
250.998	74.94
251.231	83.94
251.465	89.94
251.698	63.94
251.931	67.94
252.164	81.94
252.397	75.94
252.63	82.94
252.863	78.94
253.096	79.94
253.329	81.94
253.562	82.94
253.795	76.94
254.028	95.94
254.261	86.94
254.494	91.94
254.727	81.94
254.96	86.94
255.193	73.94
255.426	79.94
255.659	71.94
255.892	87.94
256.124	87.94
256.357	79.94
256.59	81.94
256.823	76.94
257.056	78.94
257.289	72.94
257.521	105.94
257.754	83.94
257.987	79.94
258.22	91.94
258.452	95.94
258.685	80.94
258.918	98.94
259.151	93.94
259.383	95.94
259.616	79.94
259.849	75.94
260.081	94.94
260.314	83.94
260.547	80.94
260.779	71.94
261.012	86.94
261.244	92.94
261.477	85.94
261.71	96.94
261.942	95.94
262.175	96.94
262.407	98.94
262.64	75.94
262.872	84.94
263.105	89.94
263.337	88.94
263.57	94.94
263.802	88.94
264.035	86.94
264.267	72.94
264.499	72.94
264.732	88.94
264.964	89.94
265.197	82.94
265.429	74.94
265.661	91.94
265.894	83.94
266.126	83.94
266.358	90.94
266.591	96.94
266.823	77.94
267.055	90.94
267.287	92.94
267.52	75.94
267.752	98.94
267.984	89.94
268.216	86.94
268.448	78.94
268.681	102.94
268.913	70.94
269.145	82.94
269.377	87.94
269.609	83.94
269.841	94.94
270.073	82.94
270.306	80.94
270.538	80.94
270.77	81.94
271.002	78.94
271.234	95.94
271.466	65.94
271.698	76.94
271.93	82.94
272.162	78.94
272.394	87.94
272.626	87.94
272.858	101.94
273.09	97.94
273.322	82.94
273.553	87.94
273.785	95.94
274.017	86.94
274.249	92.94
274.481	87.94
274.713	76.94
274.945	99.94
275.176	88.94
275.408	79.94
275.64	72.94
275.872	80.94
276.104	85.94
276.335	106.94
276.567	103.94
276.799	98.94
277.031	97.94
277.262	88.94
277.494	89.94
277.726	86.94
277.957	84.94
278.189	89.94
278.421	80.94
278.652	95.94
278.884	81.94
279.115	82.94
279.347	85.94
279.579	88.94
279.81	86.94
280.042	83.94
280.273	73.94
280.505	88.94
280.736	89.94
280.968	83.94
281.199	95.94
281.431	99.94
281.662	66.94
281.894	93.94
282.125	105.94
282.356	115.94
282.588	131.94
282.819	105.94
283.051	88.94
283.282	95.94
283.513	82.94
283.745	98.94
283.976	94.94
284.207	78.94
284.439	82.94
284.67	87.94
284.901	89.94
285.132	78.94
285.364	76.94
285.595	87.94
285.826	73.94
286.057	90.94
286.288	81.94
286.52	98.94
286.751	81.94
286.982	90.94
287.213	57.94
287.444	83.94
287.675	90.94
287.906	83.94
288.138	86.94
288.369	106.94
288.6	98.94
288.831	86.94
289.062	87.94
289.293	81.94
289.524	79.94
289.755	92.94
289.986	76.94
290.217	84.94
290.448	90.94
290.679	93.94
290.91	95.94
291.141	82.94
291.371	87.94
291.602	90.94
291.833	90.94
292.064	83.94
292.295	103.94
292.526	87.94
292.757	84.94
292.987	91.94
293.218	78.94
293.449	85.94
293.68	97.94
293.91	82.94
294.141	88.94
294.372	82.94
294.603	91.94
294.833	90.94
295.064	87.94
295.295	85.94
295.525	93.94
295.756	91.94
295.987	119.94
296.217	136.94
296.448	116.94
296.679	117.94
296.909	92.94
297.14	84.94
297.37	78.94
297.601	92.94
297.831	89.94
298.062	92.94
298.292	88.94
298.523	86.94
298.753	95.94
298.984	80.94
299.214	100.94
299.445	96.94
299.675	85.94
299.905	74.94
300.136	95.94
300.366	91.94
300.597	98.94
300.827	80.94
301.057	95.94
301.288	99.94
301.518	95.94
301.748	90.94
301.979	97.94
302.209	98.94
302.439	93.94
302.669	91.94
302.9	83.94
303.13	90.94
303.36	82.94
303.59	98.94
303.82	98.94
304.051	76.94
304.281	91.94
304.511	88.94
304.741	78.94
304.971	82.94
305.201	88.94
305.431	78.94
305.661	73.94
305.891	84.94
306.121	88.94
306.352	102.94
306.582	110.94
306.812	88.94
307.042	95.94
307.272	85.94
307.502	81.94
307.731	92.94
307.961	88.94
308.191	74.94
308.421	84.94
308.651	100.94
308.881	104.94
309.111	91.94
309.341	99.94
309.571	84.94
309.8	78.94
310.03	84.94
310.26	99.94
310.49	89.94
310.72	99.94
310.949	95.94
311.179	92.94
311.409	89.94
311.639	83.94
311.868	88.94
312.098	86.94
312.328	98.94
312.557	99.94
312.787	94.94
313.017	99.94
313.246	97.94
313.476	96.94
313.706	87.94
313.935	92.94
314.165	84.94
314.394	91.94
314.624	93.94
314.853	83.94
315.083	102.94
315.312	86.94
315.542	95.94
315.771	94.94
316.001	90.94
316.23	83.94
316.46	98.94
316.689	94.94
316.919	79.94
317.148	83.94
317.377	93.94
317.607	96.94
317.836	102.94
318.065	97.94
318.295	87.94
318.524	90.94
318.753	86.94
318.983	86.94
319.212	105.94
319.441	109.94
319.67	99.94
319.9	91.94
320.129	95.94
320.358	105.94
320.587	85.94
320.816	98.94
321.046	105.94
321.275	96.94
321.504	91.94
321.733	83.94
321.962	83.94
322.191	93.94
322.42	110.94
322.649	108.94
322.878	123.94
323.108	94.94
323.337	112.94
323.566	117.94
323.795	139.94
324.024	197.94
324.253	378.94
324.482	776.94
324.71	1533.94
324.939	2118.94
325.168	754.94
325.397	246.94
325.626	164.94
325.855	122.94
326.084	123.94
326.313	121.94
326.542	151.94
326.77	218.94
326.999	446.94
327.228	904.94
327.457	1622.94
327.686	1290.94
327.914	364.94
328.143	176.94
328.372	138.94
328.6	113.94
328.829	116.94
329.058	125.94
329.287	118.94
329.515	100.94
329.744	105.94
329.972	90.94
330.201	94.94
330.43	96.94
330.658	104.94
330.887	130.94
331.115	114.94
331.344	107.94
331.572	101.94
331.801	102.94
332.03	87.94
332.258	94.94
332.486	82.94
332.715	97.94
332.943	108.94
333.172	90.94
333.4	99.94
333.629	121.94
333.857	94.94
334.085	98.94
334.314	95.94
334.542	93.94
334.771	103.94
334.999	104.94
335.227	101.94
335.455	102.94
335.684	102.94
335.912	108.94
336.14	94.94
336.369	100.94
336.597	97.94
336.825	98.94
337.053	94.94
337.281	104.94
337.51	92.94
337.738	92.94
337.966	99.94
338.194	111.94
338.422	112.94
338.65	94.94
338.878	95.94
339.106	110.94
339.334	90.94
339.562	91.94
339.79	87.94
340.018	93.94
340.246	78.94
340.474	90.94
340.702	96.94
340.93	95.94
341.158	92.94
341.386	98.94
341.614	96.94
341.842	95.94
342.07	84.94
342.298	88.94
342.526	89.94
342.754	85.94
342.981	90.94
343.209	83.94
343.437	89.94
343.665	96.94
343.893	90.94
344.12	84.94
344.348	94.94
344.576	85.94
344.804	92.94
345.031	86.94
345.259	86.94
345.487	93.94
345.714	100.94
345.942	94.94
346.17	94.94
346.397	96.94
346.625	98.94
346.853	99.94
347.08	96.94
347.308	90.94
347.535	95.94
347.763	87.94
347.99	104.94
348.218	96.94
348.445	97.94
348.673	94.94
348.9	98.94
349.128	86.94
349.355	87.94
349.583	80.94
349.81	98.94
350.037	79.94
350.265	94.94
350.492	98.94
350.72	93.94
350.947	104.94
351.174	100.94
351.402	97.94
351.629	124.94
351.856	101.94
352.083	92.94
352.311	105.94
352.538	111.94
352.765	115.94
352.992	109.94
353.22	100.94
353.447	108.94
353.674	93.94
353.901	104.94
354.128	88.94
354.355	100.94
354.583	93.94
354.81	102.94
355.037	103.94
355.264	88.94
355.491	96.94
355.718	80.94
355.945	89.94
356.172	100.94
356.399	115.94
356.626	80.94
356.853	112.94
357.08	94.94
357.307	96.94
357.534	91.94
357.761	96.94
357.988	113.94
358.215	102.94
358.441	93.94
358.668	86.94
358.895	88.94
359.122	82.94
359.349	95.94
359.576	94.94
359.802	98.94
360.029	110.94
360.256	93.94
360.483	100.94
360.709	94.94
360.936	90.94
361.163	92.94
361.39	102.94
361.616	92.94
361.843	77.94
362.07	92.94
362.296	83.94
362.523	92.94
362.749	90.94
362.976	75.94
363.203	100.94
363.429	81.94
363.656	91.94
363.882	94.94
364.109	83.94
364.335	95.94
364.562	94.94
364.788	85.94
365.015	89.94
365.241	97.94
365.468	102.94
365.694	104.94
365.92	99.94
366.147	99.94
366.373	84.94
366.599	100.94
366.826	86.94
367.052	103.94
367.278	93.94
367.505	89.94
367.731	78.94
367.957	79.94
368.184	88.94
368.41	86.94
368.636	125.94
368.862	121.94
369.089	103.94
369.315	102.94
369.541	94.94
369.767	95.94
369.993	90.94
370.219	94.94
370.445	90.94
370.672	83.94
370.898	84.94
371.124	78.94
371.35	90.94
371.576	82.94
371.802	97.94
372.028	73.94
372.254	94.94
372.48	93.94
372.706	94.94
372.932	78.94
373.158	94.94
373.384	104.94
373.61	81.94
373.835	89.94
374.061	89.94
374.287	96.94
374.513	92.94
374.739	90.94
374.965	95.94
375.191	86.94
375.416	72.94
375.642	88.94
375.868	86.94
376.094	93.94
376.319	81.94
376.545	84.94
376.771	88.94
376.997	88.94
377.222	100.94
377.448	103.94
377.674	93.94
377.899	96.94
378.125	87.94
378.35	86.94
378.576	83.94
378.802	88.94
379.027	80.94
379.253	99.94
379.478	79.94
379.704	95.94
379.929	86.94
380.155	88.94
380.38	95.94
380.606	87.94
380.831	88.94
381.057	89.94
381.282	85.94
381.507	90.94
381.733	88.94
381.958	86.94
382.184	102.94
382.409	96.94
382.634	104.94
382.86	94.94
383.085	89.94
383.31	95.94
383.535	94.94
383.761	88.94
383.986	96.94
384.211	109.94
384.436	95.94
384.662	105.94
384.887	96.94
385.112	119.94
385.337	99.94
385.562	92.94
385.787	104.94
386.013	97.94
386.238	113.94
386.463	102.94
386.688	99.94
386.913	104.94
387.138	108.94
387.363	109.94
387.588	113.94
387.813	105.94
388.038	98.94
388.263	110.94
388.488	109.94
388.713	100.94
388.938	109.94
389.163	110.94
389.387	82.94
389.612	93.94
389.837	75.94
390.062	86.94
390.287	93.94
390.512	93.94
390.736	100.94
390.961	90.94
391.186	88.94
391.411	93.94
391.636	93.94
391.86	92.94
392.085	76.94
392.31	86.94
392.534	86.94
392.759	83.94
392.984	94.94
393.208	94.94
393.433	82.94
393.658	84.94
393.882	86.94
394.107	86.94
394.331	89.94
394.556	93.94
394.78	83.94
395.005	99.94
395.229	79.94
395.454	80.94
395.678	87.94
395.903	78.94
396.127	89.94
396.352	87.94
396.576	85.94
396.801	92.94
397.025	99.94
397.249	95.94
397.474	103.94
397.698	82.94
397.922	79.94
398.147	80.94
398.371	81.94
398.595	88.94
398.82	95.94
399.044	93.94
399.268	97.94
399.492	91.94
399.717	87.94
399.941	82.94
400.165	82.94
400.389	85.94
400.613	101.94
400.837	89.94
401.062	93.94
401.286	89.94
401.51	86.94
401.734	83.94
401.958	102.94
402.182	118.94
402.406	158.94
402.63	105.94
402.854	100.94
403.078	100.94
403.302	100.94
403.526	91.94
403.75	99.94
403.974	82.94
404.198	91.94
404.422	90.94
404.645	91.94
404.869	85.94
405.093	89.94
405.317	87.94
405.541	107.94
405.765	102.94
405.988	95.94
406.212	156.94
406.436	202.94
406.66	146.94
406.883	82.94
407.107	84.94
407.331	94.94
407.555	82.94
407.778	102.94
408.002	87.94
408.226	104.94
408.449	88.94
408.673	89.94
408.896	97.94
409.12	98.94
409.344	80.94
409.567	86.94
409.791	102.94
410.014	97.94
410.238	90.94
410.461	84.94
410.685	86.94
410.908	92.94
411.132	90.94
411.355	92.94
411.578	82.94
411.802	89.94
412.025	81.94
412.249	78.94
412.472	91.94
412.695	87.94
412.919	74.94
413.142	89.94
413.365	92.94
413.589	95.94
413.812	91.94
414.035	79.94
414.258	86.94
414.482	87.94
414.705	79.94
414.928	88.94
415.151	97.94
415.374	82.94
415.597	92.94
415.821	86.94
416.044	82.94
416.267	91.94
416.49	95.94
416.713	93.94
416.936	87.94
417.159	78.94
417.382	78.94
417.605	85.94
417.828	96.94
418.051	105.94
418.274	100.94
418.497	84.94
418.72	94.94
418.943	74.94
419.166	90.94
419.389	78.94
419.611	92.94
419.834	87.94
420.057	84.94
420.28	91.94
420.503	84.94
420.726	74.94
420.948	90.94
421.171	82.94
421.394	87.94
421.617	94.94
421.839	76.94
422.062	86.94
422.285	91.94
422.507	92.94
422.73	95.94
422.953	99.94
423.175	92.94
423.398	93.94
423.621	90.94
423.843	85.94
424.066	76.94
424.288	92.94
424.511	86.94
424.733	87.94
424.956	103.94
425.178	94.94
425.401	91.94
425.623	96.94
425.846	89.94
426.068	91.94
426.291	87.94
426.513	94.94
426.735	89.94
426.958	96.94
427.18	92.94
427.402	131.94
427.625	151.94
427.847	112.94
428.069	84.94
428.292	95.94
428.514	87.94
428.736	76.94
428.958	66.94
429.181	84.94
429.403	86.94
429.625	95.94
429.847	110.94
430.069	93.94
430.292	79.94
430.514	74.94
430.736	68.94
430.958	81.94
431.18	77.94
431.402	68.94
431.624	88.94
431.846	91.94
432.068	98.94
432.29	99.94
432.512	84.94
432.734	97.94
432.956	90.94
433.178	94.94
433.4	96.94
433.622	88.94
433.844	87.94
434.066	79.94
434.287	78.94
434.509	94.94
434.731	86.94
434.953	83.94
435.175	87.94
435.397	91.94
435.618	104.94
435.84	96.94
436.062	113.94
436.284	97.94
436.505	99.94
436.727	98.94
436.949	92.94
437.17	83.94
437.392	87.94
437.614	94.94
437.835	98.94
438.057	114.94
438.278	92.94
438.5	101.94
438.721	105.94
438.943	95.94
439.165	100.94
439.386	110.94
439.608	81.94
439.829	87.94
440.05	110.94
440.272	119.94
440.493	77.94
440.715	91.94
440.936	95.94
441.158	99.94
441.379	84.94
441.6	106.94
441.822	104.94
442.043	105.94
442.264	116.94
442.486	94.94
442.707	95.94
442.928	93.94
443.149	116.94
443.371	124.94
443.592	110.94
443.813	108.94
444.034	103.94
444.255	99.94
444.476	87.94
444.698	86.94
444.919	87.94
445.14	137.94
445.361	123.94
445.582	112.94
445.803	130.94
446.024	118.94
446.245	127.94
446.466	97.94
446.687	84.94
446.908	99.94
447.129	89.94
447.35	88.94
447.571	96.94
447.792	90.94
448.013	71.94
448.234	74.94
448.455	92.94
448.675	107.94
448.896	105.94
449.117	106.94
449.338	89.94
449.559	104.94
449.779	114.94
450	98.94
450.221	92.94
450.442	87.94
450.662	104.94
450.883	103.94
451.104	96.94
451.324	82.94
451.545	84.94
451.766	85.94
451.986	89.94
452.207	87.94
452.428	109.94
452.648	99.94
452.869	104.94
453.089	102.94
453.31	110.94
453.53	88.94
453.751	89.94
453.971	104.94
454.192	111.94
454.412	89.94
454.633	85.94
454.853	86.94
455.073	90.94
455.294	95.94
455.514	101.94
455.734	81.94
455.955	93.94
456.175	87.94
456.395	85.94
456.616	86.94
456.836	76.94
457.056	82.94
457.276	86.94
457.497	67.94
457.717	89.94
457.937	88.94
458.157	88.94
458.377	89.94
458.598	98.94
458.818	128.94
459.038	145.94
459.258	111.94
459.478	92.94
459.698	98.94
459.918	92.94
460.138	83.94
460.358	83.94
460.578	86.94
460.798	98.94
461.018	85.94
461.238	86.94
461.458	78.94
461.678	91.94
461.898	83.94
462.118	89.94
462.338	85.94
462.558	83.94
462.777	81.94
462.997	95.94
463.217	87.94
463.437	84.94
463.657	91.94
463.876	88.94
464.096	90.94
464.316	83.94
464.536	90.94
464.755	94.94
464.975	110.94
465.195	150.94
465.414	141.94
465.634	88.94
465.854	76.94
466.073	78.94
466.293	84.94
466.512	96.94
466.732	74.94
466.951	78.94
467.171	93.94
467.391	78.94
467.61	107.94
467.829	88.94
468.049	93.94
468.268	97.94
468.488	96.94
468.707	87.94
468.927	70.94
469.146	88.94
469.365	88.94
469.585	84.94
469.804	95.94
470.023	96.94
470.243	91.94
470.462	102.94
470.681	99.94
470.901	100.94
471.12	72.94
471.339	89.94
471.558	81.94
471.777	82.94
471.997	86.94
472.216	91.94
472.435	88.94
472.654	91.94
472.873	76.94
473.092	89.94
473.311	89.94
473.53	89.94
473.749	90.94
473.968	92.94
474.187	105.94
474.406	92.94
474.625	81.94
474.844	76.94
475.063	78.94
475.282	82.94
475.501	87.94
475.72	68.94
475.939	82.94
476.158	98.94
476.377	91.94
476.596	88.94
476.814	91.94
477.033	91.94
477.252	88.94
477.471	89.94
477.69	83.94
477.908	82.94
478.127	97.94
478.346	91.94
478.564	87.94
478.783	96.94
479.002	89.94
479.22	88.94
479.439	90.94
479.658	94.94
479.876	94.94
480.095	82.94
480.313	98.94
480.532	80.94
480.751	99.94
480.969	91.94
481.188	93.94
481.406	94.94
481.624	100.94
481.843	105.94
482.061	105.94
482.28	97.94
482.498	84.94
482.717	92.94
482.935	84.94
483.153	94.94
483.372	86.94
483.59	93.94
483.808	99.94
484.027	95.94
484.245	92.94
484.463	78.94
484.681	81.94
484.9	102.94
485.118	92.94
485.336	92.94
485.554	78.94
485.772	94.94
485.99	106.94
486.209	98.94
486.427	104.94
486.645	98.94
486.863	110.94
487.081	117.94
487.299	88.94
487.517	99.94
487.735	95.94
487.953	87.94
488.171	90.94
488.389	87.94
488.607	104.94
488.825	92.94
489.043	91.94
489.261	103.94
489.479	93.94
489.696	92.94
489.914	85.94
490.132	97.94
490.35	88.94
490.568	104.94
490.786	97.94
491.003	74.94
491.221	112.94
491.439	94.94
491.657	92.94
491.874	103.94
492.092	106.94
492.31	79.94
492.527	82.94
492.745	87.94
492.963	95.94
493.18	87.94
493.398	92.94
493.615	91.94
493.833	84.94
494.05	88.94
494.268	90.94
494.485	94.94
494.703	90.94
494.92	88.94
495.138	80.94
495.355	76.94
495.573	86.94
495.79	90.94
496.008	85.94
496.225	95.94
496.442	84.94
496.66	96.94
496.877	106.94
497.094	97.94
497.312	94.94
497.529	90.94
497.746	90.94
497.963	88.94
498.181	103.94
498.398	99.94
498.615	105.94
498.832	105.94
499.049	94.94
499.267	91.94
499.484	105.94
499.701	90.94
499.918	95.94
500.135	88.94
500.352	99.94
500.569	74.94
500.786	93.94
501.003	96.94
501.22	100.94
501.437	93.94
501.654	89.94
501.871	99.94
502.088	89.94
502.305	77.94
502.522	83.94
502.739	87.94
502.956	96.94
503.172	89.94
503.389	79.94
503.606	98.94
503.823	98.94
504.04	82.94
504.256	95.94
504.473	96.94
504.69	87.94
504.907	89.94
505.123	97.94
505.34	103.94
505.557	82.94
505.773	80.94
505.99	92.94
506.207	90.94
506.423	106.94
506.64	83.94
506.856	104.94
507.073	76.94
507.289	77.94
507.506	100.94
507.722	112.94
507.939	109.94
508.155	101.94
508.372	90.94
508.588	88.94
508.805	103.94
509.021	91.94
509.238	93.94
509.454	90.94
509.67	92.94
509.887	107.94
510.103	127.94
510.319	203.94
510.536	739.94
510.752	2287.94
510.968	623.94
511.184	154.94
511.401	110.94
511.617	113.94
511.833	82.94
512.049	90.94
512.265	99.94
512.481	98.94
512.698	90.94
512.914	81.94
513.13	97.94
513.346	92.94
513.562	106.94
513.778	83.94
513.994	86.94
514.21	110.94
514.426	113.94
514.642	124.94
514.858	119.94
515.074	158.94
515.29	422.94
515.506	1354.94
515.721	497.94
515.937	141.94
516.153	110.94
516.369	106.94
