Data from Uncirc_1995_H10_HRD10591_00085.txt Node
Date: Wed Jan 03 11:35:50 EST 2024
User: Yrep
Spectrometer: HR+D1059
Trigger mode: 1
Integration Time (sec): 1.000000E-1
Scans to average: 1
Electric dark correction enabled: true
Nonlinearity correction enabled: false
Boxcar width: 0
XAxis mode: Wavelengths
Number of Pixels in Spectrum: 2048
>>>>>Begin Spectral Data<<<<<
223.165	-20.12
223.4	-20.12
223.635	-20.12
223.869	-25.12
224.104	-30.12
224.338	-4.12
224.573	-19.12
224.808	-8.12
225.042	-16.12
225.277	-19.12
225.511	-13.12
225.746	10.88
225.98	10.88
226.215	26.88
226.449	15.88
226.683	28.88
226.918	18.88
227.152	42.88
227.387	31.88
227.621	35.88
227.856	43.88
228.09	41.88
228.324	61.88
228.559	58.88
228.793	52.88
229.027	65.88
229.262	62.88
229.496	73.88
229.73	74.88
229.964	97.88
230.199	66.88
230.433	95.88
230.667	68.88
230.901	75.88
231.136	67.88
231.37	87.88
231.604	71.88
231.838	75.88
232.072	83.88
232.306	75.88
232.541	66.88
232.775	69.88
233.009	89.88
233.243	80.88
233.477	78.88
233.711	73.88
233.945	74.88
234.179	73.88
234.413	79.88
234.647	77.88
234.881	86.88
235.115	70.88
235.349	65.88
235.583	90.88
235.817	76.88
236.051	65.88
236.285	77.88
236.519	91.88
236.753	76.88
236.987	94.88
237.221	87.88
237.455	82.88
237.689	80.88
237.922	73.88
238.156	75.88
238.39	79.88
238.624	70.88
238.858	78.88
239.091	68.88
239.325	90.88
239.559	63.88
239.793	84.88
240.027	78.88
240.26	70.88
240.494	75.88
240.728	79.88
240.961	77.88
241.195	75.88
241.429	76.88
241.662	64.88
241.896	88.88
242.13	68.88
242.363	62.88
242.597	74.88
242.83	72.88
243.064	77.88
243.298	66.88
243.531	73.88
243.765	75.88
243.998	64.88
244.232	94.88
244.465	86.88
244.699	87.88
244.932	78.88
245.166	86.88
245.399	80.88
245.633	73.88
245.866	83.88
246.099	99.88
246.333	78.88
246.566	74.88
246.8	80.88
247.033	77.88
247.266	74.88
247.5	72.88
247.733	69.88
247.966	87.88
248.2	66.88
248.433	78.88
248.666	83.88
248.899	82.88
249.133	80.88
249.366	100.88
249.599	86.88
249.832	76.88
250.066	78.88
250.299	71.88
250.532	81.88
250.765	68.88
250.998	87.88
251.231	90.88
251.465	72.88
251.698	64.88
251.931	87.88
252.164	74.88
252.397	72.88
252.63	75.88
252.863	88.88
253.096	88.88
253.329	89.88
253.562	84.88
253.795	78.88
254.028	62.88
254.261	59.88
254.494	87.88
254.727	86.88
254.96	89.88
255.193	80.88
255.426	76.88
255.659	79.88
255.892	82.88
256.124	71.88
256.357	83.88
256.59	82.88
256.823	82.88
257.056	73.88
257.289	86.88
257.521	80.88
257.754	81.88
257.987	83.88
258.22	84.88
258.452	76.88
258.685	81.88
258.918	65.88
259.151	76.88
259.383	80.88
259.616	91.88
259.849	74.88
260.081	90.88
260.314	97.88
260.547	76.88
260.779	85.88
261.012	88.88
261.244	90.88
261.477	98.88
261.71	97.88
261.942	98.88
262.175	108.88
262.407	78.88
262.64	75.88
262.872	74.88
263.105	69.88
263.337	78.88
263.57	82.88
263.802	73.88
264.035	78.88
264.267	75.88
264.499	83.88
264.732	75.88
264.964	76.88
265.197	89.88
265.429	75.88
265.661	83.88
265.894	88.88
266.126	86.88
266.358	86.88
266.591	89.88
266.823	81.88
267.055	80.88
267.287	79.88
267.52	91.88
267.752	90.88
267.984	86.88
268.216	85.88
268.448	81.88
268.681	83.88
268.913	91.88
269.145	91.88
269.377	84.88
269.609	81.88
269.841	90.88
270.073	74.88
270.306	75.88
270.538	77.88
270.77	79.88
271.002	95.88
271.234	89.88
271.466	84.88
271.698	86.88
271.93	76.88
272.162	83.88
272.394	80.88
272.626	83.88
272.858	70.88
273.09	85.88
273.322	86.88
273.553	77.88
273.785	98.88
274.017	80.88
274.249	79.88
274.481	89.88
274.713	81.88
274.945	84.88
275.176	72.88
275.408	95.88
275.64	89.88
275.872	91.88
276.104	79.88
276.335	93.88
276.567	88.88
276.799	94.88
277.031	90.88
277.262	93.88
277.494	86.88
277.726	78.88
277.957	80.88
278.189	92.88
278.421	86.88
278.652	79.88
278.884	86.88
279.115	94.88
279.347	78.88
279.579	91.88
279.81	89.88
280.042	93.88
280.273	79.88
280.505	76.88
280.736	74.88
280.968	79.88
281.199	86.88
281.431	101.88
281.662	98.88
281.894	91.88
282.125	93.88
282.356	110.88
282.588	129.88
282.819	96.88
283.051	81.88
283.282	86.88
283.513	89.88
283.745	88.88
283.976	86.88
284.207	90.88
284.439	71.88
284.67	90.88
284.901	89.88
285.132	81.88
285.364	91.88
285.595	95.88
285.826	86.88
286.057	89.88
286.288	93.88
286.52	86.88
286.751	79.88
286.982	95.88
287.213	92.88
287.444	91.88
287.675	79.88
287.906	90.88
288.138	81.88
288.369	86.88
288.6	89.88
288.831	91.88
289.062	92.88
289.293	82.88
289.524	91.88
289.755	99.88
289.986	83.88
290.217	79.88
290.448	80.88
290.679	95.88
290.91	85.88
291.141	84.88
291.371	80.88
291.602	90.88
291.833	85.88
292.064	80.88
292.295	96.88
292.526	105.88
292.757	87.88
292.987	96.88
293.218	85.88
293.449	80.88
293.68	92.88
293.91	95.88
294.141	90.88
294.372	89.88
294.603	79.88
294.833	107.88
295.064	87.88
295.295	90.88
295.525	103.88
295.756	104.88
295.987	129.88
296.217	119.88
296.448	111.88
296.679	91.88
296.909	88.88
297.14	99.88
297.37	94.88
297.601	95.88
297.831	95.88
298.062	82.88
298.292	91.88
298.523	86.88
298.753	82.88
298.984	87.88
299.214	99.88
299.445	89.88
299.675	97.88
299.905	89.88
300.136	74.88
300.366	93.88
300.597	91.88
300.827	100.88
301.057	86.88
301.288	93.88
301.518	79.88
301.748	91.88
301.979	87.88
302.209	88.88
302.439	88.88
302.669	79.88
302.9	80.88
303.13	78.88
303.36	89.88
303.59	94.88
303.82	99.88
304.051	99.88
304.281	80.88
304.511	93.88
304.741	78.88
304.971	100.88
305.201	84.88
305.431	86.88
305.661	80.88
305.891	91.88
306.121	83.88
306.352	91.88
306.582	99.88
306.812	83.88
307.042	84.88
307.272	95.88
307.502	87.88
307.731	88.88
307.961	90.88
308.191	91.88
308.421	94.88
308.651	84.88
308.881	78.88
309.111	98.88
309.341	94.88
309.571	95.88
309.8	89.88
310.03	98.88
310.26	107.88
310.49	99.88
310.72	95.88
310.949	98.88
311.179	103.88
311.409	86.88
311.639	94.88
311.868	89.88
312.098	92.88
312.328	90.88
312.557	100.88
312.787	108.88
313.017	88.88
313.246	90.88
313.476	97.88
313.706	94.88
313.935	83.88
314.165	81.88
314.394	85.88
314.624	83.88
314.853	99.88
315.083	97.88
315.312	100.88
315.542	98.88
315.771	94.88
316.001	84.88
316.23	86.88
316.46	100.88
316.689	93.88
316.919	84.88
317.148	91.88
317.377	98.88
317.607	99.88
317.836	93.88
318.065	98.88
318.295	93.88
318.524	86.88
318.753	99.88
318.983	101.88
319.212	82.88
319.441	111.88
319.67	103.88
319.9	93.88
320.129	92.88
320.358	85.88
320.587	81.88
320.816	110.88
321.046	98.88
321.275	98.88
321.504	95.88
321.733	109.88
321.962	104.88
322.191	103.88
322.42	97.88
322.649	91.88
322.878	105.88
323.108	116.88
323.337	117.88
323.566	140.88
323.795	152.88
324.024	226.88
324.253	375.88
324.482	828.88
324.71	1757.88
324.939	2279.88
325.168	830.88
325.397	252.88
325.626	143.88
325.855	142.88
326.084	121.88
326.313	156.88
326.542	151.88
326.77	228.88
326.999	461.88
327.228	986.88
327.457	1802.88
327.686	1348.88
327.914	382.88
328.143	186.88
328.372	137.88
328.6	111.88
328.829	110.88
329.058	121.88
329.287	118.88
329.515	111.88
329.744	108.88
329.972	102.88
330.201	104.88
330.43	101.88
330.658	118.88
330.887	126.88
331.115	119.88
331.344	111.88
331.572	112.88
331.801	105.88
332.03	90.88
332.258	105.88
332.486	94.88
332.715	89.88
332.943	71.88
333.172	78.88
333.4	90.88
333.629	106.88
333.857	102.88
334.085	99.88
334.314	108.88
334.542	103.88
334.771	98.88
334.999	74.88
335.227	100.88
335.455	87.88
335.684	86.88
335.912	96.88
336.14	94.88
336.369	107.88
336.597	96.88
336.825	89.88
337.053	84.88
337.281	101.88
337.51	82.88
337.738	93.88
337.966	83.88
338.194	105.88
338.422	80.88
338.65	98.88
338.878	89.88
339.106	82.88
339.334	92.88
339.562	91.88
339.79	87.88
340.018	87.88
340.246	84.88
340.474	63.88
340.702	96.88
340.93	96.88
341.158	90.88
341.386	84.88
341.614	95.88
341.842	90.88
342.07	96.88
342.298	90.88
342.526	94.88
342.754	80.88
342.981	97.88
343.209	91.88
343.437	102.88
343.665	91.88
343.893	94.88
344.12	96.88
344.348	100.88
344.576	89.88
344.804	89.88
345.031	95.88
345.259	99.88
345.487	95.88
345.714	87.88
345.942	95.88
346.17	86.88
346.397	87.88
346.625	88.88
346.853	90.88
347.08	93.88
347.308	84.88
347.535	84.88
347.763	79.88
347.99	98.88
348.218	98.88
348.445	119.88
348.673	95.88
348.9	83.88
349.128	100.88
349.355	88.88
349.583	103.88
349.81	89.88
350.037	99.88
350.265	99.88
350.492	92.88
350.72	94.88
350.947	97.88
351.174	105.88
351.402	96.88
351.629	110.88
351.856	90.88
352.083	100.88
352.311	93.88
352.538	102.88
352.765	106.88
352.992	115.88
353.22	111.88
353.447	95.88
353.674	99.88
353.901	88.88
354.128	106.88
354.355	95.88
354.583	100.88
354.81	97.88
355.037	118.88
355.264	106.88
355.491	84.88
355.718	90.88
355.945	85.88
356.172	87.88
356.399	111.88
356.626	91.88
356.853	96.88
357.08	88.88
357.307	93.88
357.534	93.88
357.761	96.88
357.988	93.88
358.215	91.88
358.441	89.88
358.668	80.88
358.895	76.88
359.122	88.88
359.349	85.88
359.576	98.88
359.802	95.88
360.029	119.88
360.256	106.88
360.483	102.88
360.709	95.88
360.936	98.88
361.163	92.88
361.39	91.88
361.616	107.88
361.843	89.88
362.07	86.88
362.296	92.88
362.523	91.88
362.749	91.88
362.976	100.88
363.203	86.88
363.429	97.88
363.656	87.88
363.882	74.88
364.109	98.88
364.335	91.88
364.562	86.88
364.788	84.88
365.015	91.88
365.241	97.88
365.468	99.88
365.694	101.88
365.92	95.88
366.147	103.88
366.373	89.88
366.599	76.88
366.826	82.88
367.052	81.88
367.278	91.88
367.505	78.88
367.731	99.88
367.957	86.88
368.184	98.88
368.41	96.88
368.636	100.88
368.862	102.88
369.089	111.88
369.315	100.88
369.541	90.88
369.767	81.88
369.993	100.88
370.219	105.88
370.445	84.88
370.672	82.88
370.898	98.88
371.124	86.88
371.35	88.88
371.576	94.88
371.802	85.88
372.028	94.88
372.254	79.88
372.48	82.88
372.706	90.88
372.932	84.88
373.158	81.88
373.384	109.88
373.61	108.88
373.835	92.88
374.061	74.88
374.287	86.88
374.513	107.88
374.739	99.88
374.965	88.88
375.191	91.88
375.416	88.88
375.642	76.88
375.868	92.88
376.094	96.88
376.319	84.88
376.545	76.88
376.771	85.88
376.997	85.88
377.222	84.88
377.448	99.88
377.674	81.88
377.899	87.88
378.125	94.88
378.35	86.88
378.576	95.88
378.802	95.88
379.027	99.88
379.253	84.88
379.478	90.88
379.704	93.88
379.929	90.88
380.155	101.88
380.38	83.88
380.606	94.88
380.831	98.88
381.057	92.88
381.282	108.88
381.507	78.88
381.733	94.88
381.958	93.88
382.184	102.88
382.409	93.88
382.634	103.88
382.86	85.88
383.085	102.88
383.31	102.88
383.535	100.88
383.761	107.88
383.986	99.88
384.211	100.88
384.436	95.88
384.662	100.88
384.887	99.88
385.112	92.88
385.337	97.88
385.562	90.88
385.787	112.88
386.013	103.88
386.238	111.88
386.463	100.88
386.688	101.88
386.913	104.88
387.138	95.88
387.363	101.88
387.588	100.88
387.813	89.88
388.038	97.88
388.263	102.88
388.488	88.88
388.713	107.88
388.938	86.88
389.163	106.88
389.387	112.88
389.612	81.88
389.837	94.88
390.062	78.88
390.287	79.88
390.512	98.88
390.736	94.88
390.961	86.88
391.186	86.88
391.411	90.88
391.636	95.88
391.86	94.88
392.085	83.88
392.31	100.88
392.534	86.88
392.759	86.88
392.984	69.88
393.208	97.88
393.433	84.88
393.658	88.88
393.882	96.88
394.107	79.88
394.331	91.88
394.556	85.88
394.78	97.88
395.005	94.88
395.229	101.88
395.454	76.88
395.678	68.88
395.903	88.88
396.127	82.88
396.352	96.88
396.576	84.88
396.801	89.88
397.025	87.88
397.249	90.88
397.474	91.88
397.698	86.88
397.922	77.88
398.147	87.88
398.371	93.88
398.595	95.88
398.82	82.88
399.044	86.88
399.268	86.88
399.492	100.88
399.717	77.88
399.941	97.88
400.165	97.88
400.389	85.88
400.613	83.88
400.837	90.88
401.062	88.88
401.286	86.88
401.51	94.88
401.734	82.88
401.958	100.88
402.182	124.88
402.406	159.88
402.63	108.88
402.854	99.88
403.078	80.88
403.302	84.88
403.526	93.88
403.75	86.88
403.974	84.88
404.198	83.88
404.422	86.88
404.645	100.88
404.869	99.88
405.093	94.88
405.317	92.88
405.541	93.88
405.765	102.88
405.988	97.88
406.212	176.88
406.436	215.88
406.66	139.88
406.883	90.88
407.107	88.88
407.331	93.88
407.555	99.88
407.778	95.88
408.002	80.88
408.226	98.88
408.449	104.88
408.673	92.88
408.896	103.88
409.12	94.88
409.344	90.88
409.567	91.88
409.791	85.88
410.014	103.88
410.238	105.88
410.461	97.88
410.685	89.88
410.908	95.88
411.132	108.88
411.355	99.88
411.578	75.88
411.802	90.88
412.025	79.88
412.249	87.88
412.472	96.88
412.695	81.88
412.919	88.88
413.142	92.88
413.365	77.88
413.589	88.88
413.812	79.88
414.035	97.88
414.258	96.88
414.482	99.88
414.705	89.88
414.928	99.88
415.151	100.88
415.374	94.88
415.597	95.88
415.821	88.88
416.044	77.88
416.267	83.88
416.49	63.88
416.713	92.88
416.936	89.88
417.159	78.88
417.382	71.88
417.605	82.88
417.828	92.88
418.051	93.88
418.274	90.88
418.497	70.88
418.72	94.88
418.943	95.88
419.166	91.88
419.389	90.88
419.611	96.88
419.834	88.88
420.057	88.88
420.28	95.88
420.503	77.88
420.726	88.88
420.948	98.88
421.171	87.88
421.394	79.88
421.617	102.88
421.839	97.88
422.062	100.88
422.285	95.88
422.507	91.88
422.73	91.88
422.953	77.88
423.175	96.88
423.398	89.88
423.621	87.88
423.843	87.88
424.066	74.88
424.288	90.88
424.511	99.88
424.733	93.88
424.956	109.88
425.178	87.88
425.401	94.88
425.623	95.88
425.846	96.88
426.068	90.88
426.291	105.88
426.513	78.88
426.735	83.88
426.958	91.88
427.18	111.88
427.402	139.88
427.625	158.88
427.847	127.88
428.069	113.88
428.292	103.88
428.514	95.88
428.736	88.88
428.958	91.88
429.181	82.88
429.403	82.88
429.625	94.88
429.847	83.88
430.069	91.88
430.292	91.88
430.514	92.88
430.736	89.88
430.958	71.88
431.18	83.88
431.402	93.88
431.624	92.88
431.846	80.88
432.068	77.88
432.29	95.88
432.512	99.88
432.734	98.88
432.956	93.88
433.178	107.88
433.4	98.88
433.622	99.88
433.844	98.88
434.066	104.88
434.287	106.88
434.509	82.88
434.731	98.88
434.953	90.88
435.175	84.88
435.397	92.88
435.618	93.88
435.84	100.88
436.062	135.88
436.284	112.88
436.505	96.88
436.727	116.88
436.949	96.88
437.17	102.88
437.392	96.88
437.614	100.88
437.835	108.88
438.057	127.88
438.278	102.88
438.5	106.88
438.721	104.88
438.943	107.88
439.165	101.88
439.386	86.88
439.608	100.88
439.829	100.88
440.05	110.88
440.272	135.88
440.493	109.88
440.715	78.88
440.936	98.88
441.158	93.88
441.379	92.88
441.6	99.88
441.822	90.88
442.043	106.88
442.264	104.88
442.486	91.88
442.707	92.88
442.928	108.88
443.149	126.88
443.371	119.88
443.592	105.88
443.813	111.88
444.034	105.88
444.255	99.88
444.476	78.88
444.698	94.88
444.919	96.88
445.14	131.88
445.361	118.88
445.582	131.88
445.803	120.88
446.024	125.88
446.245	129.88
446.466	104.88
446.687	92.88
446.908	97.88
447.129	79.88
447.35	93.88
447.571	92.88
447.792	91.88
448.013	101.88
448.234	107.88
448.455	81.88
448.675	95.88
448.896	114.88
449.117	99.88
449.338	83.88
449.559	109.88
449.779	120.88
450	97.88
450.221	91.88
450.442	79.88
450.662	110.88
450.883	104.88
451.104	111.88
451.324	101.88
451.545	100.88
451.766	88.88
451.986	89.88
452.207	81.88
452.428	97.88
452.648	84.88
452.869	110.88
453.089	114.88
453.31	110.88
453.53	98.88
453.751	88.88
453.971	81.88
454.192	110.88
454.412	98.88
454.633	89.88
454.853	88.88
455.073	85.88
455.294	79.88
455.514	102.88
455.734	83.88
455.955	85.88
456.175	88.88
456.395	83.88
456.616	81.88
456.836	97.88
457.056	74.88
457.276	88.88
457.497	92.88
457.717	85.88
457.937	71.88
458.157	96.88
458.377	90.88
458.598	103.88
458.818	137.88
459.038	154.88
459.258	100.88
459.478	89.88
459.698	94.88
459.918	86.88
460.138	86.88
460.358	81.88
460.578	86.88
460.798	91.88
461.018	87.88
461.238	102.88
461.458	88.88
461.678	84.88
461.898	86.88
462.118	85.88
462.338	76.88
462.558	83.88
462.777	87.88
462.997	93.88
463.217	81.88
463.437	89.88
463.657	100.88
463.876	97.88
464.096	94.88
464.316	87.88
464.536	84.88
464.755	99.88
464.975	98.88
465.195	159.88
465.414	150.88
465.634	109.88
465.854	86.88
466.073	79.88
466.293	78.88
466.512	79.88
466.732	83.88
466.951	81.88
467.171	87.88
467.391	89.88
467.61	88.88
467.829	89.88
468.049	96.88
468.268	94.88
468.488	81.88
468.707	91.88
468.927	83.88
469.146	81.88
469.365	95.88
469.585	87.88
469.804	96.88
470.023	96.88
470.243	99.88
470.462	95.88
470.681	106.88
470.901	95.88
471.12	93.88
471.339	59.88
471.558	86.88
471.777	95.88
471.997	92.88
472.216	97.88
472.435	84.88
472.654	106.88
472.873	87.88
473.092	78.88
473.311	82.88
473.53	93.88
473.749	82.88
473.968	75.88
474.187	96.88
474.406	96.88
474.625	78.88
474.844	90.88
475.063	94.88
475.282	80.88
475.501	78.88
475.72	75.88
475.939	92.88
476.158	80.88
476.377	90.88
476.596	87.88
476.814	85.88
477.033	89.88
477.252	78.88
477.471	92.88
477.69	92.88
477.908	98.88
478.127	74.88
478.346	96.88
478.564	97.88
478.783	101.88
479.002	103.88
479.22	105.88
479.439	108.88
479.658	91.88
479.876	96.88
480.095	101.88
480.313	88.88
480.532	86.88
480.751	87.88
480.969	94.88
481.188	104.88
481.406	92.88
481.624	100.88
481.843	104.88
482.061	91.88
482.28	78.88
482.498	91.88
482.717	90.88
482.935	95.88
483.153	90.88
483.372	89.88
483.59	87.88
483.808	89.88
484.027	83.88
484.245	85.88
484.463	88.88
484.681	101.88
484.9	106.88
485.118	84.88
485.336	105.88
485.554	118.88
485.772	104.88
485.99	101.88
486.209	120.88
486.427	103.88
486.645	101.88
486.863	107.88
487.081	92.88
487.299	75.88
487.517	104.88
487.735	99.88
487.953	102.88
488.171	84.88
488.389	90.88
488.607	92.88
488.825	84.88
489.043	87.88
489.261	95.88
489.479	97.88
489.696	98.88
489.914	87.88
490.132	82.88
490.35	82.88
490.568	82.88
490.786	72.88
491.003	99.88
491.221	83.88
491.439	78.88
491.657	88.88
491.874	84.88
492.092	101.88
492.31	97.88
492.527	77.88
492.745	94.88
492.963	98.88
493.18	87.88
493.398	88.88
493.615	105.88
493.833	93.88
494.05	102.88
494.268	92.88
494.485	80.88
494.703	87.88
494.92	83.88
495.138	105.88
495.355	84.88
495.573	93.88
495.79	91.88
496.008	90.88
496.225	89.88
496.442	87.88
496.66	95.88
496.877	97.88
497.094	95.88
497.312	106.88
497.529	78.88
497.746	89.88
497.963	89.88
498.181	86.88
498.398	101.88
498.615	114.88
498.832	94.88
499.049	88.88
499.267	78.88
499.484	76.88
499.701	92.88
499.918	92.88
500.135	87.88
500.352	90.88
500.569	94.88
500.786	82.88
501.003	92.88
501.22	97.88
501.437	93.88
501.654	92.88
501.871	102.88
502.088	85.88
502.305	79.88
502.522	88.88
502.739	82.88
502.956	97.88
503.172	88.88
503.389	100.88
503.606	108.88
503.823	100.88
504.04	100.88
504.256	92.88
504.473	83.88
504.69	70.88
504.907	89.88
505.123	93.88
505.34	74.88
505.557	91.88
505.773	85.88
505.99	97.88
506.207	93.88
506.423	88.88
506.64	97.88
506.856	88.88
507.073	81.88
507.289	88.88
507.506	91.88
507.722	104.88
507.939	104.88
508.155	100.88
508.372	91.88
508.588	82.88
508.805	71.88
509.021	96.88
509.238	86.88
509.454	98.88
509.67	103.88
509.887	107.88
510.103	128.88
510.319	207.88
510.536	787.88
510.752	2412.88
510.968	671.88
511.184	150.88
511.401	107.88
511.617	76.88
511.833	95.88
512.049	95.88
512.265	105.88
512.481	91.88
512.698	86.88
512.914	97.88
513.13	95.88
513.346	92.88
513.562	86.88
513.778	91.88
513.994	95.88
514.21	93.88
514.426	118.88
514.642	139.88
514.858	113.88
515.074	176.88
515.29	430.88
515.506	1401.88
515.721	518.88
515.937	147.88
516.153	108.88
