Data from Uncirc_1995_H10_HRD10591_00089.txt Node
Date: Wed Jan 03 11:35:51 EST 2024
User: Yrep
Spectrometer: HR+D1059
Trigger mode: 1
Integration Time (sec): 1.000000E-1
Scans to average: 1
Electric dark correction enabled: true
Nonlinearity correction enabled: false
Boxcar width: 0
XAxis mode: Wavelengths
Number of Pixels in Spectrum: 2048
>>>>>Begin Spectral Data<<<<<
223.165	-21.75
223.4	-21.75
223.635	-21.75
223.869	-13.75
224.104	-13.75
224.338	-8.75
224.573	-28.75
224.808	-1.75
225.042	0.25
225.277	-4.75
225.511	-17.75
225.746	-2.75
225.98	19.25
226.215	13.25
226.449	19.25
226.683	7.25
226.918	28.25
227.152	26.25
227.387	52.25
227.621	29.25
227.856	43.25
228.09	44.25
228.324	47.25
228.559	46.25
228.793	52.25
229.027	67.25
229.262	68.25
229.496	79.25
229.73	81.25
229.964	87.25
230.199	74.25
230.433	74.25
230.667	76.25
230.901	77.25
231.136	75.25
231.37	81.25
231.604	72.25
231.838	86.25
232.072	73.25
232.306	88.25
232.541	75.25
232.775	86.25
233.009	74.25
233.243	74.25
233.477	79.25
233.711	81.25
233.945	90.25
234.179	80.25
234.413	82.25
234.647	76.25
234.881	74.25
235.115	77.25
235.349	76.25
235.583	80.25
235.817	80.25
236.051	78.25
236.285	78.25
236.519	65.25
236.753	80.25
236.987	74.25
237.221	89.25
237.455	77.25
237.689	89.25
237.922	73.25
238.156	63.25
238.39	70.25
238.624	84.25
238.858	63.25
239.091	71.25
239.325	86.25
239.559	92.25
239.793	60.25
240.027	75.25
240.26	78.25
240.494	81.25
240.728	70.25
240.961	71.25
241.195	86.25
241.429	72.25
241.662	84.25
241.896	75.25
242.13	82.25
242.363	76.25
242.597	72.25
242.83	84.25
243.064	84.25
243.298	66.25
243.531	72.25
243.765	79.25
243.998	77.25
244.232	72.25
244.465	84.25
244.699	78.25
244.932	86.25
245.166	90.25
245.399	82.25
245.633	76.25
245.866	79.25
246.099	76.25
246.333	74.25
246.566	76.25
246.8	82.25
247.033	65.25
247.266	73.25
247.5	77.25
247.733	88.25
247.966	68.25
248.2	75.25
248.433	79.25
248.666	84.25
248.899	74.25
249.133	79.25
249.366	87.25
249.599	91.25
249.832	81.25
250.066	83.25
250.299	89.25
250.532	88.25
250.765	74.25
250.998	87.25
251.231	73.25
251.465	84.25
251.698	81.25
251.931	80.25
252.164	83.25
252.397	88.25
252.63	58.25
252.863	72.25
253.096	88.25
253.329	73.25
253.562	88.25
253.795	84.25
254.028	75.25
254.261	84.25
254.494	79.25
254.727	86.25
254.96	89.25
255.193	65.25
255.426	71.25
255.659	79.25
255.892	85.25
256.124	78.25
256.357	82.25
256.59	79.25
256.823	86.25
257.056	90.25
257.289	82.25
257.521	95.25
257.754	84.25
257.987	85.25
258.22	80.25
258.452	74.25
258.685	72.25
258.918	78.25
259.151	78.25
259.383	76.25
259.616	82.25
259.849	81.25
260.081	90.25
260.314	76.25
260.547	82.25
260.779	82.25
261.012	92.25
261.244	72.25
261.477	90.25
261.71	91.25
261.942	100.25
262.175	100.25
262.407	91.25
262.64	82.25
262.872	90.25
263.105	86.25
263.337	109.25
263.57	91.25
263.802	88.25
264.035	80.25
264.267	90.25
264.499	94.25
264.732	79.25
264.964	80.25
265.197	67.25
265.429	90.25
265.661	83.25
265.894	96.25
266.126	78.25
266.358	82.25
266.591	88.25
266.823	68.25
267.055	72.25
267.287	89.25
267.52	97.25
267.752	85.25
267.984	89.25
268.216	77.25
268.448	93.25
268.681	84.25
268.913	89.25
269.145	80.25
269.377	76.25
269.609	74.25
269.841	90.25
270.073	81.25
270.306	89.25
270.538	72.25
270.77	77.25
271.002	76.25
271.234	87.25
271.466	78.25
271.698	89.25
271.93	79.25
272.162	90.25
272.394	68.25
272.626	91.25
272.858	73.25
273.09	90.25
273.322	84.25
273.553	82.25
273.785	90.25
274.017	81.25
274.249	80.25
274.481	75.25
274.713	68.25
274.945	94.25
275.176	87.25
275.408	76.25
275.64	86.25
275.872	95.25
276.104	90.25
276.335	84.25
276.567	94.25
276.799	108.25
277.031	98.25
277.262	97.25
277.494	94.25
277.726	79.25
277.957	81.25
278.189	81.25
278.421	84.25
278.652	91.25
278.884	81.25
279.115	98.25
279.347	74.25
279.579	74.25
279.81	71.25
280.042	91.25
280.273	86.25
280.505	91.25
280.736	86.25
280.968	62.25
281.199	87.25
281.431	92.25
281.662	82.25
281.894	95.25
282.125	95.25
282.356	114.25
282.588	115.25
282.819	108.25
283.051	90.25
283.282	87.25
283.513	86.25
283.745	90.25
283.976	79.25
284.207	80.25
284.439	80.25
284.67	93.25
284.901	74.25
285.132	89.25
285.364	91.25
285.595	96.25
285.826	86.25
286.057	93.25
286.288	90.25
286.52	87.25
286.751	94.25
286.982	84.25
287.213	96.25
287.444	89.25
287.675	90.25
287.906	86.25
288.138	98.25
288.369	82.25
288.6	92.25
288.831	92.25
289.062	89.25
289.293	109.25
289.524	91.25
289.755	78.25
289.986	84.25
290.217	76.25
290.448	91.25
290.679	80.25
290.91	76.25
291.141	87.25
291.371	85.25
291.602	80.25
291.833	95.25
292.064	79.25
292.295	83.25
292.526	89.25
292.757	82.25
292.987	94.25
293.218	77.25
293.449	81.25
293.68	79.25
293.91	96.25
294.141	67.25
294.372	82.25
294.603	88.25
294.833	76.25
295.064	82.25
295.295	95.25
295.525	94.25
295.756	98.25
295.987	108.25
296.217	129.25
296.448	110.25
296.679	76.25
296.909	100.25
297.14	87.25
297.37	89.25
297.601	88.25
297.831	83.25
298.062	84.25
298.292	80.25
298.523	96.25
298.753	85.25
298.984	74.25
299.214	86.25
299.445	96.25
299.675	100.25
299.905	103.25
300.136	104.25
300.366	82.25
300.597	99.25
300.827	97.25
301.057	99.25
301.288	96.25
301.518	100.25
301.748	81.25
301.979	103.25
302.209	92.25
302.439	99.25
302.669	80.25
302.9	93.25
303.13	89.25
303.36	85.25
303.59	100.25
303.82	109.25
304.051	96.25
304.281	92.25
304.511	82.25
304.741	92.25
304.971	87.25
305.201	86.25
305.431	89.25
305.661	88.25
305.891	90.25
306.121	95.25
306.352	89.25
306.582	111.25
306.812	95.25
307.042	90.25
307.272	91.25
307.502	92.25
307.731	83.25
307.961	96.25
308.191	83.25
308.421	82.25
308.651	96.25
308.881	107.25
309.111	82.25
309.341	95.25
309.571	95.25
309.8	100.25
310.03	75.25
310.26	96.25
310.49	85.25
310.72	87.25
310.949	104.25
311.179	90.25
311.409	104.25
311.639	82.25
311.868	94.25
312.098	95.25
312.328	96.25
312.557	98.25
312.787	86.25
313.017	87.25
313.246	95.25
313.476	77.25
313.706	81.25
313.935	84.25
314.165	98.25
314.394	85.25
314.624	91.25
314.853	83.25
315.083	96.25
315.312	79.25
315.542	98.25
315.771	100.25
316.001	90.25
316.23	99.25
316.46	97.25
316.689	86.25
316.919	94.25
317.148	84.25
317.377	90.25
317.607	99.25
317.836	89.25
318.065	97.25
318.295	101.25
318.524	104.25
318.753	92.25
318.983	87.25
319.212	87.25
319.441	92.25
319.67	107.25
319.9	95.25
320.129	94.25
320.358	98.25
320.587	91.25
320.816	109.25
321.046	91.25
321.275	92.25
321.504	89.25
321.733	83.25
321.962	90.25
322.191	106.25
322.42	97.25
322.649	109.25
322.878	94.25
323.108	112.25
323.337	112.25
323.566	125.25
323.795	150.25
324.024	176.25
324.253	385.25
324.482	823.25
324.71	1700.25
324.939	2264.25
325.168	817.25
325.397	243.25
325.626	149.25
325.855	132.25
326.084	128.25
326.313	131.25
326.542	153.25
326.77	228.25
326.999	426.25
327.228	920.25
327.457	1754.25
327.686	1350.25
327.914	364.25
328.143	200.25
328.372	144.25
328.6	136.25
328.829	104.25
329.058	113.25
329.287	109.25
329.515	100.25
329.744	91.25
329.972	89.25
330.201	89.25
330.43	111.25
330.658	113.25
330.887	126.25
331.115	115.25
331.344	106.25
331.572	108.25
331.801	120.25
332.03	98.25
332.258	106.25
332.486	97.25
332.715	95.25
332.943	97.25
333.172	91.25
333.4	100.25
333.629	97.25
333.857	113.25
334.085	99.25
334.314	95.25
334.542	92.25
334.771	109.25
334.999	97.25
335.227	100.25
335.455	104.25
335.684	90.25
335.912	82.25
336.14	98.25
336.369	104.25
336.597	107.25
336.825	90.25
337.053	88.25
337.281	80.25
337.51	93.25
337.738	103.25
337.966	94.25
338.194	94.25
338.422	100.25
338.65	95.25
338.878	84.25
339.106	96.25
339.334	102.25
339.562	89.25
339.79	83.25
340.018	94.25
340.246	104.25
340.474	86.25
340.702	98.25
340.93	91.25
341.158	88.25
341.386	95.25
341.614	89.25
341.842	97.25
342.07	98.25
342.298	92.25
342.526	88.25
342.754	88.25
342.981	96.25
343.209	82.25
343.437	88.25
343.665	83.25
343.893	78.25
344.12	87.25
344.348	93.25
344.576	97.25
344.804	82.25
345.031	89.25
345.259	98.25
345.487	83.25
345.714	98.25
345.942	83.25
346.17	98.25
346.397	82.25
346.625	83.25
346.853	104.25
347.08	80.25
347.308	96.25
347.535	100.25
347.763	97.25
347.99	100.25
348.218	92.25
348.445	98.25
348.673	92.25
348.9	100.25
349.128	90.25
349.355	71.25
349.583	92.25
349.81	89.25
350.037	94.25
350.265	99.25
350.492	93.25
350.72	86.25
350.947	95.25
351.174	92.25
351.402	94.25
351.629	106.25
351.856	113.25
352.083	88.25
352.311	99.25
352.538	98.25
352.765	114.25
352.992	101.25
353.22	104.25
353.447	91.25
353.674	98.25
353.901	91.25
354.128	94.25
354.355	120.25
354.583	98.25
354.81	88.25
355.037	100.25
355.264	87.25
355.491	76.25
355.718	99.25
355.945	102.25
356.172	94.25
356.399	103.25
356.626	106.25
356.853	82.25
357.08	95.25
357.307	85.25
357.534	94.25
357.761	103.25
357.988	102.25
358.215	89.25
358.441	85.25
358.668	95.25
358.895	82.25
359.122	86.25
359.349	97.25
359.576	79.25
359.802	87.25
360.029	116.25
360.256	98.25
360.483	84.25
360.709	97.25
360.936	87.25
361.163	93.25
361.39	101.25
361.616	102.25
361.843	77.25
362.07	85.25
362.296	79.25
362.523	85.25
362.749	89.25
362.976	94.25
363.203	92.25
363.429	96.25
363.656	91.25
363.882	96.25
364.109	94.25
364.335	82.25
364.562	88.25
364.788	89.25
365.015	97.25
365.241	92.25
365.468	114.25
365.694	106.25
365.92	88.25
366.147	94.25
366.373	94.25
366.599	81.25
366.826	84.25
367.052	98.25
367.278	78.25
367.505	97.25
367.731	100.25
367.957	97.25
368.184	90.25
368.41	102.25
368.636	96.25
368.862	113.25
369.089	105.25
369.315	94.25
369.541	78.25
369.767	94.25
369.993	90.25
370.219	107.25
370.445	87.25
370.672	75.25
370.898	87.25
371.124	84.25
371.35	92.25
371.576	89.25
371.802	95.25
372.028	87.25
372.254	83.25
372.48	84.25
372.706	82.25
372.932	92.25
373.158	91.25
373.384	79.25
373.61	89.25
373.835	86.25
374.061	82.25
374.287	92.25
374.513	93.25
374.739	73.25
374.965	80.25
375.191	76.25
375.416	92.25
375.642	90.25
375.868	84.25
376.094	87.25
376.319	88.25
376.545	90.25
376.771	91.25
376.997	91.25
377.222	90.25
377.448	81.25
377.674	91.25
377.899	104.25
378.125	96.25
378.35	96.25
378.576	87.25
378.802	95.25
379.027	94.25
379.253	88.25
379.478	83.25
379.704	79.25
379.929	97.25
380.155	93.25
380.38	101.25
380.606	78.25
380.831	92.25
381.057	90.25
381.282	91.25
381.507	95.25
381.733	98.25
381.958	96.25
382.184	92.25
382.409	87.25
382.634	98.25
382.86	106.25
383.085	106.25
383.31	96.25
383.535	108.25
383.761	84.25
383.986	94.25
384.211	100.25
384.436	112.25
384.662	96.25
384.887	103.25
385.112	102.25
385.337	96.25
385.562	100.25
385.787	84.25
386.013	106.25
386.238	122.25
386.463	101.25
386.688	108.25
386.913	103.25
387.138	107.25
387.363	91.25
387.588	99.25
387.813	106.25
388.038	105.25
388.263	105.25
388.488	103.25
388.713	91.25
388.938	104.25
389.163	102.25
389.387	96.25
389.612	91.25
389.837	90.25
390.062	92.25
390.287	111.25
390.512	103.25
390.736	98.25
390.961	93.25
391.186	83.25
391.411	99.25
391.636	94.25
391.86	102.25
392.085	91.25
392.31	81.25
392.534	83.25
392.759	75.25
392.984	96.25
393.208	82.25
393.433	96.25
393.658	87.25
393.882	90.25
394.107	87.25
394.331	88.25
394.556	78.25
394.78	87.25
395.005	106.25
395.229	74.25
395.454	76.25
395.678	84.25
395.903	93.25
396.127	75.25
396.352	84.25
396.576	81.25
396.801	83.25
397.025	95.25
397.249	83.25
397.474	96.25
397.698	101.25
397.922	94.25
398.147	79.25
398.371	91.25
398.595	85.25
398.82	84.25
399.044	82.25
399.268	90.25
399.492	82.25
399.717	99.25
399.941	95.25
400.165	84.25
400.389	86.25
400.613	89.25
400.837	78.25
401.062	81.25
401.286	88.25
401.51	75.25
401.734	89.25
401.958	94.25
402.182	110.25
402.406	136.25
402.63	110.25
402.854	86.25
403.078	83.25
403.302	82.25
403.526	97.25
403.75	77.25
403.974	83.25
404.198	99.25
404.422	89.25
404.645	99.25
404.869	92.25
405.093	87.25
405.317	100.25
405.541	93.25
405.765	104.25
405.988	108.25
406.212	161.25
406.436	206.25
406.66	125.25
406.883	104.25
407.107	68.25
407.331	86.25
407.555	89.25
407.778	94.25
408.002	98.25
408.226	96.25
408.449	86.25
408.673	87.25
408.896	84.25
409.12	93.25
409.344	87.25
409.567	84.25
409.791	93.25
410.014	98.25
410.238	104.25
410.461	90.25
410.685	104.25
410.908	104.25
411.132	104.25
411.355	106.25
411.578	91.25
411.802	85.25
412.025	100.25
412.249	76.25
412.472	81.25
412.695	88.25
412.919	84.25
413.142	78.25
413.365	88.25
413.589	83.25
413.812	76.25
414.035	90.25
414.258	103.25
414.482	94.25
414.705	83.25
414.928	93.25
415.151	83.25
415.374	83.25
415.597	84.25
415.821	93.25
416.044	92.25
416.267	87.25
416.49	92.25
416.713	87.25
416.936	86.25
417.159	87.25
417.382	82.25
417.605	78.25
417.828	86.25
418.051	90.25
418.274	83.25
418.497	81.25
418.72	91.25
418.943	95.25
419.166	83.25
419.389	83.25
419.611	82.25
419.834	86.25
420.057	91.25
420.28	85.25
420.503	93.25
420.726	102.25
420.948	88.25
421.171	83.25
421.394	79.25
421.617	89.25
421.839	91.25
422.062	95.25
422.285	86.25
422.507	99.25
422.73	99.25
422.953	87.25
423.175	69.25
423.398	101.25
423.621	68.25
423.843	92.25
424.066	88.25
424.288	95.25
424.511	76.25
424.733	91.25
424.956	110.25
425.178	104.25
425.401	98.25
425.623	100.25
425.846	79.25
426.068	81.25
426.291	98.25
426.513	84.25
426.735	93.25
426.958	85.25
427.18	105.25
427.402	136.25
427.625	156.25
427.847	119.25
428.069	100.25
428.292	84.25
428.514	86.25
428.736	84.25
428.958	83.25
429.181	77.25
429.403	81.25
429.625	88.25
429.847	92.25
430.069	99.25
430.292	88.25
430.514	80.25
430.736	81.25
430.958	75.25
431.18	84.25
431.402	80.25
431.624	75.25
431.846	99.25
432.068	86.25
432.29	92.25
432.512	87.25
432.734	81.25
432.956	90.25
433.178	98.25
433.4	83.25
433.622	96.25
433.844	107.25
434.066	84.25
434.287	82.25
434.509	95.25
434.731	99.25
434.953	87.25
435.175	91.25
435.397	87.25
435.618	92.25
435.84	102.25
436.062	110.25
436.284	98.25
436.505	94.25
436.727	102.25
436.949	87.25
437.17	79.25
437.392	86.25
437.614	88.25
437.835	106.25
438.057	104.25
438.278	97.25
438.5	108.25
438.721	112.25
438.943	100.25
439.165	95.25
439.386	85.25
439.608	92.25
439.829	87.25
440.05	126.25
440.272	119.25
440.493	102.25
440.715	92.25
440.936	81.25
441.158	88.25
441.379	87.25
441.6	88.25
441.822	93.25
442.043	88.25
442.264	98.25
442.486	92.25
442.707	91.25
442.928	95.25
443.149	125.25
443.371	129.25
443.592	111.25
443.813	112.25
444.034	95.25
444.255	84.25
444.476	80.25
444.698	64.25
444.919	71.25
445.14	123.25
445.361	126.25
445.582	105.25
445.803	124.25
446.024	134.25
446.245	115.25
446.466	96.25
446.687	83.25
446.908	79.25
447.129	94.25
447.35	93.25
447.571	97.25
447.792	96.25
448.013	115.25
448.234	114.25
448.455	100.25
448.675	94.25
448.896	105.25
449.117	84.25
449.338	100.25
449.559	127.25
449.779	121.25
450	110.25
450.221	89.25
450.442	82.25
450.662	98.25
450.883	94.25
451.104	113.25
451.324	92.25
451.545	83.25
451.766	84.25
451.986	92.25
452.207	86.25
452.428	89.25
452.648	98.25
452.869	113.25
453.089	118.25
453.31	118.25
453.53	91.25
453.751	94.25
453.971	101.25
454.192	116.25
454.412	89.25
454.633	78.25
454.853	95.25
455.073	93.25
455.294	94.25
455.514	87.25
455.734	87.25
455.955	92.25
456.175	81.25
456.395	96.25
456.616	67.25
456.836	89.25
457.056	100.25
457.276	84.25
457.497	90.25
457.717	78.25
457.937	86.25
458.157	98.25
458.377	85.25
458.598	108.25
458.818	135.25
459.038	159.25
459.258	113.25
459.478	93.25
459.698	85.25
459.918	83.25
460.138	86.25
460.358	79.25
460.578	59.25
460.798	99.25
461.018	83.25
461.238	88.25
461.458	87.25
461.678	86.25
461.898	92.25
462.118	83.25
462.338	79.25
462.558	83.25
462.777	84.25
462.997	88.25
463.217	81.25
463.437	91.25
463.657	76.25
463.876	93.25
464.096	86.25
464.316	95.25
464.536	90.25
464.755	90.25
464.975	91.25
465.195	141.25
465.414	158.25
465.634	84.25
465.854	83.25
466.073	97.25
466.293	86.25
466.512	85.25
466.732	80.25
466.951	86.25
467.171	89.25
467.391	74.25
467.61	99.25
467.829	95.25
468.049	96.25
468.268	86.25
468.488	88.25
468.707	81.25
468.927	84.25
469.146	83.25
469.365	90.25
469.585	89.25
469.804	83.25
470.023	82.25
470.243	77.25
470.462	93.25
470.681	110.25
470.901	92.25
471.12	78.25
471.339	89.25
471.558	89.25
471.777	73.25
471.997	92.25
472.216	103.25
472.435	83.25
472.654	84.25
472.873	87.25
473.092	80.25
473.311	86.25
473.53	88.25
473.749	92.25
473.968	88.25
474.187	103.25
474.406	77.25
474.625	84.25
474.844	91.25
475.063	72.25
475.282	95.25
475.501	81.25
475.72	94.25
475.939	89.25
476.158	73.25
476.377	74.25
476.596	91.25
476.814	91.25
477.033	94.25
477.252	88.25
477.471	95.25
477.69	98.25
477.908	82.25
478.127	90.25
478.346	81.25
478.564	95.25
478.783	110.25
479.002	99.25
479.22	91.25
479.439	105.25
479.658	97.25
479.876	97.25
480.095	81.25
480.313	95.25
480.532	92.25
480.751	89.25
480.969	93.25
481.188	94.25
481.406	91.25
481.624	82.25
481.843	78.25
482.061	81.25
482.28	83.25
482.498	82.25
482.717	87.25
482.935	88.25
483.153	96.25
483.372	80.25
483.59	94.25
483.808	95.25
484.027	84.25
484.245	85.25
484.463	92.25
484.681	90.25
484.9	98.25
485.118	89.25
485.336	99.25
485.554	82.25
485.772	95.25
485.99	86.25
486.209	99.25
486.427	101.25
486.645	102.25
486.863	116.25
487.081	103.25
487.299	99.25
487.517	110.25
487.735	108.25
487.953	99.25
488.171	104.25
488.389	99.25
488.607	94.25
488.825	83.25
489.043	89.25
489.261	88.25
489.479	94.25
489.696	78.25
489.914	95.25
490.132	90.25
490.35	97.25
490.568	85.25
490.786	98.25
491.003	96.25
491.221	89.25
491.439	104.25
491.657	97.25
491.874	86.25
492.092	94.25
492.31	82.25
492.527	96.25
492.745	84.25
492.963	103.25
493.18	97.25
493.398	98.25
493.615	90.25
493.833	104.25
494.05	95.25
494.268	100.25
494.485	90.25
494.703	104.25
494.92	92.25
495.138	82.25
495.355	93.25
495.573	90.25
495.79	84.25
496.008	85.25
496.225	103.25
496.442	90.25
496.66	92.25
496.877	91.25
497.094	92.25
497.312	89.25
497.529	83.25
497.746	92.25
497.963	88.25
498.181	106.25
498.398	94.25
498.615	107.25
498.832	98.25
499.049	85.25
499.267	81.25
499.484	88.25
499.701	88.25
499.918	92.25
500.135	82.25
500.352	83.25
500.569	98.25
500.786	105.25
501.003	89.25
501.22	92.25
501.437	102.25
501.654	86.25
501.871	112.25
502.088	97.25
502.305	75.25
502.522	84.25
502.739	82.25
502.956	98.25
503.172	108.25
503.389	96.25
503.606	94.25
503.823	102.25
504.04	103.25
504.256	73.25
504.473	78.25
504.69	88.25
504.907	93.25
505.123	96.25
505.34	93.25
505.557	99.25
505.773	76.25
505.99	92.25
506.207	86.25
506.423	93.25
506.64	77.25
506.856	93.25
507.073	93.25
507.289	108.25
507.506	94.25
507.722	109.25
507.939	112.25
508.155	85.25
508.372	85.25
508.588	84.25
508.805	92.25
509.021	79.25
509.238	108.25
509.454	95.25
509.67	102.25
509.887	111.25
510.103	132.25
510.319	195.25
510.536	813.25
510.752	2499.25
510.968	691.25
511.184	170.25
511.401	106.25
511.617	107.25
511.833	101.25
512.049	95.25
512.265	107.25
512.481	87.25
512.698	92.25
512.914	97.25
513.13	103.25
513.346	100.25
513.562	102.25
513.778	98.25
513.994	110.25
514.21	91.25
514.426	122.25
514.642	132.25
514.858	113.25
515.074	171.25
515.29	446.25
515.506	1418.25
515.721	538.25
515.937	149.25
516.153	110.25
516.369	112.25
