Data from Uncirc_1995_H10_HRD10591_00012.txt Node
Date: Wed Jan 03 11:35:36 EST 2024
User: Yrep
Spectrometer: HR+D1059
Trigger mode: 1
Integration Time (sec): 1.000000E-1
Scans to average: 1
Electric dark correction enabled: true
Nonlinearity correction enabled: false
Boxcar width: 0
XAxis mode: Wavelengths
Number of Pixels in Spectrum: 2048
>>>>>Begin Spectral Data<<<<<
223.165	-26.19
223.4	-26.19
223.635	-26.19
223.869	-20.19
224.104	-12.19
224.338	-28.19
224.573	-24.19
224.808	-14.19
225.042	-6.19
225.277	-0.19
225.511	0.81
225.746	-1.19
225.98	10.81
226.215	13.81
226.449	13.81
226.683	35.81
226.918	23.81
227.152	33.81
227.387	33.81
227.621	38.81
227.856	48.81
228.09	44.81
228.324	44.81
228.559	61.81
228.793	47.81
229.027	66.81
229.262	64.81
229.496	68.81
229.73	72.81
229.964	75.81
230.199	62.81
230.433	57.81
230.667	97.81
230.901	82.81
231.136	72.81
231.37	82.81
231.604	80.81
231.838	82.81
232.072	87.81
232.306	81.81
232.541	68.81
232.775	67.81
233.009	85.81
233.243	94.81
233.477	85.81
233.711	81.81
233.945	73.81
234.179	77.81
234.413	88.81
234.647	75.81
234.881	90.81
235.115	82.81
235.349	82.81
235.583	81.81
235.817	66.81
236.051	69.81
236.285	69.81
236.519	72.81
236.753	96.81
236.987	83.81
237.221	81.81
237.455	74.81
237.689	57.81
237.922	79.81
238.156	89.81
238.39	78.81
238.624	76.81
238.858	73.81
239.091	76.81
239.325	74.81
239.559	65.81
239.793	76.81
240.027	81.81
240.26	66.81
240.494	69.81
240.728	78.81
240.961	88.81
241.195	88.81
241.429	85.81
241.662	79.81
241.896	88.81
242.13	79.81
242.363	84.81
242.597	89.81
242.83	84.81
243.064	74.81
243.298	79.81
243.531	71.81
243.765	74.81
243.998	83.81
244.232	64.81
244.465	81.81
244.699	83.81
244.932	89.81
245.166	83.81
245.399	80.81
245.633	83.81
245.866	58.81
246.099	65.81
246.333	79.81
246.566	67.81
246.8	91.81
247.033	79.81
247.266	75.81
247.5	77.81
247.733	86.81
247.966	71.81
248.2	75.81
248.433	82.81
248.666	75.81
248.899	93.81
249.133	93.81
249.366	90.81
249.599	90.81
249.832	68.81
250.066	71.81
250.299	75.81
250.532	73.81
250.765	84.81
250.998	87.81
251.231	82.81
251.465	89.81
251.698	81.81
251.931	75.81
252.164	75.81
252.397	71.81
252.63	65.81
252.863	83.81
253.096	71.81
253.329	74.81
253.562	80.81
253.795	88.81
254.028	75.81
254.261	76.81
254.494	84.81
254.727	97.81
254.96	96.81
255.193	83.81
255.426	79.81
255.659	84.81
255.892	85.81
256.124	78.81
256.357	79.81
256.59	81.81
256.823	69.81
257.056	76.81
257.289	92.81
257.521	88.81
257.754	88.81
257.987	88.81
258.22	86.81
258.452	91.81
258.685	83.81
258.918	72.81
259.151	98.81
259.383	84.81
259.616	89.81
259.849	81.81
260.081	92.81
260.314	90.81
260.547	81.81
260.779	66.81
261.012	75.81
261.244	65.81
261.477	83.81
261.71	91.81
261.942	108.81
262.175	103.81
262.407	85.81
262.64	82.81
262.872	91.81
263.105	94.81
263.337	83.81
263.57	77.81
263.802	74.81
264.035	85.81
264.267	76.81
264.499	72.81
264.732	89.81
264.964	91.81
265.197	84.81
265.429	75.81
265.661	88.81
265.894	93.81
266.126	79.81
266.358	82.81
266.591	92.81
266.823	83.81
267.055	84.81
267.287	87.81
267.52	72.81
267.752	85.81
267.984	73.81
268.216	70.81
268.448	78.81
268.681	82.81
268.913	87.81
269.145	77.81
269.377	84.81
269.609	68.81
269.841	84.81
270.073	89.81
270.306	95.81
270.538	91.81
270.77	92.81
271.002	92.81
271.234	92.81
271.466	83.81
271.698	75.81
271.93	84.81
272.162	75.81
272.394	82.81
272.626	80.81
272.858	85.81
273.09	79.81
273.322	89.81
273.553	93.81
273.785	100.81
274.017	80.81
274.249	88.81
274.481	87.81
274.713	84.81
274.945	93.81
275.176	81.81
275.408	89.81
275.64	88.81
275.872	99.81
276.104	78.81
276.335	90.81
276.567	103.81
276.799	86.81
277.031	84.81
277.262	89.81
277.494	73.81
277.726	89.81
277.957	72.81
278.189	79.81
278.421	75.81
278.652	95.81
278.884	74.81
279.115	93.81
279.347	88.81
279.579	82.81
279.81	83.81
280.042	96.81
280.273	78.81
280.505	89.81
280.736	93.81
280.968	68.81
281.199	92.81
281.431	84.81
281.662	87.81
281.894	82.81
282.125	90.81
282.356	103.81
282.588	105.81
282.819	107.81
283.051	91.81
283.282	82.81
283.513	95.81
283.745	74.81
283.976	77.81
284.207	90.81
284.439	74.81
284.67	74.81
284.901	68.81
285.132	79.81
285.364	95.81
285.595	96.81
285.826	91.81
286.057	91.81
286.288	85.81
286.52	89.81
286.751	96.81
286.982	87.81
287.213	74.81
287.444	74.81
287.675	92.81
287.906	90.81
288.138	89.81
288.369	84.81
288.6	99.81
288.831	75.81
289.062	101.81
289.293	89.81
289.524	89.81
289.755	85.81
289.986	88.81
290.217	90.81
290.448	82.81
290.679	89.81
290.91	84.81
291.141	93.81
291.371	79.81
291.602	83.81
291.833	89.81
292.064	95.81
292.295	85.81
292.526	88.81
292.757	84.81
292.987	87.81
293.218	97.81
293.449	72.81
293.68	98.81
293.91	83.81
294.141	81.81
294.372	81.81
294.603	81.81
294.833	91.81
295.064	79.81
295.295	88.81
295.525	94.81
295.756	99.81
295.987	116.81
296.217	124.81
296.448	117.81
296.679	96.81
296.909	87.81
297.14	77.81
297.37	89.81
297.601	91.81
297.831	83.81
298.062	86.81
298.292	78.81
298.523	89.81
298.753	83.81
298.984	82.81
299.214	85.81
299.445	95.81
299.675	87.81
299.905	97.81
300.136	100.81
300.366	82.81
300.597	87.81
300.827	87.81
301.057	93.81
301.288	107.81
301.518	95.81
301.748	83.81
301.979	105.81
302.209	92.81
302.439	91.81
302.669	79.81
302.9	82.81
303.13	75.81
303.36	104.81
303.59	91.81
303.82	105.81
304.051	88.81
304.281	100.81
304.511	98.81
304.741	78.81
304.971	86.81
305.201	82.81
305.431	92.81
305.661	83.81
305.891	97.81
306.121	97.81
306.352	97.81
306.582	101.81
306.812	92.81
307.042	78.81
307.272	98.81
307.502	82.81
307.731	85.81
307.961	96.81
308.191	82.81
308.421	80.81
308.651	101.81
308.881	91.81
309.111	88.81
309.341	92.81
309.571	101.81
309.8	89.81
310.03	91.81
310.26	96.81
310.49	95.81
310.72	100.81
310.949	103.81
311.179	93.81
311.409	89.81
311.639	107.81
311.868	87.81
312.098	93.81
312.328	84.81
312.557	95.81
312.787	96.81
313.017	98.81
313.246	94.81
313.476	100.81
313.706	98.81
313.935	86.81
314.165	90.81
314.394	90.81
314.624	89.81
314.853	90.81
315.083	86.81
315.312	81.81
315.542	80.81
315.771	89.81
316.001	91.81
316.23	80.81
316.46	79.81
316.689	83.81
316.919	93.81
317.148	91.81
317.377	76.81
317.607	91.81
317.836	81.81
318.065	89.81
318.295	80.81
318.524	74.81
318.753	89.81
318.983	90.81
319.212	97.81
319.441	99.81
319.67	92.81
319.9	89.81
320.129	97.81
320.358	97.81
320.587	97.81
320.816	108.81
321.046	102.81
321.275	96.81
321.504	82.81
321.733	102.81
321.962	95.81
322.191	109.81
322.42	105.81
322.649	104.81
322.878	91.81
323.108	95.81
323.337	115.81
323.566	126.81
323.795	146.81
324.024	187.81
324.253	339.81
324.482	709.81
324.71	1465.81
324.939	1920.81
325.168	706.81
325.397	230.81
325.626	135.81
325.855	111.81
326.084	118.81
326.313	136.81
326.542	145.81
326.77	195.81
326.999	411.81
327.228	813.81
327.457	1488.81
327.686	1167.81
327.914	327.81
328.143	180.81
328.372	128.81
328.6	109.81
328.829	113.81
329.058	121.81
329.287	116.81
329.515	95.81
329.744	105.81
329.972	92.81
330.201	101.81
330.43	88.81
330.658	111.81
330.887	116.81
331.115	116.81
331.344	113.81
331.572	102.81
331.801	94.81
332.03	94.81
332.258	94.81
332.486	99.81
332.715	80.81
332.943	92.81
333.172	100.81
333.4	105.81
333.629	123.81
333.857	107.81
334.085	92.81
334.314	103.81
334.542	101.81
334.771	91.81
334.999	92.81
335.227	92.81
335.455	104.81
335.684	73.81
335.912	103.81
336.14	104.81
336.369	100.81
336.597	101.81
336.825	101.81
337.053	86.81
337.281	91.81
337.51	108.81
337.738	117.81
337.966	109.81
338.194	99.81
338.422	101.81
338.65	93.81
338.878	92.81
339.106	97.81
339.334	90.81
339.562	96.81
339.79	92.81
340.018	94.81
340.246	98.81
340.474	104.81
340.702	86.81
340.93	79.81
341.158	100.81
341.386	94.81
341.614	93.81
341.842	80.81
342.07	92.81
342.298	95.81
342.526	88.81
342.754	101.81
342.981	86.81
343.209	98.81
343.437	98.81
343.665	99.81
343.893	90.81
344.12	89.81
344.348	87.81
344.576	71.81
344.804	81.81
345.031	87.81
345.259	101.81
345.487	94.81
345.714	86.81
345.942	97.81
346.17	82.81
346.397	93.81
346.625	85.81
346.853	98.81
347.08	97.81
347.308	96.81
347.535	88.81
347.763	91.81
347.99	99.81
348.218	109.81
348.445	115.81
348.673	101.81
348.9	82.81
349.128	93.81
349.355	107.81
349.583	83.81
349.81	104.81
350.037	99.81
350.265	92.81
350.492	101.81
350.72	97.81
350.947	104.81
351.174	104.81
351.402	108.81
351.629	102.81
351.856	101.81
352.083	93.81
352.311	102.81
352.538	91.81
352.765	91.81
352.992	109.81
353.22	114.81
353.447	105.81
353.674	99.81
353.901	97.81
354.128	100.81
354.355	99.81
354.583	101.81
354.81	110.81
355.037	105.81
355.264	107.81
355.491	106.81
355.718	91.81
355.945	93.81
356.172	92.81
356.399	100.81
356.626	99.81
356.853	99.81
357.08	99.81
357.307	97.81
357.534	91.81
357.761	95.81
357.988	104.81
358.215	98.81
358.441	99.81
358.668	89.81
358.895	96.81
359.122	97.81
359.349	91.81
359.576	103.81
359.802	88.81
360.029	108.81
360.256	102.81
360.483	91.81
360.709	83.81
360.936	92.81
361.163	92.81
361.39	94.81
361.616	107.81
361.843	83.81
362.07	95.81
362.296	95.81
362.523	111.81
362.749	90.81
362.976	98.81
363.203	105.81
363.429	84.81
363.656	101.81
363.882	88.81
364.109	84.81
364.335	90.81
364.562	91.81
364.788	91.81
365.015	102.81
365.241	101.81
365.468	110.81
365.694	107.81
365.92	96.81
366.147	87.81
366.373	76.81
366.599	70.81
366.826	89.81
367.052	95.81
367.278	71.81
367.505	77.81
367.731	81.81
367.957	87.81
368.184	96.81
368.41	90.81
368.636	97.81
368.862	111.81
369.089	98.81
369.315	105.81
369.541	80.81
369.767	87.81
369.993	96.81
370.219	79.81
370.445	95.81
370.672	86.81
370.898	95.81
371.124	95.81
371.35	87.81
371.576	96.81
371.802	80.81
372.028	82.81
372.254	86.81
372.48	96.81
372.706	93.81
372.932	95.81
373.158	91.81
373.384	89.81
373.61	102.81
373.835	109.81
374.061	84.81
374.287	104.81
374.513	101.81
374.739	90.81
374.965	84.81
375.191	87.81
375.416	105.81
375.642	82.81
375.868	85.81
376.094	96.81
376.319	89.81
376.545	105.81
376.771	91.81
376.997	90.81
377.222	95.81
377.448	88.81
377.674	87.81
377.899	100.81
378.125	89.81
378.35	93.81
378.576	92.81
378.802	75.81
379.027	90.81
379.253	96.81
379.478	97.81
379.704	89.81
379.929	103.81
380.155	99.81
380.38	99.81
380.606	103.81
380.831	97.81
381.057	104.81
381.282	98.81
381.507	94.81
381.733	104.81
381.958	106.81
382.184	100.81
382.409	96.81
382.634	115.81
382.86	100.81
383.085	112.81
383.31	110.81
383.535	105.81
383.761	94.81
383.986	101.81
384.211	95.81
384.436	100.81
384.662	112.81
384.887	113.81
385.112	96.81
385.337	113.81
385.562	116.81
385.787	120.81
386.013	97.81
386.238	114.81
386.463	101.81
386.688	115.81
386.913	112.81
387.138	114.81
387.363	106.81
387.588	103.81
387.813	96.81
388.038	101.81
388.263	110.81
388.488	116.81
388.713	107.81
388.938	105.81
389.163	100.81
389.387	105.81
389.612	105.81
389.837	87.81
390.062	89.81
390.287	93.81
390.512	98.81
390.736	102.81
390.961	94.81
391.186	106.81
391.411	92.81
391.636	92.81
391.86	96.81
392.085	73.81
392.31	82.81
392.534	88.81
392.759	96.81
392.984	95.81
393.208	101.81
393.433	96.81
393.658	88.81
393.882	83.81
394.107	85.81
394.331	104.81
394.556	89.81
394.78	95.81
395.005	96.81
395.229	76.81
395.454	96.81
395.678	95.81
395.903	104.81
396.127	92.81
396.352	84.81
396.576	88.81
396.801	95.81
397.025	91.81
397.249	90.81
397.474	87.81
397.698	82.81
397.922	89.81
398.147	96.81
398.371	88.81
398.595	87.81
398.82	85.81
399.044	80.81
399.268	95.81
399.492	83.81
399.717	86.81
399.941	77.81
400.165	93.81
400.389	103.81
400.613	82.81
400.837	69.81
401.062	93.81
401.286	83.81
401.51	87.81
401.734	80.81
401.958	88.81
402.182	110.81
402.406	142.81
402.63	108.81
402.854	94.81
403.078	87.81
403.302	89.81
403.526	82.81
403.75	91.81
403.974	77.81
404.198	85.81
404.422	93.81
404.645	100.81
404.869	101.81
405.093	85.81
405.317	106.81
405.541	99.81
405.765	93.81
405.988	103.81
406.212	138.81
406.436	196.81
406.66	122.81
406.883	97.81
407.107	89.81
407.331	92.81
407.555	77.81
407.778	93.81
408.002	86.81
408.226	80.81
408.449	84.81
408.673	86.81
408.896	83.81
409.12	100.81
409.344	94.81
409.567	80.81
409.791	84.81
410.014	88.81
410.238	86.81
410.461	84.81
410.685	96.81
410.908	105.81
411.132	111.81
411.355	95.81
411.578	93.81
411.802	107.81
412.025	91.81
412.249	97.81
412.472	90.81
412.695	96.81
412.919	89.81
413.142	98.81
413.365	92.81
413.589	89.81
413.812	85.81
414.035	120.81
414.258	92.81
414.482	99.81
414.705	95.81
414.928	101.81
415.151	97.81
415.374	107.81
415.597	88.81
415.821	91.81
416.044	81.81
416.267	106.81
416.49	84.81
416.713	93.81
416.936	93.81
417.159	96.81
417.382	87.81
417.605	81.81
417.828	85.81
418.051	90.81
418.274	86.81
418.497	95.81
418.72	92.81
418.943	85.81
419.166	87.81
419.389	83.81
419.611	88.81
419.834	91.81
420.057	94.81
420.28	87.81
420.503	103.81
420.726	101.81
420.948	96.81
421.171	78.81
421.394	93.81
421.617	88.81
421.839	91.81
422.062	92.81
422.285	97.81
422.507	97.81
422.73	109.81
422.953	96.81
423.175	91.81
423.398	84.81
423.621	93.81
423.843	91.81
424.066	77.81
424.288	88.81
424.511	91.81
424.733	77.81
424.956	113.81
425.178	96.81
425.401	97.81
425.623	98.81
425.846	84.81
426.068	89.81
426.291	74.81
426.513	94.81
426.735	99.81
426.958	85.81
427.18	111.81
427.402	124.81
427.625	132.81
427.847	125.81
428.069	83.81
428.292	92.81
428.514	88.81
428.736	85.81
428.958	97.81
429.181	93.81
429.403	80.81
429.625	82.81
429.847	92.81
430.069	97.81
430.292	83.81
430.514	97.81
430.736	73.81
430.958	92.81
431.18	78.81
431.402	87.81
431.624	94.81
431.846	95.81
432.068	84.81
432.29	86.81
432.512	83.81
432.734	103.81
432.956	91.81
433.178	107.81
433.4	91.81
433.622	93.81
433.844	94.81
434.066	84.81
434.287	97.81
434.509	89.81
434.731	89.81
434.953	85.81
435.175	100.81
435.397	96.81
435.618	90.81
435.84	108.81
436.062	108.81
436.284	115.81
436.505	92.81
436.727	95.81
436.949	93.81
437.17	83.81
437.392	77.81
437.614	84.81
437.835	100.81
438.057	105.81
438.278	98.81
438.5	85.81
438.721	110.81
438.943	102.81
439.165	83.81
439.386	92.81
439.608	95.81
439.829	87.81
440.05	112.81
440.272	126.81
440.493	109.81
440.715	94.81
440.936	85.81
441.158	80.81
441.379	100.81
441.6	94.81
441.822	100.81
442.043	105.81
442.264	104.81
442.486	81.81
442.707	100.81
442.928	88.81
443.149	104.81
443.371	110.81
443.592	100.81
443.813	118.81
444.034	89.81
444.255	100.81
444.476	83.81
444.698	92.81
444.919	84.81
445.14	143.81
445.361	129.81
445.582	111.81
445.803	118.81
446.024	127.81
446.245	119.81
446.466	106.81
446.687	75.81
446.908	88.81
447.129	89.81
447.35	97.81
447.571	98.81
447.792	92.81
448.013	98.81
448.234	97.81
448.455	95.81
448.675	93.81
448.896	107.81
449.117	88.81
449.338	106.81
449.559	109.81
449.779	115.81
450	95.81
450.221	95.81
450.442	81.81
450.662	101.81
450.883	97.81
451.104	106.81
451.324	93.81
451.545	88.81
451.766	91.81
451.986	85.81
452.207	96.81
452.428	84.81
452.648	94.81
452.869	120.81
453.089	105.81
453.31	94.81
453.53	89.81
453.751	94.81
453.971	99.81
454.192	108.81
454.412	65.81
454.633	94.81
454.853	95.81
455.073	107.81
455.294	99.81
455.514	95.81
455.734	93.81
455.955	68.81
456.175	79.81
456.395	76.81
456.616	90.81
456.836	80.81
457.056	83.81
457.276	80.81
457.497	84.81
457.717	99.81
457.937	84.81
458.157	100.81
458.377	94.81
458.598	104.81
458.818	122.81
459.038	128.81
459.258	103.81
459.478	100.81
459.698	91.81
459.918	78.81
460.138	89.81
460.358	90.81
460.578	87.81
460.798	88.81
461.018	79.81
461.238	99.81
461.458	96.81
461.678	83.81
461.898	98.81
462.118	100.81
462.338	106.81
462.558	90.81
462.777	76.81
462.997	83.81
463.217	101.81
463.437	99.81
463.657	88.81
463.876	80.81
464.096	91.81
464.316	95.81
464.536	95.81
464.755	87.81
464.975	106.81
465.195	130.81
465.414	125.81
465.634	109.81
465.854	97.81
466.073	97.81
466.293	82.81
466.512	91.81
466.732	95.81
466.951	82.81
467.171	101.81
467.391	105.81
467.61	98.81
467.829	95.81
468.049	93.81
468.268	88.81
468.488	84.81
468.707	85.81
468.927	88.81
469.146	87.81
469.365	96.81
469.585	92.81
469.804	93.81
470.023	105.81
470.243	87.81
470.462	103.81
470.681	100.81
470.901	83.81
471.12	87.81
471.339	80.81
471.558	87.81
471.777	81.81
471.997	89.81
472.216	87.81
472.435	85.81
472.654	84.81
472.873	90.81
473.092	87.81
473.311	93.81
473.53	100.81
473.749	88.81
473.968	102.81
474.187	112.81
474.406	83.81
474.625	95.81
474.844	91.81
475.063	89.81
475.282	82.81
475.501	96.81
475.72	97.81
475.939	94.81
476.158	93.81
476.377	85.81
476.596	92.81
476.814	90.81
477.033	88.81
477.252	83.81
477.471	93.81
477.69	79.81
477.908	80.81
478.127	86.81
478.346	87.81
478.564	79.81
478.783	101.81
479.002	100.81
479.22	89.81
479.439	100.81
479.658	95.81
479.876	103.81
480.095	95.81
480.313	90.81
480.532	90.81
480.751	100.81
480.969	90.81
481.188	107.81
481.406	97.81
481.624	93.81
481.843	84.81
482.061	98.81
482.28	93.81
482.498	108.81
482.717	88.81
482.935	80.81
483.153	75.81
483.372	81.81
483.59	99.81
483.808	94.81
484.027	83.81
484.245	90.81
484.463	109.81
484.681	115.81
484.9	95.81
485.118	97.81
485.336	99.81
485.554	90.81
485.772	101.81
485.99	104.81
486.209	92.81
486.427	94.81
486.645	116.81
486.863	115.81
487.081	99.81
487.299	98.81
487.517	88.81
487.735	88.81
487.953	84.81
488.171	97.81
488.389	97.81
488.607	101.81
488.825	92.81
489.043	84.81
489.261	89.81
489.479	80.81
489.696	93.81
489.914	96.81
490.132	96.81
490.35	80.81
490.568	92.81
490.786	91.81
491.003	86.81
491.221	82.81
491.439	99.81
491.657	90.81
491.874	79.81
492.092	82.81
492.31	90.81
492.527	99.81
492.745	92.81
492.963	89.81
493.18	91.81
493.398	98.81
493.615	104.81
493.833	111.81
494.05	105.81
494.268	90.81
494.485	90.81
494.703	87.81
494.92	106.81
495.138	96.81
495.355	91.81
495.573	95.81
495.79	93.81
496.008	103.81
496.225	83.81
496.442	80.81
496.66	102.81
496.877	92.81
497.094	109.81
497.312	100.81
497.529	99.81
497.746	92.81
497.963	75.81
498.181	98.81
498.398	114.81
498.615	105.81
498.832	105.81
499.049	101.81
499.267	89.81
499.484	93.81
499.701	92.81
499.918	105.81
500.135	80.81
500.352	75.81
500.569	81.81
500.786	95.81
501.003	98.81
501.22	75.81
501.437	99.81
501.654	91.81
501.871	111.81
502.088	85.81
502.305	90.81
502.522	89.81
502.739	92.81
502.956	95.81
503.172	82.81
503.389	80.81
503.606	97.81
503.823	102.81
504.04	89.81
504.256	93.81
504.473	79.81
504.69	87.81
504.907	79.81
505.123	78.81
505.34	96.81
505.557	95.81
505.773	89.81
505.99	97.81
506.207	91.81
506.423	94.81
506.64	75.81
506.856	93.81
507.073	102.81
507.289	95.81
507.506	98.81
507.722	92.81
507.939	100.81
508.155	103.81
508.372	96.81
508.588	91.81
508.805	92.81
509.021	95.81
509.238	107.81
509.454	100.81
509.67	120.81
509.887	117.81
510.103	121.81
510.319	196.81
510.536	676.81
510.752	1947.81
510.968	549.81
511.184	129.81
511.401	106.81
511.617	80.81
511.833	92.81
512.049	90.81
512.265	78.81
512.481	87.81
512.698	97.81
512.914	84.81
513.13	85.81
513.346	95.81
513.562	93.81
513.778	106.81
513.994	99.81
514.21	101.81
514.426	108.81
514.642	112.81
514.858	101.81
515.074	162.81
515.29	356.81
515.506	1114.81
515.721	424.81
