Data from Uncirc_1995_H10_HRD10591_00008.txt Node
Date: Wed Jan 03 11:35:35 EST 2024
User: Yrep
Spectrometer: HR+D1059
Trigger mode: 1
Integration Time (sec): 1.000000E-1
Scans to average: 1
Electric dark correction enabled: true
Nonlinearity correction enabled: false
Boxcar width: 0
XAxis mode: Wavelengths
Number of Pixels in Spectrum: 2048
>>>>>Begin Spectral Data<<<<<
223.165	-23.44
223.4	-23.44
223.635	-23.44
223.869	-19.44
224.104	-26.44
224.338	-10.44
224.573	-15.44
224.808	-5.44
225.042	-12.44
225.277	-5.44
225.511	-1.44
225.746	7.56
225.98	7.56
226.215	23.56
226.449	11.56
226.683	14.56
226.918	24.56
227.152	30.56
227.387	33.56
227.621	32.56
227.856	46.56
228.09	49.56
228.324	38.56
228.559	45.56
228.793	64.56
229.027	55.56
229.262	50.56
229.496	51.56
229.73	61.56
229.964	72.56
230.199	68.56
230.433	65.56
230.667	81.56
230.901	73.56
231.136	64.56
231.37	82.56
231.604	75.56
231.838	81.56
232.072	80.56
232.306	79.56
232.541	76.56
232.775	82.56
233.009	75.56
233.243	73.56
233.477	73.56
233.711	72.56
233.945	88.56
234.179	90.56
234.413	84.56
234.647	78.56
234.881	86.56
235.115	78.56
235.349	79.56
235.583	81.56
235.817	71.56
236.051	79.56
236.285	76.56
236.519	72.56
236.753	88.56
236.987	73.56
237.221	77.56
237.455	79.56
237.689	73.56
237.922	77.56
238.156	87.56
238.39	71.56
238.624	53.56
238.858	77.56
239.091	71.56
239.325	69.56
239.559	74.56
239.793	74.56
240.027	82.56
240.26	80.56
240.494	71.56
240.728	75.56
240.961	83.56
241.195	70.56
241.429	62.56
241.662	73.56
241.896	73.56
242.13	77.56
242.363	69.56
242.597	82.56
242.83	82.56
243.064	71.56
243.298	75.56
243.531	73.56
243.765	70.56
243.998	84.56
244.232	60.56
244.465	84.56
244.699	69.56
244.932	80.56
245.166	77.56
245.399	67.56
245.633	79.56
245.866	78.56
246.099	81.56
246.333	73.56
246.566	84.56
246.8	96.56
247.033	86.56
247.266	86.56
247.5	78.56
247.733	73.56
247.966	91.56
248.2	100.56
248.433	86.56
248.666	68.56
248.899	89.56
249.133	81.56
249.366	85.56
249.599	87.56
249.832	76.56
250.066	68.56
250.299	82.56
250.532	78.56
250.765	88.56
250.998	76.56
251.231	63.56
251.465	77.56
251.698	80.56
251.931	82.56
252.164	83.56
252.397	64.56
252.63	71.56
252.863	64.56
253.096	63.56
253.329	89.56
253.562	75.56
253.795	80.56
254.028	91.56
254.261	86.56
254.494	75.56
254.727	97.56
254.96	72.56
255.193	89.56
255.426	82.56
255.659	71.56
255.892	86.56
256.124	78.56
256.357	69.56
256.59	82.56
256.823	75.56
257.056	81.56
257.289	86.56
257.521	72.56
257.754	75.56
257.987	74.56
258.22	80.56
258.452	77.56
258.685	80.56
258.918	81.56
259.151	70.56
259.383	80.56
259.616	81.56
259.849	64.56
260.081	87.56
260.314	90.56
260.547	80.56
260.779	70.56
261.012	81.56
261.244	75.56
261.477	91.56
261.71	79.56
261.942	87.56
262.175	103.56
262.407	94.56
262.64	71.56
262.872	78.56
263.105	83.56
263.337	77.56
263.57	81.56
263.802	77.56
264.035	81.56
264.267	80.56
264.499	102.56
264.732	91.56
264.964	78.56
265.197	78.56
265.429	83.56
265.661	74.56
265.894	74.56
266.126	80.56
266.358	76.56
266.591	77.56
266.823	79.56
267.055	76.56
267.287	94.56
267.52	81.56
267.752	89.56
267.984	91.56
268.216	90.56
268.448	76.56
268.681	100.56
268.913	88.56
269.145	76.56
269.377	79.56
269.609	90.56
269.841	89.56
270.073	89.56
270.306	91.56
270.538	85.56
270.77	82.56
271.002	81.56
271.234	98.56
271.466	74.56
271.698	74.56
271.93	86.56
272.162	78.56
272.394	73.56
272.626	81.56
272.858	85.56
273.09	73.56
273.322	84.56
273.553	73.56
273.785	79.56
274.017	77.56
274.249	91.56
274.481	95.56
274.713	89.56
274.945	82.56
275.176	89.56
275.408	84.56
275.64	86.56
275.872	79.56
276.104	84.56
276.335	83.56
276.567	88.56
276.799	90.56
277.031	87.56
277.262	88.56
277.494	80.56
277.726	79.56
277.957	75.56
278.189	96.56
278.421	97.56
278.652	92.56
278.884	79.56
279.115	96.56
279.347	91.56
279.579	83.56
279.81	76.56
280.042	77.56
280.273	96.56
280.505	79.56
280.736	98.56
280.968	85.56
281.199	87.56
281.431	99.56
281.662	99.56
281.894	83.56
282.125	103.56
282.356	116.56
282.588	139.56
282.819	95.56
283.051	76.56
283.282	80.56
283.513	77.56
283.745	81.56
283.976	79.56
284.207	77.56
284.439	91.56
284.67	83.56
284.901	82.56
285.132	90.56
285.364	79.56
285.595	87.56
285.826	91.56
286.057	99.56
286.288	70.56
286.52	86.56
286.751	81.56
286.982	85.56
287.213	79.56
287.444	80.56
287.675	86.56
287.906	78.56
288.138	85.56
288.369	89.56
288.6	89.56
288.831	89.56
289.062	78.56
289.293	75.56
289.524	73.56
289.755	82.56
289.986	86.56
290.217	100.56
290.448	93.56
290.679	72.56
290.91	89.56
291.141	86.56
291.371	84.56
291.602	80.56
291.833	68.56
292.064	77.56
292.295	97.56
292.526	90.56
292.757	92.56
292.987	81.56
293.218	81.56
293.449	75.56
293.68	82.56
293.91	78.56
294.141	92.56
294.372	80.56
294.603	95.56
294.833	93.56
295.064	93.56
295.295	91.56
295.525	86.56
295.756	89.56
295.987	103.56
296.217	127.56
296.448	101.56
296.679	93.56
296.909	85.56
297.14	81.56
297.37	82.56
297.601	95.56
297.831	96.56
298.062	90.56
298.292	95.56
298.523	80.56
298.753	87.56
298.984	82.56
299.214	85.56
299.445	79.56
299.675	90.56
299.905	92.56
300.136	85.56
300.366	82.56
300.597	100.56
300.827	99.56
301.057	95.56
301.288	109.56
301.518	93.56
301.748	99.56
301.979	101.56
302.209	85.56
302.439	87.56
302.669	93.56
302.9	68.56
303.13	85.56
303.36	96.56
303.59	102.56
303.82	107.56
304.051	101.56
304.281	95.56
304.511	100.56
304.741	95.56
304.971	77.56
305.201	89.56
305.431	95.56
305.661	90.56
305.891	88.56
306.121	91.56
306.352	87.56
306.582	96.56
306.812	90.56
307.042	97.56
307.272	80.56
307.502	83.56
307.731	81.56
307.961	106.56
308.191	93.56
308.421	88.56
308.651	96.56
308.881	99.56
309.111	85.56
309.341	85.56
309.571	78.56
309.8	101.56
310.03	94.56
310.26	81.56
310.49	98.56
310.72	96.56
310.949	94.56
311.179	82.56
311.409	88.56
311.639	105.56
311.868	92.56
312.098	89.56
312.328	97.56
312.557	93.56
312.787	82.56
313.017	102.56
313.246	96.56
313.476	82.56
313.706	94.56
313.935	102.56
314.165	86.56
314.394	99.56
314.624	94.56
314.853	99.56
315.083	88.56
315.312	81.56
315.542	105.56
315.771	96.56
316.001	83.56
316.23	89.56
316.46	73.56
316.689	98.56
316.919	87.56
317.148	91.56
317.377	95.56
317.607	95.56
317.836	101.56
318.065	87.56
318.295	94.56
318.524	85.56
318.753	92.56
318.983	81.56
319.212	109.56
319.441	109.56
319.67	90.56
319.9	85.56
320.129	97.56
320.358	103.56
320.587	106.56
320.816	102.56
321.046	102.56
321.275	104.56
321.504	94.56
321.733	90.56
321.962	92.56
322.191	107.56
322.42	91.56
322.649	88.56
322.878	114.56
323.108	111.56
323.337	106.56
323.566	121.56
323.795	152.56
324.024	183.56
324.253	341.56
324.482	679.56
324.71	1424.56
324.939	1821.56
325.168	675.56
325.397	219.56
325.626	143.56
325.855	111.56
326.084	120.56
326.313	117.56
326.542	139.56
326.77	186.56
326.999	396.56
327.228	807.56
327.457	1492.56
327.686	1170.56
327.914	313.56
328.143	189.56
328.372	118.56
328.6	114.56
328.829	104.56
329.058	116.56
329.287	110.56
329.515	87.56
329.744	99.56
329.972	91.56
330.201	109.56
330.43	89.56
330.658	109.56
330.887	127.56
331.115	104.56
331.344	101.56
331.572	90.56
331.801	109.56
332.03	90.56
332.258	91.56
332.486	97.56
332.715	88.56
332.943	96.56
333.172	96.56
333.4	102.56
333.629	98.56
333.857	99.56
334.085	118.56
334.314	88.56
334.542	102.56
334.771	82.56
334.999	88.56
335.227	95.56
335.455	90.56
335.684	89.56
335.912	85.56
336.14	91.56
336.369	96.56
336.597	95.56
336.825	98.56
337.053	79.56
337.281	74.56
337.51	107.56
337.738	97.56
337.966	99.56
338.194	107.56
338.422	95.56
338.65	105.56
338.878	99.56
339.106	90.56
339.334	95.56
339.562	95.56
339.79	94.56
340.018	86.56
340.246	83.56
340.474	106.56
340.702	89.56
340.93	110.56
341.158	93.56
341.386	77.56
341.614	92.56
341.842	95.56
342.07	98.56
342.298	90.56
342.526	92.56
342.754	82.56
342.981	83.56
343.209	85.56
343.437	84.56
343.665	87.56
343.893	95.56
344.12	98.56
344.348	94.56
344.576	82.56
344.804	87.56
345.031	96.56
345.259	96.56
345.487	84.56
345.714	102.56
345.942	90.56
346.17	99.56
346.397	93.56
346.625	89.56
346.853	92.56
347.08	79.56
347.308	95.56
347.535	98.56
347.763	106.56
347.99	93.56
348.218	86.56
348.445	106.56
348.673	97.56
348.9	94.56
349.128	90.56
349.355	88.56
349.583	94.56
349.81	98.56
350.037	73.56
350.265	81.56
350.492	81.56
350.72	89.56
350.947	111.56
351.174	112.56
351.402	107.56
351.629	103.56
351.856	103.56
352.083	90.56
352.311	108.56
352.538	113.56
352.765	117.56
352.992	106.56
353.22	103.56
353.447	96.56
353.674	100.56
353.901	85.56
354.128	98.56
354.355	91.56
354.583	102.56
354.81	99.56
355.037	90.56
355.264	86.56
355.491	94.56
355.718	85.56
355.945	102.56
356.172	103.56
356.399	101.56
356.626	96.56
356.853	86.56
357.08	91.56
357.307	78.56
357.534	96.56
357.761	79.56
357.988	102.56
358.215	93.56
358.441	85.56
358.668	97.56
358.895	90.56
359.122	98.56
359.349	88.56
359.576	85.56
359.802	91.56
360.029	90.56
360.256	94.56
360.483	91.56
360.709	95.56
360.936	108.56
361.163	89.56
361.39	86.56
361.616	87.56
361.843	82.56
362.07	97.56
362.296	104.56
362.523	94.56
362.749	96.56
362.976	111.56
363.203	83.56
363.429	97.56
363.656	79.56
363.882	89.56
364.109	86.56
364.335	92.56
364.562	83.56
364.788	85.56
365.015	88.56
365.241	91.56
365.468	95.56
365.694	99.56
365.92	90.56
366.147	98.56
366.373	97.56
366.599	108.56
366.826	90.56
367.052	95.56
367.278	90.56
367.505	100.56
367.731	84.56
367.957	101.56
368.184	94.56
368.41	96.56
368.636	110.56
368.862	110.56
369.089	105.56
369.315	96.56
369.541	94.56
369.767	96.56
369.993	87.56
370.219	93.56
370.445	79.56
370.672	87.56
370.898	88.56
371.124	87.56
371.35	98.56
371.576	76.56
371.802	89.56
372.028	81.56
372.254	84.56
372.48	79.56
372.706	82.56
372.932	102.56
373.158	98.56
373.384	91.56
373.61	91.56
373.835	96.56
374.061	85.56
374.287	98.56
374.513	83.56
374.739	94.56
374.965	92.56
375.191	98.56
375.416	106.56
375.642	79.56
375.868	92.56
376.094	93.56
376.319	98.56
376.545	83.56
376.771	90.56
376.997	91.56
377.222	75.56
377.448	95.56
377.674	90.56
377.899	99.56
378.125	84.56
378.35	99.56
378.576	88.56
378.802	104.56
379.027	88.56
379.253	97.56
379.478	107.56
379.704	106.56
379.929	103.56
380.155	84.56
380.38	87.56
380.606	88.56
380.831	99.56
381.057	105.56
381.282	105.56
381.507	92.56
381.733	104.56
381.958	95.56
382.184	99.56
382.409	107.56
382.634	120.56
382.86	104.56
383.085	103.56
383.31	111.56
383.535	96.56
383.761	119.56
383.986	99.56
384.211	105.56
384.436	111.56
384.662	111.56
384.887	108.56
385.112	107.56
385.337	103.56
385.562	100.56
385.787	95.56
386.013	113.56
386.238	117.56
386.463	120.56
386.688	99.56
386.913	108.56
387.138	113.56
387.363	104.56
387.588	93.56
387.813	105.56
388.038	100.56
388.263	125.56
388.488	123.56
388.713	94.56
388.938	95.56
389.163	112.56
389.387	97.56
389.612	92.56
389.837	102.56
390.062	91.56
390.287	93.56
390.512	95.56
390.736	86.56
390.961	87.56
391.186	98.56
391.411	91.56
391.636	87.56
391.86	101.56
392.085	74.56
392.31	99.56
392.534	89.56
392.759	76.56
392.984	73.56
393.208	91.56
393.433	87.56
393.658	80.56
393.882	87.56
394.107	96.56
394.331	80.56
394.556	90.56
394.78	91.56
395.005	80.56
395.229	88.56
395.454	99.56
395.678	83.56
395.903	84.56
396.127	101.56
396.352	90.56
396.576	91.56
396.801	92.56
397.025	81.56
397.249	97.56
397.474	85.56
397.698	90.56
397.922	89.56
398.147	96.56
398.371	79.56
398.595	81.56
398.82	82.56
399.044	78.56
399.268	99.56
399.492	85.56
399.717	78.56
399.941	88.56
400.165	89.56
400.389	90.56
400.613	101.56
400.837	84.56
401.062	72.56
401.286	82.56
401.51	85.56
401.734	70.56
401.958	93.56
402.182	112.56
402.406	121.56
402.63	101.56
402.854	91.56
403.078	89.56
403.302	89.56
403.526	88.56
403.75	94.56
403.974	75.56
404.198	98.56
404.422	92.56
404.645	89.56
404.869	98.56
405.093	93.56
405.317	90.56
405.541	104.56
405.765	97.56
405.988	106.56
406.212	156.56
406.436	187.56
406.66	124.56
406.883	95.56
407.107	89.56
407.331	104.56
407.555	81.56
407.778	88.56
408.002	73.56
408.226	88.56
408.449	88.56
408.673	74.56
408.896	87.56
409.12	100.56
409.344	92.56
409.567	78.56
409.791	83.56
410.014	98.56
410.238	91.56
410.461	105.56
410.685	94.56
410.908	103.56
411.132	99.56
411.355	94.56
411.578	102.56
411.802	90.56
412.025	94.56
412.249	107.56
412.472	79.56
412.695	102.56
412.919	82.56
413.142	94.56
413.365	90.56
413.589	91.56
413.812	93.56
414.035	93.56
414.258	91.56
414.482	91.56
414.705	78.56
414.928	95.56
415.151	90.56
415.374	110.56
415.597	79.56
415.821	92.56
416.044	95.56
416.267	89.56
416.49	75.56
416.713	94.56
416.936	88.56
417.159	91.56
417.382	85.56
417.605	99.56
417.828	107.56
418.051	93.56
418.274	77.56
418.497	100.56
418.72	83.56
418.943	90.56
419.166	96.56
419.389	81.56
419.611	90.56
419.834	75.56
420.057	78.56
420.28	80.56
420.503	91.56
420.726	86.56
420.948	89.56
421.171	96.56
421.394	109.56
421.617	88.56
421.839	89.56
422.062	102.56
422.285	92.56
422.507	100.56
422.73	110.56
422.953	83.56
423.175	84.56
423.398	85.56
423.621	82.56
423.843	89.56
424.066	77.56
424.288	80.56
424.511	80.56
424.733	90.56
424.956	103.56
425.178	88.56
425.401	92.56
425.623	95.56
425.846	95.56
426.068	76.56
426.291	96.56
426.513	84.56
426.735	99.56
426.958	85.56
427.18	83.56
427.402	140.56
427.625	155.56
427.847	110.56
428.069	114.56
428.292	77.56
428.514	69.56
428.736	102.56
428.958	80.56
429.181	106.56
429.403	83.56
429.625	80.56
429.847	81.56
430.069	85.56
430.292	90.56
430.514	81.56
430.736	78.56
430.958	86.56
431.18	87.56
431.402	88.56
431.624	92.56
431.846	83.56
432.068	87.56
432.29	76.56
432.512	85.56
432.734	90.56
432.956	80.56
433.178	98.56
433.4	109.56
433.622	98.56
433.844	97.56
434.066	84.56
434.287	87.56
434.509	95.56
434.731	85.56
434.953	95.56
435.175	77.56
435.397	98.56
435.618	95.56
435.84	110.56
436.062	119.56
436.284	123.56
436.505	106.56
436.727	104.56
436.949	103.56
437.17	87.56
437.392	93.56
437.614	92.56
437.835	88.56
438.057	96.56
438.278	107.56
438.5	90.56
438.721	111.56
438.943	102.56
439.165	97.56
439.386	79.56
439.608	85.56
439.829	106.56
440.05	93.56
440.272	119.56
440.493	102.56
440.715	91.56
440.936	73.56
441.158	93.56
441.379	87.56
441.6	87.56
441.822	89.56
442.043	90.56
442.264	104.56
442.486	100.56
442.707	85.56
442.928	92.56
443.149	110.56
443.371	106.56
443.592	92.56
443.813	101.56
444.034	109.56
444.255	96.56
444.476	85.56
444.698	89.56
444.919	83.56
445.14	124.56
445.361	124.56
445.582	111.56
445.803	109.56
446.024	103.56
446.245	116.56
446.466	114.56
446.687	88.56
446.908	83.56
447.129	80.56
447.35	87.56
447.571	94.56
447.792	87.56
448.013	92.56
448.234	105.56
448.455	111.56
448.675	99.56
448.896	112.56
449.117	98.56
449.338	95.56
449.559	128.56
449.779	130.56
450	82.56
450.221	88.56
450.442	95.56
450.662	92.56
450.883	103.56
451.104	103.56
451.324	86.56
451.545	73.56
451.766	96.56
451.986	101.56
452.207	92.56
452.428	89.56
452.648	105.56
452.869	99.56
453.089	118.56
453.31	104.56
453.53	81.56
453.751	74.56
453.971	91.56
454.192	85.56
454.412	82.56
454.633	84.56
454.853	79.56
455.073	88.56
455.294	92.56
455.514	90.56
455.734	79.56
455.955	81.56
456.175	87.56
456.395	78.56
456.616	73.56
456.836	88.56
457.056	89.56
457.276	87.56
457.497	95.56
457.717	91.56
457.937	89.56
458.157	90.56
458.377	95.56
458.598	111.56
458.818	120.56
459.038	127.56
459.258	97.56
459.478	88.56
459.698	79.56
459.918	89.56
460.138	80.56
460.358	96.56
460.578	86.56
460.798	102.56
461.018	88.56
461.238	66.56
461.458	89.56
461.678	88.56
461.898	77.56
462.118	95.56
462.338	88.56
462.558	89.56
462.777	80.56
462.997	79.56
463.217	95.56
463.437	88.56
463.657	101.56
463.876	89.56
464.096	89.56
464.316	91.56
464.536	84.56
464.755	87.56
464.975	99.56
465.195	125.56
465.414	135.56
465.634	86.56
465.854	87.56
466.073	90.56
466.293	102.56
466.512	99.56
466.732	82.56
466.951	83.56
467.171	90.56
467.391	97.56
467.61	84.56
467.829	90.56
468.049	88.56
468.268	87.56
468.488	82.56
468.707	67.56
468.927	79.56
469.146	85.56
469.365	77.56
469.585	82.56
469.804	89.56
470.023	90.56
470.243	96.56
470.462	94.56
470.681	98.56
470.901	88.56
471.12	80.56
471.339	70.56
471.558	84.56
471.777	73.56
471.997	79.56
472.216	82.56
472.435	99.56
472.654	90.56
472.873	103.56
473.092	75.56
473.311	81.56
473.53	86.56
473.749	105.56
473.968	89.56
474.187	89.56
474.406	95.56
474.625	85.56
474.844	87.56
475.063	82.56
475.282	78.56
475.501	86.56
475.72	95.56
475.939	87.56
476.158	89.56
476.377	92.56
476.596	83.56
476.814	83.56
477.033	95.56
477.252	91.56
477.471	85.56
477.69	83.56
477.908	88.56
478.127	87.56
478.346	78.56
478.564	84.56
478.783	93.56
479.002	109.56
479.22	91.56
479.439	93.56
479.658	93.56
479.876	97.56
480.095	96.56
480.313	84.56
480.532	77.56
480.751	74.56
480.969	86.56
481.188	94.56
481.406	106.56
481.624	89.56
481.843	87.56
482.061	71.56
482.28	88.56
482.498	80.56
482.717	92.56
482.935	89.56
483.153	85.56
483.372	73.56
483.59	79.56
483.808	87.56
484.027	91.56
484.245	92.56
484.463	99.56
484.681	97.56
484.9	87.56
485.118	93.56
485.336	102.56
485.554	115.56
485.772	113.56
485.99	104.56
486.209	97.56
486.427	112.56
486.645	103.56
486.863	108.56
487.081	105.56
487.299	92.56
487.517	83.56
487.735	89.56
487.953	81.56
488.171	95.56
488.389	98.56
488.607	98.56
488.825	86.56
489.043	99.56
489.261	90.56
489.479	85.56
489.696	93.56
489.914	91.56
490.132	91.56
490.35	83.56
490.568	91.56
490.786	86.56
491.003	90.56
491.221	93.56
491.439	77.56
491.657	95.56
491.874	81.56
492.092	90.56
492.31	74.56
492.527	91.56
492.745	97.56
492.963	88.56
493.18	89.56
493.398	108.56
493.615	96.56
493.833	83.56
494.05	92.56
494.268	109.56
494.485	93.56
494.703	86.56
494.92	95.56
495.138	71.56
495.355	93.56
495.573	93.56
495.79	93.56
496.008	103.56
496.225	105.56
496.442	91.56
496.66	90.56
496.877	106.56
497.094	83.56
497.312	72.56
497.529	91.56
497.746	89.56
497.963	89.56
498.181	88.56
498.398	78.56
498.615	109.56
498.832	95.56
499.049	85.56
499.267	76.56
499.484	86.56
499.701	87.56
499.918	97.56
500.135	79.56
500.352	94.56
500.569	76.56
500.786	90.56
501.003	89.56
501.22	97.56
501.437	83.56
501.654	84.56
501.871	89.56
502.088	80.56
502.305	99.56
502.522	90.56
502.739	89.56
502.956	83.56
503.172	93.56
503.389	109.56
503.606	102.56
503.823	100.56
504.04	101.56
504.256	98.56
504.473	86.56
504.69	85.56
504.907	99.56
505.123	85.56
505.34	108.56
505.557	89.56
505.773	84.56
505.99	93.56
506.207	98.56
506.423	81.56
506.64	87.56
506.856	80.56
507.073	95.56
507.289	85.56
507.506	96.56
507.722	117.56
507.939	105.56
508.155	87.56
508.372	88.56
508.588	85.56
508.805	98.56
509.021	85.56
509.238	93.56
509.454	95.56
509.67	91.56
509.887	87.56
510.103	125.56
510.319	181.56
510.536	625.56
510.752	1839.56
510.968	523.56
511.184	143.56
511.401	109.56
511.617	89.56
511.833	106.56
512.049	80.56
512.265	74.56
512.481	78.56
512.698	83.56
512.914	97.56
513.13	86.56
513.346	98.56
513.562	97.56
513.778	93.56
513.994	106.56
514.21	98.56
514.426	120.56
514.642	120.56
514.858	112.56
515.074	137.56
515.29	345.56
515.506	1054.56
515.721	416.56
515.937	149.56
516.153	98.56
516.369	87.56
