Data from Uncirc_1995_H10_HRD10591_00056.txt Node
Date: Wed Jan 03 11:35:45 EST 2024
User: Yrep
Spectrometer: HR+D1059
Trigger mode: 1
Integration Time (sec): 1.000000E-1
Scans to average: 1
Electric dark correction enabled: true
Nonlinearity correction enabled: false
Boxcar width: 0
XAxis mode: Wavelengths
Number of Pixels in Spectrum: 2048
>>>>>Begin Spectral Data<<<<<
223.165	-17.5
223.4	-17.5
223.635	-17.5
223.869	-25.5
224.104	-6.5
224.338	-31.5
224.573	-23.5
224.808	-7.5
225.042	-15.5
225.277	-3.5
225.511	12.5
225.746	-4.5
225.98	2.5
226.215	11.5
226.449	31.5
226.683	20.5
226.918	31.5
227.152	25.5
227.387	35.5
227.621	27.5
227.856	35.5
228.09	45.5
228.324	50.5
228.559	59.5
228.793	62.5
229.027	73.5
229.262	74.5
229.496	58.5
229.73	91.5
229.964	77.5
230.199	59.5
230.433	70.5
230.667	81.5
230.901	89.5
231.136	76.5
231.37	76.5
231.604	67.5
231.838	78.5
232.072	85.5
232.306	71.5
232.541	87.5
232.775	72.5
233.009	92.5
233.243	87.5
233.477	83.5
233.711	93.5
233.945	79.5
234.179	77.5
234.413	78.5
234.647	85.5
234.881	87.5
235.115	88.5
235.349	90.5
235.583	81.5
235.817	76.5
236.051	64.5
236.285	73.5
236.519	72.5
236.753	81.5
236.987	84.5
237.221	82.5
237.455	82.5
237.689	75.5
237.922	72.5
238.156	70.5
238.39	81.5
238.624	75.5
238.858	75.5
239.091	84.5
239.325	84.5
239.559	81.5
239.793	77.5
240.027	69.5
240.26	81.5
240.494	80.5
240.728	80.5
240.961	75.5
241.195	73.5
241.429	84.5
241.662	76.5
241.896	82.5
242.13	76.5
242.363	91.5
242.597	71.5
242.83	84.5
243.064	81.5
243.298	92.5
243.531	87.5
243.765	86.5
243.998	85.5
244.232	81.5
244.465	83.5
244.699	79.5
244.932	80.5
245.166	89.5
245.399	99.5
245.633	72.5
245.866	67.5
246.099	78.5
246.333	72.5
246.566	79.5
246.8	88.5
247.033	67.5
247.266	70.5
247.5	85.5
247.733	85.5
247.966	73.5
248.2	88.5
248.433	72.5
248.666	76.5
248.899	68.5
249.133	90.5
249.366	97.5
249.599	109.5
249.832	75.5
250.066	82.5
250.299	73.5
250.532	73.5
250.765	86.5
250.998	74.5
251.231	94.5
251.465	74.5
251.698	84.5
251.931	79.5
252.164	76.5
252.397	76.5
252.63	80.5
252.863	78.5
253.096	94.5
253.329	87.5
253.562	94.5
253.795	77.5
254.028	81.5
254.261	66.5
254.494	78.5
254.727	89.5
254.96	71.5
255.193	89.5
255.426	80.5
255.659	78.5
255.892	82.5
256.124	65.5
256.357	79.5
256.59	91.5
256.823	71.5
257.056	89.5
257.289	89.5
257.521	96.5
257.754	82.5
257.987	75.5
258.22	90.5
258.452	78.5
258.685	92.5
258.918	78.5
259.151	79.5
259.383	94.5
259.616	86.5
259.849	87.5
260.081	87.5
260.314	85.5
260.547	95.5
260.779	72.5
261.012	75.5
261.244	92.5
261.477	76.5
261.71	95.5
261.942	119.5
262.175	98.5
262.407	93.5
262.64	81.5
262.872	79.5
263.105	67.5
263.337	85.5
263.57	84.5
263.802	82.5
264.035	82.5
264.267	78.5
264.499	78.5
264.732	75.5
264.964	84.5
265.197	85.5
265.429	96.5
265.661	79.5
265.894	81.5
266.126	70.5
266.358	102.5
266.591	72.5
266.823	79.5
267.055	78.5
267.287	100.5
267.52	96.5
267.752	83.5
267.984	87.5
268.216	70.5
268.448	73.5
268.681	75.5
268.913	93.5
269.145	80.5
269.377	90.5
269.609	82.5
269.841	94.5
270.073	90.5
270.306	76.5
270.538	75.5
270.77	83.5
271.002	82.5
271.234	83.5
271.466	78.5
271.698	82.5
271.93	88.5
272.162	76.5
272.394	89.5
272.626	70.5
272.858	92.5
273.09	101.5
273.322	79.5
273.553	96.5
273.785	98.5
274.017	74.5
274.249	76.5
274.481	85.5
274.713	82.5
274.945	92.5
275.176	99.5
275.408	74.5
275.64	78.5
275.872	90.5
276.104	76.5
276.335	84.5
276.567	104.5
276.799	104.5
277.031	98.5
277.262	79.5
277.494	76.5
277.726	79.5
277.957	88.5
278.189	75.5
278.421	88.5
278.652	87.5
278.884	82.5
279.115	84.5
279.347	86.5
279.579	81.5
279.81	86.5
280.042	88.5
280.273	91.5
280.505	83.5
280.736	89.5
280.968	95.5
281.199	89.5
281.431	80.5
281.662	86.5
281.894	94.5
282.125	88.5
282.356	95.5
282.588	123.5
282.819	102.5
283.051	104.5
283.282	91.5
283.513	86.5
283.745	85.5
283.976	80.5
284.207	85.5
284.439	72.5
284.67	81.5
284.901	92.5
285.132	84.5
285.364	78.5
285.595	83.5
285.826	78.5
286.057	86.5
286.288	86.5
286.52	93.5
286.751	89.5
286.982	84.5
287.213	87.5
287.444	97.5
287.675	102.5
287.906	84.5
288.138	99.5
288.369	90.5
288.6	106.5
288.831	98.5
289.062	105.5
289.293	80.5
289.524	80.5
289.755	91.5
289.986	84.5
290.217	87.5
290.448	86.5
290.679	84.5
290.91	79.5
291.141	90.5
291.371	76.5
291.602	90.5
291.833	86.5
292.064	91.5
292.295	88.5
292.526	84.5
292.757	84.5
292.987	99.5
293.218	93.5
293.449	90.5
293.68	91.5
293.91	92.5
294.141	92.5
294.372	86.5
294.603	89.5
294.833	85.5
295.064	92.5
295.295	92.5
295.525	90.5
295.756	112.5
295.987	113.5
296.217	130.5
296.448	114.5
296.679	90.5
296.909	95.5
297.14	84.5
297.37	93.5
297.601	94.5
297.831	85.5
298.062	98.5
298.292	94.5
298.523	96.5
298.753	96.5
298.984	100.5
299.214	87.5
299.445	82.5
299.675	96.5
299.905	98.5
300.136	85.5
300.366	87.5
300.597	86.5
300.827	84.5
301.057	99.5
301.288	105.5
301.518	98.5
301.748	89.5
301.979	102.5
302.209	101.5
302.439	86.5
302.669	97.5
302.9	111.5
303.13	89.5
303.36	93.5
303.59	92.5
303.82	120.5
304.051	101.5
304.281	94.5
304.511	93.5
304.741	99.5
304.971	84.5
305.201	81.5
305.431	81.5
305.661	94.5
305.891	80.5
306.121	81.5
306.352	91.5
306.582	102.5
306.812	88.5
307.042	93.5
307.272	92.5
307.502	97.5
307.731	88.5
307.961	94.5
308.191	90.5
308.421	94.5
308.651	90.5
308.881	88.5
309.111	94.5
309.341	103.5
309.571	91.5
309.8	94.5
310.03	86.5
310.26	103.5
310.49	101.5
310.72	99.5
310.949	104.5
311.179	109.5
311.409	93.5
311.639	102.5
311.868	109.5
312.098	98.5
312.328	98.5
312.557	114.5
312.787	93.5
313.017	97.5
313.246	91.5
313.476	87.5
313.706	77.5
313.935	104.5
314.165	96.5
314.394	90.5
314.624	99.5
314.853	98.5
315.083	90.5
315.312	96.5
315.542	89.5
315.771	89.5
316.001	91.5
316.23	90.5
316.46	96.5
316.689	84.5
316.919	83.5
317.148	97.5
317.377	94.5
317.607	73.5
317.836	81.5
318.065	91.5
318.295	101.5
318.524	88.5
318.753	91.5
318.983	83.5
319.212	96.5
319.441	100.5
319.67	93.5
319.9	91.5
320.129	96.5
320.358	92.5
320.587	99.5
320.816	92.5
321.046	92.5
321.275	98.5
321.504	105.5
321.733	105.5
321.962	94.5
322.191	95.5
322.42	113.5
322.649	115.5
322.878	118.5
323.108	109.5
323.337	134.5
323.566	122.5
323.795	148.5
324.024	206.5
324.253	380.5
324.482	776.5
324.71	1622.5
324.939	2169.5
325.168	786.5
325.397	239.5
325.626	149.5
325.855	129.5
326.084	117.5
326.313	137.5
326.542	150.5
326.77	211.5
326.999	462.5
327.228	892.5
327.457	1640.5
327.686	1292.5
327.914	347.5
328.143	177.5
328.372	134.5
328.6	122.5
328.829	111.5
329.058	116.5
329.287	138.5
329.515	97.5
329.744	97.5
329.972	109.5
330.201	93.5
330.43	111.5
330.658	103.5
330.887	133.5
331.115	130.5
331.344	99.5
331.572	103.5
331.801	102.5
332.03	95.5
332.258	100.5
332.486	93.5
332.715	78.5
332.943	94.5
333.172	91.5
333.4	86.5
333.629	83.5
333.857	99.5
334.085	112.5
334.314	104.5
334.542	78.5
334.771	92.5
334.999	97.5
335.227	81.5
335.455	93.5
335.684	95.5
335.912	106.5
336.14	94.5
336.369	104.5
336.597	88.5
336.825	100.5
337.053	84.5
337.281	80.5
337.51	93.5
337.738	95.5
337.966	97.5
338.194	88.5
338.422	95.5
338.65	92.5
338.878	84.5
339.106	88.5
339.334	95.5
339.562	95.5
339.79	85.5
340.018	91.5
340.246	94.5
340.474	96.5
340.702	91.5
340.93	107.5
341.158	81.5
341.386	104.5
341.614	100.5
341.842	99.5
342.07	92.5
342.298	94.5
342.526	90.5
342.754	88.5
342.981	92.5
343.209	80.5
343.437	95.5
343.665	84.5
343.893	76.5
344.12	78.5
344.348	95.5
344.576	104.5
344.804	94.5
345.031	92.5
345.259	92.5
345.487	90.5
345.714	105.5
345.942	86.5
346.17	91.5
346.397	102.5
346.625	92.5
346.853	94.5
347.08	91.5
347.308	98.5
347.535	92.5
347.763	96.5
347.99	98.5
348.218	85.5
348.445	122.5
348.673	106.5
348.9	87.5
349.128	93.5
349.355	98.5
349.583	110.5
349.81	114.5
350.037	100.5
350.265	97.5
350.492	86.5
350.72	93.5
350.947	99.5
351.174	108.5
351.402	109.5
351.629	104.5
351.856	90.5
352.083	104.5
352.311	95.5
352.538	97.5
352.765	112.5
352.992	119.5
353.22	113.5
353.447	100.5
353.674	102.5
353.901	96.5
354.128	100.5
354.355	104.5
354.583	115.5
354.81	95.5
355.037	73.5
355.264	74.5
355.491	102.5
355.718	86.5
355.945	95.5
356.172	95.5
356.399	89.5
356.626	96.5
356.853	110.5
357.08	92.5
357.307	83.5
357.534	102.5
357.761	88.5
357.988	82.5
358.215	100.5
358.441	84.5
358.668	80.5
358.895	84.5
359.122	87.5
359.349	90.5
359.576	85.5
359.802	91.5
360.029	99.5
360.256	109.5
360.483	86.5
360.709	90.5
360.936	99.5
361.163	78.5
361.39	76.5
361.616	86.5
361.843	94.5
362.07	81.5
362.296	88.5
362.523	96.5
362.749	105.5
362.976	88.5
363.203	97.5
363.429	78.5
363.656	84.5
363.882	78.5
364.109	95.5
364.335	111.5
364.562	91.5
364.788	86.5
365.015	89.5
365.241	104.5
365.468	105.5
365.694	87.5
365.92	77.5
366.147	99.5
366.373	84.5
366.599	94.5
366.826	80.5
367.052	87.5
367.278	88.5
367.505	90.5
367.731	99.5
367.957	91.5
368.184	101.5
368.41	100.5
368.636	106.5
368.862	117.5
369.089	104.5
369.315	95.5
369.541	99.5
369.767	95.5
369.993	90.5
370.219	83.5
370.445	67.5
370.672	99.5
370.898	94.5
371.124	89.5
371.35	79.5
371.576	88.5
371.802	91.5
372.028	92.5
372.254	97.5
372.48	83.5
372.706	98.5
372.932	88.5
373.158	95.5
373.384	103.5
373.61	87.5
373.835	92.5
374.061	80.5
374.287	89.5
374.513	84.5
374.739	79.5
374.965	94.5
375.191	93.5
375.416	86.5
375.642	87.5
375.868	88.5
376.094	81.5
376.319	91.5
376.545	91.5
376.771	94.5
376.997	92.5
377.222	86.5
377.448	89.5
377.674	102.5
377.899	93.5
378.125	103.5
378.35	100.5
378.576	93.5
378.802	95.5
379.027	93.5
379.253	90.5
379.478	96.5
379.704	90.5
379.929	88.5
380.155	92.5
380.38	78.5
380.606	97.5
380.831	104.5
381.057	97.5
381.282	85.5
381.507	96.5
381.733	80.5
381.958	96.5
382.184	97.5
382.409	99.5
382.634	95.5
382.86	105.5
383.085	95.5
383.31	99.5
383.535	108.5
383.761	89.5
383.986	102.5
384.211	87.5
384.436	103.5
384.662	93.5
384.887	106.5
385.112	101.5
385.337	92.5
385.562	107.5
385.787	103.5
386.013	114.5
386.238	107.5
386.463	95.5
386.688	96.5
386.913	107.5
387.138	96.5
387.363	95.5
387.588	104.5
387.813	102.5
388.038	104.5
388.263	105.5
388.488	108.5
388.713	99.5
388.938	94.5
389.163	88.5
389.387	83.5
389.612	90.5
389.837	93.5
390.062	103.5
390.287	84.5
390.512	98.5
390.736	90.5
390.961	91.5
391.186	100.5
391.411	91.5
391.636	102.5
391.86	72.5
392.085	88.5
392.31	86.5
392.534	79.5
392.759	84.5
392.984	72.5
393.208	80.5
393.433	94.5
393.658	86.5
393.882	81.5
394.107	88.5
394.331	102.5
394.556	89.5
394.78	96.5
395.005	98.5
395.229	104.5
395.454	83.5
395.678	86.5
395.903	98.5
396.127	82.5
396.352	90.5
396.576	79.5
396.801	81.5
397.025	89.5
397.249	75.5
397.474	83.5
397.698	74.5
397.922	90.5
398.147	83.5
398.371	86.5
398.595	93.5
398.82	89.5
399.044	94.5
399.268	92.5
399.492	80.5
399.717	95.5
399.941	76.5
400.165	86.5
400.389	73.5
400.613	91.5
400.837	89.5
401.062	95.5
401.286	84.5
401.51	85.5
401.734	100.5
401.958	104.5
402.182	125.5
402.406	141.5
402.63	110.5
402.854	95.5
403.078	75.5
403.302	88.5
403.526	103.5
403.75	96.5
403.974	82.5
404.198	78.5
404.422	81.5
404.645	88.5
404.869	86.5
405.093	100.5
405.317	98.5
405.541	103.5
405.765	92.5
405.988	116.5
406.212	174.5
406.436	223.5
406.66	130.5
406.883	86.5
407.107	88.5
407.331	79.5
407.555	91.5
407.778	96.5
408.002	90.5
408.226	95.5
408.449	86.5
408.673	96.5
408.896	94.5
409.12	88.5
409.344	97.5
409.567	87.5
409.791	86.5
410.014	91.5
410.238	98.5
410.461	108.5
410.685	90.5
410.908	96.5
411.132	107.5
411.355	87.5
411.578	87.5
411.802	90.5
412.025	87.5
412.249	97.5
412.472	99.5
412.695	81.5
412.919	89.5
413.142	90.5
413.365	91.5
413.589	90.5
413.812	73.5
414.035	91.5
414.258	93.5
414.482	89.5
414.705	97.5
414.928	100.5
415.151	81.5
415.374	84.5
415.597	80.5
415.821	81.5
416.044	89.5
416.267	89.5
416.49	95.5
416.713	89.5
416.936	97.5
417.159	94.5
417.382	91.5
417.605	86.5
417.828	89.5
418.051	84.5
418.274	89.5
418.497	95.5
418.72	80.5
418.943	83.5
419.166	89.5
419.389	91.5
419.611	88.5
419.834	79.5
420.057	89.5
420.28	86.5
420.503	93.5
420.726	84.5
420.948	78.5
421.171	90.5
421.394	80.5
421.617	90.5
421.839	103.5
422.062	94.5
422.285	79.5
422.507	97.5
422.73	94.5
422.953	90.5
423.175	82.5
423.398	83.5
423.621	78.5
423.843	95.5
424.066	84.5
424.288	79.5
424.511	87.5
424.733	87.5
424.956	102.5
425.178	99.5
425.401	86.5
425.623	93.5
425.846	78.5
426.068	102.5
426.291	79.5
426.513	107.5
426.735	97.5
426.958	83.5
427.18	104.5
427.402	131.5
427.625	142.5
427.847	111.5
428.069	90.5
428.292	94.5
428.514	98.5
428.736	103.5
428.958	87.5
429.181	85.5
429.403	103.5
429.625	84.5
429.847	88.5
430.069	97.5
430.292	92.5
430.514	88.5
430.736	95.5
430.958	89.5
431.18	83.5
431.402	76.5
431.624	85.5
431.846	93.5
432.068	87.5
432.29	82.5
432.512	83.5
432.734	91.5
432.956	91.5
433.178	93.5
433.4	100.5
433.622	88.5
433.844	89.5
434.066	81.5
434.287	86.5
434.509	80.5
434.731	91.5
434.953	83.5
435.175	80.5
435.397	76.5
435.618	94.5
435.84	109.5
436.062	121.5
436.284	115.5
436.505	104.5
436.727	100.5
436.949	90.5
437.17	98.5
437.392	71.5
437.614	90.5
437.835	103.5
438.057	94.5
438.278	97.5
438.5	86.5
438.721	122.5
438.943	95.5
439.165	72.5
439.386	84.5
439.608	80.5
439.829	83.5
440.05	110.5
440.272	124.5
440.493	85.5
440.715	90.5
440.936	81.5
441.158	90.5
441.379	96.5
441.6	101.5
441.822	96.5
442.043	104.5
442.264	95.5
442.486	103.5
442.707	106.5
442.928	112.5
443.149	120.5
443.371	122.5
443.592	113.5
443.813	102.5
444.034	97.5
444.255	88.5
444.476	76.5
444.698	99.5
444.919	79.5
445.14	122.5
445.361	117.5
445.582	122.5
445.803	108.5
446.024	111.5
446.245	118.5
446.466	104.5
446.687	93.5
446.908	80.5
447.129	108.5
447.35	81.5
447.571	92.5
447.792	99.5
448.013	110.5
448.234	104.5
448.455	96.5
448.675	107.5
448.896	99.5
449.117	104.5
449.338	112.5
449.559	115.5
449.779	125.5
450	91.5
450.221	90.5
450.442	84.5
450.662	80.5
450.883	100.5
451.104	114.5
451.324	96.5
451.545	86.5
451.766	92.5
451.986	78.5
452.207	92.5
452.428	87.5
452.648	91.5
452.869	107.5
453.089	100.5
453.31	108.5
453.53	85.5
453.751	75.5
453.971	90.5
454.192	96.5
454.412	95.5
454.633	87.5
454.853	97.5
455.073	85.5
455.294	78.5
455.514	86.5
455.734	105.5
455.955	84.5
456.175	96.5
456.395	85.5
456.616	69.5
456.836	80.5
457.056	75.5
457.276	77.5
457.497	83.5
457.717	73.5
457.937	84.5
458.157	92.5
458.377	103.5
458.598	97.5
458.818	131.5
459.038	138.5
459.258	102.5
459.478	81.5
459.698	86.5
459.918	92.5
460.138	88.5
460.358	86.5
460.578	79.5
460.798	88.5
461.018	89.5
461.238	85.5
461.458	95.5
461.678	85.5
461.898	87.5
462.118	81.5
462.338	92.5
462.558	78.5
462.777	95.5
462.997	84.5
463.217	76.5
463.437	81.5
463.657	93.5
463.876	75.5
464.096	76.5
464.316	74.5
464.536	89.5
464.755	97.5
464.975	98.5
465.195	151.5
465.414	131.5
465.634	98.5
465.854	103.5
466.073	90.5
466.293	88.5
466.512	83.5
466.732	90.5
466.951	83.5
467.171	90.5
467.391	85.5
467.61	90.5
467.829	86.5
468.049	92.5
468.268	76.5
468.488	89.5
468.707	88.5
468.927	91.5
469.146	78.5
469.365	102.5
469.585	92.5
469.804	97.5
470.023	99.5
470.243	82.5
470.462	108.5
470.681	110.5
470.901	81.5
471.12	77.5
471.339	84.5
471.558	82.5
471.777	86.5
471.997	84.5
472.216	84.5
472.435	92.5
472.654	87.5
472.873	87.5
473.092	86.5
473.311	92.5
473.53	84.5
473.749	93.5
473.968	90.5
474.187	98.5
474.406	86.5
474.625	65.5
474.844	92.5
475.063	80.5
475.282	96.5
475.501	84.5
475.72	94.5
475.939	73.5
476.158	74.5
476.377	94.5
476.596	97.5
476.814	87.5
477.033	103.5
477.252	95.5
477.471	104.5
477.69	85.5
477.908	83.5
478.127	78.5
478.346	73.5
478.564	81.5
478.783	98.5
479.002	83.5
479.22	99.5
479.439	95.5
479.658	95.5
479.876	93.5
480.095	76.5
480.313	91.5
480.532	86.5
480.751	87.5
480.969	89.5
481.188	100.5
481.406	94.5
481.624	81.5
481.843	79.5
482.061	84.5
482.28	77.5
482.498	87.5
482.717	84.5
482.935	83.5
483.153	83.5
483.372	96.5
483.59	75.5
483.808	92.5
484.027	93.5
484.245	79.5
484.463	82.5
484.681	96.5
484.9	97.5
485.118	101.5
485.336	81.5
485.554	97.5
485.772	102.5
485.99	95.5
486.209	106.5
486.427	88.5
486.645	111.5
486.863	106.5
487.081	100.5
487.299	99.5
487.517	96.5
487.735	104.5
487.953	96.5
488.171	82.5
488.389	105.5
488.607	111.5
488.825	111.5
489.043	93.5
489.261	78.5
489.479	90.5
489.696	88.5
489.914	93.5
490.132	88.5
490.35	104.5
490.568	88.5
490.786	97.5
491.003	75.5
491.221	86.5
491.439	93.5
491.657	95.5
491.874	103.5
492.092	86.5
492.31	91.5
492.527	94.5
492.745	84.5
492.963	90.5
493.18	94.5
493.398	83.5
493.615	105.5
493.833	95.5
494.05	87.5
494.268	94.5
494.485	85.5
494.703	102.5
494.92	96.5
495.138	88.5
495.355	87.5
495.573	89.5
495.79	88.5
496.008	97.5
496.225	99.5
496.442	86.5
496.66	89.5
496.877	86.5
497.094	103.5
497.312	81.5
497.529	86.5
497.746	80.5
497.963	91.5
498.181	94.5
498.398	85.5
498.615	108.5
498.832	103.5
499.049	71.5
499.267	94.5
499.484	80.5
499.701	73.5
499.918	88.5
500.135	89.5
500.352	90.5
500.569	80.5
500.786	88.5
501.003	93.5
501.22	80.5
501.437	94.5
501.654	93.5
501.871	101.5
502.088	79.5
502.305	100.5
502.522	99.5
502.739	105.5
502.956	92.5
503.172	96.5
503.389	103.5
503.606	91.5
503.823	103.5
504.04	93.5
504.256	87.5
504.473	102.5
504.69	98.5
504.907	92.5
505.123	86.5
505.34	87.5
505.557	104.5
505.773	93.5
505.99	91.5
506.207	75.5
506.423	67.5
506.64	106.5
506.856	79.5
507.073	97.5
507.289	94.5
507.506	110.5
507.722	101.5
507.939	99.5
508.155	99.5
508.372	94.5
508.588	90.5
508.805	96.5
509.021	95.5
509.238	107.5
509.454	105.5
509.67	104.5
509.887	91.5
510.103	112.5
510.319	195.5
510.536	779.5
510.752	2455.5
510.968	655.5
511.184	148.5
511.401	100.5
511.617	107.5
511.833	90.5
512.049	91.5
512.265	72.5
512.481	95.5
512.698	92.5
512.914	81.5
513.13	80.5
513.346	93.5
513.562	100.5
513.778	85.5
513.994	108.5
514.21	82.5
514.426	125.5
514.642	125.5
514.858	122.5
515.074	172.5
515.29	426.5
515.506	1415.5
515.721	528.5
515.937	158.5
516.153	124.5
516.369	100.5
516.585	90.5
516.801	94.5
517.016	81.5
517.232	100.5
517.448	83.5
517.664	83.5
517.879	96.5
518.095	85.5
518.311	109.5
518.527	92.5
518.742	81.5
518.958	86.5
519.173	95.5
519.389	91.5
519.605	97.5
519.82	83.5
520.036	88.5
520.251	114.5
520.467	111.5
520.682	106.5
520.898	110.5
521.113	103.5
521.329	138.5
521.544	188.5
521.76	534.5
521.975	2328.5
522.19	1375.5
522.406	296.5
522.621	135.5
522.836	94.5
523.052	99.5
523.267	74.5
523.482	86.5
523.698	96.5
523.913	110.5
524.128	96.5
524.343	79.5
524.559	79.5
524.774	86.5
524.989	83.5
525.204	104.5
525.419	99.5
525.634	102.5
525.849	86.5
526.064	90.5
526.28	81.5
526.495	87.5
526.71	84.5
526.925	93.5
527.14	91.5
527.355	84.5
527.57	73.5
527.785	82.5
527.999	97.5
528.214	100.5
528.429	88.5
528.644	95.5
528.859	98.5
529.074	91.5
529.289	120.5
529.503	167.5
529.718	92.5
529.933	94.5
530.148	97.5
530.363	88.5
530.577	99.5
530.792	102.5
531.007	96.5
531.221	88.5
531.436	88.5
531.651	90.5
531.865	91.5
532.08	91.5
532.295	93.5
532.509	90.5
532.724	76.5
532.938	89.5
533.153	94.5
533.367	87.5
533.582	92.5
533.796	97.5
534.011	81.5
534.225	106.5
534.44	90.5
534.654	68.5
534.868	87.5
535.083	95.5
535.297	99.5
535.511	117.5
535.726	105.5
535.94	100.5
