Data from Uncirc_1995_H10_HRD10591_00034.txt Node
Date: Wed Jan 03 11:35:40 EST 2024
User: Yrep
Spectrometer: HR+D1059
Trigger mode: 1
Integration Time (sec): 1.000000E-1
Scans to average: 1
Electric dark correction enabled: true
Nonlinearity correction enabled: false
Boxcar width: 0
XAxis mode: Wavelengths
Number of Pixels in Spectrum: 2048
>>>>>Begin Spectral Data<<<<<
223.165	-10.06
223.4	-10.06
223.635	-10.06
223.869	-19.06
224.104	-27.06
224.338	-6.06
224.573	-8.06
224.808	-12.06
225.042	-8.06
225.277	-5.06
225.511	-2.06
225.746	7.94
225.98	-0.06
226.215	14.94
226.449	17.94
226.683	21.94
226.918	14.94
227.152	19.94
227.387	43.94
227.621	39.94
227.856	55.94
228.09	42.94
228.324	53.94
228.559	61.94
228.793	70.94
229.027	60.94
229.262	58.94
229.496	80.94
229.73	75.94
229.964	85.94
230.199	78.94
230.433	67.94
230.667	85.94
230.901	89.94
231.136	69.94
231.37	77.94
231.604	81.94
231.838	91.94
232.072	98.94
232.306	87.94
232.541	75.94
232.775	82.94
233.009	87.94
233.243	84.94
233.477	95.94
233.711	88.94
233.945	81.94
234.179	85.94
234.413	85.94
234.647	77.94
234.881	77.94
235.115	85.94
235.349	99.94
235.583	86.94
235.817	78.94
236.051	84.94
236.285	83.94
236.519	86.94
236.753	77.94
236.987	72.94
237.221	86.94
237.455	90.94
237.689	80.94
237.922	73.94
238.156	91.94
238.39	81.94
238.624	87.94
238.858	91.94
239.091	87.94
239.325	82.94
239.559	81.94
239.793	90.94
240.027	85.94
240.26	83.94
240.494	79.94
240.728	76.94
240.961	73.94
241.195	85.94
241.429	85.94
241.662	69.94
241.896	68.94
242.13	81.94
242.363	81.94
242.597	88.94
242.83	94.94
243.064	77.94
243.298	84.94
243.531	87.94
243.765	83.94
243.998	91.94
244.232	85.94
244.465	80.94
244.699	84.94
244.932	88.94
245.166	86.94
245.399	89.94
245.633	101.94
245.866	78.94
246.099	69.94
246.333	67.94
246.566	75.94
246.8	77.94
247.033	85.94
247.266	90.94
247.5	89.94
247.733	83.94
247.966	73.94
248.2	81.94
248.433	85.94
248.666	76.94
248.899	69.94
249.133	73.94
249.366	87.94
249.599	90.94
249.832	84.94
250.066	83.94
250.299	75.94
250.532	79.94
250.765	85.94
250.998	90.94
251.231	93.94
251.465	85.94
251.698	75.94
251.931	83.94
252.164	82.94
252.397	87.94
252.63	81.94
252.863	76.94
253.096	79.94
253.329	84.94
253.562	68.94
253.795	84.94
254.028	87.94
254.261	83.94
254.494	84.94
254.727	94.94
254.96	95.94
255.193	79.94
255.426	73.94
255.659	78.94
255.892	99.94
256.124	80.94
256.357	79.94
256.59	84.94
256.823	77.94
257.056	86.94
257.289	68.94
257.521	81.94
257.754	94.94
257.987	77.94
258.22	99.94
258.452	83.94
258.685	100.94
258.918	76.94
259.151	83.94
259.383	91.94
259.616	85.94
259.849	89.94
260.081	81.94
260.314	80.94
260.547	87.94
260.779	83.94
261.012	89.94
261.244	87.94
261.477	104.94
261.71	88.94
261.942	113.94
262.175	115.94
262.407	93.94
262.64	78.94
262.872	86.94
263.105	90.94
263.337	84.94
263.57	94.94
263.802	77.94
264.035	97.94
264.267	90.94
264.499	82.94
264.732	76.94
264.964	89.94
265.197	99.94
265.429	80.94
265.661	89.94
265.894	87.94
266.126	94.94
266.358	101.94
266.591	90.94
266.823	73.94
267.055	82.94
267.287	72.94
267.52	88.94
267.752	78.94
267.984	93.94
268.216	81.94
268.448	98.94
268.681	110.94
268.913	71.94
269.145	88.94
269.377	85.94
269.609	79.94
269.841	95.94
270.073	80.94
270.306	82.94
270.538	76.94
270.77	66.94
271.002	74.94
271.234	84.94
271.466	81.94
271.698	74.94
271.93	81.94
272.162	85.94
272.394	74.94
272.626	84.94
272.858	85.94
273.09	89.94
273.322	99.94
273.553	71.94
273.785	84.94
274.017	100.94
274.249	82.94
274.481	90.94
274.713	85.94
274.945	95.94
275.176	91.94
275.408	83.94
275.64	74.94
275.872	73.94
276.104	88.94
276.335	95.94
276.567	88.94
276.799	109.94
277.031	90.94
277.262	75.94
277.494	90.94
277.726	94.94
277.957	79.94
278.189	92.94
278.421	86.94
278.652	93.94
278.884	113.94
279.115	89.94
279.347	89.94
279.579	94.94
279.81	87.94
280.042	106.94
280.273	91.94
280.505	97.94
280.736	86.94
280.968	104.94
281.199	99.94
281.431	81.94
281.662	84.94
281.894	81.94
282.125	103.94
282.356	106.94
282.588	138.94
282.819	101.94
283.051	82.94
283.282	90.94
283.513	85.94
283.745	92.94
283.976	92.94
284.207	85.94
284.439	91.94
284.67	94.94
284.901	87.94
285.132	96.94
285.364	87.94
285.595	100.94
285.826	99.94
286.057	98.94
286.288	80.94
286.52	82.94
286.751	92.94
286.982	84.94
287.213	92.94
287.444	91.94
287.675	81.94
287.906	100.94
288.138	91.94
288.369	92.94
288.6	95.94
288.831	76.94
289.062	92.94
289.293	94.94
289.524	70.94
289.755	88.94
289.986	105.94
290.217	95.94
290.448	81.94
290.679	90.94
290.91	85.94
291.141	95.94
291.371	109.94
291.602	88.94
291.833	81.94
292.064	89.94
292.295	87.94
292.526	81.94
292.757	91.94
292.987	91.94
293.218	95.94
293.449	100.94
293.68	95.94
293.91	86.94
294.141	93.94
294.372	102.94
294.603	97.94
294.833	98.94
295.064	100.94
295.295	111.94
295.525	94.94
295.756	102.94
295.987	100.94
296.217	135.94
296.448	102.94
296.679	91.94
296.909	73.94
297.14	90.94
297.37	100.94
297.601	69.94
297.831	91.94
298.062	90.94
298.292	78.94
298.523	83.94
298.753	82.94
298.984	107.94
299.214	85.94
299.445	104.94
299.675	88.94
299.905	93.94
300.136	102.94
300.366	105.94
300.597	97.94
300.827	94.94
301.057	98.94
301.288	101.94
301.518	103.94
301.748	99.94
301.979	106.94
302.209	70.94
302.439	86.94
302.669	95.94
302.9	103.94
303.13	105.94
303.36	92.94
303.59	86.94
303.82	97.94
304.051	96.94
304.281	87.94
304.511	86.94
304.741	87.94
304.971	92.94
305.201	104.94
305.431	83.94
305.661	100.94
305.891	82.94
306.121	89.94
306.352	101.94
306.582	102.94
306.812	97.94
307.042	99.94
307.272	98.94
307.502	117.94
307.731	102.94
307.961	103.94
308.191	85.94
308.421	98.94
308.651	93.94
308.881	102.94
309.111	95.94
309.341	93.94
309.571	99.94
309.8	100.94
310.03	96.94
310.26	95.94
310.49	100.94
310.72	95.94
310.949	97.94
311.179	89.94
311.409	102.94
311.639	94.94
311.868	102.94
312.098	89.94
312.328	102.94
312.557	97.94
312.787	100.94
313.017	121.94
313.246	88.94
313.476	87.94
313.706	81.94
313.935	93.94
314.165	93.94
314.394	102.94
314.624	96.94
314.853	90.94
315.083	86.94
315.312	103.94
315.542	90.94
315.771	112.94
316.001	97.94
316.23	92.94
316.46	85.94
316.689	98.94
316.919	107.94
317.148	100.94
317.377	92.94
317.607	102.94
317.836	75.94
318.065	89.94
318.295	78.94
318.524	81.94
318.753	90.94
318.983	101.94
319.212	99.94
319.441	98.94
319.67	102.94
319.9	83.94
320.129	92.94
320.358	96.94
320.587	103.94
320.816	100.94
321.046	83.94
321.275	107.94
321.504	98.94
321.733	103.94
321.962	115.94
322.191	98.94
322.42	105.94
322.649	113.94
322.878	113.94
323.108	112.94
323.337	123.94
323.566	112.94
323.795	147.94
324.024	219.94
324.253	369.94
324.482	796.94
324.71	1567.94
324.939	2106.94
325.168	781.94
325.397	241.94
325.626	136.94
325.855	129.94
326.084	114.94
326.313	133.94
326.542	141.94
326.77	221.94
326.999	440.94
327.228	907.94
327.457	1639.94
327.686	1296.94
327.914	373.94
328.143	189.94
328.372	146.94
328.6	115.94
328.829	113.94
329.058	120.94
329.287	131.94
329.515	111.94
329.744	101.94
329.972	113.94
330.201	107.94
330.43	124.94
330.658	108.94
330.887	130.94
331.115	126.94
331.344	98.94
331.572	99.94
331.801	107.94
332.03	95.94
332.258	92.94
332.486	95.94
332.715	101.94
332.943	92.94
333.172	98.94
333.4	89.94
333.629	101.94
333.857	122.94
334.085	96.94
334.314	103.94
334.542	98.94
334.771	95.94
334.999	109.94
335.227	101.94
335.455	102.94
335.684	99.94
335.912	87.94
336.14	93.94
336.369	99.94
336.597	100.94
336.825	98.94
337.053	93.94
337.281	107.94
337.51	98.94
337.738	100.94
337.966	87.94
338.194	106.94
338.422	98.94
338.65	105.94
338.878	95.94
339.106	99.94
339.334	85.94
339.562	89.94
339.79	81.94
340.018	85.94
340.246	98.94
340.474	109.94
340.702	67.94
340.93	95.94
341.158	103.94
341.386	90.94
341.614	85.94
341.842	89.94
342.07	90.94
342.298	92.94
342.526	102.94
342.754	90.94
342.981	99.94
343.209	94.94
343.437	106.94
343.665	79.94
343.893	90.94
344.12	85.94
344.348	96.94
344.576	95.94
344.804	110.94
345.031	103.94
345.259	93.94
345.487	86.94
345.714	97.94
345.942	76.94
346.17	91.94
346.397	95.94
346.625	103.94
346.853	101.94
347.08	98.94
347.308	94.94
347.535	99.94
347.763	105.94
347.99	105.94
348.218	97.94
348.445	97.94
348.673	107.94
348.9	104.94
349.128	106.94
349.355	99.94
349.583	84.94
349.81	91.94
350.037	94.94
350.265	90.94
350.492	97.94
350.72	101.94
350.947	103.94
351.174	101.94
351.402	103.94
351.629	97.94
351.856	91.94
352.083	94.94
352.311	96.94
352.538	112.94
352.765	110.94
352.992	125.94
353.22	106.94
353.447	93.94
353.674	96.94
353.901	102.94
354.128	115.94
354.355	111.94
354.583	99.94
354.81	106.94
355.037	124.94
355.264	103.94
355.491	99.94
355.718	109.94
355.945	100.94
356.172	112.94
356.399	103.94
356.626	90.94
356.853	101.94
357.08	95.94
357.307	107.94
357.534	87.94
357.761	92.94
357.988	93.94
358.215	97.94
358.441	103.94
358.668	108.94
358.895	94.94
359.122	92.94
359.349	84.94
359.576	79.94
359.802	96.94
360.029	106.94
360.256	106.94
360.483	103.94
360.709	85.94
360.936	110.94
361.163	103.94
361.39	94.94
361.616	77.94
361.843	95.94
362.07	86.94
362.296	95.94
362.523	97.94
362.749	97.94
362.976	103.94
363.203	94.94
363.429	71.94
363.656	95.94
363.882	103.94
364.109	91.94
364.335	94.94
364.562	96.94
364.788	81.94
365.015	103.94
365.241	94.94
365.468	100.94
365.694	100.94
365.92	98.94
366.147	93.94
366.373	88.94
366.599	84.94
366.826	92.94
367.052	82.94
367.278	88.94
367.505	90.94
367.731	98.94
367.957	88.94
368.184	92.94
368.41	106.94
368.636	110.94
368.862	120.94
369.089	101.94
369.315	86.94
369.541	96.94
369.767	91.94
369.993	102.94
370.219	98.94
370.445	78.94
370.672	95.94
370.898	102.94
371.124	97.94
371.35	97.94
371.576	89.94
371.802	95.94
372.028	83.94
372.254	93.94
372.48	95.94
372.706	97.94
372.932	89.94
373.158	82.94
373.384	79.94
373.61	94.94
373.835	95.94
374.061	107.94
374.287	96.94
374.513	88.94
374.739	87.94
374.965	103.94
375.191	79.94
375.416	99.94
375.642	86.94
375.868	91.94
376.094	92.94
376.319	85.94
376.545	88.94
376.771	90.94
376.997	92.94
377.222	99.94
377.448	98.94
377.674	108.94
377.899	101.94
378.125	90.94
378.35	100.94
378.576	86.94
378.802	88.94
379.027	81.94
379.253	89.94
379.478	94.94
379.704	95.94
379.929	92.94
380.155	98.94
380.38	103.94
380.606	102.94
380.831	98.94
381.057	112.94
381.282	98.94
381.507	98.94
381.733	96.94
381.958	100.94
382.184	99.94
382.409	96.94
382.634	97.94
382.86	98.94
383.085	90.94
383.31	95.94
383.535	101.94
383.761	90.94
383.986	93.94
384.211	93.94
384.436	95.94
384.662	95.94
384.887	104.94
385.112	107.94
385.337	109.94
385.562	125.94
385.787	90.94
386.013	102.94
386.238	110.94
386.463	112.94
386.688	121.94
386.913	100.94
387.138	100.94
387.363	108.94
387.588	98.94
387.813	109.94
388.038	105.94
388.263	131.94
388.488	110.94
388.713	114.94
388.938	111.94
389.163	97.94
389.387	98.94
389.612	98.94
389.837	95.94
390.062	82.94
390.287	93.94
390.512	94.94
390.736	99.94
390.961	103.94
391.186	88.94
391.411	93.94
391.636	86.94
391.86	84.94
392.085	93.94
392.31	103.94
392.534	89.94
392.759	97.94
392.984	97.94
393.208	80.94
393.433	101.94
393.658	91.94
393.882	90.94
394.107	82.94
394.331	82.94
394.556	98.94
394.78	93.94
395.005	81.94
395.229	86.94
395.454	85.94
395.678	84.94
395.903	82.94
396.127	83.94
396.352	86.94
396.576	81.94
396.801	88.94
397.025	93.94
397.249	90.94
397.474	88.94
397.698	89.94
397.922	74.94
398.147	84.94
398.371	86.94
398.595	98.94
398.82	85.94
399.044	92.94
399.268	82.94
399.492	98.94
399.717	99.94
399.941	103.94
400.165	82.94
400.389	92.94
400.613	92.94
400.837	90.94
401.062	93.94
401.286	84.94
401.51	104.94
401.734	107.94
401.958	84.94
402.182	118.94
402.406	146.94
402.63	124.94
402.854	93.94
403.078	100.94
403.302	89.94
403.526	92.94
403.75	94.94
403.974	113.94
404.198	93.94
404.422	90.94
404.645	83.94
404.869	77.94
405.093	100.94
405.317	101.94
405.541	78.94
405.765	93.94
405.988	126.94
406.212	159.94
406.436	219.94
406.66	132.94
406.883	85.94
407.107	75.94
407.331	94.94
407.555	86.94
407.778	83.94
408.002	88.94
408.226	96.94
408.449	107.94
408.673	95.94
408.896	90.94
409.12	107.94
409.344	94.94
409.567	82.94
409.791	89.94
410.014	113.94
410.238	95.94
410.461	85.94
410.685	102.94
410.908	105.94
411.132	115.94
411.355	104.94
411.578	98.94
411.802	98.94
412.025	86.94
412.249	96.94
412.472	98.94
412.695	90.94
412.919	98.94
413.142	93.94
413.365	84.94
413.589	89.94
413.812	89.94
414.035	107.94
414.258	97.94
414.482	85.94
414.705	95.94
414.928	85.94
415.151	96.94
415.374	108.94
415.597	90.94
415.821	90.94
416.044	109.94
416.267	98.94
416.49	99.94
416.713	89.94
416.936	90.94
417.159	94.94
417.382	91.94
417.605	95.94
417.828	111.94
418.051	109.94
418.274	83.94
418.497	81.94
418.72	102.94
418.943	96.94
419.166	97.94
419.389	97.94
419.611	91.94
419.834	85.94
420.057	92.94
420.28	94.94
420.503	89.94
420.726	84.94
420.948	98.94
421.171	87.94
421.394	88.94
421.617	107.94
421.839	82.94
422.062	85.94
422.285	90.94
422.507	84.94
422.73	91.94
422.953	86.94
423.175	93.94
423.398	93.94
423.621	102.94
423.843	72.94
424.066	87.94
424.288	84.94
424.511	90.94
424.733	88.94
424.956	102.94
425.178	93.94
425.401	89.94
425.623	100.94
425.846	96.94
426.068	109.94
426.291	97.94
426.513	89.94
426.735	90.94
426.958	103.94
427.18	107.94
427.402	126.94
427.625	141.94
427.847	111.94
428.069	100.94
428.292	92.94
428.514	79.94
428.736	85.94
428.958	89.94
429.181	99.94
429.403	90.94
429.625	109.94
429.847	85.94
430.069	95.94
430.292	82.94
430.514	87.94
430.736	73.94
430.958	83.94
431.18	98.94
431.402	96.94
431.624	95.94
431.846	102.94
432.068	99.94
432.29	94.94
432.512	99.94
432.734	89.94
432.956	85.94
433.178	97.94
433.4	100.94
433.622	82.94
433.844	105.94
434.066	104.94
434.287	83.94
434.509	89.94
434.731	77.94
434.953	93.94
435.175	97.94
435.397	92.94
435.618	102.94
435.84	102.94
436.062	113.94
436.284	109.94
436.505	105.94
436.727	109.94
436.949	97.94
437.17	88.94
437.392	79.94
437.614	83.94
437.835	113.94
438.057	117.94
438.278	115.94
438.5	92.94
438.721	116.94
438.943	105.94
439.165	95.94
439.386	87.94
439.608	98.94
439.829	107.94
440.05	109.94
440.272	130.94
440.493	101.94
440.715	94.94
440.936	90.94
441.158	110.94
441.379	90.94
441.6	99.94
441.822	91.94
442.043	96.94
442.264	113.94
442.486	87.94
442.707	95.94
442.928	101.94
443.149	107.94
443.371	135.94
443.592	108.94
443.813	99.94
444.034	101.94
444.255	100.94
444.476	88.94
444.698	99.94
444.919	99.94
445.14	124.94
445.361	109.94
445.582	103.94
445.803	134.94
446.024	122.94
446.245	141.94
446.466	98.94
446.687	86.94
446.908	92.94
447.129	97.94
447.35	92.94
447.571	103.94
447.792	108.94
448.013	98.94
448.234	107.94
448.455	108.94
448.675	124.94
448.896	126.94
449.117	104.94
449.338	94.94
449.559	118.94
449.779	119.94
450	92.94
450.221	84.94
450.442	90.94
450.662	93.94
450.883	119.94
451.104	112.94
451.324	100.94
451.545	98.94
451.766	85.94
451.986	89.94
452.207	98.94
452.428	107.94
452.648	92.94
452.869	122.94
453.089	105.94
453.31	116.94
453.53	91.94
453.751	92.94
453.971	106.94
454.192	98.94
454.412	93.94
454.633	77.94
454.853	87.94
455.073	85.94
455.294	95.94
455.514	97.94
455.734	79.94
455.955	95.94
456.175	84.94
456.395	92.94
456.616	91.94
456.836	92.94
457.056	101.94
457.276	98.94
457.497	94.94
457.717	81.94
457.937	92.94
458.157	100.94
458.377	97.94
458.598	98.94
458.818	138.94
459.038	143.94
459.258	117.94
459.478	79.94
459.698	93.94
459.918	90.94
460.138	88.94
460.358	92.94
460.578	91.94
460.798	93.94
461.018	85.94
461.238	84.94
461.458	75.94
461.678	85.94
461.898	96.94
462.118	82.94
462.338	85.94
462.558	89.94
462.777	89.94
462.997	94.94
463.217	77.94
463.437	95.94
463.657	87.94
463.876	112.94
464.096	97.94
464.316	84.94
464.536	96.94
464.755	97.94
464.975	108.94
465.195	142.94
465.414	139.94
465.634	102.94
465.854	90.94
466.073	81.94
466.293	90.94
466.512	90.94
466.732	86.94
466.951	82.94
467.171	94.94
467.391	91.94
467.61	91.94
467.829	86.94
468.049	86.94
468.268	99.94
468.488	84.94
468.707	79.94
468.927	94.94
469.146	85.94
469.365	71.94
469.585	91.94
469.804	96.94
470.023	111.94
470.243	79.94
470.462	88.94
470.681	105.94
470.901	102.94
471.12	81.94
471.339	93.94
471.558	89.94
471.777	78.94
471.997	97.94
472.216	76.94
472.435	86.94
472.654	85.94
472.873	90.94
473.092	81.94
473.311	86.94
473.53	102.94
473.749	93.94
473.968	91.94
474.187	98.94
474.406	99.94
474.625	98.94
474.844	92.94
475.063	97.94
475.282	95.94
475.501	94.94
475.72	104.94
475.939	94.94
476.158	100.94
476.377	82.94
476.596	94.94
476.814	102.94
477.033	94.94
477.252	86.94
477.471	93.94
477.69	94.94
477.908	111.94
478.127	103.94
478.346	86.94
478.564	102.94
478.783	82.94
479.002	87.94
479.22	98.94
479.439	93.94
479.658	103.94
479.876	97.94
480.095	88.94
480.313	92.94
480.532	86.94
480.751	76.94
480.969	91.94
481.188	90.94
481.406	89.94
481.624	85.94
481.843	97.94
482.061	90.94
482.28	84.94
482.498	105.94
482.717	102.94
482.935	98.94
483.153	97.94
483.372	107.94
483.59	85.94
483.808	79.94
484.027	100.94
484.245	95.94
484.463	85.94
484.681	97.94
484.9	99.94
485.118	93.94
485.336	112.94
485.554	103.94
485.772	95.94
485.99	96.94
486.209	103.94
486.427	91.94
486.645	93.94
486.863	119.94
487.081	108.94
487.299	106.94
487.517	95.94
487.735	86.94
487.953	105.94
488.171	96.94
488.389	109.94
488.607	105.94
488.825	92.94
489.043	90.94
489.261	103.94
489.479	80.94
489.696	74.94
489.914	86.94
490.132	80.94
490.35	90.94
490.568	95.94
490.786	85.94
491.003	100.94
491.221	106.94
491.439	97.94
491.657	96.94
491.874	93.94
492.092	86.94
492.31	110.94
492.527	99.94
492.745	100.94
492.963	84.94
493.18	90.94
493.398	91.94
493.615	103.94
493.833	111.94
494.05	88.94
494.268	90.94
494.485	108.94
494.703	91.94
494.92	79.94
495.138	88.94
495.355	90.94
495.573	83.94
495.79	94.94
496.008	91.94
496.225	94.94
496.442	98.94
496.66	94.94
496.877	107.94
497.094	91.94
497.312	83.94
497.529	91.94
497.746	96.94
497.963	91.94
498.181	93.94
498.398	109.94
498.615	127.94
498.832	113.94
499.049	85.94
499.267	105.94
499.484	109.94
499.701	100.94
499.918	100.94
500.135	93.94
500.352	100.94
500.569	100.94
500.786	98.94
501.003	101.94
501.22	112.94
501.437	77.94
501.654	87.94
501.871	107.94
502.088	97.94
502.305	92.94
502.522	102.94
502.739	86.94
502.956	100.94
503.172	91.94
503.389	102.94
503.606	93.94
503.823	104.94
504.04	93.94
504.256	89.94
504.473	93.94
504.69	97.94
504.907	87.94
505.123	96.94
505.34	85.94
505.557	99.94
505.773	112.94
505.99	113.94
506.207	90.94
506.423	93.94
506.64	82.94
506.856	89.94
507.073	98.94
507.289	104.94
507.506	102.94
507.722	96.94
507.939	113.94
508.155	89.94
508.372	108.94
508.588	94.94
508.805	86.94
509.021	108.94
509.238	89.94
509.454	101.94
509.67	93.94
509.887	118.94
510.103	143.94
510.319	211.94
510.536	707.94
510.752	2185.94
510.968	603.94
511.184	139.94
511.401	129.94
511.617	102.94
511.833	108.94
512.049	92.94
512.265	83.94
512.481	85.94
512.698	81.94
512.914	114.94
513.13	90.94
513.346	84.94
513.562	103.94
513.778	92.94
513.994	98.94
514.21	105.94
514.426	108.94
514.642	122.94
514.858	124.94
