Data from Uncirc_1995_H10_HRD10591_00040.txt Node
Date: Wed Jan 03 11:35:41 EST 2024
User: Yrep
Spectrometer: HR+D1059
Trigger mode: 1
Integration Time (sec): 1.000000E-1
Scans to average: 1
Electric dark correction enabled: true
Nonlinearity correction enabled: false
Boxcar width: 0
XAxis mode: Wavelengths
Number of Pixels in Spectrum: 2048
>>>>>Begin Spectral Data<<<<<
223.165	-33.5
223.4	-33.5
223.635	-33.5
223.869	-12.5
224.104	-17.5
224.338	-11.5
224.573	-4.5
224.808	-5.5
225.042	-6.5
225.277	-14.5
225.511	1.5
225.746	14.5
225.98	-1.5
226.215	11.5
226.449	17.5
226.683	25.5
226.918	20.5
227.152	16.5
227.387	38.5
227.621	27.5
227.856	47.5
228.09	53.5
228.324	37.5
228.559	44.5
228.793	65.5
229.027	75.5
229.262	62.5
229.496	70.5
229.73	78.5
229.964	84.5
230.199	91.5
230.433	77.5
230.667	75.5
230.901	86.5
231.136	79.5
231.37	77.5
231.604	84.5
231.838	90.5
232.072	69.5
232.306	69.5
232.541	61.5
232.775	94.5
233.009	95.5
233.243	77.5
233.477	83.5
233.711	94.5
233.945	87.5
234.179	79.5
234.413	83.5
234.647	100.5
234.881	93.5
235.115	82.5
235.349	79.5
235.583	83.5
235.817	86.5
236.051	81.5
236.285	87.5
236.519	87.5
236.753	85.5
236.987	92.5
237.221	76.5
237.455	82.5
237.689	77.5
237.922	79.5
238.156	81.5
238.39	92.5
238.624	84.5
238.858	87.5
239.091	73.5
239.325	90.5
239.559	83.5
239.793	77.5
240.027	91.5
240.26	83.5
240.494	90.5
240.728	81.5
240.961	69.5
241.195	89.5
241.429	72.5
241.662	78.5
241.896	67.5
242.13	79.5
242.363	64.5
242.597	90.5
242.83	69.5
243.064	67.5
243.298	87.5
243.531	76.5
243.765	83.5
243.998	82.5
244.232	75.5
244.465	73.5
244.699	79.5
244.932	82.5
245.166	75.5
245.399	75.5
245.633	66.5
245.866	75.5
246.099	67.5
246.333	67.5
246.566	57.5
246.8	73.5
247.033	89.5
247.266	70.5
247.5	93.5
247.733	88.5
247.966	89.5
248.2	87.5
248.433	93.5
248.666	69.5
248.899	77.5
249.133	86.5
249.366	92.5
249.599	101.5
249.832	81.5
250.066	82.5
250.299	78.5
250.532	70.5
250.765	77.5
250.998	75.5
251.231	91.5
251.465	86.5
251.698	78.5
251.931	83.5
252.164	86.5
252.397	89.5
252.63	81.5
252.863	76.5
253.096	77.5
253.329	89.5
253.562	75.5
253.795	88.5
254.028	67.5
254.261	69.5
254.494	81.5
254.727	71.5
254.96	76.5
255.193	88.5
255.426	90.5
255.659	83.5
255.892	83.5
256.124	95.5
256.357	87.5
256.59	77.5
256.823	78.5
257.056	68.5
257.289	85.5
257.521	73.5
257.754	73.5
257.987	74.5
258.22	90.5
258.452	78.5
258.685	90.5
258.918	93.5
259.151	98.5
259.383	87.5
259.616	75.5
259.849	73.5
260.081	87.5
260.314	86.5
260.547	87.5
260.779	84.5
261.012	91.5
261.244	80.5
261.477	92.5
261.71	89.5
261.942	100.5
262.175	133.5
262.407	101.5
262.64	94.5
262.872	81.5
263.105	87.5
263.337	93.5
263.57	79.5
263.802	77.5
264.035	82.5
264.267	87.5
264.499	84.5
264.732	81.5
264.964	91.5
265.197	87.5
265.429	96.5
265.661	91.5
265.894	85.5
266.126	92.5
266.358	83.5
266.591	83.5
266.823	69.5
267.055	70.5
267.287	84.5
267.52	81.5
267.752	76.5
267.984	90.5
268.216	97.5
268.448	84.5
268.681	74.5
268.913	70.5
269.145	89.5
269.377	87.5
269.609	97.5
269.841	81.5
270.073	82.5
270.306	75.5
270.538	82.5
270.77	90.5
271.002	82.5
271.234	94.5
271.466	81.5
271.698	90.5
271.93	87.5
272.162	86.5
272.394	83.5
272.626	100.5
272.858	78.5
273.09	81.5
273.322	84.5
273.553	84.5
273.785	86.5
274.017	85.5
274.249	87.5
274.481	68.5
274.713	75.5
274.945	99.5
275.176	85.5
275.408	77.5
275.64	84.5
275.872	87.5
276.104	91.5
276.335	99.5
276.567	98.5
276.799	93.5
277.031	99.5
277.262	94.5
277.494	85.5
277.726	79.5
277.957	78.5
278.189	91.5
278.421	78.5
278.652	79.5
278.884	83.5
279.115	77.5
279.347	90.5
279.579	93.5
279.81	76.5
280.042	83.5
280.273	84.5
280.505	77.5
280.736	81.5
280.968	84.5
281.199	85.5
281.431	88.5
281.662	89.5
281.894	82.5
282.125	103.5
282.356	111.5
282.588	138.5
282.819	118.5
283.051	107.5
283.282	87.5
283.513	98.5
283.745	87.5
283.976	93.5
284.207	93.5
284.439	73.5
284.67	70.5
284.901	97.5
285.132	93.5
285.364	93.5
285.595	93.5
285.826	89.5
286.057	100.5
286.288	87.5
286.52	86.5
286.751	92.5
286.982	89.5
287.213	80.5
287.444	71.5
287.675	97.5
287.906	93.5
288.138	95.5
288.369	100.5
288.6	80.5
288.831	100.5
289.062	93.5
289.293	101.5
289.524	86.5
289.755	83.5
289.986	73.5
290.217	85.5
290.448	99.5
290.679	91.5
290.91	98.5
291.141	85.5
291.371	89.5
291.602	91.5
291.833	93.5
292.064	90.5
292.295	87.5
292.526	83.5
292.757	83.5
292.987	92.5
293.218	93.5
293.449	78.5
293.68	98.5
293.91	97.5
294.141	94.5
294.372	89.5
294.603	92.5
294.833	86.5
295.064	85.5
295.295	91.5
295.525	96.5
295.756	103.5
295.987	111.5
296.217	147.5
296.448	120.5
296.679	98.5
296.909	89.5
297.14	84.5
297.37	85.5
297.601	96.5
297.831	92.5
298.062	97.5
298.292	102.5
298.523	87.5
298.753	87.5
298.984	88.5
299.214	92.5
299.445	93.5
299.675	96.5
299.905	91.5
300.136	99.5
300.366	91.5
300.597	99.5
300.827	99.5
301.057	90.5
301.288	100.5
301.518	93.5
301.748	100.5
301.979	96.5
302.209	101.5
302.439	90.5
302.669	94.5
302.9	102.5
303.13	92.5
303.36	119.5
303.59	97.5
303.82	102.5
304.051	109.5
304.281	83.5
304.511	89.5
304.741	88.5
304.971	87.5
305.201	93.5
305.431	87.5
305.661	89.5
305.891	96.5
306.121	102.5
306.352	114.5
306.582	98.5
306.812	87.5
307.042	96.5
307.272	108.5
307.502	98.5
307.731	92.5
307.961	90.5
308.191	90.5
308.421	91.5
308.651	97.5
308.881	92.5
309.111	95.5
309.341	101.5
309.571	85.5
309.8	88.5
310.03	106.5
310.26	107.5
310.49	100.5
310.72	103.5
310.949	97.5
311.179	109.5
311.409	90.5
311.639	111.5
311.868	109.5
312.098	95.5
312.328	93.5
312.557	103.5
312.787	95.5
313.017	90.5
313.246	92.5
313.476	105.5
313.706	107.5
313.935	90.5
314.165	102.5
314.394	99.5
314.624	99.5
314.853	95.5
315.083	88.5
315.312	82.5
315.542	96.5
315.771	94.5
316.001	93.5
316.23	89.5
316.46	99.5
316.689	83.5
316.919	95.5
317.148	85.5
317.377	106.5
317.607	104.5
317.836	76.5
318.065	101.5
318.295	97.5
318.524	81.5
318.753	100.5
318.983	79.5
319.212	92.5
319.441	101.5
319.67	109.5
319.9	99.5
320.129	93.5
320.358	101.5
320.587	98.5
320.816	103.5
321.046	105.5
321.275	111.5
321.504	101.5
321.733	100.5
321.962	102.5
322.191	101.5
322.42	116.5
322.649	103.5
322.878	109.5
323.108	114.5
323.337	117.5
323.566	130.5
323.795	141.5
324.024	199.5
324.253	363.5
324.482	781.5
324.71	1598.5
324.939	2103.5
325.168	768.5
325.397	245.5
325.626	144.5
325.855	135.5
326.084	130.5
326.313	112.5
326.542	156.5
326.77	235.5
326.999	438.5
327.228	890.5
327.457	1618.5
327.686	1305.5
327.914	355.5
328.143	182.5
328.372	143.5
328.6	118.5
328.829	109.5
329.058	121.5
329.287	119.5
329.515	112.5
329.744	113.5
329.972	102.5
330.201	105.5
330.43	117.5
330.658	98.5
330.887	129.5
331.115	117.5
331.344	100.5
331.572	104.5
331.801	102.5
332.03	109.5
332.258	92.5
332.486	95.5
332.715	89.5
332.943	103.5
333.172	106.5
333.4	118.5
333.629	110.5
333.857	113.5
334.085	104.5
334.314	97.5
334.542	102.5
334.771	80.5
334.999	101.5
335.227	96.5
335.455	86.5
335.684	95.5
335.912	124.5
336.14	100.5
336.369	111.5
336.597	103.5
336.825	99.5
337.053	107.5
337.281	107.5
337.51	97.5
337.738	105.5
337.966	111.5
338.194	98.5
338.422	119.5
338.65	99.5
338.878	99.5
339.106	90.5
339.334	95.5
339.562	94.5
339.79	103.5
340.018	105.5
340.246	92.5
340.474	109.5
340.702	98.5
340.93	103.5
341.158	110.5
341.386	90.5
341.614	109.5
341.842	92.5
342.07	86.5
342.298	108.5
342.526	80.5
342.754	95.5
342.981	97.5
343.209	92.5
343.437	89.5
343.665	90.5
343.893	94.5
344.12	105.5
344.348	79.5
344.576	97.5
344.804	94.5
345.031	98.5
345.259	97.5
345.487	95.5
345.714	106.5
345.942	89.5
346.17	85.5
346.397	85.5
346.625	102.5
346.853	89.5
347.08	103.5
347.308	104.5
347.535	100.5
347.763	98.5
347.99	105.5
348.218	109.5
348.445	112.5
348.673	101.5
348.9	87.5
349.128	101.5
349.355	98.5
349.583	87.5
349.81	87.5
350.037	92.5
350.265	97.5
350.492	85.5
350.72	103.5
350.947	100.5
351.174	117.5
351.402	105.5
351.629	100.5
351.856	99.5
352.083	112.5
352.311	100.5
352.538	120.5
352.765	93.5
352.992	107.5
353.22	115.5
353.447	110.5
353.674	100.5
353.901	101.5
354.128	86.5
354.355	98.5
354.583	89.5
354.81	113.5
355.037	108.5
355.264	105.5
355.491	105.5
355.718	94.5
355.945	98.5
356.172	95.5
356.399	106.5
356.626	98.5
356.853	95.5
357.08	99.5
357.307	87.5
357.534	94.5
357.761	92.5
357.988	108.5
358.215	98.5
358.441	95.5
358.668	105.5
358.895	81.5
359.122	89.5
359.349	94.5
359.576	94.5
359.802	97.5
360.029	102.5
360.256	112.5
360.483	85.5
360.709	85.5
360.936	92.5
361.163	96.5
361.39	95.5
361.616	85.5
361.843	91.5
362.07	98.5
362.296	84.5
362.523	84.5
362.749	93.5
362.976	111.5
363.203	101.5
363.429	95.5
363.656	90.5
363.882	92.5
364.109	94.5
364.335	98.5
364.562	105.5
364.788	108.5
365.015	97.5
365.241	99.5
365.468	116.5
365.694	109.5
365.92	95.5
366.147	94.5
366.373	112.5
366.599	88.5
366.826	84.5
367.052	86.5
367.278	94.5
367.505	89.5
367.731	97.5
367.957	81.5
368.184	95.5
368.41	100.5
368.636	98.5
368.862	114.5
369.089	101.5
369.315	99.5
369.541	90.5
369.767	89.5
369.993	106.5
370.219	88.5
370.445	93.5
370.672	94.5
370.898	98.5
371.124	95.5
371.35	80.5
371.576	79.5
371.802	84.5
372.028	97.5
372.254	97.5
372.48	87.5
372.706	86.5
372.932	84.5
373.158	87.5
373.384	98.5
373.61	77.5
373.835	104.5
374.061	100.5
374.287	93.5
374.513	95.5
374.739	93.5
374.965	89.5
375.191	105.5
375.416	87.5
375.642	77.5
375.868	102.5
376.094	77.5
376.319	99.5
376.545	96.5
376.771	102.5
376.997	92.5
377.222	89.5
377.448	83.5
377.674	99.5
377.899	97.5
378.125	90.5
378.35	90.5
378.576	94.5
378.802	98.5
379.027	93.5
379.253	100.5
379.478	92.5
379.704	95.5
379.929	100.5
380.155	100.5
380.38	102.5
380.606	109.5
380.831	91.5
381.057	90.5
381.282	88.5
381.507	105.5
381.733	95.5
381.958	95.5
382.184	107.5
382.409	108.5
382.634	100.5
382.86	100.5
383.085	109.5
383.31	101.5
383.535	98.5
383.761	102.5
383.986	89.5
384.211	95.5
384.436	95.5
384.662	114.5
384.887	96.5
385.112	108.5
385.337	106.5
385.562	94.5
385.787	109.5
386.013	113.5
386.238	99.5
386.463	109.5
386.688	114.5
386.913	102.5
387.138	110.5
387.363	118.5
387.588	103.5
387.813	116.5
388.038	97.5
388.263	112.5
388.488	99.5
388.713	100.5
388.938	102.5
389.163	100.5
389.387	107.5
389.612	99.5
389.837	96.5
390.062	87.5
390.287	98.5
390.512	94.5
390.736	92.5
390.961	98.5
391.186	102.5
391.411	95.5
391.636	98.5
391.86	100.5
392.085	97.5
392.31	98.5
392.534	82.5
392.759	84.5
392.984	90.5
393.208	97.5
393.433	82.5
393.658	101.5
393.882	77.5
394.107	82.5
394.331	88.5
394.556	90.5
394.78	98.5
395.005	93.5
395.229	81.5
395.454	101.5
395.678	92.5
395.903	88.5
396.127	82.5
396.352	91.5
396.576	105.5
396.801	99.5
397.025	82.5
397.249	93.5
397.474	101.5
397.698	80.5
397.922	93.5
398.147	87.5
398.371	80.5
398.595	88.5
398.82	94.5
399.044	90.5
399.268	95.5
399.492	81.5
399.717	103.5
399.941	96.5
400.165	96.5
400.389	91.5
400.613	90.5
400.837	83.5
401.062	93.5
401.286	94.5
401.51	99.5
401.734	100.5
401.958	108.5
402.182	122.5
402.406	155.5
402.63	113.5
402.854	95.5
403.078	77.5
403.302	84.5
403.526	81.5
403.75	95.5
403.974	97.5
404.198	82.5
404.422	88.5
404.645	94.5
404.869	94.5
405.093	99.5
405.317	112.5
405.541	88.5
405.765	94.5
405.988	116.5
406.212	170.5
406.436	215.5
406.66	139.5
406.883	101.5
407.107	97.5
407.331	122.5
407.555	110.5
407.778	87.5
408.002	91.5
408.226	96.5
408.449	85.5
408.673	92.5
408.896	107.5
409.12	92.5
409.344	95.5
409.567	90.5
409.791	94.5
410.014	100.5
410.238	85.5
410.461	93.5
410.685	102.5
410.908	97.5
411.132	115.5
411.355	94.5
411.578	92.5
411.802	69.5
412.025	85.5
412.249	92.5
412.472	91.5
412.695	101.5
412.919	96.5
413.142	77.5
413.365	102.5
413.589	98.5
413.812	96.5
414.035	96.5
414.258	97.5
414.482	87.5
414.705	85.5
414.928	92.5
415.151	104.5
415.374	92.5
415.597	102.5
415.821	99.5
416.044	101.5
416.267	89.5
416.49	78.5
416.713	81.5
416.936	84.5
417.159	79.5
417.382	93.5
417.605	82.5
417.828	98.5
418.051	86.5
418.274	91.5
418.497	84.5
418.72	95.5
418.943	115.5
419.166	102.5
419.389	85.5
419.611	91.5
419.834	92.5
420.057	91.5
420.28	104.5
420.503	92.5
420.726	81.5
420.948	98.5
421.171	81.5
421.394	97.5
421.617	81.5
421.839	77.5
422.062	101.5
422.285	99.5
422.507	81.5
422.73	108.5
422.953	91.5
423.175	100.5
423.398	98.5
423.621	103.5
423.843	85.5
424.066	79.5
424.288	84.5
424.511	100.5
424.733	103.5
424.956	101.5
425.178	92.5
425.401	102.5
425.623	93.5
425.846	78.5
426.068	95.5
426.291	96.5
426.513	93.5
426.735	102.5
426.958	90.5
427.18	112.5
427.402	118.5
427.625	156.5
427.847	123.5
428.069	103.5
428.292	93.5
428.514	83.5
428.736	97.5
428.958	86.5
429.181	98.5
429.403	82.5
429.625	93.5
429.847	82.5
430.069	89.5
430.292	97.5
430.514	74.5
430.736	92.5
430.958	98.5
431.18	87.5
431.402	85.5
431.624	102.5
431.846	77.5
432.068	91.5
432.29	91.5
432.512	92.5
432.734	86.5
432.956	90.5
433.178	96.5
433.4	98.5
433.622	90.5
433.844	89.5
434.066	94.5
434.287	100.5
434.509	89.5
434.731	96.5
434.953	82.5
435.175	83.5
435.397	82.5
435.618	102.5
435.84	107.5
436.062	103.5
436.284	96.5
436.505	109.5
436.727	113.5
436.949	93.5
437.17	91.5
437.392	91.5
437.614	98.5
437.835	94.5
438.057	105.5
438.278	107.5
438.5	100.5
438.721	107.5
438.943	94.5
439.165	83.5
439.386	96.5
439.608	100.5
439.829	103.5
440.05	116.5
440.272	120.5
440.493	111.5
440.715	78.5
440.936	89.5
441.158	87.5
441.379	93.5
441.6	92.5
441.822	101.5
442.043	102.5
442.264	86.5
442.486	100.5
442.707	94.5
442.928	80.5
443.149	123.5
443.371	123.5
443.592	106.5
443.813	110.5
444.034	102.5
444.255	97.5
444.476	78.5
444.698	94.5
444.919	102.5
445.14	120.5
445.361	117.5
445.582	110.5
445.803	125.5
446.024	117.5
446.245	116.5
446.466	121.5
446.687	89.5
446.908	85.5
447.129	97.5
447.35	90.5
447.571	94.5
447.792	103.5
448.013	98.5
448.234	100.5
448.455	92.5
448.675	114.5
448.896	111.5
449.117	100.5
449.338	108.5
449.559	101.5
449.779	121.5
450	94.5
450.221	91.5
450.442	103.5
450.662	95.5
450.883	109.5
451.104	101.5
451.324	106.5
451.545	91.5
451.766	87.5
451.986	99.5
452.207	81.5
452.428	86.5
452.648	94.5
452.869	107.5
453.089	122.5
453.31	98.5
453.53	101.5
453.751	99.5
453.971	105.5
454.192	104.5
454.412	89.5
454.633	103.5
454.853	103.5
455.073	107.5
455.294	108.5
455.514	97.5
455.734	85.5
455.955	94.5
456.175	90.5
456.395	86.5
456.616	73.5
456.836	77.5
457.056	107.5
457.276	78.5
457.497	85.5
457.717	83.5
457.937	84.5
458.157	92.5
458.377	95.5
458.598	103.5
458.818	143.5
459.038	144.5
459.258	99.5
459.478	105.5
459.698	95.5
459.918	80.5
460.138	82.5
460.358	82.5
460.578	90.5
460.798	100.5
461.018	102.5
461.238	92.5
461.458	94.5
461.678	83.5
461.898	81.5
462.118	87.5
462.338	100.5
462.558	90.5
462.777	87.5
462.997	86.5
463.217	94.5
463.437	94.5
463.657	105.5
463.876	86.5
464.096	95.5
464.316	93.5
464.536	92.5
464.755	96.5
464.975	116.5
465.195	153.5
465.414	150.5
465.634	103.5
465.854	95.5
466.073	102.5
466.293	82.5
466.512	84.5
466.732	93.5
466.951	86.5
467.171	101.5
467.391	96.5
467.61	113.5
467.829	103.5
468.049	97.5
468.268	88.5
468.488	101.5
468.707	79.5
468.927	95.5
469.146	90.5
469.365	95.5
469.585	96.5
469.804	105.5
470.023	105.5
470.243	95.5
470.462	97.5
470.681	96.5
470.901	98.5
471.12	69.5
471.339	102.5
471.558	93.5
471.777	86.5
471.997	86.5
472.216	98.5
472.435	95.5
472.654	95.5
472.873	81.5
473.092	97.5
473.311	94.5
473.53	92.5
473.749	86.5
473.968	98.5
474.187	97.5
474.406	100.5
474.625	87.5
474.844	86.5
475.063	89.5
475.282	92.5
475.501	91.5
475.72	88.5
475.939	99.5
476.158	84.5
476.377	87.5
476.596	86.5
476.814	91.5
477.033	96.5
477.252	77.5
477.471	90.5
477.69	103.5
477.908	90.5
478.127	100.5
478.346	89.5
478.564	104.5
478.783	101.5
479.002	87.5
479.22	104.5
479.439	109.5
479.658	90.5
479.876	93.5
480.095	99.5
480.313	102.5
480.532	85.5
480.751	101.5
480.969	95.5
481.188	106.5
481.406	96.5
481.624	93.5
481.843	102.5
482.061	84.5
482.28	92.5
482.498	85.5
482.717	80.5
482.935	81.5
483.153	91.5
483.372	82.5
483.59	78.5
483.808	100.5
484.027	101.5
484.245	91.5
484.463	103.5
484.681	94.5
484.9	103.5
485.118	97.5
485.336	85.5
485.554	98.5
485.772	115.5
485.99	98.5
486.209	98.5
486.427	103.5
486.645	120.5
486.863	104.5
487.081	102.5
487.299	105.5
487.517	92.5
487.735	90.5
487.953	97.5
488.171	115.5
488.389	96.5
488.607	111.5
488.825	93.5
489.043	77.5
489.261	85.5
489.479	102.5
489.696	79.5
489.914	101.5
490.132	96.5
490.35	82.5
490.568	100.5
490.786	100.5
491.003	90.5
491.221	87.5
491.439	111.5
491.657	102.5
491.874	87.5
492.092	83.5
492.31	80.5
492.527	83.5
492.745	92.5
492.963	106.5
493.18	95.5
493.398	98.5
493.615	92.5
493.833	87.5
494.05	97.5
494.268	73.5
494.485	81.5
494.703	91.5
494.92	88.5
495.138	79.5
495.355	91.5
495.573	87.5
495.79	94.5
496.008	87.5
496.225	100.5
496.442	89.5
496.66	93.5
496.877	100.5
497.094	108.5
497.312	93.5
497.529	114.5
497.746	94.5
497.963	86.5
498.181	103.5
498.398	98.5
498.615	121.5
498.832	109.5
499.049	90.5
499.267	93.5
499.484	86.5
499.701	98.5
499.918	97.5
500.135	98.5
500.352	93.5
500.569	75.5
500.786	93.5
501.003	101.5
501.22	95.5
501.437	93.5
501.654	89.5
501.871	108.5
502.088	101.5
502.305	90.5
502.522	92.5
502.739	83.5
502.956	95.5
503.172	81.5
503.389	95.5
503.606	103.5
503.823	94.5
504.04	96.5
504.256	88.5
504.473	84.5
504.69	89.5
504.907	98.5
505.123	88.5
505.34	95.5
505.557	92.5
505.773	98.5
505.99	88.5
506.207	91.5
506.423	92.5
506.64	94.5
506.856	81.5
507.073	95.5
507.289	84.5
507.506	101.5
507.722	105.5
507.939	102.5
508.155	105.5
508.372	100.5
508.588	96.5
508.805	108.5
509.021	107.5
509.238	98.5
509.454	105.5
509.67	105.5
509.887	111.5
510.103	124.5
510.319	229.5
510.536	805.5
510.752	2415.5
510.968	668.5
511.184	176.5
511.401	110.5
511.617	111.5
511.833	102.5
512.049	99.5
512.265	99.5
512.481	102.5
512.698	107.5
512.914	102.5
513.13	95.5
513.346	108.5
513.562	91.5
513.778	94.5
513.994	98.5
514.21	110.5
514.426	114.5
514.642	126.5
514.858	117.5
515.074	160.5
515.29	451.5
515.506	1383.5
515.721	527.5
515.937	171.5
516.153	107.5
516.369	114.5
516.585	95.5
516.801	99.5
517.016	94.5
517.232	98.5
517.448	79.5
517.664	84.5
517.879	94.5
518.095	114.5
518.311	101.5
518.527	96.5
518.742	89.5
518.958	96.5
519.173	100.5
519.389	88.5
519.605	86.5
519.82	110.5
520.036	110.5
520.251	122.5
520.467	122.5
520.682	98.5
520.898	99.5
521.113	118.5
521.329	129.5
521.544	205.5
521.76	543.5
521.975	2349.5
522.19	1398.5
522.406	297.5
522.621	124.5
522.836	93.5
523.052	97.5
523.267	103.5
523.482	91.5
523.698	97.5
523.913	104.5
524.128	102.5
524.343	113.5
524.559	90.5
524.774	88.5
524.989	104.5
525.204	108.5
525.419	95.5
525.634	107.5
525.849	106.5
526.064	89.5
526.28	97.5
526.495	92.5
526.71	83.5
526.925	108.5
527.14	94.5
527.355	102.5
527.57	99.5
527.785	92.5
527.999	86.5
528.214	103.5
528.429	98.5
528.644	87.5
528.859	99.5
529.074	92.5
529.289	126.5
529.503	165.5
529.718	106.5
529.933	93.5
530.148	87.5
530.363	106.5
530.577	97.5
530.792	87.5
531.007	83.5
531.221	108.5
531.436	97.5
531.651	99.5
531.865	99.5
532.08	76.5
532.295	97.5
532.509	90.5
532.724	95.5
532.938	98.5
533.153	100.5
533.367	93.5
533.582	103.5
533.796	100.5
