Data from Uncirc_1995_H10_HRD10591_00091.txt Node
Date: Wed Jan 03 11:35:52 EST 2024
User: Yrep
Spectrometer: HR+D1059
Trigger mode: 1
Integration Time (sec): 1.000000E-1
Scans to average: 1
Electric dark correction enabled: true
Nonlinearity correction enabled: false
Boxcar width: 0
XAxis mode: Wavelengths
Number of Pixels in Spectrum: 2048
>>>>>Begin Spectral Data<<<<<
223.165	-11.19
223.4	-11.19
223.635	-11.19
223.869	-18.19
224.104	-24.19
224.338	-27.19
224.573	-26.19
224.808	-7.19
225.042	-9.19
225.277	-5.19
225.511	1.81
225.746	15.81
225.98	9.81
226.215	18.81
226.449	31.81
226.683	12.81
226.918	13.81
227.152	23.81
227.387	39.81
227.621	29.81
227.856	29.81
228.09	40.81
228.324	43.81
228.559	57.81
228.793	66.81
229.027	56.81
229.262	69.81
229.496	78.81
229.73	86.81
229.964	84.81
230.199	65.81
230.433	60.81
230.667	74.81
230.901	76.81
231.136	80.81
231.37	69.81
231.604	87.81
231.838	58.81
232.072	67.81
232.306	80.81
232.541	91.81
232.775	77.81
233.009	80.81
233.243	85.81
233.477	86.81
233.711	68.81
233.945	81.81
234.179	79.81
234.413	72.81
234.647	72.81
234.881	86.81
235.115	78.81
235.349	79.81
235.583	93.81
235.817	81.81
236.051	82.81
236.285	70.81
236.519	81.81
236.753	80.81
236.987	89.81
237.221	78.81
237.455	81.81
237.689	57.81
237.922	87.81
238.156	78.81
238.39	73.81
238.624	69.81
238.858	68.81
239.091	87.81
239.325	78.81
239.559	82.81
239.793	72.81
240.027	85.81
240.26	82.81
240.494	77.81
240.728	72.81
240.961	71.81
241.195	82.81
241.429	88.81
241.662	83.81
241.896	71.81
242.13	66.81
242.363	81.81
242.597	93.81
242.83	63.81
243.064	77.81
243.298	78.81
243.531	87.81
243.765	88.81
243.998	83.81
244.232	85.81
244.465	90.81
244.699	75.81
244.932	79.81
245.166	69.81
245.399	86.81
245.633	81.81
245.866	72.81
246.099	85.81
246.333	68.81
246.566	76.81
246.8	68.81
247.033	79.81
247.266	84.81
247.5	71.81
247.733	80.81
247.966	87.81
248.2	80.81
248.433	73.81
248.666	72.81
248.899	85.81
249.133	80.81
249.366	109.81
249.599	90.81
249.832	96.81
250.066	82.81
250.299	64.81
250.532	72.81
250.765	75.81
250.998	79.81
251.231	78.81
251.465	68.81
251.698	72.81
251.931	87.81
252.164	90.81
252.397	80.81
252.63	85.81
252.863	76.81
253.096	67.81
253.329	81.81
253.562	84.81
253.795	82.81
254.028	76.81
254.261	92.81
254.494	79.81
254.727	62.81
254.96	85.81
255.193	80.81
255.426	68.81
255.659	76.81
255.892	87.81
256.124	84.81
256.357	66.81
256.59	91.81
256.823	72.81
257.056	78.81
257.289	68.81
257.521	87.81
257.754	84.81
257.987	85.81
258.22	81.81
258.452	77.81
258.685	81.81
258.918	77.81
259.151	75.81
259.383	79.81
259.616	98.81
259.849	78.81
260.081	90.81
260.314	93.81
260.547	90.81
260.779	85.81
261.012	79.81
261.244	75.81
261.477	92.81
261.71	104.81
261.942	108.81
262.175	121.81
262.407	83.81
262.64	85.81
262.872	72.81
263.105	78.81
263.337	79.81
263.57	84.81
263.802	77.81
264.035	94.81
264.267	71.81
264.499	83.81
264.732	91.81
264.964	87.81
265.197	80.81
265.429	89.81
265.661	66.81
265.894	77.81
266.126	95.81
266.358	90.81
266.591	85.81
266.823	75.81
267.055	68.81
267.287	101.81
267.52	83.81
267.752	82.81
267.984	92.81
268.216	83.81
268.448	83.81
268.681	84.81
268.913	93.81
269.145	80.81
269.377	81.81
269.609	79.81
269.841	70.81
270.073	77.81
270.306	83.81
270.538	70.81
270.77	73.81
271.002	91.81
271.234	85.81
271.466	87.81
271.698	82.81
271.93	89.81
272.162	91.81
272.394	79.81
272.626	75.81
272.858	87.81
273.09	70.81
273.322	90.81
273.553	98.81
273.785	80.81
274.017	83.81
274.249	71.81
274.481	76.81
274.713	83.81
274.945	89.81
275.176	79.81
275.408	78.81
275.64	78.81
275.872	88.81
276.104	93.81
276.335	91.81
276.567	102.81
276.799	96.81
277.031	88.81
277.262	88.81
277.494	88.81
277.726	76.81
277.957	100.81
278.189	84.81
278.421	81.81
278.652	87.81
278.884	69.81
279.115	92.81
279.347	80.81
279.579	100.81
279.81	88.81
280.042	84.81
280.273	76.81
280.505	87.81
280.736	88.81
280.968	87.81
281.199	76.81
281.431	73.81
281.662	89.81
281.894	83.81
282.125	105.81
282.356	111.81
282.588	129.81
282.819	112.81
283.051	76.81
283.282	77.81
283.513	79.81
283.745	94.81
283.976	100.81
284.207	95.81
284.439	98.81
284.67	90.81
284.901	69.81
285.132	72.81
285.364	92.81
285.595	75.81
285.826	81.81
286.057	83.81
286.288	96.81
286.52	87.81
286.751	82.81
286.982	97.81
287.213	91.81
287.444	91.81
287.675	89.81
287.906	93.81
288.138	85.81
288.369	90.81
288.6	93.81
288.831	85.81
289.062	82.81
289.293	81.81
289.524	79.81
289.755	92.81
289.986	92.81
290.217	90.81
290.448	88.81
290.679	90.81
290.91	83.81
291.141	68.81
291.371	89.81
291.602	79.81
291.833	84.81
292.064	103.81
292.295	90.81
292.526	97.81
292.757	93.81
292.987	88.81
293.218	95.81
293.449	84.81
293.68	82.81
293.91	72.81
294.141	86.81
294.372	104.81
294.603	107.81
294.833	79.81
295.064	90.81
295.295	94.81
295.525	87.81
295.756	102.81
295.987	128.81
296.217	138.81
296.448	137.81
296.679	96.81
296.909	80.81
297.14	85.81
297.37	84.81
297.601	86.81
297.831	93.81
298.062	92.81
298.292	84.81
298.523	94.81
298.753	98.81
298.984	79.81
299.214	81.81
299.445	86.81
299.675	89.81
299.905	93.81
300.136	85.81
300.366	92.81
300.597	97.81
300.827	97.81
301.057	103.81
301.288	97.81
301.518	88.81
301.748	87.81
301.979	92.81
302.209	101.81
302.439	87.81
302.669	82.81
302.9	92.81
303.13	93.81
303.36	87.81
303.59	110.81
303.82	97.81
304.051	104.81
304.281	94.81
304.511	79.81
304.741	84.81
304.971	93.81
305.201	80.81
305.431	81.81
305.661	99.81
305.891	82.81
306.121	90.81
306.352	103.81
306.582	95.81
306.812	89.81
307.042	103.81
307.272	92.81
307.502	89.81
307.731	81.81
307.961	94.81
308.191	102.81
308.421	94.81
308.651	100.81
308.881	83.81
309.111	111.81
309.341	88.81
309.571	85.81
309.8	93.81
310.03	112.81
310.26	82.81
310.49	87.81
310.72	97.81
310.949	98.81
311.179	91.81
311.409	103.81
311.639	108.81
311.868	91.81
312.098	99.81
312.328	91.81
312.557	95.81
312.787	97.81
313.017	96.81
313.246	106.81
313.476	88.81
313.706	89.81
313.935	94.81
314.165	108.81
314.394	89.81
314.624	102.81
314.853	101.81
315.083	89.81
315.312	93.81
315.542	100.81
315.771	74.81
316.001	101.81
316.23	90.81
316.46	82.81
316.689	101.81
316.919	94.81
317.148	97.81
317.377	87.81
317.607	87.81
317.836	91.81
318.065	95.81
318.295	85.81
318.524	101.81
318.753	87.81
318.983	95.81
319.212	88.81
319.441	96.81
319.67	111.81
319.9	101.81
320.129	100.81
320.358	86.81
320.587	93.81
320.816	95.81
321.046	98.81
321.275	105.81
321.504	104.81
321.733	99.81
321.962	75.81
322.191	88.81
322.42	115.81
322.649	113.81
322.878	113.81
323.108	122.81
323.337	119.81
323.566	135.81
323.795	159.81
324.024	218.81
324.253	416.81
324.482	875.81
324.71	1841.81
324.939	2443.81
325.168	879.81
325.397	255.81
325.626	147.81
325.855	139.81
326.084	125.81
326.313	129.81
326.542	161.81
326.77	243.81
326.999	495.81
327.228	1039.81
327.457	1901.81
327.686	1523.81
327.914	385.81
328.143	200.81
328.372	157.81
328.6	123.81
328.829	105.81
329.058	120.81
329.287	125.81
329.515	108.81
329.744	96.81
329.972	97.81
330.201	111.81
330.43	104.81
330.658	123.81
330.887	133.81
331.115	120.81
331.344	105.81
331.572	99.81
331.801	111.81
332.03	104.81
332.258	99.81
332.486	104.81
332.715	89.81
332.943	104.81
333.172	106.81
333.4	97.81
333.629	100.81
333.857	111.81
334.085	122.81
334.314	98.81
334.542	100.81
334.771	102.81
334.999	90.81
335.227	97.81
335.455	102.81
335.684	105.81
335.912	98.81
336.14	95.81
336.369	87.81
336.597	112.81
336.825	89.81
337.053	97.81
337.281	93.81
337.51	79.81
337.738	103.81
337.966	101.81
338.194	89.81
338.422	114.81
338.65	105.81
338.878	93.81
339.106	97.81
339.334	97.81
339.562	92.81
339.79	89.81
340.018	102.81
340.246	93.81
340.474	90.81
340.702	94.81
340.93	97.81
341.158	88.81
341.386	87.81
341.614	99.81
341.842	95.81
342.07	85.81
342.298	97.81
342.526	96.81
342.754	98.81
342.981	77.81
343.209	99.81
343.437	99.81
343.665	83.81
343.893	83.81
344.12	96.81
344.348	93.81
344.576	96.81
344.804	104.81
345.031	96.81
345.259	94.81
345.487	97.81
345.714	107.81
345.942	97.81
346.17	98.81
346.397	98.81
346.625	100.81
346.853	96.81
347.08	87.81
347.308	103.81
347.535	89.81
347.763	96.81
347.99	100.81
348.218	127.81
348.445	113.81
348.673	110.81
348.9	103.81
349.128	96.81
349.355	90.81
349.583	96.81
349.81	95.81
350.037	83.81
350.265	105.81
350.492	90.81
350.72	81.81
350.947	105.81
351.174	111.81
351.402	109.81
351.629	99.81
351.856	114.81
352.083	92.81
352.311	111.81
352.538	109.81
352.765	128.81
352.992	121.81
353.22	108.81
353.447	100.81
353.674	98.81
353.901	105.81
354.128	97.81
354.355	105.81
354.583	100.81
354.81	100.81
355.037	98.81
355.264	88.81
355.491	87.81
355.718	100.81
355.945	96.81
356.172	89.81
356.399	93.81
356.626	88.81
356.853	88.81
357.08	90.81
357.307	87.81
357.534	94.81
357.761	96.81
357.988	89.81
358.215	98.81
358.441	95.81
358.668	93.81
358.895	89.81
359.122	105.81
359.349	81.81
359.576	95.81
359.802	95.81
360.029	107.81
360.256	110.81
360.483	112.81
360.709	93.81
360.936	97.81
361.163	98.81
361.39	91.81
361.616	77.81
361.843	88.81
362.07	121.81
362.296	90.81
362.523	95.81
362.749	101.81
362.976	86.81
363.203	104.81
363.429	79.81
363.656	88.81
363.882	85.81
364.109	93.81
364.335	96.81
364.562	101.81
364.788	77.81
365.015	96.81
365.241	98.81
365.468	109.81
365.694	98.81
365.92	91.81
366.147	93.81
366.373	91.81
366.599	100.81
366.826	89.81
367.052	83.81
367.278	89.81
367.505	91.81
367.731	84.81
367.957	87.81
368.184	77.81
368.41	91.81
368.636	111.81
368.862	124.81
369.089	93.81
369.315	90.81
369.541	93.81
369.767	81.81
369.993	91.81
370.219	79.81
370.445	88.81
370.672	88.81
370.898	88.81
371.124	73.81
371.35	101.81
371.576	99.81
371.802	85.81
372.028	86.81
372.254	93.81
372.48	81.81
372.706	108.81
372.932	96.81
373.158	95.81
373.384	96.81
373.61	86.81
373.835	98.81
374.061	94.81
374.287	85.81
374.513	90.81
374.739	88.81
374.965	93.81
375.191	101.81
375.416	84.81
375.642	85.81
375.868	92.81
376.094	101.81
376.319	90.81
376.545	89.81
376.771	91.81
376.997	103.81
377.222	95.81
377.448	79.81
377.674	81.81
377.899	71.81
378.125	84.81
378.35	100.81
378.576	86.81
378.802	83.81
379.027	91.81
379.253	85.81
379.478	97.81
379.704	97.81
379.929	89.81
380.155	105.81
380.38	96.81
380.606	86.81
380.831	96.81
381.057	105.81
381.282	87.81
381.507	82.81
381.733	108.81
381.958	91.81
382.184	108.81
382.409	110.81
382.634	100.81
382.86	94.81
383.085	105.81
383.31	102.81
383.535	99.81
383.761	101.81
383.986	104.81
384.211	90.81
384.436	93.81
384.662	93.81
384.887	100.81
385.112	104.81
385.337	114.81
385.562	98.81
385.787	95.81
386.013	103.81
386.238	106.81
386.463	112.81
386.688	98.81
386.913	112.81
387.138	96.81
387.363	99.81
387.588	91.81
387.813	101.81
388.038	108.81
388.263	100.81
388.488	97.81
388.713	99.81
388.938	89.81
389.163	95.81
389.387	91.81
389.612	74.81
389.837	97.81
390.062	87.81
390.287	101.81
390.512	95.81
390.736	79.81
390.961	96.81
391.186	103.81
391.411	95.81
391.636	102.81
391.86	98.81
392.085	90.81
392.31	91.81
392.534	96.81
392.759	106.81
392.984	81.81
393.208	103.81
393.433	97.81
393.658	84.81
393.882	88.81
394.107	87.81
394.331	83.81
394.556	91.81
394.78	103.81
395.005	87.81
395.229	89.81
395.454	84.81
395.678	92.81
395.903	93.81
396.127	91.81
396.352	79.81
396.576	68.81
396.801	83.81
397.025	88.81
397.249	95.81
397.474	96.81
397.698	92.81
397.922	92.81
398.147	95.81
398.371	79.81
398.595	82.81
398.82	74.81
399.044	87.81
399.268	96.81
399.492	82.81
399.717	86.81
399.941	84.81
400.165	87.81
400.389	79.81
400.613	97.81
400.837	72.81
401.062	87.81
401.286	98.81
401.51	81.81
401.734	104.81
401.958	110.81
402.182	126.81
402.406	156.81
402.63	115.81
402.854	91.81
403.078	99.81
403.302	74.81
403.526	81.81
403.75	97.81
403.974	96.81
404.198	87.81
404.422	89.81
404.645	91.81
404.869	92.81
405.093	99.81
405.317	102.81
405.541	114.81
405.765	118.81
405.988	106.81
406.212	175.81
406.436	241.81
406.66	149.81
406.883	99.81
407.107	105.81
407.331	91.81
407.555	97.81
407.778	100.81
408.002	77.81
408.226	81.81
408.449	87.81
408.673	83.81
408.896	83.81
409.12	108.81
409.344	88.81
409.567	101.81
409.791	99.81
410.014	99.81
410.238	99.81
410.461	88.81
410.685	100.81
410.908	105.81
411.132	100.81
411.355	93.81
411.578	104.81
411.802	85.81
412.025	73.81
412.249	82.81
412.472	81.81
412.695	102.81
412.919	76.81
413.142	69.81
413.365	87.81
413.589	84.81
413.812	100.81
414.035	92.81
414.258	76.81
414.482	82.81
414.705	83.81
414.928	94.81
415.151	86.81
415.374	96.81
415.597	79.81
415.821	93.81
416.044	94.81
416.267	93.81
416.49	104.81
416.713	77.81
416.936	93.81
417.159	85.81
417.382	91.81
417.605	90.81
417.828	99.81
418.051	85.81
418.274	91.81
418.497	83.81
418.72	100.81
418.943	97.81
419.166	80.81
419.389	98.81
419.611	89.81
419.834	94.81
420.057	79.81
420.28	87.81
420.503	77.81
420.726	78.81
420.948	94.81
421.171	90.81
421.394	87.81
421.617	92.81
421.839	86.81
422.062	92.81
422.285	88.81
422.507	90.81
422.73	95.81
422.953	88.81
423.175	87.81
423.398	91.81
423.621	85.81
423.843	87.81
424.066	94.81
424.288	97.81
424.511	83.81
424.733	111.81
424.956	93.81
425.178	101.81
425.401	92.81
425.623	100.81
425.846	97.81
426.068	81.81
426.291	82.81
426.513	97.81
426.735	92.81
426.958	93.81
427.18	102.81
427.402	135.81
427.625	170.81
427.847	109.81
428.069	99.81
428.292	95.81
428.514	105.81
428.736	85.81
428.958	87.81
429.181	85.81
429.403	92.81
429.625	85.81
429.847	90.81
430.069	114.81
430.292	107.81
430.514	94.81
430.736	80.81
430.958	87.81
431.18	83.81
431.402	91.81
431.624	91.81
431.846	67.81
432.068	77.81
432.29	81.81
432.512	102.81
432.734	88.81
432.956	99.81
433.178	93.81
433.4	100.81
433.622	93.81
433.844	99.81
434.066	112.81
434.287	103.81
434.509	96.81
434.731	78.81
434.953	78.81
435.175	86.81
435.397	87.81
435.618	104.81
435.84	104.81
436.062	110.81
436.284	112.81
436.505	92.81
436.727	98.81
436.949	100.81
437.17	94.81
437.392	83.81
437.614	98.81
437.835	101.81
438.057	117.81
438.278	104.81
438.5	104.81
438.721	127.81
438.943	90.81
439.165	90.81
439.386	78.81
439.608	91.81
439.829	88.81
440.05	113.81
440.272	138.81
440.493	93.81
440.715	88.81
440.936	87.81
441.158	83.81
441.379	91.81
441.6	92.81
441.822	87.81
442.043	99.81
442.264	96.81
442.486	101.81
442.707	89.81
442.928	89.81
443.149	124.81
443.371	117.81
443.592	97.81
443.813	108.81
444.034	114.81
444.255	103.81
444.476	94.81
444.698	71.81
444.919	91.81
445.14	121.81
445.361	106.81
445.582	105.81
445.803	135.81
446.024	121.81
446.245	130.81
446.466	111.81
446.687	101.81
446.908	83.81
447.129	91.81
447.35	106.81
447.571	97.81
447.792	97.81
448.013	108.81
448.234	104.81
448.455	90.81
448.675	112.81
448.896	119.81
449.117	97.81
449.338	106.81
449.559	123.81
449.779	120.81
450	95.81
450.221	84.81
450.442	95.81
450.662	88.81
450.883	110.81
451.104	116.81
451.324	98.81
451.545	83.81
451.766	91.81
451.986	91.81
452.207	93.81
452.428	97.81
452.648	99.81
452.869	103.81
453.089	113.81
453.31	119.81
453.53	84.81
453.751	89.81
453.971	108.81
454.192	115.81
454.412	99.81
454.633	87.81
454.853	99.81
455.073	69.81
455.294	88.81
455.514	89.81
455.734	97.81
455.955	87.81
456.175	85.81
456.395	80.81
456.616	75.81
456.836	86.81
457.056	95.81
457.276	87.81
457.497	68.81
457.717	93.81
457.937	83.81
458.157	87.81
458.377	98.81
458.598	113.81
458.818	143.81
459.038	138.81
459.258	107.81
459.478	82.81
459.698	76.81
459.918	83.81
460.138	83.81
460.358	95.81
460.578	98.81
460.798	84.81
461.018	94.81
461.238	87.81
461.458	95.81
461.678	89.81
461.898	82.81
462.118	87.81
462.338	87.81
462.558	88.81
462.777	91.81
462.997	76.81
463.217	84.81
463.437	99.81
463.657	83.81
463.876	88.81
464.096	93.81
464.316	86.81
464.536	108.81
464.755	96.81
464.975	107.81
465.195	153.81
465.414	153.81
465.634	99.81
465.854	87.81
466.073	82.81
466.293	74.81
466.512	100.81
466.732	88.81
466.951	88.81
467.171	89.81
467.391	94.81
467.61	96.81
467.829	106.81
468.049	78.81
468.268	83.81
468.488	96.81
468.707	88.81
468.927	88.81
469.146	94.81
469.365	85.81
469.585	93.81
469.804	89.81
470.023	93.81
470.243	83.81
470.462	111.81
470.681	106.81
470.901	100.81
471.12	80.81
471.339	76.81
471.558	78.81
471.777	80.81
471.997	79.81
472.216	95.81
472.435	85.81
472.654	79.81
472.873	94.81
473.092	84.81
473.311	90.81
473.53	85.81
473.749	86.81
473.968	91.81
474.187	120.81
474.406	96.81
474.625	85.81
474.844	91.81
475.063	90.81
475.282	90.81
475.501	81.81
475.72	92.81
475.939	91.81
476.158	75.81
476.377	77.81
476.596	85.81
476.814	84.81
477.033	90.81
477.252	91.81
477.471	83.81
477.69	87.81
477.908	80.81
478.127	92.81
478.346	79.81
478.564	82.81
478.783	86.81
479.002	86.81
479.22	112.81
479.439	82.81
479.658	98.81
479.876	85.81
480.095	100.81
480.313	88.81
480.532	89.81
480.751	92.81
480.969	81.81
481.188	103.81
481.406	75.81
481.624	96.81
481.843	71.81
482.061	86.81
482.28	77.81
482.498	91.81
482.717	83.81
482.935	92.81
483.153	97.81
483.372	87.81
483.59	93.81
483.808	92.81
484.027	90.81
484.245	95.81
484.463	92.81
484.681	96.81
484.9	98.81
485.118	108.81
485.336	101.81
485.554	87.81
485.772	95.81
485.99	98.81
486.209	102.81
486.427	100.81
486.645	106.81
486.863	117.81
487.081	97.81
487.299	91.81
487.517	109.81
487.735	98.81
487.953	97.81
488.171	96.81
488.389	88.81
488.607	85.81
488.825	85.81
489.043	105.81
489.261	84.81
489.479	97.81
489.696	89.81
489.914	75.81
490.132	81.81
490.35	94.81
490.568	99.81
490.786	86.81
491.003	93.81
491.221	89.81
491.439	91.81
491.657	90.81
491.874	97.81
492.092	81.81
492.31	92.81
492.527	91.81
492.745	78.81
492.963	90.81
493.18	85.81
493.398	97.81
493.615	101.81
493.833	100.81
494.05	85.81
494.268	93.81
494.485	96.81
494.703	90.81
494.92	83.81
495.138	87.81
495.355	91.81
495.573	92.81
495.79	87.81
496.008	83.81
496.225	98.81
496.442	89.81
496.66	100.81
496.877	94.81
497.094	100.81
497.312	72.81
497.529	93.81
497.746	95.81
497.963	88.81
498.181	89.81
498.398	115.81
498.615	107.81
498.832	100.81
499.049	88.81
499.267	92.81
499.484	94.81
499.701	91.81
499.918	91.81
500.135	88.81
500.352	103.81
500.569	92.81
500.786	92.81
501.003	90.81
501.22	87.81
501.437	95.81
501.654	97.81
501.871	108.81
502.088	104.81
502.305	91.81
502.522	90.81
502.739	80.81
502.956	91.81
503.172	95.81
503.389	91.81
503.606	100.81
503.823	97.81
504.04	98.81
504.256	78.81
504.473	93.81
504.69	95.81
504.907	93.81
505.123	99.81
505.34	92.81
505.557	92.81
505.773	100.81
505.99	96.81
506.207	87.81
506.423	91.81
506.64	95.81
506.856	99.81
507.073	78.81
507.289	94.81
507.506	104.81
507.722	127.81
507.939	103.81
508.155	93.81
508.372	105.81
508.588	76.81
508.805	96.81
509.021	97.81
509.238	96.81
509.454	105.81
509.67	109.81
509.887	114.81
510.103	141.81
510.319	225.81
510.536	841.81
510.752	2603.81
510.968	704.81
511.184	167.81
511.401	107.81
511.617	96.81
511.833	99.81
512.049	88.81
512.265	94.81
512.481	88.81
512.698	101.81
512.914	107.81
513.13	112.81
513.346	87.81
513.562	96.81
513.778	99.81
513.994	80.81
514.21	93.81
514.426	109.81
514.642	124.81
514.858	130.81
515.074	159.81
515.29	461.81
515.506	1532.81
515.721	562.81
