Data from Uncirc_1995_H10_HRD10591_00067.txt Node
Date: Wed Jan 03 11:35:47 EST 2024
User: Yrep
Spectrometer: HR+D1059
Trigger mode: 1
Integration Time (sec): 1.000000E-1
Scans to average: 1
Electric dark correction enabled: true
Nonlinearity correction enabled: false
Boxcar width: 0
XAxis mode: Wavelengths
Number of Pixels in Spectrum: 2048
>>>>>Begin Spectral Data<<<<<
223.165	-26.62
223.4	-26.62
223.635	-26.62
223.869	-15.62
224.104	-8.62
224.338	-20.62
224.573	-11.62
224.808	-19.62
225.042	-8.62
225.277	-18.62
225.511	8.38
225.746	7.38
225.98	8.38
226.215	11.38
226.449	13.38
226.683	32.38
226.918	33.38
227.152	15.38
227.387	36.38
227.621	44.38
227.856	53.38
228.09	51.38
228.324	49.38
228.559	61.38
228.793	68.38
229.027	65.38
229.262	65.38
229.496	74.38
229.73	95.38
229.964	87.38
230.199	84.38
230.433	78.38
230.667	62.38
230.901	71.38
231.136	75.38
231.37	75.38
231.604	80.38
231.838	77.38
232.072	94.38
232.306	60.38
232.541	68.38
232.775	79.38
233.009	88.38
233.243	75.38
233.477	73.38
233.711	80.38
233.945	71.38
234.179	87.38
234.413	88.38
234.647	93.38
234.881	98.38
235.115	83.38
235.349	76.38
235.583	71.38
235.817	81.38
236.051	85.38
236.285	71.38
236.519	86.38
236.753	84.38
236.987	80.38
237.221	84.38
237.455	83.38
237.689	86.38
237.922	73.38
238.156	85.38
238.39	76.38
238.624	69.38
238.858	77.38
239.091	71.38
239.325	86.38
239.559	92.38
239.793	91.38
240.027	74.38
240.26	69.38
240.494	73.38
240.728	81.38
240.961	74.38
241.195	64.38
241.429	63.38
241.662	82.38
241.896	73.38
242.13	67.38
242.363	71.38
242.597	75.38
242.83	80.38
243.064	89.38
243.298	99.38
243.531	81.38
243.765	79.38
243.998	90.38
244.232	88.38
244.465	77.38
244.699	78.38
244.932	82.38
245.166	81.38
245.399	83.38
245.633	89.38
245.866	84.38
246.099	94.38
246.333	85.38
246.566	77.38
246.8	78.38
247.033	79.38
247.266	71.38
247.5	80.38
247.733	75.38
247.966	89.38
248.2	88.38
248.433	89.38
248.666	72.38
248.899	92.38
249.133	94.38
249.366	104.38
249.599	100.38
249.832	79.38
250.066	79.38
250.299	97.38
250.532	76.38
250.765	87.38
250.998	89.38
251.231	72.38
251.465	85.38
251.698	84.38
251.931	64.38
252.164	85.38
252.397	79.38
252.63	84.38
252.863	74.38
253.096	87.38
253.329	77.38
253.562	96.38
253.795	91.38
254.028	85.38
254.261	88.38
254.494	85.38
254.727	81.38
254.96	94.38
255.193	72.38
255.426	95.38
255.659	90.38
255.892	88.38
256.124	82.38
256.357	78.38
256.59	82.38
256.823	72.38
257.056	87.38
257.289	83.38
257.521	68.38
257.754	71.38
257.987	72.38
258.22	79.38
258.452	95.38
258.685	100.38
258.918	83.38
259.151	74.38
259.383	79.38
259.616	87.38
259.849	91.38
260.081	93.38
260.314	81.38
260.547	80.38
260.779	67.38
261.012	96.38
261.244	79.38
261.477	79.38
261.71	77.38
261.942	111.38
262.175	122.38
262.407	91.38
262.64	84.38
262.872	101.38
263.105	94.38
263.337	88.38
263.57	91.38
263.802	82.38
264.035	75.38
264.267	87.38
264.499	87.38
264.732	87.38
264.964	97.38
265.197	84.38
265.429	73.38
265.661	89.38
265.894	93.38
266.126	79.38
266.358	96.38
266.591	101.38
266.823	82.38
267.055	84.38
267.287	81.38
267.52	87.38
267.752	78.38
267.984	77.38
268.216	104.38
268.448	89.38
268.681	89.38
268.913	85.38
269.145	84.38
269.377	80.38
269.609	86.38
269.841	78.38
270.073	84.38
270.306	72.38
270.538	83.38
270.77	78.38
271.002	81.38
271.234	80.38
271.466	88.38
271.698	82.38
271.93	67.38
272.162	66.38
272.394	88.38
272.626	97.38
272.858	83.38
273.09	96.38
273.322	94.38
273.553	91.38
273.785	79.38
274.017	69.38
274.249	90.38
274.481	95.38
274.713	81.38
274.945	90.38
275.176	97.38
275.408	75.38
275.64	77.38
275.872	97.38
276.104	97.38
276.335	89.38
276.567	94.38
276.799	111.38
277.031	95.38
277.262	75.38
277.494	86.38
277.726	80.38
277.957	81.38
278.189	79.38
278.421	71.38
278.652	89.38
278.884	95.38
279.115	88.38
279.347	92.38
279.579	68.38
279.81	93.38
280.042	88.38
280.273	89.38
280.505	93.38
280.736	89.38
280.968	84.38
281.199	97.38
281.431	96.38
281.662	85.38
281.894	88.38
282.125	95.38
282.356	101.38
282.588	137.38
282.819	112.38
283.051	97.38
283.282	92.38
283.513	81.38
283.745	93.38
283.976	80.38
284.207	83.38
284.439	73.38
284.67	83.38
284.901	91.38
285.132	82.38
285.364	82.38
285.595	69.38
285.826	83.38
286.057	87.38
286.288	81.38
286.52	86.38
286.751	88.38
286.982	92.38
287.213	88.38
287.444	88.38
287.675	85.38
287.906	79.38
288.138	83.38
288.369	91.38
288.6	81.38
288.831	77.38
289.062	88.38
289.293	90.38
289.524	89.38
289.755	81.38
289.986	95.38
290.217	89.38
290.448	84.38
290.679	102.38
290.91	91.38
291.141	81.38
291.371	106.38
291.602	88.38
291.833	79.38
292.064	88.38
292.295	77.38
292.526	96.38
292.757	83.38
292.987	87.38
293.218	89.38
293.449	73.38
293.68	88.38
293.91	88.38
294.141	106.38
294.372	91.38
294.603	84.38
294.833	89.38
295.064	86.38
295.295	91.38
295.525	72.38
295.756	89.38
295.987	120.38
296.217	128.38
296.448	129.38
296.679	82.38
296.909	79.38
297.14	90.38
297.37	88.38
297.601	92.38
297.831	87.38
298.062	94.38
298.292	79.38
298.523	87.38
298.753	96.38
298.984	94.38
299.214	94.38
299.445	97.38
299.675	89.38
299.905	96.38
300.136	94.38
300.366	83.38
300.597	92.38
300.827	91.38
301.057	106.38
301.288	113.38
301.518	91.38
301.748	94.38
301.979	105.38
302.209	86.38
302.439	95.38
302.669	101.38
302.9	103.38
303.13	87.38
303.36	79.38
303.59	100.38
303.82	116.38
304.051	112.38
304.281	86.38
304.511	84.38
304.741	90.38
304.971	84.38
305.201	93.38
305.431	82.38
305.661	85.38
305.891	90.38
306.121	92.38
306.352	92.38
306.582	122.38
306.812	84.38
307.042	92.38
307.272	95.38
307.502	98.38
307.731	92.38
307.961	93.38
308.191	95.38
308.421	91.38
308.651	80.38
308.881	100.38
309.111	107.38
309.341	85.38
309.571	100.38
309.8	112.38
310.03	93.38
310.26	91.38
310.49	106.38
310.72	106.38
310.949	107.38
311.179	103.38
311.409	97.38
311.639	92.38
311.868	87.38
312.098	87.38
312.328	98.38
312.557	93.38
312.787	97.38
313.017	106.38
313.246	100.38
313.476	87.38
313.706	91.38
313.935	113.38
314.165	91.38
314.394	111.38
314.624	103.38
314.853	103.38
315.083	104.38
315.312	94.38
315.542	76.38
315.771	86.38
316.001	97.38
316.23	98.38
316.46	92.38
316.689	97.38
316.919	93.38
317.148	81.38
317.377	101.38
317.607	85.38
317.836	84.38
318.065	96.38
318.295	97.38
318.524	90.38
318.753	95.38
318.983	96.38
319.212	93.38
319.441	105.38
319.67	112.38
319.9	104.38
320.129	85.38
320.358	64.38
320.587	80.38
320.816	95.38
321.046	93.38
321.275	113.38
321.504	97.38
321.733	105.38
321.962	99.38
322.191	111.38
322.42	94.38
322.649	95.38
322.878	103.38
323.108	119.38
323.337	119.38
323.566	137.38
323.795	144.38
324.024	216.38
324.253	397.38
324.482	857.38
324.71	1794.38
324.939	2359.38
325.168	859.38
325.397	243.38
325.626	137.38
325.855	130.38
326.084	118.38
326.313	136.38
326.542	164.38
326.77	253.38
326.999	472.38
327.228	971.38
327.457	1811.38
327.686	1446.38
327.914	371.38
328.143	201.38
328.372	159.38
328.6	124.38
328.829	121.38
329.058	121.38
329.287	121.38
329.515	100.38
329.744	114.38
329.972	91.38
330.201	93.38
330.43	95.38
330.658	113.38
330.887	130.38
331.115	125.38
331.344	103.38
331.572	104.38
331.801	99.38
332.03	98.38
332.258	95.38
332.486	105.38
332.715	84.38
332.943	92.38
333.172	97.38
333.4	99.38
333.629	111.38
333.857	105.38
334.085	96.38
334.314	65.38
334.542	98.38
334.771	90.38
334.999	98.38
335.227	94.38
335.455	93.38
335.684	94.38
335.912	97.38
336.14	90.38
336.369	97.38
336.597	93.38
336.825	84.38
337.053	92.38
337.281	91.38
337.51	107.38
337.738	88.38
337.966	102.38
338.194	82.38
338.422	95.38
338.65	92.38
338.878	86.38
339.106	95.38
339.334	93.38
339.562	104.38
339.79	88.38
340.018	87.38
340.246	87.38
340.474	82.38
340.702	87.38
340.93	79.38
341.158	89.38
341.386	100.38
341.614	106.38
341.842	96.38
342.07	96.38
342.298	94.38
342.526	91.38
342.754	84.38
342.981	91.38
343.209	92.38
343.437	98.38
343.665	85.38
343.893	82.38
344.12	83.38
344.348	101.38
344.576	89.38
344.804	89.38
345.031	89.38
345.259	95.38
345.487	87.38
345.714	111.38
345.942	84.38
346.17	93.38
346.397	100.38
346.625	99.38
346.853	92.38
347.08	96.38
347.308	105.38
347.535	93.38
347.763	91.38
347.99	99.38
348.218	83.38
348.445	85.38
348.673	90.38
348.9	89.38
349.128	90.38
349.355	97.38
349.583	85.38
349.81	79.38
350.037	93.38
350.265	95.38
350.492	102.38
350.72	90.38
350.947	105.38
351.174	96.38
351.402	110.38
351.629	99.38
351.856	102.38
352.083	106.38
352.311	88.38
352.538	115.38
352.765	103.38
352.992	93.38
353.22	114.38
353.447	117.38
353.674	97.38
353.901	102.38
354.128	95.38
354.355	89.38
354.583	95.38
354.81	101.38
355.037	90.38
355.264	96.38
355.491	93.38
355.718	102.38
355.945	106.38
356.172	96.38
356.399	95.38
356.626	100.38
356.853	96.38
357.08	92.38
357.307	93.38
357.534	93.38
357.761	85.38
357.988	85.38
358.215	94.38
358.441	85.38
358.668	83.38
358.895	90.38
359.122	97.38
359.349	82.38
359.576	96.38
359.802	95.38
360.029	93.38
360.256	97.38
360.483	101.38
360.709	83.38
360.936	94.38
361.163	96.38
361.39	91.38
361.616	88.38
361.843	88.38
362.07	97.38
362.296	104.38
362.523	97.38
362.749	100.38
362.976	86.38
363.203	96.38
363.429	84.38
363.656	97.38
363.882	83.38
364.109	96.38
364.335	79.38
364.562	92.38
364.788	90.38
365.015	89.38
365.241	92.38
365.468	113.38
365.694	101.38
365.92	98.38
366.147	89.38
366.373	85.38
366.599	81.38
366.826	90.38
367.052	96.38
367.278	86.38
367.505	81.38
367.731	79.38
367.957	85.38
368.184	91.38
368.41	85.38
368.636	114.38
368.862	106.38
369.089	112.38
369.315	104.38
369.541	98.38
369.767	80.38
369.993	95.38
370.219	98.38
370.445	90.38
370.672	80.38
370.898	73.38
371.124	81.38
371.35	78.38
371.576	69.38
371.802	91.38
372.028	91.38
372.254	90.38
372.48	89.38
372.706	81.38
372.932	97.38
373.158	98.38
373.384	106.38
373.61	99.38
373.835	79.38
374.061	83.38
374.287	93.38
374.513	92.38
374.739	91.38
374.965	80.38
375.191	102.38
375.416	85.38
375.642	97.38
375.868	88.38
376.094	79.38
376.319	79.38
376.545	83.38
376.771	80.38
376.997	89.38
377.222	79.38
377.448	91.38
377.674	83.38
377.899	95.38
378.125	99.38
378.35	91.38
378.576	91.38
378.802	84.38
379.027	88.38
379.253	92.38
379.478	91.38
379.704	84.38
379.929	105.38
380.155	82.38
380.38	81.38
380.606	96.38
380.831	86.38
381.057	94.38
381.282	78.38
381.507	101.38
381.733	99.38
381.958	97.38
382.184	99.38
382.409	106.38
382.634	89.38
382.86	117.38
383.085	101.38
383.31	102.38
383.535	98.38
383.761	104.38
383.986	94.38
384.211	96.38
384.436	88.38
384.662	95.38
384.887	93.38
385.112	96.38
385.337	100.38
385.562	105.38
385.787	110.38
386.013	114.38
386.238	92.38
386.463	101.38
386.688	98.38
386.913	108.38
387.138	111.38
387.363	116.38
387.588	109.38
387.813	95.38
388.038	107.38
388.263	117.38
388.488	107.38
388.713	97.38
388.938	92.38
389.163	82.38
389.387	95.38
389.612	83.38
389.837	83.38
390.062	93.38
390.287	103.38
390.512	94.38
390.736	91.38
390.961	104.38
391.186	94.38
391.411	99.38
391.636	93.38
391.86	88.38
392.085	108.38
392.31	86.38
392.534	85.38
392.759	83.38
392.984	96.38
393.208	82.38
393.433	89.38
393.658	82.38
393.882	86.38
394.107	96.38
394.331	86.38
394.556	90.38
394.78	94.38
395.005	86.38
395.229	87.38
395.454	83.38
395.678	92.38
395.903	90.38
396.127	94.38
396.352	95.38
396.576	81.38
396.801	82.38
397.025	91.38
397.249	88.38
397.474	92.38
397.698	88.38
397.922	66.38
398.147	75.38
398.371	92.38
398.595	98.38
398.82	101.38
399.044	91.38
399.268	91.38
399.492	84.38
399.717	82.38
399.941	89.38
400.165	92.38
400.389	101.38
400.613	96.38
400.837	84.38
401.062	95.38
401.286	81.38
401.51	98.38
401.734	100.38
401.958	99.38
402.182	132.38
402.406	160.38
402.63	125.38
402.854	92.38
403.078	83.38
403.302	83.38
403.526	81.38
403.75	82.38
403.974	91.38
404.198	101.38
404.422	88.38
404.645	80.38
404.869	73.38
405.093	92.38
405.317	101.38
405.541	99.38
405.765	96.38
405.988	119.38
406.212	155.38
406.436	237.38
406.66	134.38
406.883	93.38
407.107	85.38
407.331	115.38
407.555	95.38
407.778	87.38
408.002	82.38
408.226	108.38
408.449	97.38
408.673	99.38
408.896	102.38
409.12	99.38
409.344	96.38
409.567	99.38
409.791	89.38
410.014	107.38
410.238	88.38
410.461	95.38
410.685	100.38
410.908	114.38
411.132	114.38
411.355	110.38
411.578	93.38
411.802	79.38
412.025	92.38
412.249	97.38
412.472	89.38
412.695	93.38
412.919	85.38
413.142	80.38
413.365	89.38
413.589	83.38
413.812	86.38
414.035	92.38
414.258	94.38
414.482	91.38
414.705	107.38
414.928	93.38
415.151	90.38
415.374	93.38
415.597	84.38
415.821	83.38
416.044	96.38
416.267	106.38
416.49	99.38
416.713	83.38
416.936	93.38
417.159	79.38
417.382	82.38
417.605	91.38
417.828	92.38
418.051	92.38
418.274	84.38
418.497	84.38
418.72	91.38
418.943	96.38
419.166	97.38
419.389	85.38
419.611	94.38
419.834	94.38
420.057	75.38
420.28	81.38
420.503	80.38
420.726	82.38
420.948	89.38
421.171	90.38
421.394	86.38
421.617	90.38
421.839	85.38
422.062	87.38
422.285	87.38
422.507	89.38
422.73	98.38
422.953	96.38
423.175	80.38
423.398	96.38
423.621	95.38
423.843	84.38
424.066	96.38
424.288	94.38
424.511	106.38
424.733	91.38
424.956	91.38
425.178	98.38
425.401	92.38
425.623	95.38
425.846	105.38
426.068	95.38
426.291	85.38
426.513	78.38
426.735	91.38
426.958	79.38
427.18	104.38
427.402	137.38
427.625	151.38
427.847	119.38
428.069	106.38
428.292	104.38
428.514	86.38
428.736	84.38
428.958	76.38
429.181	67.38
429.403	85.38
429.625	92.38
429.847	92.38
430.069	105.38
430.292	92.38
430.514	82.38
430.736	89.38
430.958	92.38
431.18	85.38
431.402	98.38
431.624	92.38
431.846	76.38
432.068	79.38
432.29	85.38
432.512	90.38
432.734	78.38
432.956	94.38
433.178	96.38
433.4	105.38
433.622	89.38
433.844	80.38
434.066	89.38
434.287	92.38
434.509	80.38
434.731	86.38
434.953	89.38
435.175	90.38
435.397	89.38
435.618	87.38
435.84	104.38
436.062	116.38
436.284	116.38
436.505	112.38
436.727	107.38
436.949	91.38
437.17	88.38
437.392	93.38
437.614	99.38
437.835	102.38
438.057	105.38
438.278	100.38
438.5	109.38
438.721	122.38
438.943	95.38
439.165	91.38
439.386	79.38
439.608	88.38
439.829	101.38
440.05	115.38
440.272	113.38
440.493	88.38
440.715	88.38
440.936	87.38
441.158	82.38
441.379	95.38
441.6	85.38
441.822	106.38
442.043	91.38
442.264	99.38
442.486	89.38
442.707	87.38
442.928	81.38
443.149	127.38
443.371	126.38
443.592	98.38
443.813	104.38
444.034	98.38
444.255	89.38
444.476	88.38
444.698	98.38
444.919	101.38
445.14	132.38
445.361	117.38
445.582	114.38
445.803	136.38
446.024	137.38
446.245	128.38
446.466	105.38
446.687	75.38
446.908	88.38
447.129	92.38
447.35	97.38
447.571	100.38
447.792	86.38
448.013	101.38
448.234	116.38
448.455	83.38
448.675	100.38
448.896	121.38
449.117	96.38
449.338	106.38
449.559	128.38
449.779	135.38
450	91.38
450.221	86.38
450.442	73.38
450.662	101.38
450.883	93.38
451.104	108.38
451.324	96.38
451.545	93.38
451.766	95.38
451.986	88.38
452.207	82.38
452.428	94.38
452.648	100.38
452.869	112.38
453.089	107.38
453.31	114.38
453.53	107.38
453.751	95.38
453.971	97.38
454.192	116.38
454.412	88.38
454.633	90.38
454.853	103.38
455.073	89.38
455.294	107.38
455.514	92.38
455.734	85.38
455.955	85.38
456.175	85.38
456.395	91.38
456.616	87.38
456.836	102.38
457.056	95.38
457.276	74.38
457.497	83.38
457.717	99.38
457.937	95.38
458.157	83.38
458.377	97.38
458.598	116.38
458.818	140.38
459.038	148.38
459.258	103.38
459.478	92.38
459.698	84.38
459.918	92.38
460.138	98.38
460.358	84.38
460.578	93.38
460.798	93.38
461.018	92.38
461.238	85.38
461.458	89.38
461.678	97.38
461.898	94.38
462.118	86.38
462.338	68.38
462.558	77.38
462.777	79.38
462.997	79.38
463.217	81.38
463.437	81.38
463.657	86.38
463.876	89.38
464.096	97.38
464.316	98.38
464.536	94.38
464.755	85.38
464.975	108.38
465.195	148.38
465.414	143.38
465.634	91.38
465.854	79.38
466.073	84.38
466.293	86.38
466.512	89.38
466.732	101.38
466.951	90.38
467.171	88.38
467.391	97.38
467.61	102.38
467.829	104.38
468.049	85.38
468.268	90.38
468.488	87.38
468.707	95.38
468.927	94.38
469.146	86.38
469.365	81.38
469.585	94.38
469.804	89.38
470.023	87.38
470.243	105.38
470.462	101.38
470.681	112.38
470.901	92.38
471.12	89.38
471.339	93.38
471.558	81.38
471.777	96.38
471.997	97.38
472.216	95.38
472.435	109.38
472.654	98.38
472.873	92.38
473.092	80.38
473.311	75.38
473.53	78.38
473.749	83.38
473.968	93.38
474.187	99.38
474.406	87.38
474.625	87.38
474.844	86.38
475.063	84.38
475.282	99.38
475.501	98.38
475.72	92.38
475.939	84.38
476.158	79.38
476.377	92.38
476.596	87.38
476.814	97.38
477.033	96.38
477.252	84.38
477.471	87.38
477.69	87.38
477.908	97.38
478.127	98.38
478.346	91.38
478.564	87.38
478.783	94.38
479.002	94.38
479.22	88.38
479.439	96.38
479.658	97.38
479.876	93.38
480.095	95.38
480.313	88.38
480.532	98.38
480.751	93.38
480.969	88.38
481.188	105.38
481.406	92.38
481.624	97.38
481.843	91.38
482.061	98.38
482.28	86.38
482.498	85.38
482.717	99.38
482.935	99.38
483.153	82.38
483.372	77.38
483.59	97.38
483.808	90.38
484.027	88.38
484.245	97.38
484.463	101.38
484.681	87.38
484.9	105.38
485.118	95.38
485.336	90.38
485.554	98.38
485.772	116.38
485.99	111.38
486.209	89.38
486.427	111.38
486.645	107.38
486.863	118.38
487.081	100.38
487.299	92.38
487.517	96.38
487.735	98.38
487.953	88.38
488.171	77.38
488.389	93.38
488.607	102.38
488.825	96.38
489.043	86.38
489.261	85.38
489.479	104.38
489.696	88.38
489.914	84.38
490.132	90.38
490.35	90.38
490.568	79.38
490.786	87.38
491.003	92.38
491.221	100.38
491.439	84.38
491.657	99.38
491.874	96.38
492.092	92.38
492.31	85.38
492.527	94.38
492.745	95.38
492.963	93.38
493.18	96.38
493.398	88.38
493.615	106.38
493.833	88.38
494.05	89.38
494.268	97.38
494.485	78.38
494.703	80.38
494.92	79.38
495.138	76.38
495.355	95.38
495.573	105.38
495.79	85.38
496.008	88.38
496.225	96.38
496.442	106.38
496.66	92.38
496.877	81.38
497.094	98.38
497.312	96.38
497.529	107.38
497.746	80.38
497.963	91.38
498.181	100.38
498.398	91.38
498.615	99.38
498.832	96.38
499.049	91.38
499.267	98.38
499.484	92.38
499.701	92.38
499.918	83.38
500.135	86.38
500.352	100.38
500.569	87.38
500.786	95.38
501.003	92.38
501.22	97.38
501.437	109.38
501.654	96.38
501.871	106.38
502.088	93.38
502.305	101.38
502.522	105.38
502.739	101.38
502.956	90.38
503.172	84.38
503.389	97.38
503.606	113.38
503.823	76.38
504.04	87.38
504.256	97.38
504.473	100.38
504.69	94.38
504.907	83.38
505.123	95.38
505.34	90.38
505.557	84.38
505.773	85.38
505.99	83.38
506.207	94.38
506.423	96.38
506.64	94.38
506.856	97.38
507.073	96.38
507.289	94.38
507.506	87.38
507.722	116.38
507.939	109.38
508.155	88.38
508.372	88.38
508.588	100.38
508.805	109.38
509.021	95.38
509.238	89.38
509.454	108.38
509.67	104.38
509.887	128.38
510.103	140.38
510.319	235.38
510.536	795.38
510.752	2525.38
510.968	696.38
511.184	165.38
511.401	118.38
511.617	100.38
511.833	109.38
512.049	103.38
512.265	84.38
512.481	113.38
512.698	93.38
512.914	86.38
513.13	102.38
513.346	97.38
513.562	107.38
513.778	108.38
513.994	98.38
514.21	99.38
514.426	125.38
514.642	118.38
514.858	130.38
515.074	168.38
515.29	457.38
515.506	1487.38
515.721	537.38
515.937	142.38
