Data from Uncirc_1995_H10_HRD10591_00087.txt Node
Date: Wed Jan 03 11:35:51 EST 2024
User: Yrep
Spectrometer: HR+D1059
Trigger mode: 1
Integration Time (sec): 1.000000E-1
Scans to average: 1
Electric dark correction enabled: true
Nonlinearity correction enabled: false
Boxcar width: 0
XAxis mode: Wavelengths
Number of Pixels in Spectrum: 2048
>>>>>Begin Spectral Data<<<<<
223.165	-14.38
223.4	-14.38
223.635	-14.38
223.869	-23.38
224.104	-35.38
224.338	-36.38
224.573	-15.38
224.808	-16.38
225.042	-0.38
225.277	-0.38
225.511	-10.38
225.746	9.62
225.98	15.62
226.215	19.62
226.449	18.62
226.683	27.62
226.918	31.62
227.152	29.62
227.387	47.62
227.621	37.62
227.856	43.62
228.09	46.62
228.324	53.62
228.559	42.62
228.793	50.62
229.027	58.62
229.262	58.62
229.496	80.62
229.73	87.62
229.964	64.62
230.199	72.62
230.433	72.62
230.667	71.62
230.901	78.62
231.136	73.62
231.37	69.62
231.604	83.62
231.838	84.62
232.072	75.62
232.306	65.62
232.541	77.62
232.775	82.62
233.009	77.62
233.243	80.62
233.477	72.62
233.711	76.62
233.945	86.62
234.179	69.62
234.413	80.62
234.647	62.62
234.881	61.62
235.115	85.62
235.349	77.62
235.583	85.62
235.817	76.62
236.051	74.62
236.285	86.62
236.519	71.62
236.753	68.62
236.987	77.62
237.221	82.62
237.455	74.62
237.689	78.62
237.922	73.62
238.156	82.62
238.39	66.62
238.624	89.62
238.858	74.62
239.091	77.62
239.325	72.62
239.559	71.62
239.793	70.62
240.027	74.62
240.26	79.62
240.494	70.62
240.728	75.62
240.961	77.62
241.195	85.62
241.429	92.62
241.662	77.62
241.896	72.62
242.13	89.62
242.363	62.62
242.597	88.62
242.83	86.62
243.064	77.62
243.298	69.62
243.531	92.62
243.765	74.62
243.998	79.62
244.232	63.62
244.465	73.62
244.699	82.62
244.932	70.62
245.166	83.62
245.399	96.62
245.633	89.62
245.866	79.62
246.099	88.62
246.333	69.62
246.566	80.62
246.8	77.62
247.033	70.62
247.266	98.62
247.5	89.62
247.733	77.62
247.966	81.62
248.2	83.62
248.433	81.62
248.666	83.62
248.899	82.62
249.133	72.62
249.366	90.62
249.599	72.62
249.832	80.62
250.066	84.62
250.299	79.62
250.532	77.62
250.765	85.62
250.998	76.62
251.231	80.62
251.465	78.62
251.698	78.62
251.931	78.62
252.164	74.62
252.397	87.62
252.63	70.62
252.863	64.62
253.096	83.62
253.329	85.62
253.562	75.62
253.795	94.62
254.028	88.62
254.261	74.62
254.494	89.62
254.727	87.62
254.96	71.62
255.193	88.62
255.426	74.62
255.659	76.62
255.892	85.62
256.124	84.62
256.357	61.62
256.59	76.62
256.823	72.62
257.056	80.62
257.289	91.62
257.521	88.62
257.754	69.62
257.987	91.62
258.22	72.62
258.452	70.62
258.685	71.62
258.918	73.62
259.151	78.62
259.383	81.62
259.616	63.62
259.849	93.62
260.081	89.62
260.314	76.62
260.547	76.62
260.779	84.62
261.012	79.62
261.244	87.62
261.477	86.62
261.71	103.62
261.942	104.62
262.175	109.62
262.407	84.62
262.64	70.62
262.872	96.62
263.105	72.62
263.337	85.62
263.57	75.62
263.802	87.62
264.035	79.62
264.267	64.62
264.499	81.62
264.732	83.62
264.964	86.62
265.197	87.62
265.429	82.62
265.661	99.62
265.894	84.62
266.126	80.62
266.358	84.62
266.591	74.62
266.823	72.62
267.055	78.62
267.287	69.62
267.52	74.62
267.752	86.62
267.984	72.62
268.216	73.62
268.448	80.62
268.681	69.62
268.913	72.62
269.145	74.62
269.377	82.62
269.609	88.62
269.841	76.62
270.073	92.62
270.306	74.62
270.538	80.62
270.77	70.62
271.002	79.62
271.234	81.62
271.466	104.62
271.698	88.62
271.93	79.62
272.162	79.62
272.394	82.62
272.626	89.62
272.858	75.62
273.09	81.62
273.322	84.62
273.553	80.62
273.785	76.62
274.017	81.62
274.249	89.62
274.481	99.62
274.713	82.62
274.945	96.62
275.176	94.62
275.408	89.62
275.64	80.62
275.872	80.62
276.104	92.62
276.335	84.62
276.567	102.62
276.799	96.62
277.031	94.62
277.262	94.62
277.494	93.62
277.726	84.62
277.957	77.62
278.189	84.62
278.421	91.62
278.652	82.62
278.884	74.62
279.115	78.62
279.347	83.62
279.579	83.62
279.81	93.62
280.042	83.62
280.273	89.62
280.505	78.62
280.736	87.62
280.968	92.62
281.199	89.62
281.431	81.62
281.662	93.62
281.894	85.62
282.125	105.62
282.356	123.62
282.588	136.62
282.819	130.62
283.051	95.62
283.282	84.62
283.513	83.62
283.745	83.62
283.976	81.62
284.207	85.62
284.439	77.62
284.67	74.62
284.901	89.62
285.132	91.62
285.364	78.62
285.595	87.62
285.826	92.62
286.057	93.62
286.288	80.62
286.52	91.62
286.751	80.62
286.982	79.62
287.213	82.62
287.444	91.62
287.675	98.62
287.906	85.62
288.138	86.62
288.369	92.62
288.6	97.62
288.831	91.62
289.062	89.62
289.293	92.62
289.524	80.62
289.755	88.62
289.986	81.62
290.217	89.62
290.448	90.62
290.679	90.62
290.91	91.62
291.141	79.62
291.371	99.62
291.602	85.62
291.833	96.62
292.064	74.62
292.295	80.62
292.526	98.62
292.757	93.62
292.987	82.62
293.218	81.62
293.449	80.62
293.68	80.62
293.91	88.62
294.141	87.62
294.372	76.62
294.603	92.62
294.833	85.62
295.064	98.62
295.295	80.62
295.525	91.62
295.756	89.62
295.987	115.62
296.217	133.62
296.448	132.62
296.679	101.62
296.909	90.62
297.14	74.62
297.37	82.62
297.601	80.62
297.831	69.62
298.062	88.62
298.292	81.62
298.523	80.62
298.753	86.62
298.984	79.62
299.214	65.62
299.445	93.62
299.675	102.62
299.905	98.62
300.136	78.62
300.366	93.62
300.597	80.62
300.827	105.62
301.057	105.62
301.288	94.62
301.518	86.62
301.748	91.62
301.979	93.62
302.209	95.62
302.439	86.62
302.669	92.62
302.9	108.62
303.13	93.62
303.36	88.62
303.59	101.62
303.82	101.62
304.051	90.62
304.281	103.62
304.511	95.62
304.741	85.62
304.971	74.62
305.201	93.62
305.431	85.62
305.661	110.62
305.891	88.62
306.121	84.62
306.352	96.62
306.582	104.62
306.812	89.62
307.042	88.62
307.272	88.62
307.502	108.62
307.731	94.62
307.961	79.62
308.191	94.62
308.421	79.62
308.651	98.62
308.881	104.62
309.111	90.62
309.341	97.62
309.571	87.62
309.8	90.62
310.03	101.62
310.26	105.62
310.49	88.62
310.72	94.62
310.949	91.62
311.179	86.62
311.409	89.62
311.639	83.62
311.868	81.62
312.098	92.62
312.328	100.62
312.557	95.62
312.787	95.62
313.017	89.62
313.246	90.62
313.476	80.62
313.706	92.62
313.935	102.62
314.165	98.62
314.394	104.62
314.624	96.62
314.853	106.62
315.083	88.62
315.312	78.62
315.542	85.62
315.771	88.62
316.001	93.62
316.23	103.62
316.46	89.62
316.689	101.62
316.919	86.62
317.148	91.62
317.377	80.62
317.607	94.62
317.836	90.62
318.065	97.62
318.295	76.62
318.524	100.62
318.753	88.62
318.983	90.62
319.212	103.62
319.441	103.62
319.67	94.62
319.9	91.62
320.129	92.62
320.358	95.62
320.587	101.62
320.816	94.62
321.046	97.62
321.275	97.62
321.504	88.62
321.733	102.62
321.962	99.62
322.191	106.62
322.42	108.62
322.649	108.62
322.878	115.62
323.108	121.62
323.337	114.62
323.566	148.62
323.795	150.62
324.024	224.62
324.253	404.62
324.482	884.62
324.71	1830.62
324.939	2373.62
325.168	896.62
325.397	256.62
325.626	159.62
325.855	128.62
326.084	139.62
326.313	136.62
326.542	162.62
326.77	246.62
326.999	487.62
327.228	1018.62
327.457	1850.62
327.686	1460.62
327.914	380.62
328.143	187.62
328.372	134.62
328.6	122.62
328.829	125.62
329.058	105.62
329.287	116.62
329.515	105.62
329.744	96.62
329.972	108.62
330.201	105.62
330.43	113.62
330.658	125.62
330.887	136.62
331.115	99.62
331.344	97.62
331.572	102.62
331.801	88.62
332.03	92.62
332.258	101.62
332.486	87.62
332.715	89.62
332.943	103.62
333.172	96.62
333.4	109.62
333.629	104.62
333.857	118.62
334.085	97.62
334.314	92.62
334.542	106.62
334.771	107.62
334.999	107.62
335.227	95.62
335.455	102.62
335.684	94.62
335.912	94.62
336.14	98.62
336.369	103.62
336.597	102.62
336.825	94.62
337.053	94.62
337.281	97.62
337.51	88.62
337.738	106.62
337.966	95.62
338.194	82.62
338.422	85.62
338.65	87.62
338.878	96.62
339.106	98.62
339.334	104.62
339.562	88.62
339.79	84.62
340.018	87.62
340.246	99.62
340.474	98.62
340.702	87.62
340.93	93.62
341.158	78.62
341.386	105.62
341.614	91.62
341.842	84.62
342.07	92.62
342.298	82.62
342.526	82.62
342.754	75.62
342.981	87.62
343.209	94.62
343.437	85.62
343.665	98.62
343.893	81.62
344.12	86.62
344.348	101.62
344.576	94.62
344.804	94.62
345.031	93.62
345.259	93.62
345.487	105.62
345.714	97.62
345.942	95.62
346.17	93.62
346.397	103.62
346.625	88.62
346.853	103.62
347.08	89.62
347.308	102.62
347.535	92.62
347.763	91.62
347.99	90.62
348.218	105.62
348.445	104.62
348.673	105.62
348.9	97.62
349.128	99.62
349.355	86.62
349.583	86.62
349.81	86.62
350.037	82.62
350.265	92.62
350.492	80.62
350.72	104.62
350.947	106.62
351.174	114.62
351.402	100.62
351.629	101.62
351.856	87.62
352.083	99.62
352.311	109.62
352.538	105.62
352.765	107.62
352.992	109.62
353.22	109.62
353.447	86.62
353.674	97.62
353.901	93.62
354.128	90.62
354.355	113.62
354.583	100.62
354.81	91.62
355.037	77.62
355.264	102.62
355.491	92.62
355.718	84.62
355.945	76.62
356.172	94.62
356.399	85.62
356.626	89.62
356.853	88.62
357.08	92.62
357.307	95.62
357.534	99.62
357.761	96.62
357.988	94.62
358.215	93.62
358.441	96.62
358.668	102.62
358.895	89.62
359.122	78.62
359.349	89.62
359.576	86.62
359.802	113.62
360.029	95.62
360.256	111.62
360.483	84.62
360.709	82.62
360.936	104.62
361.163	94.62
361.39	90.62
361.616	91.62
361.843	74.62
362.07	86.62
362.296	96.62
362.523	96.62
362.749	88.62
362.976	92.62
363.203	83.62
363.429	82.62
363.656	91.62
363.882	105.62
364.109	83.62
364.335	78.62
364.562	93.62
364.788	81.62
365.015	94.62
365.241	98.62
365.468	106.62
365.694	92.62
365.92	97.62
366.147	84.62
366.373	82.62
366.599	80.62
366.826	87.62
367.052	98.62
367.278	86.62
367.505	91.62
367.731	88.62
367.957	90.62
368.184	71.62
368.41	102.62
368.636	109.62
368.862	124.62
369.089	111.62
369.315	96.62
369.541	99.62
369.767	90.62
369.993	94.62
370.219	92.62
370.445	100.62
370.672	80.62
370.898	92.62
371.124	87.62
371.35	82.62
371.576	93.62
371.802	90.62
372.028	76.62
372.254	87.62
372.48	74.62
372.706	92.62
372.932	80.62
373.158	84.62
373.384	85.62
373.61	90.62
373.835	103.62
374.061	74.62
374.287	66.62
374.513	93.62
374.739	86.62
374.965	75.62
375.191	95.62
375.416	89.62
375.642	91.62
375.868	84.62
376.094	98.62
376.319	98.62
376.545	85.62
376.771	88.62
376.997	78.62
377.222	91.62
377.448	79.62
377.674	86.62
377.899	78.62
378.125	88.62
378.35	91.62
378.576	78.62
378.802	86.62
379.027	82.62
379.253	89.62
379.478	102.62
379.704	87.62
379.929	86.62
380.155	103.62
380.38	85.62
380.606	70.62
380.831	88.62
381.057	103.62
381.282	80.62
381.507	95.62
381.733	88.62
381.958	104.62
382.184	95.62
382.409	90.62
382.634	94.62
382.86	109.62
383.085	95.62
383.31	106.62
383.535	96.62
383.761	104.62
383.986	87.62
384.211	82.62
384.436	97.62
384.662	95.62
384.887	97.62
385.112	98.62
385.337	83.62
385.562	94.62
385.787	101.62
386.013	107.62
386.238	109.62
386.463	105.62
386.688	102.62
386.913	94.62
387.138	101.62
387.363	89.62
387.588	97.62
387.813	88.62
388.038	106.62
388.263	114.62
388.488	108.62
388.713	94.62
388.938	95.62
389.163	91.62
389.387	84.62
389.612	108.62
389.837	88.62
390.062	78.62
390.287	89.62
390.512	90.62
390.736	86.62
390.961	75.62
391.186	86.62
391.411	98.62
391.636	87.62
391.86	95.62
392.085	96.62
392.31	92.62
392.534	95.62
392.759	95.62
392.984	77.62
393.208	74.62
393.433	79.62
393.658	70.62
393.882	91.62
394.107	85.62
394.331	78.62
394.556	81.62
394.78	75.62
395.005	82.62
395.229	77.62
395.454	89.62
395.678	83.62
395.903	76.62
396.127	79.62
396.352	102.62
396.576	82.62
396.801	92.62
397.025	81.62
397.249	68.62
397.474	99.62
397.698	77.62
397.922	89.62
398.147	93.62
398.371	78.62
398.595	85.62
398.82	85.62
399.044	90.62
399.268	86.62
399.492	83.62
399.717	89.62
399.941	82.62
400.165	88.62
400.389	77.62
400.613	90.62
400.837	88.62
401.062	86.62
401.286	81.62
401.51	89.62
401.734	96.62
401.958	102.62
402.182	108.62
402.406	138.62
402.63	111.62
402.854	86.62
403.078	102.62
403.302	105.62
403.526	92.62
403.75	87.62
403.974	89.62
404.198	93.62
404.422	86.62
404.645	96.62
404.869	88.62
405.093	95.62
405.317	89.62
405.541	96.62
405.765	90.62
405.988	115.62
406.212	180.62
406.436	217.62
406.66	146.62
406.883	82.62
407.107	88.62
407.331	93.62
407.555	88.62
407.778	101.62
408.002	60.62
408.226	72.62
408.449	81.62
408.673	103.62
408.896	88.62
409.12	94.62
409.344	93.62
409.567	91.62
409.791	88.62
410.014	104.62
410.238	93.62
410.461	96.62
410.685	76.62
410.908	105.62
411.132	101.62
411.355	94.62
411.578	87.62
411.802	80.62
412.025	76.62
412.249	85.62
412.472	72.62
412.695	78.62
412.919	72.62
413.142	82.62
413.365	76.62
413.589	76.62
413.812	95.62
414.035	81.62
414.258	96.62
414.482	75.62
414.705	88.62
414.928	94.62
415.151	102.62
415.374	80.62
415.597	78.62
415.821	74.62
416.044	86.62
416.267	84.62
416.49	80.62
416.713	89.62
416.936	85.62
417.159	107.62
417.382	78.62
417.605	87.62
417.828	86.62
418.051	87.62
418.274	95.62
418.497	97.62
418.72	89.62
418.943	71.62
419.166	92.62
419.389	88.62
419.611	84.62
419.834	85.62
420.057	98.62
420.28	89.62
420.503	106.62
420.726	87.62
420.948	96.62
421.171	83.62
421.394	80.62
421.617	92.62
421.839	92.62
422.062	102.62
422.285	95.62
422.507	101.62
422.73	83.62
422.953	96.62
423.175	90.62
423.398	74.62
423.621	92.62
423.843	85.62
424.066	84.62
424.288	85.62
424.511	96.62
424.733	96.62
424.956	105.62
425.178	104.62
425.401	96.62
425.623	80.62
425.846	93.62
426.068	91.62
426.291	74.62
426.513	79.62
426.735	89.62
426.958	74.62
427.18	107.62
427.402	129.62
427.625	175.62
427.847	118.62
428.069	94.62
428.292	85.62
428.514	86.62
428.736	75.62
428.958	80.62
429.181	82.62
429.403	85.62
429.625	81.62
429.847	97.62
430.069	96.62
430.292	85.62
430.514	89.62
430.736	78.62
430.958	97.62
431.18	75.62
431.402	75.62
431.624	73.62
431.846	90.62
432.068	72.62
432.29	84.62
432.512	86.62
432.734	80.62
432.956	79.62
433.178	97.62
433.4	101.62
433.622	89.62
433.844	85.62
434.066	101.62
434.287	92.62
434.509	92.62
434.731	85.62
434.953	88.62
435.175	79.62
435.397	81.62
435.618	85.62
435.84	96.62
436.062	121.62
436.284	117.62
436.505	120.62
436.727	88.62
436.949	94.62
437.17	87.62
437.392	88.62
437.614	80.62
437.835	102.62
438.057	98.62
438.278	118.62
438.5	96.62
438.721	123.62
438.943	87.62
439.165	71.62
439.386	91.62
439.608	90.62
439.829	90.62
440.05	98.62
440.272	128.62
440.493	93.62
440.715	80.62
440.936	75.62
441.158	84.62
441.379	109.62
441.6	89.62
441.822	94.62
442.043	98.62
442.264	105.62
442.486	81.62
442.707	94.62
442.928	104.62
443.149	126.62
443.371	125.62
443.592	90.62
443.813	108.62
444.034	112.62
444.255	90.62
444.476	91.62
444.698	78.62
444.919	100.62
445.14	103.62
445.361	108.62
445.582	117.62
445.803	124.62
446.024	129.62
446.245	132.62
446.466	105.62
446.687	79.62
446.908	86.62
447.129	93.62
447.35	85.62
447.571	80.62
447.792	92.62
448.013	79.62
448.234	95.62
448.455	86.62
448.675	98.62
448.896	138.62
449.117	104.62
449.338	87.62
449.559	112.62
449.779	118.62
450	91.62
450.221	88.62
450.442	94.62
450.662	86.62
450.883	98.62
451.104	102.62
451.324	82.62
451.545	69.62
451.766	84.62
451.986	92.62
452.207	100.62
452.428	107.62
452.648	78.62
452.869	105.62
453.089	113.62
453.31	109.62
453.53	82.62
453.751	86.62
453.971	97.62
454.192	110.62
454.412	85.62
454.633	69.62
454.853	81.62
455.073	80.62
455.294	85.62
455.514	104.62
455.734	95.62
455.955	81.62
456.175	75.62
456.395	80.62
456.616	72.62
456.836	77.62
457.056	70.62
457.276	76.62
457.497	89.62
457.717	80.62
457.937	98.62
458.157	109.62
458.377	108.62
458.598	86.62
458.818	135.62
459.038	144.62
459.258	91.62
459.478	86.62
459.698	73.62
459.918	86.62
460.138	91.62
460.358	88.62
460.578	84.62
460.798	88.62
461.018	100.62
461.238	88.62
461.458	102.62
461.678	80.62
461.898	77.62
462.118	73.62
462.338	102.62
462.558	89.62
462.777	92.62
462.997	82.62
463.217	89.62
463.437	76.62
463.657	94.62
463.876	77.62
464.096	93.62
464.316	92.62
464.536	100.62
464.755	94.62
464.975	99.62
465.195	157.62
465.414	146.62
465.634	103.62
465.854	78.62
466.073	75.62
466.293	85.62
466.512	72.62
466.732	78.62
466.951	77.62
467.171	84.62
467.391	86.62
467.61	93.62
467.829	84.62
468.049	86.62
468.268	97.62
468.488	75.62
468.707	72.62
468.927	93.62
469.146	74.62
469.365	94.62
469.585	94.62
469.804	75.62
470.023	90.62
470.243	89.62
470.462	84.62
470.681	101.62
470.901	86.62
471.12	87.62
471.339	79.62
471.558	91.62
471.777	90.62
471.997	93.62
472.216	84.62
472.435	88.62
472.654	84.62
472.873	79.62
473.092	78.62
473.311	80.62
473.53	90.62
473.749	92.62
473.968	92.62
474.187	93.62
474.406	78.62
474.625	94.62
474.844	77.62
475.063	77.62
475.282	78.62
475.501	75.62
475.72	81.62
475.939	90.62
476.158	83.62
476.377	93.62
476.596	84.62
476.814	77.62
477.033	87.62
477.252	84.62
477.471	95.62
477.69	88.62
477.908	98.62
478.127	98.62
478.346	77.62
478.564	90.62
478.783	92.62
479.002	93.62
479.22	105.62
479.439	104.62
479.658	112.62
479.876	92.62
480.095	83.62
480.313	74.62
480.532	93.62
480.751	86.62
480.969	94.62
481.188	110.62
481.406	104.62
481.624	94.62
481.843	93.62
482.061	82.62
482.28	92.62
482.498	83.62
482.717	97.62
482.935	97.62
483.153	104.62
483.372	84.62
483.59	88.62
483.808	86.62
484.027	80.62
484.245	96.62
484.463	100.62
484.681	93.62
484.9	96.62
485.118	109.62
485.336	95.62
485.554	104.62
485.772	94.62
485.99	102.62
486.209	102.62
486.427	97.62
486.645	109.62
486.863	113.62
487.081	92.62
487.299	96.62
487.517	100.62
487.735	83.62
487.953	90.62
488.171	85.62
488.389	88.62
488.607	91.62
488.825	85.62
489.043	80.62
489.261	88.62
489.479	74.62
489.696	97.62
489.914	93.62
490.132	84.62
490.35	89.62
490.568	88.62
490.786	88.62
491.003	85.62
491.221	83.62
491.439	93.62
491.657	87.62
491.874	91.62
492.092	89.62
492.31	87.62
492.527	78.62
492.745	85.62
492.963	86.62
493.18	87.62
493.398	90.62
493.615	96.62
493.833	88.62
494.05	108.62
494.268	89.62
494.485	92.62
494.703	90.62
494.92	82.62
495.138	91.62
495.355	88.62
495.573	95.62
495.79	84.62
496.008	99.62
496.225	90.62
496.442	90.62
496.66	95.62
496.877	76.62
497.094	85.62
497.312	78.62
497.529	78.62
497.746	94.62
497.963	86.62
498.181	89.62
498.398	74.62
498.615	95.62
498.832	93.62
499.049	96.62
499.267	86.62
499.484	77.62
499.701	85.62
499.918	81.62
500.135	86.62
500.352	90.62
500.569	102.62
500.786	100.62
501.003	95.62
501.22	84.62
501.437	86.62
501.654	94.62
501.871	113.62
502.088	84.62
502.305	77.62
502.522	87.62
502.739	79.62
502.956	92.62
503.172	83.62
503.389	103.62
503.606	89.62
503.823	107.62
504.04	87.62
504.256	86.62
504.473	82.62
504.69	95.62
504.907	85.62
505.123	81.62
505.34	82.62
505.557	90.62
505.773	78.62
505.99	78.62
506.207	76.62
506.423	91.62
506.64	80.62
506.856	84.62
507.073	91.62
507.289	102.62
507.506	100.62
507.722	96.62
507.939	98.62
508.155	94.62
508.372	100.62
508.588	95.62
508.805	102.62
509.021	101.62
509.238	102.62
509.454	87.62
509.67	98.62
509.887	119.62
510.103	140.62
510.319	208.62
510.536	817.62
510.752	2559.62
510.968	719.62
511.184	167.62
511.401	100.62
511.617	93.62
511.833	91.62
512.049	103.62
512.265	101.62
512.481	90.62
512.698	69.62
512.914	89.62
513.13	101.62
513.346	96.62
513.562	106.62
513.778	102.62
513.994	80.62
514.21	103.62
514.426	106.62
514.642	129.62
514.858	120.62
515.074	167.62
515.29	460.62
515.506	1503.62
515.721	538.62
515.937	138.62
516.153	110.62
