Data from Uncirc_1995_H10_HRD10591_00065.txt Node
Date: Wed Jan 03 11:35:46 EST 2024
User: Yrep
Spectrometer: HR+D1059
Trigger mode: 1
Integration Time (sec): 1.000000E-1
Scans to average: 1
Electric dark correction enabled: true
Nonlinearity correction enabled: false
Boxcar width: 0
XAxis mode: Wavelengths
Number of Pixels in Spectrum: 2048
>>>>>Begin Spectral Data<<<<<
223.165	-8
223.4	-8
223.635	-8
223.869	-33
224.104	-34
224.338	-11
224.573	-3
224.808	-9
225.042	0
225.277	1
225.511	0
225.746	4
225.98	-6
226.215	20
226.449	13
226.683	14
226.918	24
227.152	28
227.387	25
227.621	37
227.856	41
228.09	34
228.324	46
228.559	57
228.793	74
229.027	64
229.262	49
229.496	75
229.73	81
229.964	90
230.199	77
230.433	75
230.667	81
230.901	80
231.136	79
231.37	84
231.604	85
231.838	76
232.072	73
232.306	99
232.541	83
232.775	81
233.009	82
233.243	74
233.477	66
233.711	60
233.945	72
234.179	79
234.413	78
234.647	73
234.881	84
235.115	84
235.349	74
235.583	80
235.817	92
236.051	78
236.285	84
236.519	84
236.753	76
236.987	78
237.221	70
237.455	84
237.689	65
237.922	68
238.156	76
238.39	73
238.624	72
238.858	74
239.091	80
239.325	84
239.559	80
239.793	77
240.027	89
240.26	76
240.494	78
240.728	66
240.961	69
241.195	93
241.429	88
241.662	73
241.896	76
242.13	78
242.363	72
242.597	79
242.83	80
243.064	81
243.298	89
243.531	88
243.765	87
243.998	81
244.232	85
244.465	80
244.699	72
244.932	61
245.166	72
245.399	66
245.633	80
245.866	76
246.099	77
246.333	73
246.566	79
246.8	84
247.033	82
247.266	80
247.5	60
247.733	73
247.966	84
248.2	79
248.433	87
248.666	85
248.899	83
249.133	92
249.366	84
249.599	92
249.832	89
250.066	91
250.299	97
250.532	88
250.765	82
250.998	77
251.231	74
251.465	80
251.698	70
251.931	55
252.164	79
252.397	70
252.63	74
252.863	84
253.096	73
253.329	68
253.562	75
253.795	78
254.028	80
254.261	65
254.494	87
254.727	94
254.96	92
255.193	83
255.426	72
255.659	77
255.892	97
256.124	105
256.357	76
256.59	79
256.823	68
257.056	77
257.289	86
257.521	89
257.754	76
257.987	72
258.22	77
258.452	71
258.685	62
258.918	86
259.151	77
259.383	73
259.616	94
259.849	74
260.081	78
260.314	78
260.547	81
260.779	79
261.012	85
261.244	74
261.477	97
261.71	95
261.942	116
262.175	105
262.407	85
262.64	83
262.872	98
263.105	74
263.337	86
263.57	73
263.802	76
264.035	90
264.267	82
264.499	84
264.732	84
264.964	94
265.197	79
265.429	84
265.661	79
265.894	86
266.126	76
266.358	92
266.591	85
266.823	80
267.055	85
267.287	74
267.52	76
267.752	87
267.984	83
268.216	89
268.448	83
268.681	78
268.913	73
269.145	81
269.377	69
269.609	98
269.841	72
270.073	74
270.306	81
270.538	74
270.77	87
271.002	71
271.234	78
271.466	82
271.698	76
271.93	85
272.162	71
272.394	84
272.626	89
272.858	89
273.09	77
273.322	86
273.553	79
273.785	77
274.017	81
274.249	95
274.481	81
274.713	85
274.945	78
275.176	77
275.408	82
275.64	88
275.872	81
276.104	83
276.335	95
276.567	80
276.799	92
277.031	97
277.262	93
277.494	83
277.726	78
277.957	76
278.189	69
278.421	98
278.652	86
278.884	90
279.115	74
279.347	79
279.579	84
279.81	89
280.042	87
280.273	84
280.505	79
280.736	88
280.968	96
281.199	99
281.431	80
281.662	86
281.894	101
282.125	105
282.356	102
282.588	136
282.819	121
283.051	97
283.282	80
283.513	84
283.745	80
283.976	85
284.207	72
284.439	79
284.67	91
284.901	80
285.132	84
285.364	80
285.595	92
285.826	75
286.057	85
286.288	69
286.52	74
286.751	85
286.982	82
287.213	87
287.444	84
287.675	87
287.906	88
288.138	90
288.369	85
288.6	87
288.831	94
289.062	100
289.293	91
289.524	81
289.755	96
289.986	97
290.217	91
290.448	73
290.679	84
290.91	77
291.141	98
291.371	82
291.602	83
291.833	74
292.064	82
292.295	83
292.526	74
292.757	84
292.987	85
293.218	80
293.449	77
293.68	86
293.91	96
294.141	90
294.372	64
294.603	87
294.833	69
295.064	92
295.295	88
295.525	89
295.756	97
295.987	120
296.217	144
296.448	113
296.679	96
296.909	83
297.14	92
297.37	90
297.601	83
297.831	82
298.062	94
298.292	80
298.523	68
298.753	89
298.984	85
299.214	96
299.445	96
299.675	92
299.905	86
300.136	91
300.366	79
300.597	85
300.827	80
301.057	96
301.288	96
301.518	80
301.748	100
301.979	94
302.209	91
302.439	85
302.669	84
302.9	77
303.13	92
303.36	81
303.59	104
303.82	92
304.051	95
304.281	86
304.511	84
304.741	85
304.971	90
305.201	103
305.431	96
305.661	84
305.891	96
306.121	111
306.352	98
306.582	89
306.812	77
307.042	79
307.272	74
307.502	92
307.731	91
307.961	83
308.191	81
308.421	79
308.651	91
308.881	101
309.111	84
309.341	91
309.571	89
309.8	83
310.03	92
310.26	94
310.49	97
310.72	107
310.949	98
311.179	93
311.409	101
311.639	89
311.868	89
312.098	89
312.328	99
312.557	95
312.787	87
313.017	90
313.246	101
313.476	94
313.706	78
313.935	110
314.165	109
314.394	96
314.624	89
314.853	83
315.083	84
315.312	85
315.542	92
315.771	90
316.001	90
316.23	97
316.46	88
316.689	76
316.919	104
317.148	87
317.377	93
317.607	88
317.836	75
318.065	90
318.295	81
318.524	93
318.753	86
318.983	86
319.212	97
319.441	103
319.67	114
319.9	101
320.129	79
320.358	86
320.587	100
320.816	85
321.046	94
321.275	83
321.504	82
321.733	93
321.962	93
322.191	76
322.42	90
322.649	108
322.878	111
323.108	114
323.337	129
323.566	127
323.795	142
324.024	223
324.253	408
324.482	876
324.71	1845
324.939	2416
325.168	910
325.397	262
325.626	164
325.855	135
326.084	133
326.313	140
326.542	134
326.77	239
326.999	480
327.228	1046
327.457	1847
327.686	1515
327.914	401
328.143	204
328.372	147
328.6	107
328.829	114
329.058	124
329.287	129
329.515	111
329.744	92
329.972	93
330.201	103
330.43	95
330.658	107
330.887	143
331.115	98
331.344	98
331.572	91
331.801	110
332.03	99
332.258	99
332.486	95
332.715	93
332.943	86
333.172	87
333.4	86
333.629	102
333.857	106
334.085	90
334.314	93
334.542	83
334.771	95
334.999	73
335.227	89
335.455	107
335.684	97
335.912	94
336.14	85
336.369	93
336.597	96
336.825	94
337.053	107
337.281	93
337.51	95
337.738	85
337.966	92
338.194	90
338.422	93
338.65	92
338.878	95
339.106	96
339.334	95
339.562	99
339.79	94
340.018	101
340.246	97
340.474	88
340.702	86
340.93	82
341.158	88
341.386	94
341.614	108
341.842	91
342.07	93
342.298	89
342.526	99
342.754	94
342.981	94
343.209	92
343.437	102
343.665	91
343.893	100
344.12	70
344.348	76
344.576	72
344.804	93
345.031	92
345.259	87
345.487	88
345.714	98
345.942	96
346.17	77
346.397	89
346.625	86
346.853	91
347.08	80
347.308	81
347.535	82
347.763	94
347.99	106
348.218	104
348.445	117
348.673	87
348.9	80
349.128	84
349.355	75
349.583	91
349.81	105
350.037	87
350.265	95
350.492	94
350.72	93
350.947	93
351.174	102
351.402	93
351.629	88
351.856	99
352.083	111
352.311	85
352.538	102
352.765	98
352.992	102
353.22	119
353.447	93
353.674	108
353.901	96
354.128	100
354.355	86
354.583	97
354.81	97
355.037	96
355.264	88
355.491	97
355.718	89
355.945	100
356.172	86
356.399	85
356.626	82
356.853	85
357.08	105
357.307	91
357.534	87
357.761	100
357.988	95
358.215	86
358.441	80
358.668	94
358.895	86
359.122	81
359.349	88
359.576	73
359.802	97
360.029	117
360.256	101
360.483	94
360.709	90
360.936	104
361.163	79
361.39	88
361.616	89
361.843	85
362.07	91
362.296	80
362.523	86
362.749	80
362.976	85
363.203	85
363.429	97
363.656	88
363.882	93
364.109	89
364.335	102
364.562	85
364.788	85
365.015	82
365.241	82
365.468	94
365.694	115
365.92	99
366.147	83
366.373	82
366.599	77
366.826	85
367.052	79
367.278	79
367.505	84
367.731	100
367.957	68
368.184	77
368.41	91
368.636	96
368.862	108
369.089	113
369.315	95
369.541	86
369.767	97
369.993	86
370.219	86
370.445	93
370.672	82
370.898	82
371.124	89
371.35	96
371.576	97
371.802	87
372.028	83
372.254	83
372.48	79
372.706	80
372.932	92
373.158	79
373.384	87
373.61	89
373.835	90
374.061	96
374.287	91
374.513	86
374.739	79
374.965	70
375.191	94
375.416	90
375.642	86
375.868	98
376.094	88
376.319	70
376.545	101
376.771	78
376.997	95
377.222	92
377.448	86
377.674	87
377.899	88
378.125	96
378.35	97
378.576	95
378.802	76
379.027	86
379.253	96
379.478	87
379.704	86
379.929	92
380.155	95
380.38	85
380.606	92
380.831	89
381.057	101
381.282	95
381.507	104
381.733	91
381.958	93
382.184	88
382.409	88
382.634	98
382.86	86
383.085	102
383.31	125
383.535	107
383.761	86
383.986	101
384.211	90
384.436	89
384.662	108
384.887	97
385.112	99
385.337	106
385.562	95
385.787	88
386.013	108
386.238	105
386.463	91
386.688	111
386.913	100
387.138	97
387.363	102
387.588	101
387.813	95
388.038	98
388.263	105
388.488	88
388.713	81
388.938	97
389.163	102
389.387	101
389.612	98
389.837	86
390.062	100
390.287	90
390.512	80
390.736	85
390.961	82
391.186	103
391.411	95
391.636	93
391.86	94
392.085	94
392.31	77
392.534	86
392.759	94
392.984	73
393.208	89
393.433	89
393.658	93
393.882	89
394.107	93
394.331	88
394.556	80
394.78	80
395.005	96
395.229	96
395.454	89
395.678	87
395.903	72
396.127	72
396.352	90
396.576	92
396.801	94
397.025	82
397.249	80
397.474	101
397.698	84
397.922	79
398.147	84
398.371	79
398.595	89
398.82	88
399.044	74
399.268	94
399.492	81
399.717	87
399.941	86
400.165	88
400.389	84
400.613	91
400.837	77
401.062	85
401.286	86
401.51	85
401.734	80
401.958	98
402.182	133
402.406	139
402.63	113
402.854	94
403.078	85
403.302	76
403.526	85
403.75	79
403.974	91
404.198	89
404.422	93
404.645	99
404.869	78
405.093	82
405.317	95
405.541	84
405.765	104
405.988	120
406.212	185
406.436	234
406.66	141
406.883	104
407.107	92
407.331	90
407.555	100
407.778	96
408.002	78
408.226	83
408.449	82
408.673	97
408.896	94
409.12	93
409.344	95
409.567	86
409.791	77
410.014	71
410.238	90
410.461	88
410.685	96
410.908	91
411.132	109
411.355	86
411.578	86
411.802	86
412.025	77
412.249	76
412.472	84
412.695	92
412.919	85
413.142	92
413.365	88
413.589	76
413.812	72
414.035	98
414.258	84
414.482	97
414.705	95
414.928	103
415.151	96
415.374	88
415.597	78
415.821	87
416.044	84
416.267	98
416.49	76
416.713	75
416.936	101
417.159	78
417.382	88
417.605	85
417.828	92
418.051	89
418.274	80
418.497	84
418.72	90
418.943	94
419.166	85
419.389	102
419.611	90
419.834	91
420.057	95
420.28	82
420.503	94
420.726	95
420.948	76
421.171	87
421.394	87
421.617	86
421.839	74
422.062	87
422.285	87
422.507	104
422.73	104
422.953	94
423.175	85
423.398	85
423.621	90
423.843	92
424.066	77
424.288	87
424.511	87
424.733	100
424.956	109
425.178	95
425.401	89
425.623	97
425.846	97
426.068	91
426.291	73
426.513	93
426.735	86
426.958	81
427.18	98
427.402	126
427.625	162
427.847	120
428.069	94
428.292	92
428.514	91
428.736	79
428.958	96
429.181	80
429.403	80
429.625	80
429.847	85
430.069	95
430.292	75
430.514	74
430.736	65
430.958	73
431.18	81
431.402	71
431.624	80
431.846	76
432.068	71
432.29	88
432.512	92
432.734	93
432.956	85
433.178	85
433.4	112
433.622	79
433.844	94
434.066	95
434.287	84
434.509	91
434.731	92
434.953	84
435.175	86
435.397	88
435.618	93
435.84	100
436.062	113
436.284	112
436.505	85
436.727	95
436.949	81
437.17	88
437.392	91
437.614	85
437.835	102
438.057	112
438.278	97
438.5	100
438.721	112
438.943	96
439.165	88
439.386	85
439.608	91
439.829	108
440.05	104
440.272	141
440.493	95
440.715	91
440.936	76
441.158	75
441.379	86
441.6	84
441.822	87
442.043	97
442.264	106
442.486	89
442.707	97
442.928	85
443.149	119
443.371	116
443.592	106
443.813	102
444.034	94
444.255	87
444.476	86
444.698	87
444.919	66
445.14	110
445.361	117
445.582	102
445.803	133
446.024	123
446.245	134
446.466	105
446.687	83
446.908	96
447.129	79
447.35	92
447.571	97
447.792	91
448.013	87
448.234	104
448.455	92
448.675	109
448.896	106
449.117	93
449.338	100
449.559	111
449.779	111
450	91
450.221	86
450.442	90
450.662	86
450.883	96
451.104	103
451.324	98
451.545	89
451.766	98
451.986	74
452.207	88
452.428	94
452.648	93
452.869	94
453.089	102
453.31	102
453.53	100
453.751	89
453.971	94
454.192	96
454.412	84
454.633	99
454.853	89
455.073	74
455.294	86
455.514	89
455.734	98
455.955	97
456.175	78
456.395	81
456.616	84
456.836	82
457.056	92
457.276	93
457.497	87
457.717	77
457.937	88
458.157	84
458.377	76
458.598	103
458.818	143
459.038	152
459.258	116
459.478	84
459.698	80
459.918	82
460.138	80
460.358	88
460.578	88
460.798	83
461.018	100
461.238	84
461.458	81
461.678	85
461.898	78
462.118	88
462.338	89
462.558	86
462.777	86
462.997	85
463.217	79
463.437	92
463.657	87
463.876	77
464.096	79
464.316	79
464.536	90
464.755	102
464.975	104
465.195	174
465.414	154
465.634	81
465.854	81
466.073	102
466.293	82
466.512	84
466.732	96
466.951	87
467.171	88
467.391	82
467.61	104
467.829	84
468.049	85
468.268	86
468.488	88
468.707	89
468.927	77
469.146	84
469.365	82
469.585	79
469.804	97
470.023	100
470.243	90
470.462	98
470.681	90
470.901	96
471.12	91
471.339	85
471.558	95
471.777	87
471.997	68
472.216	94
472.435	86
472.654	81
472.873	89
473.092	80
473.311	95
473.53	87
473.749	89
473.968	81
474.187	103
474.406	89
474.625	93
474.844	95
475.063	72
475.282	102
475.501	72
475.72	81
475.939	85
476.158	84
476.377	84
476.596	82
476.814	86
477.033	84
477.252	104
477.471	93
477.69	79
477.908	91
478.127	86
478.346	102
478.564	92
478.783	86
479.002	89
479.22	91
479.439	108
479.658	112
479.876	87
480.095	80
480.313	103
480.532	93
480.751	104
480.969	75
481.188	116
481.406	94
481.624	97
481.843	97
482.061	78
482.28	84
482.498	79
482.717	82
482.935	91
483.153	80
483.372	84
483.59	96
483.808	93
484.027	81
484.245	86
484.463	90
484.681	104
484.9	101
485.118	90
485.336	95
485.554	94
485.772	79
485.99	106
486.209	109
486.427	108
486.645	103
486.863	96
487.081	100
487.299	90
487.517	89
487.735	90
487.953	88
488.171	100
488.389	88
488.607	94
488.825	81
489.043	81
489.261	97
489.479	98
489.696	90
489.914	95
490.132	96
490.35	105
490.568	96
490.786	90
491.003	76
491.221	92
491.439	91
491.657	102
491.874	86
492.092	93
492.31	88
492.527	82
492.745	100
492.963	103
493.18	88
493.398	96
493.615	86
493.833	94
494.05	88
494.268	86
494.485	93
494.703	96
494.92	95
495.138	77
495.355	88
495.573	101
495.79	84
496.008	89
496.225	93
496.442	90
496.66	82
496.877	84
497.094	94
497.312	81
497.529	78
497.746	83
497.963	89
498.181	93
498.398	85
498.615	107
498.832	114
499.049	66
499.267	91
499.484	97
499.701	94
499.918	95
500.135	92
500.352	87
500.569	95
500.786	89
501.003	91
501.22	98
501.437	69
501.654	85
501.871	95
502.088	97
502.305	84
502.522	87
502.739	89
502.956	81
503.172	88
503.389	94
503.606	109
503.823	92
504.04	85
504.256	98
504.473	92
504.69	90
504.907	98
505.123	84
505.34	73
505.557	105
505.773	80
505.99	86
506.207	99
506.423	82
506.64	92
506.856	92
507.073	95
507.289	101
507.506	88
507.722	107
507.939	115
508.155	107
508.372	94
508.588	87
508.805	90
509.021	93
509.238	107
509.454	107
509.67	105
509.887	102
510.103	148
510.319	240
510.536	848
510.752	2701
510.968	701
511.184	156
511.401	93
511.617	93
511.833	91
512.049	87
512.265	99
512.481	96
512.698	108
512.914	88
513.13	81
513.346	83
513.562	61
513.778	89
513.994	97
514.21	102
514.426	114
514.642	132
514.858	120
515.074	177
515.29	469
515.506	1552
515.721	554
515.937	146
516.153	112
516.369	93
516.585	85
516.801	75
517.016	86
517.232	92
517.448	100
517.664	85
517.879	89
518.095	94
518.311	101
518.527	98
518.742	92
518.958	88
519.173	76
519.389	99
519.605	97
519.82	93
520.036	93
520.251	135
520.467	108
520.682	97
520.898	108
521.113	102
521.329	145
521.544	216
521.76	592
521.975	2612
522.19	1512
522.406	338
522.621	136
522.836	100
523.052	93
523.267	86
523.482	95
523.698	103
523.913	111
524.128	100
524.343	90
524.559	91
524.774	90
524.989	88
525.204	98
525.419	105
525.634	94
525.849	93
526.064	88
526.28	88
526.495	74
526.71	69
526.925	90
527.14	79
527.355	100
527.57	84
527.785	80
527.999	92
528.214	91
528.429	89
528.644	115
528.859	87
529.074	89
529.289	119
529.503	173
529.718	110
529.933	99
530.148	86
530.363	86
530.577	81
530.792	92
531.007	88
531.221	87
531.436	84
531.651	94
531.865	88
532.08	84
532.295	86
532.509	96
532.724	97
532.938	86
533.153	98
533.367	103
533.582	86
533.796	90
534.011	96
534.225	88
534.44	98
534.654	94
534.868	100
535.083	86
535.297	93
535.511	104
535.726	95
535.94	100
536.154	100
536.369	90
536.583	93
536.797	103
537.011	84
537.225	84
537.44	88
537.654	93
537.868	91
538.082	112
538.296	91
538.51	74
538.724	90
538.938	88
539.153	103
539.367	98
539.581	87
539.795	80
540.009	90
540.222	88
540.436	89
540.65	77
540.864	72
541.078	97
541.292	85
541.506	77
541.72	82
541.934	87
542.147	110
542.361	96
542.575	90
542.789	89
543.002	70
543.216	88
543.43	104
543.644	95
543.857	97
544.071	91
544.285	82
544.498	66
544.712	89
544.925	72
545.139	71
545.352	79
545.566	88
545.779	98
545.993	80
546.206	76
546.42	81
546.633	97
546.847	90
547.06	84
547.274	89
547.487	86
547.7	88
547.914	86
548.127	97
548.34	97
548.554	104
548.767	76
548.98	82
549.193	97
549.407	91
549.62	93
549.833	95
550.046	81
550.259	81
550.473	81
550.686	82
550.899	71
551.112	98
551.325	81
551.538	93
551.751	95
551.964	92
552.177	90
552.39	95
552.603	93
552.816	92
553.029	87
553.242	83
553.455	94
553.667	97
553.88	105
554.093	82
554.306	106
554.519	79
554.732	87
554.944	95
555.157	97
555.37	97
555.583	106
555.795	106
556.008	90
556.221	93
556.433	94
556.646	87
556.859	71
557.071	84
557.284	93
557.496	85
557.709	97
557.921	89
558.134	88
558.346	86
558.559	93
558.771	91
558.984	85
559.196	96
559.409	96
559.621	87
559.833	88
560.046	85
560.258	76
560.47	70
560.683	77
560.895	85
561.107	85
561.32	76
561.532	80
561.744	78
561.956	81
562.168	90
562.381	94
562.593	92
562.805	97
563.017	95
563.229	85
563.441	93
563.653	92
563.865	92
564.077	92
564.289	86
564.501	84
564.713	84
564.925	93
565.137	101
565.349	90
565.561	94
565.773	84
565.985	86
566.197	89
566.408	93
566.62	74
566.832	87
567.044	81
567.255	91
567.467	96
567.679	88
567.891	86
568.102	81
568.314	96
568.526	92
568.737	88
568.949	98
569.161	90
569.372	97
569.584	82
569.795	105
570.007	117
570.218	260
570.43	132
570.641	92
570.853	92
571.064	87
571.276	83
571.487	96
571.698	78
571.91	91
572.121	88
572.333	86
572.544	81
572.755	91
572.966	98
573.178	91
573.389	74
573.6	79
573.811	95
574.023	80
574.234	70
574.445	90
574.656	82
574.867	88
575.078	94
575.289	85
575.501	73
575.712	92
575.923	97
576.134	88
576.345	75
576.556	101
576.767	87
576.978	92
577.188	87
577.399	85
577.61	99
577.821	94
578.032	124
578.243	302
578.454	872
578.665	239
578.875	125
579.086	88
579.297	92
579.508	87
579.718	90
579.929	85
580.14	94
580.35	92
580.561	88
580.772	84
580.982	69
581.193	96
581.403	77
581.614	74
581.825	83
582.035	78
582.246	79
582.456	86
582.667	87
582.877	82
583.087	80
583.298	87
583.508	85
583.719	89
583.929	79
584.139	84
584.35	68
584.56	77
584.77	90
584.981	71
585.191	84
585.401	87
585.611	84
585.821	95
586.032	100
