Data from Uncirc_1995_H10_HRD10591_00075.txt Node
Date: Wed Jan 03 11:35:48 EST 2024
User: Yrep
Spectrometer: HR+D1059
Trigger mode: 1
Integration Time (sec): 1.000000E-1
Scans to average: 1
Electric dark correction enabled: true
Nonlinearity correction enabled: false
Boxcar width: 0
XAxis mode: Wavelengths
Number of Pixels in Spectrum: 2048
>>>>>Begin Spectral Data<<<<<
223.165	-11.75
223.4	-11.75
223.635	-11.75
223.869	-13.75
224.104	-21.75
224.338	-8.75
224.573	-36.75
224.808	-18.75
225.042	-4.75
225.277	-4.75
225.511	-6.75
225.746	0.25
225.98	24.25
226.215	16.25
226.449	15.25
226.683	13.25
226.918	33.25
227.152	25.25
227.387	37.25
227.621	28.25
227.856	43.25
228.09	55.25
228.324	54.25
228.559	59.25
228.793	67.25
229.027	53.25
229.262	65.25
229.496	65.25
229.73	79.25
229.964	63.25
230.199	83.25
230.433	87.25
230.667	73.25
230.901	75.25
231.136	88.25
231.37	69.25
231.604	92.25
231.838	74.25
232.072	82.25
232.306	73.25
232.541	77.25
232.775	83.25
233.009	85.25
233.243	88.25
233.477	88.25
233.711	78.25
233.945	78.25
234.179	80.25
234.413	74.25
234.647	79.25
234.881	76.25
235.115	81.25
235.349	94.25
235.583	68.25
235.817	80.25
236.051	79.25
236.285	80.25
236.519	80.25
236.753	80.25
236.987	85.25
237.221	86.25
237.455	68.25
237.689	98.25
237.922	76.25
238.156	67.25
238.39	68.25
238.624	75.25
238.858	81.25
239.091	75.25
239.325	92.25
239.559	80.25
239.793	75.25
240.027	84.25
240.26	80.25
240.494	71.25
240.728	74.25
240.961	72.25
241.195	85.25
241.429	58.25
241.662	65.25
241.896	71.25
242.13	88.25
242.363	88.25
242.597	80.25
242.83	77.25
243.064	73.25
243.298	81.25
243.531	78.25
243.765	90.25
243.998	89.25
244.232	73.25
244.465	88.25
244.699	83.25
244.932	71.25
245.166	88.25
245.399	82.25
245.633	77.25
245.866	81.25
246.099	90.25
246.333	82.25
246.566	80.25
246.8	80.25
247.033	92.25
247.266	67.25
247.5	66.25
247.733	72.25
247.966	67.25
248.2	73.25
248.433	88.25
248.666	73.25
248.899	87.25
249.133	81.25
249.366	89.25
249.599	108.25
249.832	83.25
250.066	88.25
250.299	74.25
250.532	80.25
250.765	80.25
250.998	73.25
251.231	90.25
251.465	84.25
251.698	94.25
251.931	87.25
252.164	81.25
252.397	70.25
252.63	92.25
252.863	85.25
253.096	71.25
253.329	71.25
253.562	77.25
253.795	77.25
254.028	77.25
254.261	79.25
254.494	83.25
254.727	74.25
254.96	83.25
255.193	81.25
255.426	84.25
255.659	90.25
255.892	75.25
256.124	75.25
256.357	87.25
256.59	86.25
256.823	84.25
257.056	89.25
257.289	84.25
257.521	76.25
257.754	79.25
257.987	85.25
258.22	77.25
258.452	97.25
258.685	87.25
258.918	76.25
259.151	82.25
259.383	84.25
259.616	90.25
259.849	74.25
260.081	84.25
260.314	79.25
260.547	99.25
260.779	85.25
261.012	66.25
261.244	90.25
261.477	83.25
261.71	87.25
261.942	99.25
262.175	109.25
262.407	80.25
262.64	59.25
262.872	77.25
263.105	71.25
263.337	85.25
263.57	91.25
263.802	87.25
264.035	89.25
264.267	81.25
264.499	88.25
264.732	84.25
264.964	76.25
265.197	76.25
265.429	75.25
265.661	96.25
265.894	79.25
266.126	88.25
266.358	74.25
266.591	87.25
266.823	78.25
267.055	76.25
267.287	76.25
267.52	85.25
267.752	94.25
267.984	91.25
268.216	70.25
268.448	79.25
268.681	81.25
268.913	83.25
269.145	86.25
269.377	100.25
269.609	94.25
269.841	95.25
270.073	82.25
270.306	86.25
270.538	88.25
270.77	68.25
271.002	71.25
271.234	76.25
271.466	80.25
271.698	94.25
271.93	81.25
272.162	80.25
272.394	92.25
272.626	100.25
272.858	92.25
273.09	85.25
273.322	95.25
273.553	74.25
273.785	94.25
274.017	85.25
274.249	95.25
274.481	77.25
274.713	81.25
274.945	83.25
275.176	87.25
275.408	77.25
275.64	84.25
275.872	78.25
276.104	86.25
276.335	88.25
276.567	88.25
276.799	96.25
277.031	96.25
277.262	92.25
277.494	97.25
277.726	96.25
277.957	88.25
278.189	88.25
278.421	75.25
278.652	95.25
278.884	88.25
279.115	98.25
279.347	95.25
279.579	92.25
279.81	91.25
280.042	65.25
280.273	79.25
280.505	91.25
280.736	76.25
280.968	89.25
281.199	90.25
281.431	89.25
281.662	86.25
281.894	96.25
282.125	101.25
282.356	115.25
282.588	120.25
282.819	101.25
283.051	101.25
283.282	93.25
283.513	103.25
283.745	86.25
283.976	90.25
284.207	89.25
284.439	81.25
284.67	81.25
284.901	81.25
285.132	82.25
285.364	76.25
285.595	91.25
285.826	78.25
286.057	77.25
286.288	89.25
286.52	95.25
286.751	90.25
286.982	97.25
287.213	85.25
287.444	82.25
287.675	83.25
287.906	81.25
288.138	92.25
288.369	90.25
288.6	84.25
288.831	79.25
289.062	86.25
289.293	84.25
289.524	92.25
289.755	94.25
289.986	90.25
290.217	92.25
290.448	98.25
290.679	84.25
290.91	84.25
291.141	78.25
291.371	92.25
291.602	85.25
291.833	95.25
292.064	91.25
292.295	90.25
292.526	108.25
292.757	80.25
292.987	87.25
293.218	82.25
293.449	95.25
293.68	93.25
293.91	87.25
294.141	98.25
294.372	101.25
294.603	100.25
294.833	78.25
295.064	95.25
295.295	89.25
295.525	81.25
295.756	100.25
295.987	127.25
296.217	143.25
296.448	113.25
296.679	104.25
296.909	98.25
297.14	81.25
297.37	95.25
297.601	74.25
297.831	87.25
298.062	95.25
298.292	90.25
298.523	83.25
298.753	88.25
298.984	90.25
299.214	87.25
299.445	94.25
299.675	94.25
299.905	100.25
300.136	99.25
300.366	87.25
300.597	85.25
300.827	108.25
301.057	97.25
301.288	108.25
301.518	106.25
301.748	102.25
301.979	107.25
302.209	91.25
302.439	86.25
302.669	83.25
302.9	92.25
303.13	85.25
303.36	99.25
303.59	104.25
303.82	103.25
304.051	117.25
304.281	84.25
304.511	94.25
304.741	87.25
304.971	83.25
305.201	98.25
305.431	89.25
305.661	85.25
305.891	95.25
306.121	99.25
306.352	98.25
306.582	94.25
306.812	77.25
307.042	89.25
307.272	88.25
307.502	88.25
307.731	93.25
307.961	92.25
308.191	78.25
308.421	104.25
308.651	90.25
308.881	92.25
309.111	91.25
309.341	103.25
309.571	105.25
309.8	92.25
310.03	97.25
310.26	100.25
310.49	92.25
310.72	86.25
310.949	89.25
311.179	95.25
311.409	85.25
311.639	104.25
311.868	96.25
312.098	107.25
312.328	87.25
312.557	84.25
312.787	108.25
313.017	92.25
313.246	101.25
313.476	85.25
313.706	92.25
313.935	92.25
314.165	87.25
314.394	103.25
314.624	91.25
314.853	96.25
315.083	94.25
315.312	91.25
315.542	90.25
315.771	104.25
316.001	92.25
316.23	93.25
316.46	83.25
316.689	86.25
316.919	101.25
317.148	98.25
317.377	101.25
317.607	90.25
317.836	75.25
318.065	95.25
318.295	103.25
318.524	91.25
318.753	91.25
318.983	91.25
319.212	112.25
319.441	114.25
319.67	112.25
319.9	110.25
320.129	89.25
320.358	94.25
320.587	96.25
320.816	83.25
321.046	99.25
321.275	107.25
321.504	94.25
321.733	107.25
321.962	120.25
322.191	93.25
322.42	105.25
322.649	115.25
322.878	110.25
323.108	121.25
323.337	124.25
323.566	126.25
323.795	153.25
324.024	209.25
324.253	407.25
324.482	847.25
324.71	1719.25
324.939	2218.25
325.168	800.25
325.397	231.25
325.626	155.25
325.855	132.25
326.084	117.25
326.313	116.25
326.542	160.25
326.77	235.25
326.999	459.25
327.228	960.25
327.457	1720.25
327.686	1379.25
327.914	369.25
328.143	207.25
328.372	144.25
328.6	126.25
328.829	109.25
329.058	125.25
329.287	116.25
329.515	106.25
329.744	101.25
329.972	113.25
330.201	95.25
330.43	99.25
330.658	119.25
330.887	121.25
331.115	101.25
331.344	100.25
331.572	101.25
331.801	102.25
332.03	103.25
332.258	90.25
332.486	101.25
332.715	102.25
332.943	111.25
333.172	89.25
333.4	93.25
333.629	115.25
333.857	121.25
334.085	106.25
334.314	97.25
334.542	101.25
334.771	97.25
334.999	105.25
335.227	99.25
335.455	93.25
335.684	90.25
335.912	97.25
336.14	83.25
336.369	104.25
336.597	101.25
336.825	105.25
337.053	97.25
337.281	86.25
337.51	89.25
337.738	101.25
337.966	99.25
338.194	101.25
338.422	123.25
338.65	106.25
338.878	100.25
339.106	89.25
339.334	102.25
339.562	99.25
339.79	88.25
340.018	94.25
340.246	90.25
340.474	89.25
340.702	87.25
340.93	98.25
341.158	90.25
341.386	84.25
341.614	87.25
341.842	105.25
342.07	89.25
342.298	76.25
342.526	89.25
342.754	94.25
342.981	87.25
343.209	77.25
343.437	101.25
343.665	99.25
343.893	90.25
344.12	99.25
344.348	76.25
344.576	89.25
344.804	87.25
345.031	100.25
345.259	91.25
345.487	90.25
345.714	97.25
345.942	97.25
346.17	92.25
346.397	82.25
346.625	85.25
346.853	99.25
347.08	93.25
347.308	91.25
347.535	109.25
347.763	99.25
347.99	92.25
348.218	108.25
348.445	108.25
348.673	107.25
348.9	95.25
349.128	99.25
349.355	92.25
349.583	90.25
349.81	94.25
350.037	95.25
350.265	107.25
350.492	105.25
350.72	101.25
350.947	109.25
351.174	110.25
351.402	103.25
351.629	97.25
351.856	100.25
352.083	116.25
352.311	107.25
352.538	111.25
352.765	107.25
352.992	113.25
353.22	120.25
353.447	117.25
353.674	110.25
353.901	97.25
354.128	91.25
354.355	108.25
354.583	100.25
354.81	94.25
355.037	94.25
355.264	96.25
355.491	100.25
355.718	87.25
355.945	92.25
356.172	91.25
356.399	91.25
356.626	92.25
356.853	92.25
357.08	97.25
357.307	100.25
357.534	86.25
357.761	107.25
357.988	102.25
358.215	84.25
358.441	98.25
358.668	66.25
358.895	71.25
359.122	75.25
359.349	83.25
359.576	102.25
359.802	82.25
360.029	103.25
360.256	101.25
360.483	85.25
360.709	93.25
360.936	82.25
361.163	93.25
361.39	98.25
361.616	88.25
361.843	96.25
362.07	91.25
362.296	89.25
362.523	94.25
362.749	83.25
362.976	102.25
363.203	100.25
363.429	96.25
363.656	84.25
363.882	90.25
364.109	104.25
364.335	95.25
364.562	85.25
364.788	97.25
365.015	94.25
365.241	95.25
365.468	113.25
365.694	119.25
365.92	109.25
366.147	103.25
366.373	101.25
366.599	96.25
366.826	90.25
367.052	92.25
367.278	88.25
367.505	95.25
367.731	96.25
367.957	96.25
368.184	85.25
368.41	101.25
368.636	101.25
368.862	119.25
369.089	109.25
369.315	102.25
369.541	100.25
369.767	97.25
369.993	109.25
370.219	96.25
370.445	95.25
370.672	81.25
370.898	92.25
371.124	95.25
371.35	87.25
371.576	97.25
371.802	90.25
372.028	94.25
372.254	90.25
372.48	72.25
372.706	83.25
372.932	86.25
373.158	101.25
373.384	85.25
373.61	91.25
373.835	101.25
374.061	99.25
374.287	89.25
374.513	98.25
374.739	98.25
374.965	102.25
375.191	75.25
375.416	90.25
375.642	95.25
375.868	92.25
376.094	76.25
376.319	97.25
376.545	88.25
376.771	99.25
376.997	100.25
377.222	94.25
377.448	83.25
377.674	81.25
377.899	93.25
378.125	89.25
378.35	79.25
378.576	92.25
378.802	92.25
379.027	93.25
379.253	96.25
379.478	97.25
379.704	88.25
379.929	94.25
380.155	96.25
380.38	98.25
380.606	98.25
380.831	81.25
381.057	104.25
381.282	93.25
381.507	88.25
381.733	110.25
381.958	99.25
382.184	108.25
382.409	101.25
382.634	96.25
382.86	107.25
383.085	93.25
383.31	100.25
383.535	108.25
383.761	97.25
383.986	97.25
384.211	101.25
384.436	86.25
384.662	83.25
384.887	90.25
385.112	82.25
385.337	99.25
385.562	114.25
385.787	88.25
386.013	97.25
386.238	121.25
386.463	102.25
386.688	100.25
386.913	110.25
387.138	97.25
387.363	109.25
387.588	89.25
387.813	90.25
388.038	100.25
388.263	105.25
388.488	101.25
388.713	83.25
388.938	108.25
389.163	99.25
389.387	97.25
389.612	101.25
389.837	100.25
390.062	99.25
390.287	106.25
390.512	109.25
390.736	97.25
390.961	99.25
391.186	87.25
391.411	81.25
391.636	107.25
391.86	95.25
392.085	90.25
392.31	89.25
392.534	88.25
392.759	89.25
392.984	84.25
393.208	83.25
393.433	83.25
393.658	96.25
393.882	80.25
394.107	80.25
394.331	91.25
394.556	78.25
394.78	92.25
395.005	89.25
395.229	96.25
395.454	79.25
395.678	97.25
395.903	91.25
396.127	88.25
396.352	97.25
396.576	95.25
396.801	89.25
397.025	80.25
397.249	91.25
397.474	99.25
397.698	98.25
397.922	96.25
398.147	73.25
398.371	88.25
398.595	92.25
398.82	88.25
399.044	75.25
399.268	94.25
399.492	92.25
399.717	86.25
399.941	91.25
400.165	80.25
400.389	83.25
400.613	99.25
400.837	90.25
401.062	94.25
401.286	100.25
401.51	84.25
401.734	89.25
401.958	107.25
402.182	137.25
402.406	151.25
402.63	120.25
402.854	93.25
403.078	93.25
403.302	93.25
403.526	96.25
403.75	102.25
403.974	88.25
404.198	87.25
404.422	93.25
404.645	85.25
404.869	91.25
405.093	96.25
405.317	105.25
405.541	81.25
405.765	101.25
405.988	89.25
406.212	179.25
406.436	229.25
406.66	151.25
406.883	111.25
407.107	92.25
407.331	111.25
407.555	100.25
407.778	108.25
408.002	97.25
408.226	96.25
408.449	83.25
408.673	87.25
408.896	86.25
409.12	100.25
409.344	102.25
409.567	92.25
409.791	92.25
410.014	92.25
410.238	90.25
410.461	88.25
410.685	92.25
410.908	103.25
411.132	107.25
411.355	95.25
411.578	100.25
411.802	95.25
412.025	75.25
412.249	90.25
412.472	75.25
412.695	89.25
412.919	89.25
413.142	90.25
413.365	95.25
413.589	73.25
413.812	79.25
414.035	94.25
414.258	89.25
414.482	81.25
414.705	95.25
414.928	99.25
415.151	108.25
415.374	87.25
415.597	76.25
415.821	85.25
416.044	84.25
416.267	85.25
416.49	96.25
416.713	89.25
416.936	96.25
417.159	91.25
417.382	81.25
417.605	98.25
417.828	81.25
418.051	100.25
418.274	93.25
418.497	87.25
418.72	87.25
418.943	93.25
419.166	91.25
419.389	89.25
419.611	94.25
419.834	77.25
420.057	91.25
420.28	75.25
420.503	86.25
420.726	85.25
420.948	73.25
421.171	83.25
421.394	82.25
421.617	99.25
421.839	92.25
422.062	87.25
422.285	89.25
422.507	94.25
422.73	92.25
422.953	94.25
423.175	98.25
423.398	93.25
423.621	83.25
423.843	79.25
424.066	82.25
424.288	83.25
424.511	93.25
424.733	94.25
424.956	95.25
425.178	98.25
425.401	92.25
425.623	106.25
425.846	90.25
426.068	101.25
426.291	95.25
426.513	91.25
426.735	98.25
426.958	93.25
427.18	104.25
427.402	119.25
427.625	164.25
427.847	126.25
428.069	105.25
428.292	84.25
428.514	89.25
428.736	77.25
428.958	84.25
429.181	96.25
429.403	79.25
429.625	90.25
429.847	101.25
430.069	99.25
430.292	89.25
430.514	77.25
430.736	76.25
430.958	88.25
431.18	79.25
431.402	83.25
431.624	80.25
431.846	78.25
432.068	76.25
432.29	89.25
432.512	99.25
432.734	65.25
432.956	96.25
433.178	92.25
433.4	78.25
433.622	76.25
433.844	80.25
434.066	93.25
434.287	100.25
434.509	93.25
434.731	92.25
434.953	78.25
435.175	68.25
435.397	90.25
435.618	103.25
435.84	93.25
436.062	128.25
436.284	111.25
436.505	91.25
436.727	101.25
436.949	88.25
437.17	84.25
437.392	84.25
437.614	85.25
437.835	104.25
438.057	128.25
438.278	110.25
438.5	97.25
438.721	122.25
438.943	97.25
439.165	93.25
439.386	79.25
439.608	89.25
439.829	110.25
440.05	114.25
440.272	141.25
440.493	106.25
440.715	85.25
440.936	95.25
441.158	91.25
441.379	96.25
441.6	108.25
441.822	82.25
442.043	97.25
442.264	95.25
442.486	93.25
442.707	92.25
442.928	98.25
443.149	119.25
443.371	123.25
443.592	98.25
443.813	116.25
444.034	101.25
444.255	92.25
444.476	100.25
444.698	110.25
444.919	76.25
445.14	135.25
445.361	136.25
445.582	111.25
445.803	140.25
446.024	139.25
446.245	112.25
446.466	102.25
446.687	81.25
446.908	93.25
447.129	87.25
447.35	92.25
447.571	83.25
447.792	88.25
448.013	91.25
448.234	101.25
448.455	97.25
448.675	116.25
448.896	105.25
449.117	91.25
449.338	89.25
449.559	115.25
449.779	121.25
450	93.25
450.221	93.25
450.442	84.25
450.662	94.25
450.883	97.25
451.104	114.25
451.324	90.25
451.545	97.25
451.766	88.25
451.986	94.25
452.207	81.25
452.428	84.25
452.648	103.25
452.869	111.25
453.089	117.25
453.31	121.25
453.53	93.25
453.751	94.25
453.971	101.25
454.192	103.25
454.412	91.25
454.633	90.25
454.853	80.25
455.073	105.25
455.294	91.25
455.514	95.25
455.734	96.25
455.955	91.25
456.175	84.25
456.395	93.25
456.616	83.25
456.836	89.25
457.056	88.25
457.276	81.25
457.497	85.25
457.717	82.25
457.937	100.25
458.157	94.25
458.377	89.25
458.598	96.25
458.818	138.25
459.038	153.25
459.258	105.25
459.478	84.25
459.698	91.25
459.918	91.25
460.138	83.25
460.358	84.25
460.578	75.25
460.798	77.25
461.018	92.25
461.238	92.25
461.458	94.25
461.678	84.25
461.898	89.25
462.118	85.25
462.338	93.25
462.558	87.25
462.777	88.25
462.997	86.25
463.217	92.25
463.437	91.25
463.657	84.25
463.876	92.25
464.096	92.25
464.316	94.25
464.536	95.25
464.755	75.25
464.975	104.25
465.195	159.25
465.414	159.25
465.634	100.25
465.854	105.25
466.073	87.25
466.293	86.25
466.512	93.25
466.732	79.25
466.951	87.25
467.171	98.25
467.391	91.25
467.61	117.25
467.829	120.25
468.049	100.25
468.268	83.25
468.488	89.25
468.707	91.25
468.927	80.25
469.146	87.25
469.365	83.25
469.585	92.25
469.804	83.25
470.023	90.25
470.243	98.25
470.462	92.25
470.681	104.25
470.901	93.25
471.12	79.25
471.339	57.25
471.558	91.25
471.777	85.25
471.997	106.25
472.216	95.25
472.435	102.25
472.654	89.25
472.873	79.25
473.092	82.25
473.311	96.25
473.53	91.25
473.749	81.25
473.968	85.25
474.187	105.25
474.406	99.25
474.625	99.25
474.844	91.25
475.063	85.25
475.282	82.25
475.501	74.25
475.72	89.25
475.939	83.25
476.158	79.25
476.377	82.25
476.596	90.25
476.814	99.25
477.033	96.25
477.252	91.25
477.471	75.25
477.69	88.25
477.908	98.25
478.127	97.25
478.346	100.25
478.564	92.25
478.783	98.25
479.002	97.25
479.22	97.25
479.439	104.25
479.658	97.25
479.876	88.25
480.095	81.25
480.313	100.25
480.532	85.25
480.751	93.25
480.969	92.25
481.188	87.25
481.406	93.25
481.624	78.25
481.843	97.25
482.061	93.25
482.28	89.25
482.498	91.25
482.717	94.25
482.935	98.25
483.153	82.25
483.372	97.25
483.59	80.25
483.808	93.25
484.027	99.25
484.245	88.25
484.463	81.25
484.681	90.25
484.9	95.25
485.118	102.25
485.336	87.25
485.554	89.25
485.772	101.25
485.99	111.25
486.209	103.25
486.427	91.25
486.645	109.25
486.863	95.25
487.081	100.25
487.299	106.25
487.517	108.25
487.735	103.25
487.953	105.25
488.171	96.25
488.389	88.25
488.607	96.25
488.825	84.25
489.043	83.25
489.261	100.25
489.479	91.25
489.696	81.25
489.914	95.25
490.132	90.25
490.35	76.25
490.568	95.25
490.786	81.25
491.003	72.25
491.221	84.25
491.439	107.25
491.657	97.25
491.874	84.25
492.092	85.25
492.31	76.25
492.527	96.25
492.745	106.25
492.963	100.25
493.18	93.25
493.398	91.25
493.615	105.25
493.833	100.25
494.05	101.25
494.268	99.25
494.485	93.25
494.703	88.25
494.92	84.25
495.138	92.25
495.355	104.25
495.573	105.25
495.79	92.25
496.008	91.25
496.225	102.25
496.442	97.25
496.66	101.25
496.877	77.25
497.094	107.25
497.312	89.25
497.529	86.25
497.746	83.25
497.963	87.25
498.181	95.25
498.398	104.25
498.615	107.25
498.832	100.25
499.049	86.25
499.267	88.25
499.484	88.25
499.701	87.25
499.918	98.25
500.135	91.25
500.352	85.25
500.569	99.25
500.786	84.25
501.003	88.25
501.22	93.25
501.437	85.25
501.654	87.25
501.871	108.25
502.088	93.25
502.305	82.25
502.522	100.25
502.739	102.25
502.956	82.25
503.172	94.25
503.389	96.25
503.606	115.25
503.823	91.25
504.04	90.25
504.256	116.25
504.473	89.25
504.69	91.25
504.907	90.25
505.123	88.25
505.34	84.25
505.557	92.25
505.773	97.25
505.99	104.25
506.207	98.25
506.423	88.25
506.64	98.25
506.856	92.25
507.073	103.25
507.289	87.25
507.506	103.25
507.722	108.25
507.939	112.25
508.155	106.25
508.372	98.25
508.588	92.25
508.805	101.25
509.021	96.25
509.238	95.25
509.454	97.25
509.67	101.25
509.887	109.25
510.103	136.25
510.319	218.25
510.536	818.25
510.752	2522.25
510.968	696.25
511.184	151.25
511.401	115.25
511.617	93.25
511.833	106.25
512.049	73.25
512.265	106.25
512.481	97.25
512.698	92.25
512.914	104.25
513.13	97.25
513.346	94.25
513.562	103.25
513.778	92.25
513.994	104.25
514.21	119.25
514.426	109.25
514.642	124.25
514.858	125.25
515.074	150.25
515.29	453.25
515.506	1508.25
