Data from Uncirc_1995_H10_HRD10591_00045.txt Node
Date: Wed Jan 03 11:35:42 EST 2024
User: Yrep
Spectrometer: HR+D1059
Trigger mode: 1
Integration Time (sec): 1.000000E-1
Scans to average: 1
Electric dark correction enabled: true
Nonlinearity correction enabled: false
Boxcar width: 0
XAxis mode: Wavelengths
Number of Pixels in Spectrum: 2048
>>>>>Begin Spectral Data<<<<<
223.165	-21.56
223.4	-21.56
223.635	-21.56
223.869	-24.56
224.104	-9.56
224.338	-5.56
224.573	-14.56
224.808	-15.56
225.042	7.44
225.277	-5.56
225.511	2.44
225.746	4.44
225.98	-1.56
226.215	5.44
226.449	15.44
226.683	9.44
226.918	23.44
227.152	30.44
227.387	27.44
227.621	33.44
227.856	51.44
228.09	48.44
228.324	58.44
228.559	59.44
228.793	59.44
229.027	71.44
229.262	55.44
229.496	70.44
229.73	81.44
229.964	82.44
230.199	75.44
230.433	85.44
230.667	83.44
230.901	69.44
231.136	74.44
231.37	77.44
231.604	84.44
231.838	87.44
232.072	75.44
232.306	77.44
232.541	79.44
232.775	83.44
233.009	88.44
233.243	78.44
233.477	81.44
233.711	77.44
233.945	78.44
234.179	76.44
234.413	85.44
234.647	87.44
234.881	93.44
235.115	78.44
235.349	78.44
235.583	78.44
235.817	84.44
236.051	66.44
236.285	75.44
236.519	74.44
236.753	59.44
236.987	78.44
237.221	77.44
237.455	78.44
237.689	81.44
237.922	72.44
238.156	86.44
238.39	75.44
238.624	77.44
238.858	87.44
239.091	94.44
239.325	80.44
239.559	80.44
239.793	84.44
240.027	92.44
240.26	90.44
240.494	69.44
240.728	75.44
240.961	77.44
241.195	72.44
241.429	70.44
241.662	83.44
241.896	68.44
242.13	71.44
242.363	81.44
242.597	84.44
242.83	75.44
243.064	82.44
243.298	71.44
243.531	64.44
243.765	72.44
243.998	78.44
244.232	94.44
244.465	78.44
244.699	77.44
244.932	77.44
245.166	77.44
245.399	70.44
245.633	87.44
245.866	78.44
246.099	83.44
246.333	73.44
246.566	89.44
246.8	75.44
247.033	81.44
247.266	81.44
247.5	65.44
247.733	71.44
247.966	76.44
248.2	67.44
248.433	79.44
248.666	80.44
248.899	79.44
249.133	85.44
249.366	78.44
249.599	88.44
249.832	90.44
250.066	102.44
250.299	86.44
250.532	73.44
250.765	86.44
250.998	77.44
251.231	86.44
251.465	77.44
251.698	69.44
251.931	81.44
252.164	77.44
252.397	93.44
252.63	88.44
252.863	75.44
253.096	71.44
253.329	73.44
253.562	82.44
253.795	85.44
254.028	85.44
254.261	77.44
254.494	72.44
254.727	69.44
254.96	89.44
255.193	74.44
255.426	93.44
255.659	79.44
255.892	107.44
256.124	86.44
256.357	81.44
256.59	90.44
256.823	81.44
257.056	91.44
257.289	95.44
257.521	71.44
257.754	88.44
257.987	79.44
258.22	89.44
258.452	88.44
258.685	67.44
258.918	71.44
259.151	80.44
259.383	79.44
259.616	86.44
259.849	81.44
260.081	101.44
260.314	83.44
260.547	85.44
260.779	89.44
261.012	78.44
261.244	82.44
261.477	82.44
261.71	94.44
261.942	104.44
262.175	110.44
262.407	83.44
262.64	98.44
262.872	85.44
263.105	75.44
263.337	93.44
263.57	87.44
263.802	86.44
264.035	90.44
264.267	82.44
264.499	78.44
264.732	86.44
264.964	86.44
265.197	73.44
265.429	77.44
265.661	81.44
265.894	86.44
266.126	83.44
266.358	90.44
266.591	75.44
266.823	88.44
267.055	69.44
267.287	83.44
267.52	87.44
267.752	89.44
267.984	79.44
268.216	77.44
268.448	89.44
268.681	89.44
268.913	94.44
269.145	82.44
269.377	76.44
269.609	78.44
269.841	100.44
270.073	87.44
270.306	73.44
270.538	92.44
270.77	87.44
271.002	86.44
271.234	89.44
271.466	82.44
271.698	83.44
271.93	99.44
272.162	89.44
272.394	96.44
272.626	87.44
272.858	86.44
273.09	75.44
273.322	85.44
273.553	78.44
273.785	97.44
274.017	95.44
274.249	87.44
274.481	88.44
274.713	87.44
274.945	78.44
275.176	90.44
275.408	87.44
275.64	72.44
275.872	94.44
276.104	79.44
276.335	86.44
276.567	82.44
276.799	98.44
277.031	97.44
277.262	75.44
277.494	78.44
277.726	88.44
277.957	77.44
278.189	84.44
278.421	91.44
278.652	94.44
278.884	91.44
279.115	85.44
279.347	94.44
279.579	88.44
279.81	101.44
280.042	89.44
280.273	85.44
280.505	82.44
280.736	79.44
280.968	98.44
281.199	74.44
281.431	65.44
281.662	69.44
281.894	93.44
282.125	110.44
282.356	121.44
282.588	142.44
282.819	97.44
283.051	83.44
283.282	87.44
283.513	81.44
283.745	77.44
283.976	96.44
284.207	80.44
284.439	74.44
284.67	87.44
284.901	80.44
285.132	81.44
285.364	100.44
285.595	85.44
285.826	82.44
286.057	95.44
286.288	90.44
286.52	93.44
286.751	89.44
286.982	93.44
287.213	78.44
287.444	77.44
287.675	82.44
287.906	88.44
288.138	90.44
288.369	92.44
288.6	91.44
288.831	94.44
289.062	89.44
289.293	89.44
289.524	94.44
289.755	75.44
289.986	91.44
290.217	97.44
290.448	87.44
290.679	78.44
290.91	87.44
291.141	81.44
291.371	76.44
291.602	82.44
291.833	72.44
292.064	86.44
292.295	81.44
292.526	83.44
292.757	70.44
292.987	88.44
293.218	96.44
293.449	85.44
293.68	93.44
293.91	94.44
294.141	81.44
294.372	93.44
294.603	83.44
294.833	95.44
295.064	87.44
295.295	91.44
295.525	90.44
295.756	109.44
295.987	117.44
296.217	154.44
296.448	123.44
296.679	72.44
296.909	93.44
297.14	78.44
297.37	86.44
297.601	75.44
297.831	91.44
298.062	100.44
298.292	85.44
298.523	77.44
298.753	97.44
298.984	78.44
299.214	88.44
299.445	99.44
299.675	79.44
299.905	93.44
300.136	88.44
300.366	84.44
300.597	81.44
300.827	104.44
301.057	94.44
301.288	98.44
301.518	93.44
301.748	93.44
301.979	111.44
302.209	93.44
302.439	101.44
302.669	85.44
302.9	86.44
303.13	87.44
303.36	92.44
303.59	80.44
303.82	107.44
304.051	86.44
304.281	86.44
304.511	93.44
304.741	90.44
304.971	80.44
305.201	91.44
305.431	78.44
305.661	98.44
305.891	82.44
306.121	89.44
306.352	95.44
306.582	99.44
306.812	90.44
307.042	93.44
307.272	96.44
307.502	86.44
307.731	92.44
307.961	89.44
308.191	82.44
308.421	83.44
308.651	89.44
308.881	102.44
309.111	90.44
309.341	96.44
309.571	98.44
309.8	95.44
310.03	91.44
310.26	91.44
310.49	94.44
310.72	103.44
310.949	105.44
311.179	96.44
311.409	95.44
311.639	87.44
311.868	98.44
312.098	98.44
312.328	104.44
312.557	102.44
312.787	96.44
313.017	116.44
313.246	101.44
313.476	89.44
313.706	90.44
313.935	90.44
314.165	93.44
314.394	101.44
314.624	91.44
314.853	91.44
315.083	99.44
315.312	101.44
315.542	88.44
315.771	88.44
316.001	105.44
316.23	82.44
316.46	91.44
316.689	93.44
316.919	86.44
317.148	90.44
317.377	97.44
317.607	77.44
317.836	104.44
318.065	80.44
318.295	105.44
318.524	103.44
318.753	95.44
318.983	104.44
319.212	92.44
319.441	109.44
319.67	104.44
319.9	94.44
320.129	96.44
320.358	92.44
320.587	98.44
320.816	95.44
321.046	86.44
321.275	103.44
321.504	99.44
321.733	91.44
321.962	104.44
322.191	104.44
322.42	115.44
322.649	105.44
322.878	93.44
323.108	113.44
323.337	131.44
323.566	127.44
323.795	133.44
324.024	214.44
324.253	368.44
324.482	802.44
324.71	1708.44
324.939	2232.44
325.168	813.44
325.397	244.44
325.626	165.44
325.855	128.44
326.084	136.44
326.313	140.44
326.542	143.44
326.77	219.44
326.999	451.44
327.228	943.44
327.457	1739.44
327.686	1353.44
327.914	367.44
328.143	200.44
328.372	161.44
328.6	117.44
328.829	104.44
329.058	111.44
329.287	120.44
329.515	92.44
329.744	87.44
329.972	88.44
330.201	95.44
330.43	108.44
330.658	113.44
330.887	137.44
331.115	126.44
331.344	93.44
331.572	97.44
331.801	101.44
332.03	97.44
332.258	105.44
332.486	108.44
332.715	90.44
332.943	87.44
333.172	90.44
333.4	95.44
333.629	100.44
333.857	93.44
334.085	86.44
334.314	99.44
334.542	103.44
334.771	112.44
334.999	99.44
335.227	86.44
335.455	87.44
335.684	99.44
335.912	96.44
336.14	91.44
336.369	94.44
336.597	97.44
336.825	107.44
337.053	78.44
337.281	106.44
337.51	74.44
337.738	99.44
337.966	99.44
338.194	97.44
338.422	89.44
338.65	79.44
338.878	88.44
339.106	84.44
339.334	92.44
339.562	107.44
339.79	90.44
340.018	91.44
340.246	90.44
340.474	80.44
340.702	89.44
340.93	98.44
341.158	89.44
341.386	96.44
341.614	109.44
341.842	101.44
342.07	99.44
342.298	85.44
342.526	87.44
342.754	98.44
342.981	96.44
343.209	106.44
343.437	113.44
343.665	99.44
343.893	99.44
344.12	106.44
344.348	94.44
344.576	92.44
344.804	91.44
345.031	97.44
345.259	95.44
345.487	99.44
345.714	83.44
345.942	99.44
346.17	99.44
346.397	103.44
346.625	97.44
346.853	80.44
347.08	89.44
347.308	94.44
347.535	86.44
347.763	98.44
347.99	100.44
348.218	87.44
348.445	103.44
348.673	103.44
348.9	93.44
349.128	97.44
349.355	85.44
349.583	82.44
349.81	81.44
350.037	88.44
350.265	104.44
350.492	83.44
350.72	92.44
350.947	105.44
351.174	117.44
351.402	88.44
351.629	85.44
351.856	96.44
352.083	106.44
352.311	99.44
352.538	87.44
352.765	99.44
352.992	116.44
353.22	106.44
353.447	94.44
353.674	99.44
353.901	90.44
354.128	96.44
354.355	85.44
354.583	106.44
354.81	90.44
355.037	95.44
355.264	86.44
355.491	98.44
355.718	95.44
355.945	87.44
356.172	106.44
356.399	92.44
356.626	98.44
356.853	91.44
357.08	92.44
357.307	92.44
357.534	85.44
357.761	87.44
357.988	86.44
358.215	99.44
358.441	83.44
358.668	83.44
358.895	87.44
359.122	90.44
359.349	88.44
359.576	89.44
359.802	91.44
360.029	97.44
360.256	104.44
360.483	101.44
360.709	109.44
360.936	95.44
361.163	104.44
361.39	105.44
361.616	91.44
361.843	90.44
362.07	87.44
362.296	101.44
362.523	93.44
362.749	74.44
362.976	99.44
363.203	95.44
363.429	78.44
363.656	91.44
363.882	80.44
364.109	96.44
364.335	87.44
364.562	93.44
364.788	98.44
365.015	89.44
365.241	85.44
365.468	98.44
365.694	92.44
365.92	99.44
366.147	79.44
366.373	85.44
366.599	79.44
366.826	86.44
367.052	94.44
367.278	90.44
367.505	96.44
367.731	92.44
367.957	86.44
368.184	87.44
368.41	102.44
368.636	110.44
368.862	107.44
369.089	89.44
369.315	91.44
369.541	90.44
369.767	90.44
369.993	89.44
370.219	92.44
370.445	83.44
370.672	92.44
370.898	87.44
371.124	85.44
371.35	86.44
371.576	87.44
371.802	91.44
372.028	84.44
372.254	81.44
372.48	77.44
372.706	82.44
372.932	91.44
373.158	75.44
373.384	85.44
373.61	93.44
373.835	82.44
374.061	92.44
374.287	90.44
374.513	74.44
374.739	94.44
374.965	88.44
375.191	81.44
375.416	82.44
375.642	111.44
375.868	95.44
376.094	85.44
376.319	101.44
376.545	87.44
376.771	83.44
376.997	82.44
377.222	88.44
377.448	77.44
377.674	97.44
377.899	88.44
378.125	97.44
378.35	91.44
378.576	74.44
378.802	93.44
379.027	94.44
379.253	96.44
379.478	94.44
379.704	94.44
379.929	94.44
380.155	87.44
380.38	82.44
380.606	88.44
380.831	83.44
381.057	92.44
381.282	101.44
381.507	98.44
381.733	97.44
381.958	100.44
382.184	98.44
382.409	106.44
382.634	98.44
382.86	95.44
383.085	89.44
383.31	106.44
383.535	97.44
383.761	102.44
383.986	105.44
384.211	117.44
384.436	97.44
384.662	97.44
384.887	106.44
385.112	92.44
385.337	99.44
385.562	102.44
385.787	97.44
386.013	106.44
386.238	122.44
386.463	110.44
386.688	97.44
386.913	101.44
387.138	89.44
387.363	103.44
387.588	89.44
387.813	93.44
388.038	116.44
388.263	118.44
388.488	109.44
388.713	99.44
388.938	86.44
389.163	95.44
389.387	103.44
389.612	99.44
389.837	103.44
390.062	102.44
390.287	93.44
390.512	91.44
390.736	93.44
390.961	88.44
391.186	101.44
391.411	80.44
391.636	108.44
391.86	81.44
392.085	87.44
392.31	89.44
392.534	95.44
392.759	93.44
392.984	90.44
393.208	89.44
393.433	83.44
393.658	75.44
393.882	93.44
394.107	91.44
394.331	86.44
394.556	79.44
394.78	67.44
395.005	82.44
395.229	88.44
395.454	86.44
395.678	95.44
395.903	82.44
396.127	91.44
396.352	92.44
396.576	79.44
396.801	74.44
397.025	84.44
397.249	86.44
397.474	86.44
397.698	89.44
397.922	92.44
398.147	91.44
398.371	95.44
398.595	93.44
398.82	84.44
399.044	79.44
399.268	98.44
399.492	94.44
399.717	95.44
399.941	82.44
400.165	96.44
400.389	101.44
400.613	77.44
400.837	65.44
401.062	98.44
401.286	79.44
401.51	98.44
401.734	93.44
401.958	97.44
402.182	126.44
402.406	154.44
402.63	119.44
402.854	93.44
403.078	73.44
403.302	85.44
403.526	96.44
403.75	76.44
403.974	85.44
404.198	85.44
404.422	82.44
404.645	91.44
404.869	81.44
405.093	91.44
405.317	90.44
405.541	99.44
405.765	90.44
405.988	99.44
406.212	168.44
406.436	205.44
406.66	138.44
406.883	106.44
407.107	99.44
407.331	79.44
407.555	98.44
407.778	86.44
408.002	93.44
408.226	86.44
408.449	81.44
408.673	94.44
408.896	98.44
409.12	86.44
409.344	85.44
409.567	75.44
409.791	96.44
410.014	92.44
410.238	89.44
410.461	94.44
410.685	89.44
410.908	91.44
411.132	111.44
411.355	103.44
411.578	91.44
411.802	74.44
412.025	90.44
412.249	81.44
412.472	89.44
412.695	95.44
412.919	87.44
413.142	81.44
413.365	80.44
413.589	79.44
413.812	86.44
414.035	87.44
414.258	94.44
414.482	80.44
414.705	89.44
414.928	81.44
415.151	86.44
415.374	89.44
415.597	99.44
415.821	81.44
416.044	80.44
416.267	84.44
416.49	91.44
416.713	75.44
416.936	68.44
417.159	74.44
417.382	82.44
417.605	98.44
417.828	99.44
418.051	101.44
418.274	88.44
418.497	76.44
418.72	95.44
418.943	91.44
419.166	97.44
419.389	94.44
419.611	96.44
419.834	93.44
420.057	86.44
420.28	93.44
420.503	78.44
420.726	91.44
420.948	93.44
421.171	89.44
421.394	93.44
421.617	89.44
421.839	92.44
422.062	96.44
422.285	97.44
422.507	98.44
422.73	88.44
422.953	90.44
423.175	85.44
423.398	86.44
423.621	94.44
423.843	85.44
424.066	85.44
424.288	90.44
424.511	79.44
424.733	86.44
424.956	90.44
425.178	96.44
425.401	107.44
425.623	112.44
425.846	85.44
426.068	91.44
426.291	97.44
426.513	88.44
426.735	85.44
426.958	102.44
427.18	99.44
427.402	148.44
427.625	155.44
427.847	116.44
428.069	91.44
428.292	90.44
428.514	82.44
428.736	81.44
428.958	81.44
429.181	79.44
429.403	93.44
429.625	64.44
429.847	85.44
430.069	83.44
430.292	84.44
430.514	89.44
430.736	79.44
430.958	74.44
431.18	75.44
431.402	74.44
431.624	88.44
431.846	68.44
432.068	74.44
432.29	75.44
432.512	89.44
432.734	91.44
432.956	100.44
433.178	88.44
433.4	96.44
433.622	94.44
433.844	83.44
434.066	96.44
434.287	89.44
434.509	92.44
434.731	95.44
434.953	93.44
435.175	94.44
435.397	96.44
435.618	96.44
435.84	101.44
436.062	111.44
436.284	99.44
436.505	98.44
436.727	107.44
436.949	98.44
437.17	70.44
437.392	93.44
437.614	82.44
437.835	109.44
438.057	107.44
438.278	88.44
438.5	96.44
438.721	101.44
438.943	99.44
439.165	92.44
439.386	88.44
439.608	79.44
439.829	91.44
440.05	115.44
440.272	125.44
440.493	95.44
440.715	85.44
440.936	76.44
441.158	98.44
441.379	91.44
441.6	81.44
441.822	96.44
442.043	82.44
442.264	92.44
442.486	101.44
442.707	97.44
442.928	111.44
443.149	135.44
443.371	108.44
443.592	96.44
443.813	96.44
444.034	91.44
444.255	91.44
444.476	98.44
444.698	99.44
444.919	89.44
445.14	121.44
445.361	122.44
445.582	102.44
445.803	121.44
446.024	121.44
446.245	116.44
446.466	104.44
446.687	94.44
446.908	88.44
447.129	95.44
447.35	94.44
447.571	79.44
447.792	90.44
448.013	103.44
448.234	102.44
448.455	95.44
448.675	112.44
448.896	116.44
449.117	86.44
449.338	109.44
449.559	116.44
449.779	141.44
450	90.44
450.221	101.44
450.442	85.44
450.662	88.44
450.883	98.44
451.104	102.44
451.324	98.44
451.545	89.44
451.766	79.44
451.986	80.44
452.207	78.44
452.428	82.44
452.648	100.44
452.869	95.44
453.089	119.44
453.31	118.44
453.53	78.44
453.751	85.44
453.971	85.44
454.192	108.44
454.412	97.44
454.633	80.44
454.853	78.44
455.073	77.44
455.294	75.44
455.514	86.44
455.734	83.44
455.955	85.44
456.175	82.44
456.395	71.44
456.616	90.44
456.836	101.44
457.056	83.44
457.276	80.44
457.497	101.44
457.717	103.44
457.937	105.44
458.157	92.44
458.377	91.44
458.598	113.44
458.818	149.44
459.038	157.44
459.258	115.44
459.478	87.44
459.698	88.44
459.918	90.44
460.138	87.44
460.358	91.44
460.578	87.44
460.798	87.44
461.018	79.44
461.238	105.44
461.458	88.44
461.678	74.44
461.898	92.44
462.118	82.44
462.338	83.44
462.558	84.44
462.777	90.44
462.997	95.44
463.217	98.44
463.437	89.44
463.657	85.44
463.876	83.44
464.096	92.44
464.316	93.44
464.536	98.44
464.755	83.44
464.975	102.44
465.195	168.44
465.414	153.44
465.634	113.44
465.854	87.44
466.073	96.44
466.293	93.44
466.512	75.44
466.732	85.44
466.951	87.44
467.171	93.44
467.391	90.44
467.61	106.44
467.829	102.44
468.049	92.44
468.268	93.44
468.488	95.44
468.707	91.44
468.927	81.44
469.146	80.44
469.365	85.44
469.585	79.44
469.804	73.44
470.023	95.44
470.243	98.44
470.462	105.44
470.681	98.44
470.901	77.44
471.12	98.44
471.339	84.44
471.558	89.44
471.777	86.44
471.997	100.44
472.216	94.44
472.435	90.44
472.654	99.44
472.873	89.44
473.092	77.44
473.311	90.44
473.53	83.44
473.749	83.44
473.968	95.44
474.187	110.44
474.406	112.44
474.625	85.44
474.844	84.44
475.063	90.44
475.282	99.44
475.501	101.44
475.72	100.44
475.939	90.44
476.158	93.44
476.377	79.44
476.596	82.44
476.814	78.44
477.033	94.44
477.252	103.44
477.471	93.44
477.69	82.44
477.908	96.44
478.127	95.44
478.346	75.44
478.564	105.44
478.783	98.44
479.002	79.44
479.22	99.44
479.439	99.44
479.658	106.44
479.876	82.44
480.095	93.44
480.313	93.44
480.532	78.44
480.751	98.44
480.969	101.44
481.188	105.44
481.406	97.44
481.624	98.44
481.843	102.44
482.061	91.44
482.28	79.44
482.498	90.44
482.717	81.44
482.935	87.44
483.153	64.44
483.372	91.44
483.59	102.44
483.808	92.44
484.027	82.44
484.245	90.44
484.463	104.44
484.681	82.44
484.9	94.44
485.118	104.44
485.336	101.44
485.554	95.44
485.772	89.44
485.99	101.44
486.209	105.44
486.427	106.44
486.645	107.44
486.863	104.44
487.081	90.44
487.299	102.44
487.517	91.44
487.735	95.44
487.953	95.44
488.171	95.44
488.389	90.44
488.607	103.44
488.825	96.44
489.043	87.44
489.261	99.44
489.479	84.44
489.696	83.44
489.914	88.44
490.132	75.44
490.35	98.44
490.568	92.44
490.786	89.44
491.003	93.44
491.221	91.44
491.439	98.44
491.657	88.44
491.874	75.44
492.092	100.44
492.31	104.44
492.527	88.44
492.745	91.44
492.963	90.44
493.18	85.44
493.398	94.44
493.615	105.44
493.833	99.44
494.05	81.44
494.268	88.44
494.485	92.44
494.703	99.44
494.92	90.44
495.138	83.44
495.355	98.44
495.573	89.44
495.79	96.44
496.008	97.44
496.225	75.44
496.442	96.44
496.66	98.44
496.877	87.44
497.094	90.44
497.312	87.44
497.529	81.44
497.746	85.44
497.963	87.44
498.181	82.44
498.398	91.44
498.615	113.44
498.832	100.44
499.049	89.44
499.267	96.44
499.484	90.44
499.701	93.44
499.918	77.44
500.135	91.44
500.352	90.44
500.569	91.44
500.786	110.44
501.003	94.44
501.22	81.44
501.437	83.44
501.654	95.44
501.871	101.44
502.088	94.44
502.305	91.44
502.522	109.44
502.739	88.44
502.956	98.44
503.172	99.44
503.389	78.44
503.606	98.44
503.823	92.44
504.04	97.44
504.256	85.44
504.473	86.44
504.69	95.44
504.907	89.44
505.123	86.44
505.34	93.44
505.557	80.44
505.773	81.44
505.99	80.44
506.207	100.44
506.423	79.44
506.64	80.44
506.856	79.44
507.073	89.44
507.289	88.44
507.506	90.44
507.722	114.44
507.939	102.44
508.155	99.44
508.372	99.44
508.588	99.44
508.805	86.44
509.021	97.44
509.238	105.44
509.454	99.44
509.67	103.44
509.887	103.44
510.103	126.44
510.319	229.44
510.536	828.44
510.752	2573.44
510.968	713.44
511.184	146.44
511.401	110.44
511.617	93.44
511.833	86.44
512.049	96.44
512.265	84.44
512.481	92.44
512.698	90.44
512.914	105.44
513.13	95.44
513.346	101.44
513.562	98.44
513.778	85.44
513.994	101.44
514.21	98.44
514.426	110.44
514.642	153.44
514.858	114.44
515.074	158.44
515.29	458.44
515.506	1492.44
515.721	537.44
515.937	162.44
516.153	117.44
516.369	98.44
516.585	79.44
