Data from Uncirc_1995_H10_HRD10591_00086.txt Node
Date: Wed Jan 03 11:35:51 EST 2024
User: Yrep
Spectrometer: HR+D1059
Trigger mode: 1
Integration Time (sec): 1.000000E-1
Scans to average: 1
Electric dark correction enabled: true
Nonlinearity correction enabled: false
Boxcar width: 0
XAxis mode: Wavelengths
Number of Pixels in Spectrum: 2048
>>>>>Begin Spectral Data<<<<<
223.165	-4.44
223.4	-4.44
223.635	-4.44
223.869	-16.44
224.104	-24.44
224.338	-21.44
224.573	-9.44
224.808	-25.44
225.042	-10.44
225.277	-5.44
225.511	9.56
225.746	1.56
225.98	9.56
226.215	7.56
226.449	15.56
226.683	7.56
226.918	33.56
227.152	32.56
227.387	37.56
227.621	39.56
227.856	40.56
228.09	41.56
228.324	53.56
228.559	44.56
228.793	63.56
229.027	37.56
229.262	65.56
229.496	70.56
229.73	86.56
229.964	86.56
230.199	81.56
230.433	74.56
230.667	77.56
230.901	71.56
231.136	61.56
231.37	77.56
231.604	85.56
231.838	70.56
232.072	66.56
232.306	77.56
232.541	74.56
232.775	81.56
233.009	79.56
233.243	72.56
233.477	83.56
233.711	63.56
233.945	84.56
234.179	81.56
234.413	87.56
234.647	77.56
234.881	71.56
235.115	77.56
235.349	56.56
235.583	73.56
235.817	76.56
236.051	75.56
236.285	75.56
236.519	87.56
236.753	85.56
236.987	78.56
237.221	88.56
237.455	77.56
237.689	85.56
237.922	80.56
238.156	70.56
238.39	85.56
238.624	85.56
238.858	98.56
239.091	73.56
239.325	78.56
239.559	77.56
239.793	70.56
240.027	87.56
240.26	77.56
240.494	92.56
240.728	91.56
240.961	73.56
241.195	84.56
241.429	91.56
241.662	79.56
241.896	80.56
242.13	77.56
242.363	79.56
242.597	87.56
242.83	80.56
243.064	87.56
243.298	80.56
243.531	79.56
243.765	81.56
243.998	79.56
244.232	70.56
244.465	79.56
244.699	83.56
244.932	86.56
245.166	80.56
245.399	71.56
245.633	88.56
245.866	83.56
246.099	65.56
246.333	83.56
246.566	76.56
246.8	63.56
247.033	72.56
247.266	78.56
247.5	65.56
247.733	76.56
247.966	83.56
248.2	78.56
248.433	75.56
248.666	74.56
248.899	77.56
249.133	96.56
249.366	94.56
249.599	92.56
249.832	74.56
250.066	87.56
250.299	84.56
250.532	76.56
250.765	83.56
250.998	73.56
251.231	71.56
251.465	77.56
251.698	76.56
251.931	81.56
252.164	97.56
252.397	81.56
252.63	82.56
252.863	81.56
253.096	81.56
253.329	70.56
253.562	95.56
253.795	96.56
254.028	80.56
254.261	90.56
254.494	84.56
254.727	80.56
254.96	89.56
255.193	73.56
255.426	88.56
255.659	85.56
255.892	64.56
256.124	65.56
256.357	79.56
256.59	79.56
256.823	81.56
257.056	87.56
257.289	72.56
257.521	86.56
257.754	84.56
257.987	79.56
258.22	78.56
258.452	82.56
258.685	95.56
258.918	73.56
259.151	87.56
259.383	85.56
259.616	82.56
259.849	83.56
260.081	76.56
260.314	77.56
260.547	73.56
260.779	86.56
261.012	87.56
261.244	79.56
261.477	97.56
261.71	90.56
261.942	100.56
262.175	104.56
262.407	82.56
262.64	89.56
262.872	78.56
263.105	85.56
263.337	75.56
263.57	87.56
263.802	81.56
264.035	78.56
264.267	69.56
264.499	73.56
264.732	91.56
264.964	94.56
265.197	84.56
265.429	81.56
265.661	87.56
265.894	77.56
266.126	87.56
266.358	92.56
266.591	82.56
266.823	98.56
267.055	94.56
267.287	83.56
267.52	73.56
267.752	86.56
267.984	66.56
268.216	82.56
268.448	94.56
268.681	78.56
268.913	83.56
269.145	83.56
269.377	90.56
269.609	69.56
269.841	71.56
270.073	70.56
270.306	76.56
270.538	70.56
270.77	93.56
271.002	82.56
271.234	83.56
271.466	71.56
271.698	58.56
271.93	77.56
272.162	78.56
272.394	78.56
272.626	88.56
272.858	71.56
273.09	106.56
273.322	83.56
273.553	84.56
273.785	78.56
274.017	86.56
274.249	88.56
274.481	90.56
274.713	86.56
274.945	86.56
275.176	89.56
275.408	92.56
275.64	100.56
275.872	77.56
276.104	79.56
276.335	89.56
276.567	94.56
276.799	101.56
277.031	93.56
277.262	100.56
277.494	84.56
277.726	88.56
277.957	87.56
278.189	92.56
278.421	92.56
278.652	55.56
278.884	91.56
279.115	81.56
279.347	93.56
279.579	88.56
279.81	88.56
280.042	78.56
280.273	98.56
280.505	81.56
280.736	77.56
280.968	96.56
281.199	93.56
281.431	76.56
281.662	83.56
281.894	91.56
282.125	92.56
282.356	110.56
282.588	147.56
282.819	115.56
283.051	87.56
283.282	98.56
283.513	91.56
283.745	90.56
283.976	83.56
284.207	93.56
284.439	88.56
284.67	106.56
284.901	81.56
285.132	79.56
285.364	84.56
285.595	83.56
285.826	73.56
286.057	89.56
286.288	85.56
286.52	97.56
286.751	95.56
286.982	97.56
287.213	92.56
287.444	93.56
287.675	103.56
287.906	97.56
288.138	89.56
288.369	90.56
288.6	95.56
288.831	97.56
289.062	82.56
289.293	85.56
289.524	89.56
289.755	88.56
289.986	88.56
290.217	86.56
290.448	93.56
290.679	76.56
290.91	98.56
291.141	97.56
291.371	80.56
291.602	85.56
291.833	79.56
292.064	81.56
292.295	83.56
292.526	80.56
292.757	74.56
292.987	89.56
293.218	88.56
293.449	76.56
293.68	90.56
293.91	85.56
294.141	87.56
294.372	92.56
294.603	87.56
294.833	83.56
295.064	98.56
295.295	80.56
295.525	103.56
295.756	97.56
295.987	117.56
296.217	136.56
296.448	128.56
296.679	93.56
296.909	89.56
297.14	89.56
297.37	90.56
297.601	82.56
297.831	83.56
298.062	88.56
298.292	99.56
298.523	89.56
298.753	82.56
298.984	81.56
299.214	89.56
299.445	78.56
299.675	88.56
299.905	91.56
300.136	80.56
300.366	85.56
300.597	85.56
300.827	81.56
301.057	92.56
301.288	94.56
301.518	82.56
301.748	82.56
301.979	102.56
302.209	86.56
302.439	88.56
302.669	86.56
302.9	99.56
303.13	96.56
303.36	97.56
303.59	92.56
303.82	104.56
304.051	88.56
304.281	88.56
304.511	86.56
304.741	90.56
304.971	89.56
305.201	98.56
305.431	95.56
305.661	84.56
305.891	86.56
306.121	88.56
306.352	94.56
306.582	111.56
306.812	81.56
307.042	91.56
307.272	109.56
307.502	88.56
307.731	97.56
307.961	87.56
308.191	82.56
308.421	104.56
308.651	101.56
308.881	92.56
309.111	102.56
309.341	97.56
309.571	102.56
309.8	91.56
310.03	109.56
310.26	98.56
310.49	101.56
310.72	89.56
310.949	89.56
311.179	91.56
311.409	97.56
311.639	97.56
311.868	92.56
312.098	97.56
312.328	96.56
312.557	98.56
312.787	91.56
313.017	83.56
313.246	87.56
313.476	99.56
313.706	90.56
313.935	83.56
314.165	95.56
314.394	84.56
314.624	82.56
314.853	102.56
315.083	93.56
315.312	85.56
315.542	98.56
315.771	92.56
316.001	90.56
316.23	84.56
316.46	92.56
316.689	100.56
316.919	81.56
317.148	97.56
317.377	81.56
317.607	90.56
317.836	104.56
318.065	89.56
318.295	82.56
318.524	89.56
318.753	93.56
318.983	97.56
319.212	93.56
319.441	87.56
319.67	104.56
319.9	103.56
320.129	90.56
320.358	89.56
320.587	95.56
320.816	101.56
321.046	97.56
321.275	93.56
321.504	87.56
321.733	94.56
321.962	95.56
322.191	93.56
322.42	114.56
322.649	111.56
322.878	122.56
323.108	106.56
323.337	119.56
323.566	134.56
323.795	150.56
324.024	205.56
324.253	405.56
324.482	877.56
324.71	1697.56
324.939	2260.56
325.168	839.56
325.397	241.56
325.626	157.56
325.855	146.56
326.084	124.56
326.313	120.56
326.542	155.56
326.77	236.56
326.999	465.56
327.228	984.56
327.457	1805.56
327.686	1369.56
327.914	382.56
328.143	202.56
328.372	145.56
328.6	112.56
328.829	115.56
329.058	132.56
329.287	120.56
329.515	108.56
329.744	105.56
329.972	93.56
330.201	95.56
330.43	102.56
330.658	114.56
330.887	144.56
331.115	119.56
331.344	119.56
331.572	99.56
331.801	99.56
332.03	96.56
332.258	114.56
332.486	101.56
332.715	101.56
332.943	101.56
333.172	94.56
333.4	100.56
333.629	111.56
333.857	104.56
334.085	98.56
334.314	91.56
334.542	93.56
334.771	106.56
334.999	96.56
335.227	80.56
335.455	104.56
335.684	105.56
335.912	108.56
336.14	80.56
336.369	100.56
336.597	94.56
336.825	93.56
337.053	89.56
337.281	89.56
337.51	83.56
337.738	86.56
337.966	87.56
338.194	106.56
338.422	104.56
338.65	85.56
338.878	87.56
339.106	97.56
339.334	103.56
339.562	85.56
339.79	89.56
340.018	97.56
340.246	88.56
340.474	79.56
340.702	82.56
340.93	96.56
341.158	93.56
341.386	98.56
341.614	97.56
341.842	94.56
342.07	79.56
342.298	90.56
342.526	87.56
342.754	98.56
342.981	81.56
343.209	95.56
343.437	92.56
343.665	97.56
343.893	93.56
344.12	99.56
344.348	74.56
344.576	85.56
344.804	77.56
345.031	106.56
345.259	94.56
345.487	89.56
345.714	91.56
345.942	81.56
346.17	104.56
346.397	93.56
346.625	97.56
346.853	85.56
347.08	89.56
347.308	89.56
347.535	92.56
347.763	90.56
347.99	82.56
348.218	97.56
348.445	104.56
348.673	96.56
348.9	95.56
349.128	89.56
349.355	97.56
349.583	104.56
349.81	95.56
350.037	94.56
350.265	95.56
350.492	94.56
350.72	99.56
350.947	99.56
351.174	120.56
351.402	98.56
351.629	79.56
351.856	88.56
352.083	95.56
352.311	95.56
352.538	105.56
352.765	95.56
352.992	89.56
353.22	94.56
353.447	107.56
353.674	88.56
353.901	100.56
354.128	90.56
354.355	93.56
354.583	89.56
354.81	95.56
355.037	108.56
355.264	96.56
355.491	92.56
355.718	90.56
355.945	92.56
356.172	94.56
356.399	94.56
356.626	96.56
356.853	89.56
357.08	92.56
357.307	99.56
357.534	91.56
357.761	90.56
357.988	98.56
358.215	90.56
358.441	91.56
358.668	92.56
358.895	99.56
359.122	82.56
359.349	93.56
359.576	83.56
359.802	88.56
360.029	112.56
360.256	111.56
360.483	82.56
360.709	81.56
360.936	87.56
361.163	87.56
361.39	94.56
361.616	105.56
361.843	88.56
362.07	88.56
362.296	110.56
362.523	94.56
362.749	96.56
362.976	102.56
363.203	99.56
363.429	98.56
363.656	86.56
363.882	81.56
364.109	85.56
364.335	88.56
364.562	94.56
364.788	87.56
365.015	93.56
365.241	98.56
365.468	98.56
365.694	98.56
365.92	100.56
366.147	87.56
366.373	79.56
366.599	80.56
366.826	91.56
367.052	96.56
367.278	83.56
367.505	89.56
367.731	89.56
367.957	77.56
368.184	86.56
368.41	98.56
368.636	106.56
368.862	124.56
369.089	102.56
369.315	86.56
369.541	86.56
369.767	93.56
369.993	84.56
370.219	87.56
370.445	88.56
370.672	98.56
370.898	92.56
371.124	78.56
371.35	81.56
371.576	87.56
371.802	81.56
372.028	67.56
372.254	79.56
372.48	87.56
372.706	101.56
372.932	80.56
373.158	93.56
373.384	87.56
373.61	85.56
373.835	109.56
374.061	75.56
374.287	97.56
374.513	86.56
374.739	98.56
374.965	85.56
375.191	89.56
375.416	87.56
375.642	93.56
375.868	94.56
376.094	90.56
376.319	90.56
376.545	84.56
376.771	96.56
376.997	79.56
377.222	71.56
377.448	81.56
377.674	91.56
377.899	90.56
378.125	94.56
378.35	88.56
378.576	89.56
378.802	79.56
379.027	87.56
379.253	93.56
379.478	93.56
379.704	90.56
379.929	87.56
380.155	105.56
380.38	81.56
380.606	99.56
380.831	83.56
381.057	94.56
381.282	96.56
381.507	93.56
381.733	96.56
381.958	86.56
382.184	84.56
382.409	83.56
382.634	97.56
382.86	83.56
383.085	100.56
383.31	105.56
383.535	101.56
383.761	103.56
383.986	95.56
384.211	96.56
384.436	103.56
384.662	102.56
384.887	112.56
385.112	114.56
385.337	94.56
385.562	99.56
385.787	101.56
386.013	106.56
386.238	106.56
386.463	105.56
386.688	118.56
386.913	97.56
387.138	87.56
387.363	104.56
387.588	92.56
387.813	90.56
388.038	100.56
388.263	87.56
388.488	115.56
388.713	89.56
388.938	89.56
389.163	89.56
389.387	82.56
389.612	87.56
389.837	81.56
390.062	87.56
390.287	97.56
390.512	99.56
390.736	97.56
390.961	108.56
391.186	95.56
391.411	91.56
391.636	86.56
391.86	83.56
392.085	82.56
392.31	77.56
392.534	80.56
392.759	84.56
392.984	86.56
393.208	83.56
393.433	75.56
393.658	74.56
393.882	89.56
394.107	91.56
394.331	94.56
394.556	87.56
394.78	90.56
395.005	92.56
395.229	78.56
395.454	96.56
395.678	81.56
395.903	76.56
396.127	85.56
396.352	88.56
396.576	83.56
396.801	76.56
397.025	88.56
397.249	85.56
397.474	87.56
397.698	86.56
397.922	96.56
398.147	90.56
398.371	97.56
398.595	87.56
398.82	85.56
399.044	87.56
399.268	93.56
399.492	89.56
399.717	80.56
399.941	85.56
400.165	101.56
400.389	96.56
400.613	90.56
400.837	79.56
401.062	82.56
401.286	84.56
401.51	94.56
401.734	94.56
401.958	101.56
402.182	130.56
402.406	161.56
402.63	135.56
402.854	93.56
403.078	69.56
403.302	90.56
403.526	89.56
403.75	88.56
403.974	89.56
404.198	89.56
404.422	90.56
404.645	98.56
404.869	67.56
405.093	89.56
405.317	91.56
405.541	95.56
405.765	102.56
405.988	126.56
406.212	173.56
406.436	227.56
406.66	149.56
406.883	103.56
407.107	94.56
407.331	83.56
407.555	77.56
407.778	88.56
408.002	81.56
408.226	87.56
408.449	85.56
408.673	99.56
408.896	85.56
409.12	73.56
409.344	82.56
409.567	88.56
409.791	80.56
410.014	82.56
410.238	102.56
410.461	77.56
410.685	87.56
410.908	76.56
411.132	93.56
411.355	90.56
411.578	81.56
411.802	84.56
412.025	77.56
412.249	77.56
412.472	82.56
412.695	89.56
412.919	83.56
413.142	72.56
413.365	88.56
413.589	83.56
413.812	95.56
414.035	89.56
414.258	87.56
414.482	95.56
414.705	86.56
414.928	93.56
415.151	79.56
415.374	91.56
415.597	88.56
415.821	92.56
416.044	94.56
416.267	79.56
416.49	79.56
416.713	89.56
416.936	87.56
417.159	67.56
417.382	94.56
417.605	79.56
417.828	95.56
418.051	95.56
418.274	95.56
418.497	92.56
418.72	90.56
418.943	90.56
419.166	81.56
419.389	96.56
419.611	75.56
419.834	89.56
420.057	91.56
420.28	96.56
420.503	85.56
420.726	71.56
420.948	98.56
421.171	92.56
421.394	83.56
421.617	93.56
421.839	90.56
422.062	84.56
422.285	89.56
422.507	101.56
422.73	96.56
422.953	87.56
423.175	99.56
423.398	95.56
423.621	90.56
423.843	94.56
424.066	94.56
424.288	91.56
424.511	89.56
424.733	91.56
424.956	93.56
425.178	92.56
425.401	99.56
425.623	86.56
425.846	89.56
426.068	98.56
426.291	81.56
426.513	79.56
426.735	89.56
426.958	79.56
427.18	97.56
427.402	125.56
427.625	162.56
427.847	118.56
428.069	94.56
428.292	97.56
428.514	81.56
428.736	88.56
428.958	87.56
429.181	86.56
429.403	76.56
429.625	87.56
429.847	88.56
430.069	93.56
430.292	104.56
430.514	96.56
430.736	74.56
430.958	82.56
431.18	90.56
431.402	83.56
431.624	71.56
431.846	104.56
432.068	87.56
432.29	91.56
432.512	90.56
432.734	65.56
432.956	86.56
433.178	87.56
433.4	94.56
433.622	92.56
433.844	86.56
434.066	78.56
434.287	85.56
434.509	93.56
434.731	82.56
434.953	90.56
435.175	98.56
435.397	90.56
435.618	91.56
435.84	109.56
436.062	120.56
436.284	111.56
436.505	108.56
436.727	99.56
436.949	87.56
437.17	88.56
437.392	93.56
437.614	88.56
437.835	110.56
438.057	120.56
438.278	110.56
438.5	107.56
438.721	115.56
438.943	103.56
439.165	101.56
439.386	91.56
439.608	88.56
439.829	106.56
440.05	119.56
440.272	116.56
440.493	87.56
440.715	77.56
440.936	96.56
441.158	92.56
441.379	91.56
441.6	99.56
441.822	77.56
442.043	89.56
442.264	83.56
442.486	101.56
442.707	91.56
442.928	105.56
443.149	129.56
443.371	120.56
443.592	111.56
443.813	105.56
444.034	95.56
444.255	103.56
444.476	83.56
444.698	86.56
444.919	97.56
445.14	117.56
445.361	118.56
445.582	114.56
445.803	129.56
446.024	118.56
446.245	118.56
446.466	104.56
446.687	93.56
446.908	73.56
447.129	87.56
447.35	97.56
447.571	86.56
447.792	84.56
448.013	99.56
448.234	92.56
448.455	95.56
448.675	112.56
448.896	111.56
449.117	102.56
449.338	93.56
449.559	125.56
449.779	116.56
450	90.56
450.221	88.56
450.442	100.56
450.662	92.56
450.883	93.56
451.104	96.56
451.324	92.56
451.545	73.56
451.766	95.56
451.986	79.56
452.207	93.56
452.428	84.56
452.648	96.56
452.869	111.56
453.089	109.56
453.31	129.56
453.53	103.56
453.751	96.56
453.971	109.56
454.192	112.56
454.412	81.56
454.633	99.56
454.853	89.56
455.073	83.56
455.294	89.56
455.514	105.56
455.734	82.56
455.955	84.56
456.175	85.56
456.395	84.56
456.616	93.56
456.836	94.56
457.056	90.56
457.276	83.56
457.497	77.56
457.717	86.56
457.937	81.56
458.157	85.56
458.377	85.56
458.598	102.56
458.818	153.56
459.038	144.56
459.258	98.56
459.478	73.56
459.698	77.56
459.918	83.56
460.138	91.56
460.358	86.56
460.578	93.56
460.798	88.56
461.018	79.56
461.238	80.56
461.458	83.56
461.678	71.56
461.898	88.56
462.118	82.56
462.338	89.56
462.558	85.56
462.777	95.56
462.997	88.56
463.217	89.56
463.437	92.56
463.657	72.56
463.876	72.56
464.096	82.56
464.316	95.56
464.536	100.56
464.755	90.56
464.975	99.56
465.195	169.56
465.414	131.56
465.634	105.56
465.854	91.56
466.073	89.56
466.293	89.56
466.512	75.56
466.732	83.56
466.951	93.56
467.171	71.56
467.391	93.56
467.61	91.56
467.829	95.56
468.049	88.56
468.268	75.56
468.488	89.56
468.707	88.56
468.927	89.56
469.146	89.56
469.365	84.56
469.585	83.56
469.804	97.56
470.023	97.56
470.243	75.56
470.462	101.56
470.681	93.56
470.901	103.56
471.12	90.56
471.339	84.56
471.558	97.56
471.777	84.56
471.997	79.56
472.216	87.56
472.435	85.56
472.654	80.56
472.873	81.56
473.092	84.56
473.311	79.56
473.53	91.56
473.749	78.56
473.968	103.56
474.187	107.56
474.406	94.56
474.625	80.56
474.844	89.56
475.063	71.56
475.282	93.56
475.501	90.56
475.72	86.56
475.939	100.56
476.158	87.56
476.377	81.56
476.596	96.56
476.814	82.56
477.033	85.56
477.252	90.56
477.471	75.56
477.69	87.56
477.908	96.56
478.127	94.56
478.346	82.56
478.564	81.56
478.783	87.56
479.002	81.56
479.22	95.56
479.439	104.56
479.658	106.56
479.876	94.56
480.095	92.56
480.313	94.56
480.532	98.56
480.751	99.56
480.969	90.56
481.188	106.56
481.406	103.56
481.624	87.56
481.843	83.56
482.061	84.56
482.28	94.56
482.498	102.56
482.717	95.56
482.935	90.56
483.153	94.56
483.372	86.56
483.59	87.56
483.808	95.56
484.027	103.56
484.245	94.56
484.463	95.56
484.681	97.56
484.9	78.56
485.118	89.56
485.336	95.56
485.554	88.56
485.772	95.56
485.99	109.56
486.209	101.56
486.427	99.56
486.645	106.56
486.863	99.56
487.081	96.56
487.299	96.56
487.517	92.56
487.735	95.56
487.953	100.56
488.171	108.56
488.389	102.56
488.607	99.56
488.825	87.56
489.043	79.56
489.261	101.56
489.479	94.56
489.696	93.56
489.914	86.56
490.132	80.56
490.35	85.56
490.568	97.56
490.786	99.56
491.003	85.56
491.221	95.56
491.439	88.56
491.657	88.56
491.874	90.56
492.092	82.56
492.31	91.56
492.527	96.56
492.745	93.56
492.963	93.56
493.18	91.56
493.398	102.56
493.615	96.56
493.833	97.56
494.05	87.56
494.268	86.56
494.485	94.56
494.703	102.56
494.92	105.56
495.138	86.56
495.355	91.56
495.573	91.56
495.79	82.56
496.008	88.56
496.225	90.56
496.442	96.56
496.66	85.56
496.877	78.56
497.094	92.56
497.312	94.56
497.529	93.56
497.746	82.56
497.963	87.56
498.181	86.56
498.398	103.56
498.615	106.56
498.832	98.56
499.049	86.56
499.267	108.56
499.484	100.56
499.701	94.56
499.918	93.56
500.135	91.56
500.352	89.56
500.569	99.56
500.786	93.56
501.003	90.56
501.22	91.56
501.437	77.56
501.654	92.56
501.871	106.56
502.088	95.56
502.305	87.56
502.522	93.56
502.739	94.56
502.956	89.56
503.172	102.56
503.389	111.56
503.606	105.56
503.823	91.56
504.04	98.56
504.256	109.56
504.473	77.56
504.69	98.56
504.907	85.56
505.123	85.56
505.34	97.56
505.557	95.56
505.773	82.56
505.99	78.56
506.207	88.56
506.423	83.56
506.64	87.56
506.856	98.56
507.073	86.56
507.289	75.56
507.506	74.56
507.722	118.56
507.939	125.56
508.155	88.56
508.372	91.56
508.588	108.56
508.805	93.56
509.021	103.56
509.238	94.56
509.454	85.56
509.67	105.56
509.887	114.56
510.103	138.56
510.319	242.56
510.536	851.56
510.752	2659.56
510.968	719.56
511.184	167.56
511.401	118.56
511.617	117.56
511.833	96.56
512.049	92.56
512.265	82.56
512.481	96.56
512.698	92.56
512.914	93.56
513.13	111.56
513.346	99.56
513.562	94.56
513.778	96.56
513.994	92.56
514.21	107.56
514.426	117.56
514.642	128.56
514.858	124.56
515.074	177.56
515.29	472.56
515.506	1567.56
515.721	573.56
515.937	161.56
516.153	97.56
516.369	95.56
516.585	97.56
