Data from Uncirc_1995_H10_HRD10591_00049.txt Node
Date: Wed Jan 03 11:35:43 EST 2024
User: Yrep
Spectrometer: HR+D1059
Trigger mode: 1
Integration Time (sec): 1.000000E-1
Scans to average: 1
Electric dark correction enabled: true
Nonlinearity correction enabled: false
Boxcar width: 0
XAxis mode: Wavelengths
Number of Pixels in Spectrum: 2048
>>>>>Begin Spectral Data<<<<<
223.165	-15.25
223.4	-15.25
223.635	-15.25
223.869	-21.25
224.104	-35.25
224.338	-11.25
224.573	-8.25
224.808	-17.25
225.042	-13.25
225.277	-1.25
225.511	3.75
225.746	8.75
225.98	9.75
226.215	0.75
226.449	21.75
226.683	14.75
226.918	18.75
227.152	44.75
227.387	34.75
227.621	41.75
227.856	43.75
228.09	53.75
228.324	46.75
228.559	41.75
228.793	173.75
229.027	460.75
229.262	558.75
229.496	622.75
229.73	813.75
229.964	826.75
230.199	554.75
230.433	514.75
230.667	502.75
230.901	482.75
231.136	460.75
231.37	464.75
231.604	469.75
231.838	480.75
232.072	480.75
232.306	479.75
232.541	496.75
232.775	486.75
233.009	496.75
233.243	502.75
233.477	502.75
233.711	516.75
233.945	509.75
234.179	525.75
234.413	510.75
234.647	522.75
234.881	556.75
235.115	566.75
235.349	567.75
235.583	555.75
235.817	615.75
236.051	645.75
236.285	657.75
236.519	666.75
236.753	738.75
236.987	929.75
237.221	1376.75
237.455	1555.75
237.689	920.75
237.922	772.75
238.156	731.75
238.39	710.75
238.624	669.75
238.858	689.75
239.091	685.75
239.325	691.75
239.559	708.75
239.793	722.75
240.027	798.75
240.26	931.75
240.494	999.75
240.728	997.75
240.961	926.75
241.195	845.75
241.429	845.75
241.662	798.75
241.896	813.75
242.13	778.75
242.363	802.75
242.597	834.75
242.83	859.75
243.064	867.75
243.298	820.75
243.531	847.75
243.765	863.75
243.998	892.75
244.232	883.75
244.465	924.75
244.699	957.75
244.932	960.75
245.166	948.75
245.399	951.75
245.633	908.75
245.866	933.75
246.099	974.75
246.333	981.75
246.566	1005.75
246.8	993.75
247.033	1064.75
247.266	1106.75
247.5	1162.75
247.733	1191.75
247.966	1208.75
248.2	1189.75
248.433	1179.75
248.666	1259.75
248.899	1395.75
249.133	1462.75
249.366	1473.75
249.599	1349.75
249.832	1255.75
250.066	1260.75
250.299	1290.75
250.532	1342.75
250.765	1554.75
250.998	1745.75
251.231	1696.75
251.465	1587.75
251.698	1480.75
251.931	1449.75
252.164	1440.75
252.397	1492.75
252.63	1531.75
252.863	1593.75
253.096	1766.75
253.329	1776.75
253.562	1742.75
253.795	1639.75
254.028	1633.75
254.261	1686.75
254.494	1891.75
254.727	2200.75
254.96	2321.75
255.193	2064.75
255.426	1812.75
255.659	1682.75
255.892	1651.75
256.124	1612.75
256.357	1546.75
256.59	1567.75
256.823	1552.75
257.056	1570.75
257.289	1542.75
257.521	1588.75
257.754	1627.75
257.987	1545.75
258.22	1573.75
258.452	1603.75
258.685	1608.75
258.918	1599.75
259.151	1667.75
259.383	1774.75
259.616	1787.75
259.849	1790.75
260.081	1973.75
260.314	2155.75
260.547	2082.75
260.779	1928.75
261.012	1893.75
261.244	1793.75
261.477	1760.75
261.71	1744.75
261.942	1795.75
262.175	1807.75
262.407	1732.75
262.64	1724.75
262.872	1723.75
263.105	1689.75
263.337	1714.75
263.57	1724.75
263.802	1727.75
264.035	1756.75
264.267	1738.75
264.499	1748.75
264.732	1725.75
264.964	1757.75
265.197	1732.75
265.429	1760.75
265.661	1787.75
265.894	1760.75
266.126	1804.75
266.358	1812.75
266.591	1838.75
266.823	1933.75
267.055	1898.75
267.287	1928.75
267.52	1901.75
267.752	1898.75
267.984	1910.75
268.216	1973.75
268.448	2041.75
268.681	2077.75
268.913	2241.75
269.145	2411.75
269.377	2459.75
269.609	2394.75
269.841	2340.75
270.073	2449.75
270.306	2695.75
270.538	2917.75
270.77	2750.75
271.002	2608.75
271.234	2558.75
271.466	2725.75
271.698	2840.75
271.93	2860.75
272.162	2835.75
272.394	2782.75
272.626	2594.75
272.858	2492.75
273.09	2427.75
273.322	2293.75
273.553	2277.75
273.785	2317.75
274.017	2337.75
274.249	2303.75
274.481	2315.75
274.713	2316.75
274.945	2341.75
275.176	2342.75
275.408	2315.75
275.64	2315.75
275.872	2348.75
276.104	2324.75
276.335	2346.75
276.567	2521.75
276.799	2594.75
277.031	2863.75
277.262	2976.75
277.494	2858.75
277.726	2681.75
277.957	2608.75
278.189	2528.75
278.421	2450.75
278.652	2427.75
278.884	2469.75
279.115	2427.75
279.347	2459.75
279.579	2432.75
279.81	2465.75
280.042	2463.75
280.273	2427.75
280.505	2479.75
280.736	2421.75
280.968	2492.75
281.199	2480.75
281.431	2500.75
281.662	2516.75
281.894	2547.75
282.125	2584.75
282.356	2762.75
282.588	2845.75
282.819	2716.75
283.051	2624.75
283.282	2571.75
283.513	2620.75
283.745	2692.75
283.976	2732.75
284.207	2700.75
284.439	2674.75
284.67	2676.75
284.901	2704.75
285.132	2696.75
285.364	2688.75
285.595	2694.75
285.826	2710.75
286.057	2704.75
286.288	2789.75
286.52	2777.75
286.751	2723.75
286.982	2785.75
287.213	2831.75
287.444	2794.75
287.675	2868.75
287.906	2981.75
288.138	2999.75
288.369	2965.75
288.6	2966.75
288.831	2920.75
289.062	2905.75
289.293	2905.75
289.524	2882.75
289.755	2870.75
289.986	2893.75
290.217	2916.75
290.448	2854.75
290.679	2894.75
290.91	2865.75
291.141	2885.75
291.371	2903.75
291.602	2891.75
291.833	2936.75
292.064	2899.75
292.295	2912.75
292.526	2902.75
292.757	2896.75
292.987	2842.75
293.218	2877.75
293.449	2935.75
293.68	2909.75
293.91	2935.75
294.141	2941.75
294.372	2914.75
294.603	2929.75
294.833	2976.75
295.064	2976.75
295.295	2970.75
295.525	2937.75
295.756	3038.75
295.987	3087.75
296.217	3197.75
296.448	3162.75
296.679	3051.75
296.909	2982.75
297.14	3070.75
297.37	3088.75
297.601	3107.75
297.831	3085.75
298.062	3107.75
298.292	3146.75
298.523	3272.75
298.753	3190.75
298.984	3152.75
299.214	3097.75
299.445	3136.75
299.675	3183.75
299.905	3242.75
300.136	3160.75
300.366	3227.75
300.597	3228.75
300.827	3362.75
301.057	3374.75
301.288	3453.75
301.518	3448.75
301.748	3469.75
301.979	3416.75
302.209	3491.75
302.439	3450.75
302.669	3404.75
302.9	3443.75
303.13	3324.75
303.36	3420.75
303.59	3434.75
303.82	3402.75
304.051	3445.75
304.281	3393.75
304.511	3346.75
304.741	3336.75
304.971	3379.75
305.201	3315.75
305.431	3336.75
305.661	3381.75
305.891	3315.75
306.121	3336.75
306.352	3416.75
306.582	3332.75
306.812	3331.75
307.042	3413.75
307.272	3312.75
307.502	3341.75
307.731	3307.75
307.961	3328.75
308.191	3350.75
308.421	3319.75
308.651	3348.75
308.881	3372.75
309.111	3437.75
309.341	3384.75
309.571	3502.75
309.8	3507.75
310.03	3588.75
310.26	3663.75
310.49	3631.75
310.72	3759.75
310.949	3855.75
311.179	3785.75
311.409	3696.75
311.639	3678.75
311.868	3729.75
312.098	3720.75
312.328	3885.75
312.557	3977.75
312.787	4011.75
313.017	3873.75
313.246	3824.75
313.476	3806.75
313.706	3825.75
313.935	3899.75
314.165	3980.75
314.394	3992.75
314.624	3958.75
314.853	3919.75
315.083	3825.75
315.312	3868.75
315.542	3756.75
315.771	3683.75
316.001	3725.75
316.23	3689.75
316.46	3766.75
316.689	3794.75
316.919	3742.75
317.148	3842.75
317.377	3846.75
317.607	3810.75
317.836	3758.75
318.065	3729.75
318.295	3677.75
318.524	3748.75
318.753	3681.75
318.983	3712.75
319.212	3704.75
319.441	3790.75
319.67	3808.75
319.9	3708.75
320.129	3743.75
320.358	3765.75
320.587	3841.75
320.816	3846.75
321.046	3906.75
321.275	3890.75
321.504	3875.75
321.733	3821.75
321.962	3963.75
322.191	4065.75
322.42	4145.75
322.649	4180.75
322.878	4320.75
323.108	4275.75
323.337	4600.75
323.566	4706.75
323.795	5046.75
324.024	5524.75
324.253	7184.75
324.482	10836.75
324.71	15089.75
324.939	15622.75
325.168	13015.75
325.397	6592.75
325.626	5237.75
325.855	4891.75
326.084	4747.75
326.313	4800.75
326.542	4877.75
326.77	5512.75
326.999	6915.75
327.228	10199.75
327.457	14268.75
327.686	13505.75
327.914	7311.75
328.143	5825.75
328.372	5439.75
328.6	5189.75
328.829	5209.75
329.058	5314.75
329.287	5251.75
329.515	4952.75
329.744	4793.75
329.972	4766.75
330.201	4853.75
330.43	5120.75
330.658	5435.75
330.887	5676.75
331.115	5372.75
331.344	4984.75
331.572	4911.75
331.801	5070.75
332.03	4986.75
332.258	4955.75
332.486	4951.75
332.715	5062.75
332.943	5184.75
333.172	5399.75
333.4	5505.75
333.629	5604.75
333.857	5726.75
334.085	5605.75
334.314	5532.75
334.542	5432.75
334.771	5417.75
334.999	5320.75
335.227	5228.75
335.455	5203.75
335.684	5083.75
335.912	5073.75
336.14	5019.75
336.369	5018.75
336.597	5095.75
336.825	4936.75
337.053	4923.75
337.281	4814.75
337.51	4773.75
337.738	4814.75
337.966	4727.75
338.194	4739.75
338.422	4698.75
338.65	4652.75
338.878	4622.75
339.106	4611.75
339.334	4579.75
339.562	4530.75
339.79	4447.75
340.018	4475.75
340.246	4428.75
340.474	4476.75
340.702	4407.75
340.93	4413.75
341.158	4472.75
341.386	4424.75
341.614	4453.75
341.842	4449.75
342.07	4356.75
342.298	4388.75
342.526	4308.75
342.754	4277.75
342.981	4390.75
343.209	4468.75
343.437	4705.75
343.665	4948.75
343.893	5206.75
344.12	5214.75
344.348	5085.75
344.576	4835.75
344.804	4776.75
345.031	4747.75
345.259	4660.75
345.487	4469.75
345.714	4371.75
345.942	4346.75
346.17	4316.75
346.397	4309.75
346.625	4310.75
346.853	4260.75
347.08	4251.75
347.308	4290.75
347.535	4373.75
347.763	4376.75
347.99	4339.75
348.218	4344.75
348.445	4388.75
348.673	4296.75
348.9	4226.75
349.128	4188.75
349.355	4174.75
349.583	4096.75
349.81	4150.75
350.037	4076.75
350.265	4113.75
350.492	4133.75
350.72	4106.75
350.947	4142.75
351.174	4250.75
351.402	4301.75
351.629	4178.75
351.856	4197.75
352.083	4321.75
352.311	4309.75
352.538	4280.75
352.765	4235.75
352.992	4220.75
353.22	4151.75
353.447	4168.75
353.674	4057.75
353.901	4040.75
354.128	3947.75
354.355	4076.75
354.583	4033.75
354.81	4007.75
355.037	4033.75
355.264	3988.75
355.491	4048.75
355.718	3973.75
355.945	4015.75
356.172	3945.75
356.399	4016.75
356.626	4013.75
356.853	4036.75
357.08	3987.75
357.307	3975.75
357.534	4025.75
357.761	3959.75
357.988	4067.75
358.215	3995.75
358.441	4052.75
358.668	4051.75
358.895	4082.75
359.122	4122.75
359.349	4249.75
359.576	4349.75
359.802	4466.75
360.029	4666.75
360.256	4644.75
360.483	4428.75
360.709	4255.75
360.936	4248.75
361.163	4212.75
361.39	4246.75
361.616	4230.75
361.843	4152.75
362.07	4250.75
362.296	4247.75
362.523	4252.75
362.749	4250.75
362.976	4147.75
363.203	4152.75
363.429	4060.75
363.656	4166.75
363.882	4163.75
364.109	4089.75
364.335	4072.75
364.562	4068.75
364.788	4044.75
365.015	4120.75
365.241	4112.75
365.468	4137.75
365.694	4121.75
365.92	4120.75
366.147	4019.75
366.373	4140.75
366.599	4130.75
366.826	4070.75
367.052	4043.75
367.278	4105.75
367.505	4111.75
367.731	4110.75
367.957	4120.75
368.184	4154.75
368.41	4259.75
368.636	4289.75
368.862	4365.75
369.089	4197.75
369.315	4229.75
369.541	4131.75
369.767	4241.75
369.993	4216.75
370.219	4230.75
370.445	4274.75
370.672	4232.75
370.898	4326.75
371.124	4344.75
371.35	4356.75
371.576	4345.75
371.802	4301.75
372.028	4320.75
372.254	4316.75
372.48	4433.75
372.706	4499.75
372.932	4551.75
373.158	4448.75
373.384	4479.75
373.61	4403.75
373.835	4434.75
374.061	4498.75
374.287	4524.75
374.513	4611.75
374.739	4719.75
374.965	4783.75
375.191	4847.75
375.416	4688.75
375.642	4592.75
375.868	4553.75
376.094	4510.75
376.319	4440.75
376.545	4428.75
376.771	4420.75
376.997	4338.75
377.222	4376.75
377.448	4357.75
377.674	4411.75
377.899	4284.75
378.125	4371.75
378.35	4296.75
378.576	4370.75
378.802	4348.75
379.027	4355.75
379.253	4371.75
379.478	4316.75
379.704	4283.75
379.929	4390.75
380.155	4396.75
380.38	4365.75
380.606	4461.75
380.831	4306.75
381.057	4465.75
381.282	4427.75
381.507	4443.75
381.733	4454.75
381.958	4452.75
382.184	4580.75
382.409	4595.75
382.634	4684.75
382.86	4600.75
383.085	4626.75
383.31	4735.75
383.535	4784.75
383.761	4829.75
383.986	4913.75
384.211	5045.75
384.436	5077.75
384.662	5203.75
384.887	5281.75
385.112	5261.75
385.337	5314.75
385.562	5285.75
385.787	5289.75
386.013	5403.75
386.238	5315.75
386.463	5382.75
386.688	5331.75
386.913	5198.75
387.138	5239.75
387.363	5208.75
387.588	5141.75
387.813	5299.75
388.038	5193.75
388.263	5269.75
388.488	5236.75
388.713	5245.75
388.938	5214.75
389.163	5187.75
389.387	5156.75
389.612	5118.75
389.837	5203.75
390.062	5129.75
390.287	5182.75
390.512	5211.75
390.736	5180.75
390.961	5314.75
391.186	5360.75
391.411	5568.75
391.636	5731.75
391.86	5816.75
392.085	5883.75
392.31	5792.75
392.534	5697.75
392.759	5498.75
392.984	5474.75
393.208	5502.75
393.433	5467.75
393.658	5452.75
393.882	5393.75
394.107	5488.75
394.331	5501.75
394.556	5532.75
394.78	5586.75
395.005	5572.75
395.229	5597.75
395.454	5842.75
395.678	5904.75
395.903	5875.75
396.127	5911.75
396.352	5814.75
396.576	5528.75
396.801	5553.75
397.025	5603.75
397.249	5714.75
397.474	5860.75
397.698	5895.75
397.922	6123.75
398.147	6129.75
398.371	6272.75
398.595	6429.75
398.82	6700.75
399.044	7234.75
399.268	7972.75
399.492	9052.75
399.717	9805.75
399.941	9505.75
400.165	8909.75
400.389	8265.75
400.613	7377.75
400.837	6999.75
401.062	6775.75
401.286	6655.75
401.51	6668.75
401.734	6528.75
401.958	6763.75
402.182	6806.75
402.406	6969.75
402.63	7003.75
402.854	7128.75
403.078	7163.75
403.302	7333.75
403.526	7439.75
403.75	7440.75
403.974	7517.75
404.198	7424.75
404.422	7650.75
404.645	7550.75
404.869	7355.75
405.093	7576.75
405.317	7601.75
405.541	7572.75
405.765	7299.75
405.988	7286.75
406.212	7457.75
406.436	7613.75
406.66	7882.75
406.883	7834.75
407.107	8395.75
407.331	9028.75
407.555	9537.75
407.778	9166.75
408.002	8393.75
408.226	7993.75
408.449	7882.75
408.673	7820.75
408.896	7953.75
409.12	8124.75
409.344	7573.75
409.567	7213.75
409.791	7278.75
410.014	7147.75
410.238	7106.75
410.461	7123.75
410.685	7174.75
410.908	7247.75
411.132	7514.75
411.355	7470.75
411.578	7096.75
411.802	6830.75
412.025	6837.75
412.249	6968.75
412.472	6892.75
412.695	6754.75
412.919	6548.75
413.142	6493.75
413.365	6453.75
413.589	6592.75
413.812	6424.75
414.035	6329.75
414.258	6450.75
414.482	6572.75
414.705	6502.75
414.928	6483.75
415.151	6459.75
415.374	6516.75
415.597	6431.75
415.821	6316.75
416.044	6319.75
416.267	6330.75
416.49	6333.75
416.713	6240.75
416.936	6436.75
417.159	6386.75
417.382	6473.75
417.605	6506.75
417.828	6568.75
418.051	6781.75
418.274	6709.75
418.497	6525.75
418.72	6658.75
418.943	6562.75
419.166	6987.75
419.389	7399.75
419.611	7182.75
419.834	6971.75
420.057	6931.75
420.28	6751.75
420.503	6558.75
420.726	6518.75
420.948	6689.75
421.171	7181.75
421.394	7178.75
421.617	6686.75
421.839	6643.75
422.062	6736.75
422.285	6878.75
422.507	7514.75
422.73	8158.75
422.953	7629.75
423.175	7161.75
423.398	7169.75
423.621	7222.75
423.843	7476.75
424.066	7318.75
424.288	7259.75
424.511	7548.75
424.733	7908.75
424.956	8408.75
425.178	7888.75
425.401	8053.75
425.623	7910.75
425.846	6984.75
426.068	6756.75
426.291	6685.75
426.513	6635.75
426.735	6819.75
426.958	7242.75
427.18	8038.75
427.402	9204.75
427.625	9208.75
427.847	7715.75
428.069	6821.75
428.292	6477.75
428.514	6285.75
428.736	6087.75
428.958	6122.75
429.181	5901.75
429.403	5864.75
429.625	6140.75
429.847	6399.75
430.069	6985.75
430.292	6455.75
430.514	5995.75
430.736	5936.75
430.958	5798.75
431.18	5744.75
431.402	5813.75
431.624	5662.75
431.846	5891.75
432.068	5848.75
432.29	5963.75
432.512	5842.75
432.734	5979.75
432.956	5914.75
433.178	5937.75
433.4	5936.75
433.622	5871.75
433.844	5926.75
434.066	5940.75
434.287	5994.75
434.509	6139.75
434.731	6428.75
434.953	6638.75
435.175	6731.75
435.397	6880.75
435.618	6769.75
435.84	7178.75
436.062	8014.75
436.284	7920.75
436.505	6730.75
436.727	6330.75
436.949	6164.75
437.17	6027.75
437.392	5949.75
437.614	6122.75
437.835	6451.75
438.057	7487.75
438.278	8074.75
438.5	8048.75
438.721	8956.75
438.943	7856.75
439.165	6555.75
439.386	6393.75
439.608	6436.75
439.829	6565.75
440.05	6852.75
440.272	7166.75
440.493	6597.75
440.715	6366.75
440.936	6348.75
441.158	6349.75
441.379	6459.75
441.6	6764.75
441.822	6926.75
442.043	7453.75
442.264	8178.75
442.486	7914.75
442.707	7088.75
442.928	6840.75
443.149	7115.75
443.371	7248.75
443.592	7777.75
443.813	8861.75
444.034	8798.75
444.255	7682.75
444.476	7482.75
444.698	7748.75
444.919	7801.75
445.14	7584.75
445.361	7473.75
445.582	7530.75
445.803	8140.75
446.024	8803.75
446.245	8371.75
446.466	7500.75
446.687	6633.75
446.908	6304.75
447.129	6027.75
447.35	5845.75
447.571	5808.75
447.792	5671.75
448.013	5734.75
448.234	6022.75
448.455	6632.75
448.675	7836.75
448.896	8402.75
449.117	6904.75
449.338	7125.75
449.559	8536.75
449.779	8634.75
450	6602.75
450.221	5919.75
450.442	5674.75
450.662	5640.75
450.883	5697.75
451.104	5807.75
451.324	5613.75
451.545	5491.75
451.766	5340.75
451.986	5123.75
452.207	5124.75
452.428	5108.75
452.648	5171.75
452.869	5194.75
453.089	5303.75
453.31	5331.75
453.53	5166.75
453.751	5204.75
453.971	5179.75
454.192	5272.75
454.412	5096.75
454.633	5063.75
454.853	5046.75
455.073	5130.75
455.294	5482.75
455.514	6027.75
455.734	5560.75
455.955	5007.75
456.175	4834.75
456.395	4707.75
456.616	4733.75
456.836	4777.75
457.056	4690.75
457.276	4700.75
457.497	4804.75
457.717	4831.75
457.937	4865.75
458.157	4953.75
458.377	5094.75
458.598	5401.75
458.818	6093.75
459.038	6880.75
459.258	6785.75
459.478	6031.75
459.698	5964.75
459.918	5992.75
460.138	6170.75
460.358	6433.75
460.578	6459.75
460.798	6555.75
461.018	6481.75
461.238	6287.75
461.458	6236.75
461.678	6406.75
461.898	6471.75
462.118	6419.75
462.338	6851.75
462.558	7046.75
462.777	7261.75
462.997	7902.75
463.217	8292.75
463.437	8050.75
463.657	7532.75
463.876	7248.75
464.096	7351.75
464.316	7301.75
464.536	7301.75
464.755	7112.75
464.975	6962.75
465.195	7057.75
465.414	7051.75
465.634	6314.75
465.854	5989.75
466.073	5722.75
466.293	5587.75
466.512	5414.75
466.732	5379.75
466.951	5347.75
467.171	5328.75
467.391	5316.75
467.61	5461.75
467.829	5416.75
468.049	5236.75
468.268	5157.75
468.488	5035.75
468.707	5085.75
468.927	5072.75
469.146	5128.75
469.365	5210.75
469.585	5209.75
469.804	5384.75
470.023	5463.75
470.243	5512.75
470.462	5573.75
470.681	5725.75
470.901	5572.75
471.12	5426.75
471.339	5362.75
471.558	5396.75
471.777	5308.75
471.997	5131.75
472.216	5105.75
472.435	5131.75
472.654	5029.75
472.873	4992.75
473.092	4953.75
473.311	5090.75
473.53	5092.75
473.749	5209.75
473.968	5700.75
474.187	6850.75
474.406	6350.75
474.625	5425.75
474.844	5126.75
475.063	5080.75
475.282	5160.75
475.501	5180.75
475.72	5193.75
475.939	5199.75
476.158	5296.75
476.377	5292.75
476.596	5238.75
476.814	5447.75
477.033	5428.75
477.252	5604.75
477.471	5683.75
477.69	5762.75
477.908	5840.75
478.127	6004.75
478.346	6050.75
478.564	6251.75
478.783	6314.75
479.002	6459.75
479.22	6394.75
479.439	6501.75
479.658	6572.75
479.876	6707.75
480.095	6845.75
480.313	7314.75
480.532	7251.75
480.751	6989.75
480.969	6833.75
481.188	6794.75
481.406	6615.75
481.624	6320.75
481.843	6198.75
482.061	6056.75
482.28	6058.75
482.498	5989.75
482.717	5929.75
482.935	5987.75
483.153	5952.75
483.372	6025.75
483.59	5977.75
483.808	6046.75
484.027	5984.75
484.245	5996.75
484.463	6101.75
484.681	6131.75
484.9	6167.75
485.118	6218.75
485.336	6269.75
485.554	6308.75
485.772	6312.75
485.99	6392.75
486.209	6396.75
486.427	6470.75
486.645	6485.75
486.863	6591.75
487.081	6458.75
487.299	6459.75
487.517	6457.75
487.735	6399.75
487.953	6347.75
