Data from Uncirc_1995_H10_HRD10591_00077.txt Node
Date: Wed Jan 03 11:35:49 EST 2024
User: Yrep
Spectrometer: HR+D1059
Trigger mode: 1
Integration Time (sec): 1.000000E-1
Scans to average: 1
Electric dark correction enabled: true
Nonlinearity correction enabled: false
Boxcar width: 0
XAxis mode: Wavelengths
Number of Pixels in Spectrum: 2048
>>>>>Begin Spectral Data<<<<<
223.165	-10.81
223.4	-10.81
223.635	-10.81
223.869	-2.81
224.104	-23.81
224.338	-16.81
224.573	-30.81
224.808	-15.81
225.042	-8.81
225.277	-2.81
225.511	-1.81
225.746	-5.81
225.98	-1.81
226.215	13.19
226.449	29.19
226.683	29.19
226.918	26.19
227.152	24.19
227.387	30.19
227.621	25.19
227.856	51.19
228.09	49.19
228.324	52.19
228.559	55.19
228.793	56.19
229.027	63.19
229.262	79.19
229.496	68.19
229.73	87.19
229.964	81.19
230.199	73.19
230.433	76.19
230.667	78.19
230.901	62.19
231.136	77.19
231.37	78.19
231.604	72.19
231.838	86.19
232.072	85.19
232.306	79.19
232.541	76.19
232.775	63.19
233.009	79.19
233.243	77.19
233.477	76.19
233.711	80.19
233.945	85.19
234.179	85.19
234.413	80.19
234.647	77.19
234.881	73.19
235.115	83.19
235.349	75.19
235.583	71.19
235.817	78.19
236.051	73.19
236.285	80.19
236.519	86.19
236.753	63.19
236.987	77.19
237.221	91.19
237.455	81.19
237.689	76.19
237.922	68.19
238.156	78.19
238.39	76.19
238.624	70.19
238.858	70.19
239.091	79.19
239.325	62.19
239.559	70.19
239.793	57.19
240.027	92.19
240.26	75.19
240.494	92.19
240.728	76.19
240.961	67.19
241.195	72.19
241.429	63.19
241.662	71.19
241.896	75.19
242.13	73.19
242.363	68.19
242.597	75.19
242.83	82.19
243.064	70.19
243.298	77.19
243.531	61.19
243.765	73.19
243.998	83.19
244.232	83.19
244.465	89.19
244.699	76.19
244.932	69.19
245.166	67.19
245.399	76.19
245.633	75.19
245.866	76.19
246.099	84.19
246.333	89.19
246.566	92.19
246.8	83.19
247.033	85.19
247.266	69.19
247.5	74.19
247.733	84.19
247.966	67.19
248.2	63.19
248.433	72.19
248.666	70.19
248.899	96.19
249.133	83.19
249.366	95.19
249.599	80.19
249.832	71.19
250.066	75.19
250.299	79.19
250.532	83.19
250.765	72.19
250.998	73.19
251.231	68.19
251.465	77.19
251.698	85.19
251.931	81.19
252.164	87.19
252.397	72.19
252.63	75.19
252.863	74.19
253.096	85.19
253.329	74.19
253.562	68.19
253.795	73.19
254.028	81.19
254.261	85.19
254.494	85.19
254.727	79.19
254.96	86.19
255.193	82.19
255.426	84.19
255.659	78.19
255.892	83.19
256.124	77.19
256.357	84.19
256.59	67.19
256.823	62.19
257.056	83.19
257.289	76.19
257.521	71.19
257.754	75.19
257.987	71.19
258.22	85.19
258.452	72.19
258.685	61.19
258.918	72.19
259.151	94.19
259.383	97.19
259.616	89.19
259.849	72.19
260.081	85.19
260.314	79.19
260.547	86.19
260.779	82.19
261.012	80.19
261.244	80.19
261.477	77.19
261.71	93.19
261.942	102.19
262.175	119.19
262.407	90.19
262.64	78.19
262.872	76.19
263.105	86.19
263.337	84.19
263.57	86.19
263.802	68.19
264.035	78.19
264.267	85.19
264.499	87.19
264.732	77.19
264.964	88.19
265.197	88.19
265.429	90.19
265.661	88.19
265.894	77.19
266.126	91.19
266.358	77.19
266.591	77.19
266.823	77.19
267.055	76.19
267.287	79.19
267.52	76.19
267.752	93.19
267.984	86.19
268.216	79.19
268.448	77.19
268.681	88.19
268.913	91.19
269.145	79.19
269.377	78.19
269.609	77.19
269.841	71.19
270.073	79.19
270.306	84.19
270.538	71.19
270.77	77.19
271.002	83.19
271.234	73.19
271.466	93.19
271.698	80.19
271.93	77.19
272.162	83.19
272.394	78.19
272.626	87.19
272.858	74.19
273.09	72.19
273.322	80.19
273.553	74.19
273.785	64.19
274.017	76.19
274.249	83.19
274.481	88.19
274.713	95.19
274.945	83.19
275.176	90.19
275.408	83.19
275.64	81.19
275.872	79.19
276.104	83.19
276.335	77.19
276.567	79.19
276.799	104.19
277.031	108.19
277.262	100.19
277.494	108.19
277.726	79.19
277.957	79.19
278.189	76.19
278.421	83.19
278.652	87.19
278.884	87.19
279.115	92.19
279.347	85.19
279.579	85.19
279.81	83.19
280.042	78.19
280.273	72.19
280.505	77.19
280.736	80.19
280.968	84.19
281.199	81.19
281.431	74.19
281.662	93.19
281.894	95.19
282.125	85.19
282.356	105.19
282.588	129.19
282.819	100.19
283.051	85.19
283.282	84.19
283.513	82.19
283.745	88.19
283.976	78.19
284.207	76.19
284.439	94.19
284.67	92.19
284.901	81.19
285.132	81.19
285.364	72.19
285.595	76.19
285.826	92.19
286.057	86.19
286.288	91.19
286.52	84.19
286.751	72.19
286.982	89.19
287.213	91.19
287.444	77.19
287.675	75.19
287.906	95.19
288.138	92.19
288.369	87.19
288.6	77.19
288.831	105.19
289.062	94.19
289.293	82.19
289.524	69.19
289.755	80.19
289.986	95.19
290.217	73.19
290.448	83.19
290.679	79.19
290.91	83.19
291.141	81.19
291.371	88.19
291.602	94.19
291.833	90.19
292.064	90.19
292.295	89.19
292.526	94.19
292.757	101.19
292.987	88.19
293.218	87.19
293.449	81.19
293.68	78.19
293.91	95.19
294.141	85.19
294.372	97.19
294.603	88.19
294.833	93.19
295.064	85.19
295.295	93.19
295.525	100.19
295.756	97.19
295.987	110.19
296.217	126.19
296.448	118.19
296.679	109.19
296.909	96.19
297.14	83.19
297.37	86.19
297.601	92.19
297.831	86.19
298.062	80.19
298.292	93.19
298.523	90.19
298.753	70.19
298.984	93.19
299.214	91.19
299.445	100.19
299.675	87.19
299.905	81.19
300.136	78.19
300.366	70.19
300.597	83.19
300.827	88.19
301.057	101.19
301.288	100.19
301.518	104.19
301.748	84.19
301.979	92.19
302.209	100.19
302.439	95.19
302.669	89.19
302.9	104.19
303.13	91.19
303.36	81.19
303.59	101.19
303.82	95.19
304.051	91.19
304.281	96.19
304.511	88.19
304.741	83.19
304.971	93.19
305.201	96.19
305.431	91.19
305.661	77.19
305.891	88.19
306.121	103.19
306.352	93.19
306.582	92.19
306.812	109.19
307.042	100.19
307.272	86.19
307.502	89.19
307.731	92.19
307.961	81.19
308.191	95.19
308.421	72.19
308.651	84.19
308.881	88.19
309.111	96.19
309.341	80.19
309.571	87.19
309.8	97.19
310.03	94.19
310.26	91.19
310.49	94.19
310.72	93.19
310.949	92.19
311.179	93.19
311.409	88.19
311.639	99.19
311.868	104.19
312.098	84.19
312.328	95.19
312.557	99.19
312.787	103.19
313.017	103.19
313.246	73.19
313.476	98.19
313.706	86.19
313.935	81.19
314.165	89.19
314.394	90.19
314.624	72.19
314.853	89.19
315.083	99.19
315.312	91.19
315.542	96.19
315.771	94.19
316.001	87.19
316.23	93.19
316.46	100.19
316.689	108.19
316.919	104.19
317.148	92.19
317.377	96.19
317.607	93.19
317.836	91.19
318.065	100.19
318.295	87.19
318.524	82.19
318.753	76.19
318.983	94.19
319.212	109.19
319.441	105.19
319.67	93.19
319.9	90.19
320.129	92.19
320.358	93.19
320.587	83.19
320.816	92.19
321.046	104.19
321.275	90.19
321.504	94.19
321.733	83.19
321.962	96.19
322.191	94.19
322.42	102.19
322.649	108.19
322.878	105.19
323.108	118.19
323.337	126.19
323.566	127.19
323.795	147.19
324.024	206.19
324.253	393.19
324.482	876.19
324.71	1814.19
324.939	2365.19
325.168	862.19
325.397	254.19
325.626	145.19
325.855	121.19
326.084	111.19
326.313	133.19
326.542	158.19
326.77	226.19
326.999	477.19
327.228	961.19
327.457	1836.19
327.686	1463.19
327.914	389.19
328.143	194.19
328.372	137.19
328.6	115.19
328.829	118.19
329.058	113.19
329.287	110.19
329.515	100.19
329.744	93.19
329.972	102.19
330.201	92.19
330.43	98.19
330.658	122.19
330.887	124.19
331.115	117.19
331.344	99.19
331.572	98.19
331.801	91.19
332.03	80.19
332.258	96.19
332.486	91.19
332.715	93.19
332.943	96.19
333.172	94.19
333.4	94.19
333.629	97.19
333.857	123.19
334.085	107.19
334.314	100.19
334.542	91.19
334.771	89.19
334.999	95.19
335.227	82.19
335.455	84.19
335.684	96.19
335.912	96.19
336.14	97.19
336.369	92.19
336.597	94.19
336.825	98.19
337.053	99.19
337.281	95.19
337.51	85.19
337.738	82.19
337.966	80.19
338.194	87.19
338.422	93.19
338.65	84.19
338.878	81.19
339.106	73.19
339.334	100.19
339.562	84.19
339.79	96.19
340.018	95.19
340.246	87.19
340.474	94.19
340.702	93.19
340.93	103.19
341.158	90.19
341.386	92.19
341.614	103.19
341.842	97.19
342.07	78.19
342.298	85.19
342.526	77.19
342.754	80.19
342.981	89.19
343.209	80.19
343.437	99.19
343.665	96.19
343.893	107.19
344.12	81.19
344.348	84.19
344.576	79.19
344.804	97.19
345.031	93.19
345.259	96.19
345.487	97.19
345.714	90.19
345.942	85.19
346.17	87.19
346.397	82.19
346.625	85.19
346.853	101.19
347.08	96.19
347.308	85.19
347.535	87.19
347.763	92.19
347.99	77.19
348.218	93.19
348.445	95.19
348.673	102.19
348.9	96.19
349.128	108.19
349.355	86.19
349.583	90.19
349.81	86.19
350.037	89.19
350.265	99.19
350.492	93.19
350.72	92.19
350.947	113.19
351.174	103.19
351.402	110.19
351.629	111.19
351.856	102.19
352.083	99.19
352.311	109.19
352.538	93.19
352.765	107.19
352.992	120.19
353.22	118.19
353.447	105.19
353.674	108.19
353.901	84.19
354.128	94.19
354.355	86.19
354.583	102.19
354.81	82.19
355.037	99.19
355.264	91.19
355.491	80.19
355.718	99.19
355.945	87.19
356.172	96.19
356.399	81.19
356.626	87.19
356.853	80.19
357.08	90.19
357.307	96.19
357.534	87.19
357.761	84.19
357.988	79.19
358.215	80.19
358.441	93.19
358.668	112.19
358.895	87.19
359.122	89.19
359.349	92.19
359.576	99.19
359.802	85.19
360.029	111.19
360.256	99.19
360.483	88.19
360.709	77.19
360.936	88.19
361.163	103.19
361.39	96.19
361.616	79.19
361.843	70.19
362.07	84.19
362.296	92.19
362.523	75.19
362.749	96.19
362.976	82.19
363.203	87.19
363.429	96.19
363.656	91.19
363.882	83.19
364.109	93.19
364.335	92.19
364.562	85.19
364.788	91.19
365.015	79.19
365.241	79.19
365.468	101.19
365.694	83.19
365.92	80.19
366.147	75.19
366.373	87.19
366.599	99.19
366.826	91.19
367.052	88.19
367.278	91.19
367.505	96.19
367.731	95.19
367.957	86.19
368.184	91.19
368.41	98.19
368.636	110.19
368.862	93.19
369.089	112.19
369.315	95.19
369.541	83.19
369.767	92.19
369.993	88.19
370.219	80.19
370.445	71.19
370.672	84.19
370.898	87.19
371.124	84.19
371.35	70.19
371.576	80.19
371.802	87.19
372.028	85.19
372.254	88.19
372.48	93.19
372.706	79.19
372.932	88.19
373.158	89.19
373.384	107.19
373.61	86.19
373.835	77.19
374.061	92.19
374.287	77.19
374.513	77.19
374.739	94.19
374.965	84.19
375.191	95.19
375.416	92.19
375.642	83.19
375.868	90.19
376.094	85.19
376.319	83.19
376.545	83.19
376.771	79.19
376.997	74.19
377.222	92.19
377.448	85.19
377.674	70.19
377.899	90.19
378.125	85.19
378.35	83.19
378.576	90.19
378.802	79.19
379.027	72.19
379.253	80.19
379.478	72.19
379.704	73.19
379.929	97.19
380.155	79.19
380.38	85.19
380.606	79.19
380.831	88.19
381.057	94.19
381.282	112.19
381.507	89.19
381.733	93.19
381.958	95.19
382.184	87.19
382.409	85.19
382.634	92.19
382.86	84.19
383.085	92.19
383.31	119.19
383.535	103.19
383.761	96.19
383.986	91.19
384.211	85.19
384.436	104.19
384.662	96.19
384.887	100.19
385.112	105.19
385.337	107.19
385.562	108.19
385.787	92.19
386.013	112.19
386.238	110.19
386.463	95.19
386.688	100.19
386.913	92.19
387.138	104.19
387.363	99.19
387.588	96.19
387.813	88.19
388.038	95.19
388.263	97.19
388.488	97.19
388.713	77.19
388.938	87.19
389.163	84.19
389.387	94.19
389.612	94.19
389.837	96.19
390.062	102.19
390.287	96.19
390.512	86.19
390.736	80.19
390.961	67.19
391.186	89.19
391.411	86.19
391.636	90.19
391.86	70.19
392.085	75.19
392.31	68.19
392.534	81.19
392.759	92.19
392.984	92.19
393.208	80.19
393.433	85.19
393.658	81.19
393.882	80.19
394.107	95.19
394.331	89.19
394.556	85.19
394.78	79.19
395.005	70.19
395.229	88.19
395.454	85.19
395.678	79.19
395.903	85.19
396.127	72.19
396.352	85.19
396.576	90.19
396.801	86.19
397.025	82.19
397.249	87.19
397.474	78.19
397.698	70.19
397.922	87.19
398.147	86.19
398.371	69.19
398.595	92.19
398.82	78.19
399.044	89.19
399.268	79.19
399.492	77.19
399.717	77.19
399.941	75.19
400.165	99.19
400.389	83.19
400.613	87.19
400.837	93.19
401.062	83.19
401.286	91.19
401.51	81.19
401.734	95.19
401.958	96.19
402.182	119.19
402.406	163.19
402.63	115.19
402.854	85.19
403.078	78.19
403.302	78.19
403.526	90.19
403.75	85.19
403.974	96.19
404.198	78.19
404.422	94.19
404.645	82.19
404.869	76.19
405.093	81.19
405.317	80.19
405.541	65.19
405.765	97.19
405.988	107.19
406.212	158.19
406.436	216.19
406.66	140.19
406.883	99.19
407.107	97.19
407.331	96.19
407.555	85.19
407.778	91.19
408.002	77.19
408.226	77.19
408.449	75.19
408.673	91.19
408.896	81.19
409.12	89.19
409.344	80.19
409.567	79.19
409.791	78.19
410.014	91.19
410.238	78.19
410.461	85.19
410.685	95.19
410.908	95.19
411.132	97.19
411.355	102.19
411.578	93.19
411.802	75.19
412.025	80.19
412.249	95.19
412.472	81.19
412.695	83.19
412.919	93.19
413.142	88.19
413.365	85.19
413.589	81.19
413.812	79.19
414.035	82.19
414.258	82.19
414.482	89.19
414.705	92.19
414.928	96.19
415.151	86.19
415.374	95.19
415.597	75.19
415.821	77.19
416.044	91.19
416.267	89.19
416.49	83.19
416.713	72.19
416.936	75.19
417.159	88.19
417.382	72.19
417.605	86.19
417.828	87.19
418.051	101.19
418.274	88.19
418.497	84.19
418.72	80.19
418.943	83.19
419.166	83.19
419.389	90.19
419.611	84.19
419.834	86.19
420.057	97.19
420.28	97.19
420.503	80.19
420.726	86.19
420.948	75.19
421.171	100.19
421.394	97.19
421.617	83.19
421.839	84.19
422.062	71.19
422.285	99.19
422.507	107.19
422.73	108.19
422.953	80.19
423.175	81.19
423.398	81.19
423.621	76.19
423.843	94.19
424.066	79.19
424.288	84.19
424.511	90.19
424.733	88.19
424.956	102.19
425.178	90.19
425.401	88.19
425.623	98.19
425.846	81.19
426.068	100.19
426.291	93.19
426.513	84.19
426.735	85.19
426.958	88.19
427.18	99.19
427.402	130.19
427.625	134.19
427.847	119.19
428.069	113.19
428.292	92.19
428.514	83.19
428.736	77.19
428.958	75.19
429.181	75.19
429.403	78.19
429.625	83.19
429.847	83.19
430.069	86.19
430.292	91.19
430.514	74.19
430.736	91.19
430.958	87.19
431.18	88.19
431.402	79.19
431.624	83.19
431.846	82.19
432.068	80.19
432.29	81.19
432.512	88.19
432.734	76.19
432.956	94.19
433.178	107.19
433.4	86.19
433.622	91.19
433.844	106.19
434.066	98.19
434.287	89.19
434.509	69.19
434.731	110.19
434.953	81.19
435.175	75.19
435.397	83.19
435.618	86.19
435.84	98.19
436.062	112.19
436.284	128.19
436.505	110.19
436.727	101.19
436.949	82.19
437.17	82.19
437.392	76.19
437.614	72.19
437.835	102.19
438.057	104.19
438.278	90.19
438.5	106.19
438.721	118.19
438.943	104.19
439.165	79.19
439.386	71.19
439.608	90.19
439.829	108.19
440.05	128.19
440.272	131.19
440.493	85.19
440.715	73.19
440.936	82.19
441.158	84.19
441.379	92.19
441.6	87.19
441.822	111.19
442.043	91.19
442.264	91.19
442.486	83.19
442.707	97.19
442.928	107.19
443.149	106.19
443.371	122.19
443.592	112.19
443.813	94.19
444.034	100.19
444.255	89.19
444.476	86.19
444.698	83.19
444.919	92.19
445.14	133.19
445.361	117.19
445.582	114.19
445.803	119.19
446.024	118.19
446.245	120.19
446.466	97.19
446.687	78.19
446.908	87.19
447.129	78.19
447.35	100.19
447.571	94.19
447.792	85.19
448.013	86.19
448.234	101.19
448.455	105.19
448.675	102.19
448.896	110.19
449.117	92.19
449.338	101.19
449.559	126.19
449.779	135.19
450	92.19
450.221	71.19
450.442	87.19
450.662	112.19
450.883	100.19
451.104	109.19
451.324	97.19
451.545	84.19
451.766	89.19
451.986	91.19
452.207	85.19
452.428	93.19
452.648	95.19
452.869	106.19
453.089	102.19
453.31	99.19
453.53	92.19
453.751	91.19
453.971	97.19
454.192	108.19
454.412	99.19
454.633	79.19
454.853	92.19
455.073	91.19
455.294	87.19
455.514	83.19
455.734	64.19
455.955	61.19
456.175	76.19
456.395	76.19
456.616	89.19
456.836	89.19
457.056	83.19
457.276	79.19
457.497	94.19
457.717	87.19
457.937	87.19
458.157	81.19
458.377	90.19
458.598	100.19
458.818	137.19
459.038	156.19
459.258	112.19
459.478	84.19
459.698	82.19
459.918	90.19
460.138	76.19
460.358	79.19
460.578	79.19
460.798	84.19
461.018	85.19
461.238	79.19
461.458	81.19
461.678	89.19
461.898	70.19
462.118	88.19
462.338	96.19
462.558	87.19
462.777	99.19
462.997	80.19
463.217	100.19
463.437	88.19
463.657	66.19
463.876	73.19
464.096	75.19
464.316	77.19
464.536	84.19
464.755	86.19
464.975	101.19
465.195	149.19
465.414	151.19
465.634	87.19
465.854	87.19
466.073	76.19
466.293	79.19
466.512	94.19
466.732	96.19
466.951	92.19
467.171	96.19
467.391	87.19
467.61	105.19
467.829	88.19
468.049	89.19
468.268	91.19
468.488	83.19
468.707	81.19
468.927	79.19
469.146	75.19
469.365	89.19
469.585	78.19
469.804	92.19
470.023	94.19
470.243	91.19
470.462	87.19
470.681	104.19
470.901	87.19
471.12	87.19
471.339	89.19
471.558	77.19
471.777	91.19
471.997	96.19
472.216	105.19
472.435	98.19
472.654	86.19
472.873	75.19
473.092	77.19
473.311	88.19
473.53	74.19
473.749	84.19
473.968	98.19
474.187	101.19
474.406	103.19
474.625	84.19
474.844	83.19
475.063	80.19
475.282	93.19
475.501	67.19
475.72	78.19
475.939	107.19
476.158	89.19
476.377	67.19
476.596	87.19
476.814	91.19
477.033	84.19
477.252	80.19
477.471	93.19
477.69	84.19
477.908	91.19
478.127	85.19
478.346	92.19
478.564	90.19
478.783	117.19
479.002	92.19
479.22	88.19
479.439	86.19
479.658	101.19
479.876	96.19
480.095	103.19
480.313	93.19
480.532	85.19
480.751	95.19
480.969	70.19
481.188	111.19
481.406	96.19
481.624	105.19
481.843	86.19
482.061	91.19
482.28	100.19
482.498	84.19
482.717	87.19
482.935	91.19
483.153	83.19
483.372	77.19
483.59	81.19
483.808	90.19
484.027	90.19
484.245	94.19
484.463	93.19
484.681	96.19
484.9	93.19
485.118	95.19
485.336	93.19
485.554	106.19
485.772	112.19
485.99	110.19
486.209	102.19
486.427	84.19
486.645	115.19
486.863	106.19
487.081	98.19
487.299	91.19
487.517	100.19
487.735	90.19
487.953	88.19
488.171	96.19
488.389	84.19
488.607	91.19
488.825	86.19
489.043	79.19
489.261	79.19
489.479	69.19
489.696	92.19
489.914	80.19
490.132	90.19
490.35	90.19
490.568	102.19
490.786	101.19
491.003	84.19
491.221	93.19
491.439	92.19
491.657	83.19
491.874	100.19
492.092	95.19
492.31	85.19
492.527	92.19
492.745	93.19
492.963	102.19
493.18	79.19
493.398	88.19
493.615	99.19
493.833	94.19
494.05	86.19
494.268	100.19
494.485	80.19
494.703	90.19
494.92	96.19
495.138	81.19
495.355	93.19
495.573	80.19
495.79	84.19
496.008	89.19
496.225	96.19
496.442	89.19
496.66	97.19
496.877	92.19
497.094	92.19
497.312	88.19
497.529	87.19
497.746	100.19
497.963	75.19
498.181	91.19
498.398	80.19
498.615	105.19
498.832	112.19
499.049	89.19
499.267	91.19
499.484	81.19
499.701	83.19
499.918	106.19
500.135	72.19
500.352	91.19
500.569	83.19
500.786	93.19
501.003	86.19
501.22	84.19
501.437	89.19
501.654	105.19
501.871	95.19
502.088	91.19
502.305	81.19
502.522	86.19
502.739	90.19
502.956	88.19
503.172	109.19
503.389	105.19
503.606	94.19
503.823	104.19
504.04	92.19
504.256	88.19
504.473	98.19
504.69	84.19
504.907	83.19
505.123	85.19
505.34	95.19
505.557	94.19
505.773	92.19
505.99	78.19
506.207	83.19
506.423	88.19
506.64	91.19
506.856	101.19
507.073	93.19
507.289	84.19
507.506	92.19
507.722	101.19
507.939	103.19
508.155	108.19
508.372	86.19
508.588	86.19
508.805	96.19
509.021	88.19
509.238	99.19
509.454	93.19
509.67	103.19
509.887	111.19
510.103	126.19
510.319	225.19
510.536	822.19
510.752	2579.19
510.968	695.19
511.184	148.19
511.401	99.19
511.617	103.19
511.833	80.19
512.049	97.19
512.265	91.19
512.481	85.19
512.698	93.19
512.914	75.19
513.13	77.19
513.346	100.19
513.562	109.19
513.778	94.19
513.994	96.19
514.21	101.19
514.426	99.19
514.642	115.19
514.858	109.19
515.074	153.19
515.29	470.19
515.506	1478.19
515.721	536.19
515.937	147.19
516.153	108.19
516.369	117.19
516.585	85.19
