Data from Uncirc_1995_H10_HRD10591_00001.txt Node
Date: Wed Jan 03 11:35:34 EST 2024
User: Yrep
Spectrometer: HR+D1059
Trigger mode: 1
Integration Time (sec): 1.000000E-1
Scans to average: 1
Electric dark correction enabled: true
Nonlinearity correction enabled: false
Boxcar width: 0
XAxis mode: Wavelengths
Number of Pixels in Spectrum: 2048
>>>>>Begin Spectral Data<<<<<
223.165	-17.25
223.4	-17.25
223.635	-17.25
223.869	-26.25
224.104	-11.25
224.338	-13.25
224.573	-10.25
224.808	-5.25
225.042	-13.25
225.277	-15.25
225.511	2.75
225.746	8.75
225.98	5.75
226.215	3.75
226.449	30.75
226.683	11.75
226.918	19.75
227.152	28.75
227.387	35.75
227.621	44.75
227.856	46.75
228.09	46.75
228.324	56.75
228.559	53.75
228.793	56.75
229.027	73.75
229.262	70.75
229.496	84.75
229.73	84.75
229.964	83.75
230.199	82.75
230.433	64.75
230.667	74.75
230.901	84.75
231.136	92.75
231.37	88.75
231.604	78.75
231.838	84.75
232.072	92.75
232.306	75.75
232.541	91.75
232.775	84.75
233.009	88.75
233.243	77.75
233.477	84.75
233.711	86.75
233.945	84.75
234.179	96.75
234.413	101.75
234.647	91.75
234.881	86.75
235.115	87.75
235.349	84.75
235.583	88.75
235.817	73.75
236.051	82.75
236.285	95.75
236.519	76.75
236.753	68.75
236.987	83.75
237.221	94.75
237.455	83.75
237.689	89.75
237.922	94.75
238.156	87.75
238.39	68.75
238.624	84.75
238.858	69.75
239.091	71.75
239.325	65.75
239.559	83.75
239.793	88.75
240.027	90.75
240.26	78.75
240.494	85.75
240.728	74.75
240.961	80.75
241.195	86.75
241.429	98.75
241.662	93.75
241.896	81.75
242.13	85.75
242.363	97.75
242.597	81.75
242.83	89.75
243.064	80.75
243.298	87.75
243.531	78.75
243.765	72.75
243.998	80.75
244.232	72.75
244.465	90.75
244.699	69.75
244.932	84.75
245.166	93.75
245.399	71.75
245.633	91.75
245.866	84.75
246.099	82.75
246.333	80.75
246.566	82.75
246.8	90.75
247.033	82.75
247.266	81.75
247.5	79.75
247.733	101.75
247.966	92.75
248.2	89.75
248.433	93.75
248.666	88.75
248.899	97.75
249.133	85.75
249.366	97.75
249.599	84.75
249.832	85.75
250.066	80.75
250.299	87.75
250.532	88.75
250.765	98.75
250.998	93.75
251.231	86.75
251.465	81.75
251.698	80.75
251.931	70.75
252.164	91.75
252.397	78.75
252.63	88.75
252.863	96.75
253.096	79.75
253.329	66.75
253.562	82.75
253.795	90.75
254.028	105.75
254.261	85.75
254.494	85.75
254.727	88.75
254.96	86.75
255.193	100.75
255.426	86.75
255.659	88.75
255.892	90.75
256.124	92.75
256.357	84.75
256.59	74.75
256.823	99.75
257.056	84.75
257.289	82.75
257.521	100.75
257.754	92.75
257.987	77.75
258.22	96.75
258.452	89.75
258.685	89.75
258.918	84.75
259.151	88.75
259.383	87.75
259.616	86.75
259.849	76.75
260.081	78.75
260.314	82.75
260.547	80.75
260.779	93.75
261.012	90.75
261.244	100.75
261.477	82.75
261.71	92.75
261.942	111.75
262.175	99.75
262.407	96.75
262.64	88.75
262.872	85.75
263.105	93.75
263.337	101.75
263.57	93.75
263.802	86.75
264.035	92.75
264.267	81.75
264.499	93.75
264.732	92.75
264.964	89.75
265.197	83.75
265.429	93.75
265.661	101.75
265.894	103.75
266.126	98.75
266.358	102.75
266.591	88.75
266.823	82.75
267.055	72.75
267.287	88.75
267.52	78.75
267.752	77.75
267.984	98.75
268.216	95.75
268.448	95.75
268.681	92.75
268.913	86.75
269.145	99.75
269.377	107.75
269.609	88.75
269.841	90.75
270.073	87.75
270.306	86.75
270.538	91.75
270.77	98.75
271.002	95.75
271.234	98.75
271.466	85.75
271.698	88.75
271.93	72.75
272.162	86.75
272.394	95.75
272.626	89.75
272.858	95.75
273.09	93.75
273.322	92.75
273.553	91.75
273.785	92.75
274.017	77.75
274.249	101.75
274.481	88.75
274.713	86.75
274.945	87.75
275.176	82.75
275.408	97.75
275.64	80.75
275.872	84.75
276.104	82.75
276.335	84.75
276.567	97.75
276.799	100.75
277.031	99.75
277.262	89.75
277.494	91.75
277.726	93.75
277.957	97.75
278.189	100.75
278.421	94.75
278.652	103.75
278.884	93.75
279.115	113.75
279.347	102.75
279.579	102.75
279.81	97.75
280.042	93.75
280.273	90.75
280.505	84.75
280.736	82.75
280.968	101.75
281.199	86.75
281.431	91.75
281.662	103.75
281.894	100.75
282.125	97.75
282.356	104.75
282.588	114.75
282.819	114.75
283.051	104.75
283.282	85.75
283.513	72.75
283.745	78.75
283.976	87.75
284.207	73.75
284.439	92.75
284.67	86.75
284.901	83.75
285.132	100.75
285.364	97.75
285.595	91.75
285.826	78.75
286.057	96.75
286.288	81.75
286.52	93.75
286.751	89.75
286.982	84.75
287.213	100.75
287.444	100.75
287.675	101.75
287.906	102.75
288.138	100.75
288.369	98.75
288.6	96.75
288.831	85.75
289.062	100.75
289.293	98.75
289.524	99.75
289.755	83.75
289.986	93.75
290.217	105.75
290.448	85.75
290.679	90.75
290.91	108.75
291.141	96.75
291.371	99.75
291.602	92.75
291.833	104.75
292.064	94.75
292.295	99.75
292.526	86.75
292.757	90.75
292.987	94.75
293.218	88.75
293.449	85.75
293.68	101.75
293.91	92.75
294.141	81.75
294.372	90.75
294.603	97.75
294.833	94.75
295.064	99.75
295.295	95.75
295.525	98.75
295.756	100.75
295.987	101.75
296.217	119.75
296.448	101.75
296.679	103.75
296.909	94.75
297.14	83.75
297.37	92.75
297.601	100.75
297.831	94.75
298.062	105.75
298.292	87.75
298.523	96.75
298.753	85.75
298.984	92.75
299.214	86.75
299.445	97.75
299.675	91.75
299.905	110.75
300.136	98.75
300.366	96.75
300.597	93.75
300.827	96.75
301.057	96.75
301.288	107.75
301.518	101.75
301.748	111.75
301.979	92.75
302.209	84.75
302.439	90.75
302.669	98.75
302.9	95.75
303.13	93.75
303.36	109.75
303.59	120.75
303.82	119.75
304.051	109.75
304.281	95.75
304.511	96.75
304.741	108.75
304.971	88.75
305.201	94.75
305.431	95.75
305.661	99.75
305.891	105.75
306.121	79.75
306.352	108.75
306.582	101.75
306.812	96.75
307.042	93.75
307.272	106.75
307.502	102.75
307.731	86.75
307.961	100.75
308.191	90.75
308.421	98.75
308.651	81.75
308.881	99.75
309.111	116.75
309.341	105.75
309.571	93.75
309.8	101.75
310.03	93.75
310.26	108.75
310.49	105.75
310.72	110.75
310.949	100.75
311.179	106.75
311.409	86.75
311.639	99.75
311.868	97.75
312.098	100.75
312.328	93.75
312.557	95.75
312.787	98.75
313.017	96.75
313.246	101.75
313.476	105.75
313.706	105.75
313.935	114.75
314.165	102.75
314.394	97.75
314.624	86.75
314.853	99.75
315.083	101.75
315.312	112.75
315.542	105.75
315.771	97.75
316.001	97.75
316.23	99.75
316.46	84.75
316.689	94.75
316.919	101.75
317.148	96.75
317.377	114.75
317.607	95.75
317.836	101.75
318.065	104.75
318.295	94.75
318.524	88.75
318.753	95.75
318.983	105.75
319.212	101.75
319.441	100.75
319.67	110.75
319.9	86.75
320.129	92.75
320.358	99.75
320.587	96.75
320.816	102.75
321.046	106.75
321.275	103.75
321.504	97.75
321.733	112.75
321.962	105.75
322.191	110.75
322.42	103.75
322.649	109.75
322.878	97.75
323.108	118.75
323.337	120.75
323.566	125.75
323.795	143.75
324.024	178.75
324.253	319.75
324.482	724.75
324.71	1364.75
324.939	1818.75
325.168	676.75
325.397	211.75
325.626	127.75
325.855	126.75
326.084	106.75
326.313	130.75
326.542	134.75
326.77	210.75
326.999	403.75
327.228	795.75
327.457	1458.75
327.686	1080.75
327.914	325.75
328.143	190.75
328.372	138.75
328.6	112.75
328.829	109.75
329.058	115.75
329.287	108.75
329.515	104.75
329.744	101.75
329.972	109.75
330.201	103.75
330.43	94.75
330.658	112.75
330.887	113.75
331.115	105.75
331.344	114.75
331.572	102.75
331.801	108.75
332.03	115.75
332.258	97.75
332.486	85.75
332.715	92.75
332.943	103.75
333.172	101.75
333.4	101.75
333.629	111.75
333.857	110.75
334.085	103.75
334.314	109.75
334.542	108.75
334.771	104.75
334.999	112.75
335.227	118.75
335.455	110.75
335.684	95.75
335.912	102.75
336.14	89.75
336.369	97.75
336.597	118.75
336.825	106.75
337.053	102.75
337.281	91.75
337.51	90.75
337.738	109.75
337.966	109.75
338.194	89.75
338.422	106.75
338.65	109.75
338.878	100.75
339.106	90.75
339.334	117.75
339.562	97.75
339.79	95.75
340.018	87.75
340.246	85.75
340.474	101.75
340.702	97.75
340.93	94.75
341.158	103.75
341.386	98.75
341.614	109.75
341.842	95.75
342.07	107.75
342.298	96.75
342.526	104.75
342.754	97.75
342.981	103.75
343.209	94.75
343.437	107.75
343.665	92.75
343.893	96.75
344.12	103.75
344.348	77.75
344.576	92.75
344.804	101.75
345.031	94.75
345.259	105.75
345.487	105.75
345.714	102.75
345.942	84.75
346.17	98.75
346.397	94.75
346.625	106.75
346.853	111.75
347.08	98.75
347.308	103.75
347.535	99.75
347.763	102.75
347.99	99.75
348.218	108.75
348.445	92.75
348.673	99.75
348.9	97.75
349.128	87.75
349.355	104.75
349.583	102.75
349.81	96.75
350.037	90.75
350.265	111.75
350.492	93.75
350.72	103.75
350.947	119.75
351.174	105.75
351.402	116.75
351.629	109.75
351.856	117.75
352.083	109.75
352.311	119.75
352.538	104.75
352.765	116.75
352.992	117.75
353.22	121.75
353.447	104.75
353.674	106.75
353.901	115.75
354.128	106.75
354.355	94.75
354.583	104.75
354.81	113.75
355.037	109.75
355.264	104.75
355.491	101.75
355.718	111.75
355.945	106.75
356.172	106.75
356.399	93.75
356.626	100.75
356.853	96.75
357.08	97.75
357.307	105.75
357.534	101.75
357.761	108.75
357.988	113.75
358.215	101.75
358.441	106.75
358.668	106.75
358.895	104.75
359.122	94.75
359.349	89.75
359.576	100.75
359.802	101.75
360.029	109.75
360.256	111.75
360.483	105.75
360.709	96.75
360.936	81.75
361.163	101.75
361.39	105.75
361.616	103.75
361.843	106.75
362.07	101.75
362.296	93.75
362.523	96.75
362.749	100.75
362.976	110.75
363.203	109.75
363.429	82.75
363.656	93.75
363.882	95.75
364.109	95.75
364.335	105.75
364.562	89.75
364.788	98.75
365.015	93.75
365.241	102.75
365.468	106.75
365.694	107.75
365.92	106.75
366.147	112.75
366.373	92.75
366.599	94.75
366.826	81.75
367.052	89.75
367.278	87.75
367.505	103.75
367.731	85.75
367.957	83.75
368.184	88.75
368.41	89.75
368.636	100.75
368.862	104.75
369.089	106.75
369.315	102.75
369.541	109.75
369.767	96.75
369.993	100.75
370.219	105.75
370.445	91.75
370.672	104.75
370.898	105.75
371.124	85.75
371.35	89.75
371.576	90.75
371.802	97.75
372.028	92.75
372.254	86.75
372.48	92.75
372.706	85.75
372.932	103.75
373.158	96.75
373.384	94.75
373.61	110.75
373.835	101.75
374.061	88.75
374.287	80.75
374.513	93.75
374.739	103.75
374.965	89.75
375.191	100.75
375.416	85.75
375.642	95.75
375.868	81.75
376.094	74.75
376.319	91.75
376.545	96.75
376.771	106.75
376.997	113.75
377.222	95.75
377.448	82.75
377.674	97.75
377.899	98.75
378.125	93.75
378.35	96.75
378.576	93.75
378.802	99.75
379.027	92.75
379.253	102.75
379.478	110.75
379.704	108.75
379.929	100.75
380.155	98.75
380.38	96.75
380.606	109.75
380.831	105.75
381.057	102.75
381.282	118.75
381.507	114.75
381.733	114.75
381.958	106.75
382.184	117.75
382.409	109.75
382.634	104.75
382.86	111.75
383.085	116.75
383.31	129.75
383.535	106.75
383.761	104.75
383.986	114.75
384.211	115.75
384.436	106.75
384.662	121.75
384.887	124.75
385.112	134.75
385.337	122.75
385.562	124.75
385.787	108.75
386.013	123.75
386.238	114.75
386.463	113.75
386.688	125.75
386.913	127.75
387.138	138.75
387.363	118.75
387.588	112.75
387.813	101.75
388.038	127.75
388.263	132.75
388.488	140.75
388.713	114.75
388.938	114.75
389.163	112.75
389.387	102.75
389.612	104.75
389.837	87.75
390.062	109.75
390.287	100.75
390.512	92.75
390.736	97.75
390.961	98.75
391.186	94.75
391.411	93.75
391.636	103.75
391.86	101.75
392.085	90.75
392.31	102.75
392.534	97.75
392.759	82.75
392.984	100.75
393.208	96.75
393.433	103.75
393.658	95.75
393.882	99.75
394.107	102.75
394.331	110.75
394.556	90.75
394.78	106.75
395.005	113.75
395.229	84.75
395.454	88.75
395.678	97.75
395.903	81.75
396.127	85.75
396.352	107.75
396.576	92.75
396.801	102.75
397.025	103.75
397.249	95.75
397.474	102.75
397.698	99.75
397.922	84.75
398.147	103.75
398.371	85.75
398.595	88.75
398.82	94.75
399.044	106.75
399.268	92.75
399.492	90.75
399.717	70.75
399.941	89.75
400.165	87.75
400.389	93.75
400.613	104.75
400.837	84.75
401.062	91.75
401.286	84.75
401.51	101.75
401.734	98.75
401.958	98.75
402.182	120.75
402.406	144.75
402.63	120.75
402.854	103.75
403.078	102.75
403.302	89.75
403.526	88.75
403.75	93.75
403.974	95.75
404.198	92.75
404.422	94.75
404.645	98.75
404.869	79.75
405.093	94.75
405.317	100.75
405.541	103.75
405.765	104.75
405.988	103.75
406.212	134.75
406.436	178.75
406.66	126.75
406.883	100.75
407.107	97.75
407.331	102.75
407.555	97.75
407.778	117.75
408.002	93.75
408.226	84.75
408.449	102.75
408.673	97.75
408.896	92.75
409.12	102.75
409.344	114.75
409.567	95.75
409.791	98.75
410.014	104.75
410.238	107.75
410.461	92.75
410.685	107.75
410.908	106.75
411.132	120.75
411.355	109.75
411.578	93.75
411.802	84.75
412.025	91.75
412.249	97.75
412.472	89.75
412.695	98.75
412.919	103.75
413.142	89.75
413.365	97.75
413.589	105.75
413.812	98.75
414.035	84.75
414.258	101.75
414.482	112.75
414.705	94.75
414.928	92.75
415.151	115.75
415.374	104.75
415.597	103.75
415.821	90.75
416.044	113.75
416.267	102.75
416.49	80.75
416.713	81.75
416.936	88.75
417.159	87.75
417.382	90.75
417.605	103.75
417.828	102.75
418.051	106.75
418.274	100.75
418.497	91.75
418.72	90.75
418.943	90.75
419.166	89.75
419.389	95.75
419.611	110.75
419.834	96.75
420.057	97.75
420.28	103.75
420.503	87.75
420.726	97.75
420.948	95.75
421.171	92.75
421.394	95.75
421.617	105.75
421.839	105.75
422.062	95.75
422.285	105.75
422.507	97.75
422.73	102.75
422.953	102.75
423.175	96.75
423.398	87.75
423.621	97.75
423.843	89.75
424.066	103.75
424.288	103.75
424.511	94.75
424.733	108.75
424.956	104.75
425.178	104.75
425.401	109.75
425.623	88.75
425.846	88.75
426.068	97.75
426.291	100.75
426.513	86.75
426.735	99.75
426.958	97.75
427.18	99.75
427.402	137.75
427.625	148.75
427.847	113.75
428.069	108.75
428.292	100.75
428.514	94.75
428.736	87.75
428.958	78.75
429.181	82.75
429.403	98.75
429.625	80.75
429.847	90.75
430.069	96.75
430.292	98.75
430.514	107.75
430.736	96.75
430.958	95.75
431.18	86.75
431.402	100.75
431.624	86.75
431.846	98.75
432.068	85.75
432.29	103.75
432.512	106.75
432.734	89.75
432.956	103.75
433.178	110.75
433.4	119.75
433.622	105.75
433.844	98.75
434.066	99.75
434.287	99.75
434.509	98.75
434.731	80.75
434.953	110.75
435.175	94.75
435.397	93.75
435.618	95.75
435.84	109.75
436.062	113.75
436.284	111.75
436.505	93.75
436.727	117.75
436.949	90.75
437.17	114.75
437.392	89.75
437.614	104.75
437.835	102.75
438.057	108.75
438.278	102.75
438.5	107.75
438.721	126.75
438.943	110.75
439.165	86.75
439.386	98.75
439.608	103.75
439.829	100.75
440.05	109.75
440.272	119.75
440.493	109.75
440.715	95.75
440.936	95.75
441.158	114.75
441.379	102.75
441.6	94.75
441.822	103.75
442.043	82.75
442.264	108.75
442.486	113.75
442.707	95.75
442.928	97.75
443.149	96.75
443.371	114.75
443.592	108.75
443.813	99.75
444.034	112.75
444.255	94.75
444.476	74.75
444.698	84.75
444.919	99.75
445.14	143.75
445.361	146.75
445.582	111.75
445.803	118.75
446.024	136.75
446.245	119.75
446.466	101.75
446.687	101.75
446.908	95.75
447.129	103.75
447.35	110.75
447.571	107.75
447.792	93.75
448.013	105.75
448.234	109.75
448.455	103.75
448.675	116.75
448.896	109.75
449.117	95.75
449.338	105.75
449.559	108.75
449.779	110.75
450	98.75
450.221	111.75
450.442	89.75
450.662	80.75
450.883	99.75
451.104	99.75
451.324	111.75
451.545	106.75
451.766	101.75
451.986	97.75
452.207	98.75
452.428	106.75
452.648	109.75
452.869	112.75
453.089	109.75
453.31	98.75
453.53	87.75
453.751	90.75
453.971	97.75
454.192	96.75
454.412	100.75
454.633	82.75
454.853	86.75
455.073	83.75
455.294	85.75
455.514	93.75
455.734	98.75
455.955	82.75
456.175	93.75
456.395	89.75
456.616	90.75
456.836	97.75
457.056	86.75
457.276	87.75
457.497	75.75
457.717	88.75
457.937	90.75
458.157	94.75
458.377	86.75
458.598	99.75
458.818	136.75
459.038	134.75
459.258	110.75
459.478	92.75
459.698	87.75
459.918	78.75
460.138	86.75
460.358	91.75
460.578	101.75
460.798	89.75
461.018	106.75
461.238	90.75
461.458	97.75
461.678	83.75
461.898	86.75
462.118	91.75
462.338	94.75
462.558	100.75
462.777	99.75
462.997	94.75
463.217	100.75
463.437	101.75
463.657	84.75
463.876	88.75
464.096	93.75
464.316	96.75
464.536	85.75
464.755	101.75
464.975	101.75
465.195	140.75
465.414	130.75
465.634	90.75
465.854	86.75
466.073	91.75
466.293	95.75
466.512	98.75
466.732	96.75
466.951	95.75
467.171	92.75
467.391	95.75
467.61	109.75
467.829	94.75
468.049	89.75
468.268	86.75
468.488	100.75
468.707	94.75
468.927	83.75
469.146	100.75
469.365	91.75
469.585	95.75
469.804	106.75
470.023	113.75
470.243	103.75
470.462	95.75
470.681	107.75
470.901	89.75
471.12	89.75
471.339	82.75
471.558	104.75
471.777	87.75
471.997	92.75
472.216	101.75
472.435	92.75
472.654	93.75
472.873	98.75
473.092	91.75
473.311	102.75
473.53	101.75
473.749	94.75
473.968	92.75
474.187	100.75
474.406	88.75
474.625	89.75
474.844	92.75
475.063	92.75
475.282	91.75
475.501	97.75
475.72	101.75
475.939	106.75
476.158	101.75
476.377	98.75
476.596	103.75
476.814	95.75
477.033	104.75
477.252	87.75
477.471	93.75
477.69	100.75
477.908	96.75
478.127	88.75
478.346	105.75
478.564	100.75
478.783	113.75
479.002	92.75
479.22	108.75
479.439	104.75
479.658	108.75
479.876	101.75
480.095	120.75
480.313	100.75
480.532	100.75
480.751	96.75
480.969	88.75
481.188	102.75
481.406	95.75
481.624	102.75
481.843	84.75
482.061	95.75
482.28	101.75
482.498	89.75
482.717	100.75
482.935	103.75
483.153	97.75
483.372	109.75
483.59	104.75
483.808	104.75
484.027	101.75
484.245	104.75
484.463	93.75
484.681	111.75
484.9	99.75
485.118	101.75
485.336	109.75
485.554	99.75
485.772	101.75
485.99	101.75
486.209	113.75
486.427	116.75
486.645	117.75
486.863	112.75
487.081	117.75
487.299	121.75
487.517	110.75
487.735	108.75
487.953	97.75
488.171	99.75
488.389	96.75
488.607	100.75
488.825	91.75
489.043	89.75
489.261	85.75
489.479	102.75
489.696	92.75
489.914	101.75
490.132	104.75
490.35	102.75
490.568	101.75
490.786	93.75
491.003	101.75
491.221	100.75
491.439	105.75
491.657	103.75
491.874	106.75
492.092	103.75
492.31	93.75
492.527	95.75
492.745	105.75
492.963	104.75
493.18	103.75
493.398	90.75
493.615	102.75
493.833	96.75
494.05	109.75
494.268	106.75
494.485	90.75
494.703	95.75
494.92	93.75
495.138	92.75
495.355	96.75
495.573	97.75
495.79	100.75
496.008	117.75
496.225	100.75
496.442	92.75
496.66	89.75
496.877	95.75
497.094	101.75
497.312	93.75
497.529	106.75
497.746	109.75
497.963	97.75
498.181	85.75
498.398	104.75
498.615	110.75
498.832	121.75
499.049	89.75
499.267	101.75
499.484	110.75
499.701	105.75
499.918	97.75
500.135	103.75
500.352	95.75
500.569	99.75
500.786	105.75
501.003	93.75
501.22	101.75
501.437	111.75
501.654	102.75
501.871	88.75
502.088	95.75
502.305	96.75
502.522	98.75
502.739	90.75
502.956	96.75
503.172	117.75
503.389	96.75
503.606	113.75
503.823	92.75
504.04	97.75
504.256	115.75
504.473	101.75
504.69	83.75
504.907	104.75
505.123	98.75
505.34	95.75
505.557	85.75
505.773	99.75
505.99	91.75
506.207	97.75
506.423	89.75
506.64	93.75
506.856	85.75
507.073	93.75
507.289	103.75
507.506	110.75
507.722	115.75
507.939	105.75
508.155	96.75
508.372	88.75
508.588	78.75
508.805	101.75
509.021	90.75
509.238	88.75
509.454	90.75
509.67	112.75
509.887	124.75
510.103	123.75
510.319	192.75
510.536	619.75
510.752	1748.75
510.968	498.75
511.184	138.75
511.401	104.75
511.617	106.75
511.833	90.75
512.049	96.75
512.265	95.75
