Data from Uncirc_1995_H10_HRD10591_00035.txt Node
Date: Wed Jan 03 11:35:40 EST 2024
User: Yrep
Spectrometer: HR+D1059
Trigger mode: 1
Integration Time (sec): 1.000000E-1
Scans to average: 1
Electric dark correction enabled: true
Nonlinearity correction enabled: false
Boxcar width: 0
XAxis mode: Wavelengths
Number of Pixels in Spectrum: 2048
>>>>>Begin Spectral Data<<<<<
223.165	-6.38
223.4	-6.38
223.635	-6.38
223.869	-20.38
224.104	-12.38
224.338	-20.38
224.573	-11.38
224.808	-11.38
225.042	5.62
225.277	-17.38
225.511	-8.38
225.746	0.62
225.98	5.62
226.215	21.62
226.449	8.62
226.683	15.62
226.918	28.62
227.152	21.62
227.387	46.62
227.621	43.62
227.856	52.62
228.09	35.62
228.324	56.62
228.559	58.62
228.793	61.62
229.027	65.62
229.262	77.62
229.496	77.62
229.73	88.62
229.964	67.62
230.199	77.62
230.433	93.62
230.667	92.62
230.901	70.62
231.136	75.62
231.37	83.62
231.604	72.62
231.838	88.62
232.072	78.62
232.306	84.62
232.541	85.62
232.775	76.62
233.009	79.62
233.243	90.62
233.477	89.62
233.711	77.62
233.945	64.62
234.179	76.62
234.413	82.62
234.647	83.62
234.881	82.62
235.115	85.62
235.349	74.62
235.583	73.62
235.817	85.62
236.051	98.62
236.285	78.62
236.519	86.62
236.753	71.62
236.987	76.62
237.221	78.62
237.455	97.62
237.689	87.62
237.922	84.62
238.156	75.62
238.39	86.62
238.624	84.62
238.858	72.62
239.091	91.62
239.325	88.62
239.559	64.62
239.793	73.62
240.027	75.62
240.26	89.62
240.494	79.62
240.728	78.62
240.961	83.62
241.195	83.62
241.429	90.62
241.662	81.62
241.896	75.62
242.13	70.62
242.363	62.62
242.597	68.62
242.83	80.62
243.064	87.62
243.298	66.62
243.531	77.62
243.765	76.62
243.998	87.62
244.232	91.62
244.465	98.62
244.699	85.62
244.932	94.62
245.166	77.62
245.399	79.62
245.633	84.62
245.866	76.62
246.099	79.62
246.333	83.62
246.566	81.62
246.8	80.62
247.033	75.62
247.266	89.62
247.5	76.62
247.733	83.62
247.966	75.62
248.2	81.62
248.433	74.62
248.666	79.62
248.899	83.62
249.133	74.62
249.366	78.62
249.599	96.62
249.832	73.62
250.066	93.62
250.299	87.62
250.532	76.62
250.765	84.62
250.998	85.62
251.231	79.62
251.465	86.62
251.698	77.62
251.931	87.62
252.164	92.62
252.397	76.62
252.63	90.62
252.863	79.62
253.096	87.62
253.329	87.62
253.562	78.62
253.795	91.62
254.028	83.62
254.261	68.62
254.494	83.62
254.727	98.62
254.96	88.62
255.193	73.62
255.426	95.62
255.659	92.62
255.892	81.62
256.124	70.62
256.357	79.62
256.59	89.62
256.823	79.62
257.056	83.62
257.289	87.62
257.521	98.62
257.754	77.62
257.987	98.62
258.22	82.62
258.452	78.62
258.685	69.62
258.918	79.62
259.151	78.62
259.383	92.62
259.616	81.62
259.849	86.62
260.081	78.62
260.314	88.62
260.547	85.62
260.779	71.62
261.012	89.62
261.244	82.62
261.477	83.62
261.71	91.62
261.942	107.62
262.175	109.62
262.407	102.62
262.64	92.62
262.872	87.62
263.105	77.62
263.337	86.62
263.57	87.62
263.802	92.62
264.035	69.62
264.267	89.62
264.499	86.62
264.732	76.62
264.964	89.62
265.197	81.62
265.429	96.62
265.661	92.62
265.894	91.62
266.126	87.62
266.358	90.62
266.591	85.62
266.823	87.62
267.055	70.62
267.287	88.62
267.52	100.62
267.752	90.62
267.984	89.62
268.216	83.62
268.448	94.62
268.681	77.62
268.913	87.62
269.145	89.62
269.377	90.62
269.609	95.62
269.841	84.62
270.073	87.62
270.306	80.62
270.538	94.62
270.77	93.62
271.002	93.62
271.234	90.62
271.466	95.62
271.698	79.62
271.93	83.62
272.162	81.62
272.394	92.62
272.626	85.62
272.858	74.62
273.09	99.62
273.322	81.62
273.553	84.62
273.785	86.62
274.017	93.62
274.249	83.62
274.481	74.62
274.713	88.62
274.945	76.62
275.176	96.62
275.408	107.62
275.64	93.62
275.872	94.62
276.104	100.62
276.335	93.62
276.567	86.62
276.799	98.62
277.031	107.62
277.262	84.62
277.494	79.62
277.726	84.62
277.957	84.62
278.189	83.62
278.421	78.62
278.652	96.62
278.884	86.62
279.115	77.62
279.347	79.62
279.579	95.62
279.81	88.62
280.042	78.62
280.273	80.62
280.505	91.62
280.736	91.62
280.968	80.62
281.199	82.62
281.431	91.62
281.662	83.62
281.894	80.62
282.125	99.62
282.356	97.62
282.588	141.62
282.819	118.62
283.051	95.62
283.282	80.62
283.513	83.62
283.745	96.62
283.976	94.62
284.207	82.62
284.439	86.62
284.67	92.62
284.901	84.62
285.132	95.62
285.364	79.62
285.595	88.62
285.826	96.62
286.057	90.62
286.288	71.62
286.52	87.62
286.751	96.62
286.982	97.62
287.213	91.62
287.444	105.62
287.675	97.62
287.906	93.62
288.138	90.62
288.369	100.62
288.6	98.62
288.831	89.62
289.062	89.62
289.293	79.62
289.524	87.62
289.755	81.62
289.986	85.62
290.217	90.62
290.448	67.62
290.679	92.62
290.91	92.62
291.141	90.62
291.371	80.62
291.602	81.62
291.833	84.62
292.064	90.62
292.295	84.62
292.526	101.62
292.757	98.62
292.987	86.62
293.218	82.62
293.449	97.62
293.68	84.62
293.91	97.62
294.141	84.62
294.372	86.62
294.603	104.62
294.833	81.62
295.064	88.62
295.295	94.62
295.525	97.62
295.756	108.62
295.987	112.62
296.217	121.62
296.448	123.62
296.679	85.62
296.909	98.62
297.14	89.62
297.37	92.62
297.601	95.62
297.831	94.62
298.062	84.62
298.292	99.62
298.523	90.62
298.753	87.62
298.984	86.62
299.214	98.62
299.445	101.62
299.675	106.62
299.905	95.62
300.136	93.62
300.366	90.62
300.597	97.62
300.827	87.62
301.057	110.62
301.288	99.62
301.518	81.62
301.748	103.62
301.979	87.62
302.209	99.62
302.439	102.62
302.669	100.62
302.9	102.62
303.13	91.62
303.36	94.62
303.59	84.62
303.82	107.62
304.051	98.62
304.281	95.62
304.511	91.62
304.741	89.62
304.971	89.62
305.201	86.62
305.431	87.62
305.661	94.62
305.891	86.62
306.121	103.62
306.352	110.62
306.582	101.62
306.812	94.62
307.042	100.62
307.272	82.62
307.502	92.62
307.731	98.62
307.961	81.62
308.191	83.62
308.421	97.62
308.651	83.62
308.881	93.62
309.111	94.62
309.341	83.62
309.571	104.62
309.8	83.62
310.03	96.62
310.26	96.62
310.49	98.62
310.72	87.62
310.949	95.62
311.179	98.62
311.409	89.62
311.639	95.62
311.868	108.62
312.098	104.62
312.328	89.62
312.557	92.62
312.787	94.62
313.017	107.62
313.246	98.62
313.476	91.62
313.706	94.62
313.935	97.62
314.165	95.62
314.394	88.62
314.624	101.62
314.853	95.62
315.083	101.62
315.312	110.62
315.542	84.62
315.771	96.62
316.001	86.62
316.23	99.62
316.46	103.62
316.689	87.62
316.919	96.62
317.148	82.62
317.377	103.62
317.607	84.62
317.836	104.62
318.065	95.62
318.295	89.62
318.524	96.62
318.753	81.62
318.983	84.62
319.212	94.62
319.441	108.62
319.67	114.62
319.9	91.62
320.129	91.62
320.358	94.62
320.587	110.62
320.816	107.62
321.046	101.62
321.275	95.62
321.504	96.62
321.733	97.62
321.962	112.62
322.191	94.62
322.42	101.62
322.649	100.62
322.878	104.62
323.108	97.62
323.337	112.62
323.566	130.62
323.795	150.62
324.024	201.62
324.253	399.62
324.482	869.62
324.71	1745.62
324.939	2268.62
325.168	825.62
325.397	243.62
325.626	146.62
325.855	125.62
326.084	135.62
326.313	130.62
326.542	153.62
326.77	242.62
326.999	450.62
327.228	962.62
327.457	1743.62
327.686	1375.62
327.914	381.62
328.143	192.62
328.372	129.62
328.6	124.62
328.829	121.62
329.058	115.62
329.287	115.62
329.515	126.62
329.744	98.62
329.972	106.62
330.201	106.62
330.43	96.62
330.658	119.62
330.887	126.62
331.115	116.62
331.344	97.62
331.572	96.62
331.801	101.62
332.03	107.62
332.258	93.62
332.486	81.62
332.715	111.62
332.943	104.62
333.172	91.62
333.4	87.62
333.629	103.62
333.857	104.62
334.085	113.62
334.314	81.62
334.542	86.62
334.771	107.62
334.999	100.62
335.227	95.62
335.455	97.62
335.684	113.62
335.912	92.62
336.14	94.62
336.369	93.62
336.597	102.62
336.825	103.62
337.053	83.62
337.281	96.62
337.51	110.62
337.738	91.62
337.966	95.62
338.194	94.62
338.422	92.62
338.65	83.62
338.878	93.62
339.106	78.62
339.334	115.62
339.562	92.62
339.79	98.62
340.018	82.62
340.246	88.62
340.474	93.62
340.702	106.62
340.93	95.62
341.158	88.62
341.386	90.62
341.614	90.62
341.842	98.62
342.07	93.62
342.298	94.62
342.526	87.62
342.754	93.62
342.981	89.62
343.209	98.62
343.437	93.62
343.665	87.62
343.893	97.62
344.12	102.62
344.348	93.62
344.576	87.62
344.804	80.62
345.031	93.62
345.259	100.62
345.487	83.62
345.714	95.62
345.942	90.62
346.17	104.62
346.397	95.62
346.625	95.62
346.853	97.62
347.08	104.62
347.308	94.62
347.535	97.62
347.763	95.62
347.99	96.62
348.218	106.62
348.445	82.62
348.673	100.62
348.9	90.62
349.128	87.62
349.355	84.62
349.583	103.62
349.81	90.62
350.037	91.62
350.265	90.62
350.492	74.62
350.72	93.62
350.947	103.62
351.174	102.62
351.402	114.62
351.629	107.62
351.856	99.62
352.083	94.62
352.311	106.62
352.538	102.62
352.765	112.62
352.992	122.62
353.22	114.62
353.447	99.62
353.674	105.62
353.901	107.62
354.128	93.62
354.355	93.62
354.583	90.62
354.81	109.62
355.037	99.62
355.264	89.62
355.491	79.62
355.718	98.62
355.945	92.62
356.172	80.62
356.399	99.62
356.626	87.62
356.853	83.62
357.08	94.62
357.307	96.62
357.534	97.62
357.761	83.62
357.988	87.62
358.215	103.62
358.441	111.62
358.668	76.62
358.895	85.62
359.122	96.62
359.349	77.62
359.576	105.62
359.802	103.62
360.029	103.62
360.256	94.62
360.483	99.62
360.709	87.62
360.936	109.62
361.163	100.62
361.39	107.62
361.616	93.62
361.843	97.62
362.07	96.62
362.296	93.62
362.523	103.62
362.749	100.62
362.976	69.62
363.203	97.62
363.429	96.62
363.656	85.62
363.882	89.62
364.109	93.62
364.335	76.62
364.562	93.62
364.788	75.62
365.015	100.62
365.241	102.62
365.468	112.62
365.694	110.62
365.92	88.62
366.147	91.62
366.373	81.62
366.599	93.62
366.826	105.62
367.052	78.62
367.278	85.62
367.505	99.62
367.731	93.62
367.957	81.62
368.184	90.62
368.41	106.62
368.636	109.62
368.862	113.62
369.089	109.62
369.315	92.62
369.541	84.62
369.767	95.62
369.993	107.62
370.219	85.62
370.445	80.62
370.672	83.62
370.898	79.62
371.124	97.62
371.35	71.62
371.576	100.62
371.802	78.62
372.028	87.62
372.254	99.62
372.48	81.62
372.706	80.62
372.932	90.62
373.158	74.62
373.384	87.62
373.61	96.62
373.835	87.62
374.061	83.62
374.287	97.62
374.513	97.62
374.739	91.62
374.965	91.62
375.191	80.62
375.416	81.62
375.642	100.62
375.868	80.62
376.094	89.62
376.319	83.62
376.545	83.62
376.771	93.62
376.997	99.62
377.222	86.62
377.448	93.62
377.674	78.62
377.899	88.62
378.125	89.62
378.35	79.62
378.576	84.62
378.802	98.62
379.027	108.62
379.253	103.62
379.478	96.62
379.704	95.62
379.929	90.62
380.155	90.62
380.38	107.62
380.606	100.62
380.831	87.62
381.057	89.62
381.282	101.62
381.507	94.62
381.733	114.62
381.958	89.62
382.184	92.62
382.409	82.62
382.634	97.62
382.86	101.62
383.085	107.62
383.31	109.62
383.535	101.62
383.761	96.62
383.986	95.62
384.211	99.62
384.436	99.62
384.662	88.62
384.887	117.62
385.112	122.62
385.337	99.62
385.562	100.62
385.787	94.62
386.013	112.62
386.238	114.62
386.463	110.62
386.688	122.62
386.913	94.62
387.138	91.62
387.363	100.62
387.588	101.62
387.813	98.62
388.038	114.62
388.263	113.62
388.488	116.62
388.713	95.62
388.938	103.62
389.163	78.62
389.387	93.62
389.612	91.62
389.837	101.62
390.062	100.62
390.287	100.62
390.512	98.62
390.736	101.62
390.961	106.62
391.186	91.62
391.411	81.62
391.636	108.62
391.86	98.62
392.085	91.62
392.31	89.62
392.534	92.62
392.759	74.62
392.984	83.62
393.208	79.62
393.433	90.62
393.658	97.62
393.882	96.62
394.107	85.62
394.331	87.62
394.556	81.62
394.78	98.62
395.005	101.62
395.229	71.62
395.454	87.62
395.678	88.62
395.903	91.62
396.127	87.62
396.352	88.62
396.576	84.62
396.801	84.62
397.025	101.62
397.249	86.62
397.474	94.62
397.698	85.62
397.922	91.62
398.147	83.62
398.371	84.62
398.595	90.62
398.82	78.62
399.044	79.62
399.268	86.62
399.492	73.62
399.717	81.62
399.941	79.62
400.165	83.62
400.389	80.62
400.613	87.62
400.837	82.62
401.062	85.62
401.286	84.62
401.51	78.62
401.734	89.62
401.958	98.62
402.182	125.62
402.406	174.62
402.63	121.62
402.854	94.62
403.078	109.62
403.302	82.62
403.526	89.62
403.75	94.62
403.974	75.62
404.198	99.62
404.422	96.62
404.645	100.62
404.869	93.62
405.093	99.62
405.317	80.62
405.541	101.62
405.765	105.62
405.988	111.62
406.212	172.62
406.436	209.62
406.66	152.62
406.883	88.62
407.107	93.62
407.331	95.62
407.555	82.62
407.778	89.62
408.002	99.62
408.226	102.62
408.449	90.62
408.673	103.62
408.896	97.62
409.12	101.62
409.344	86.62
409.567	79.62
409.791	94.62
410.014	102.62
410.238	91.62
410.461	104.62
410.685	93.62
410.908	102.62
411.132	97.62
411.355	99.62
411.578	90.62
411.802	83.62
412.025	88.62
412.249	84.62
412.472	105.62
412.695	82.62
412.919	83.62
413.142	110.62
413.365	89.62
413.589	83.62
413.812	100.62
414.035	75.62
414.258	88.62
414.482	100.62
414.705	99.62
414.928	99.62
415.151	93.62
415.374	89.62
415.597	84.62
415.821	85.62
416.044	95.62
416.267	95.62
416.49	80.62
416.713	80.62
416.936	80.62
417.159	105.62
417.382	83.62
417.605	92.62
417.828	97.62
418.051	83.62
418.274	92.62
418.497	79.62
418.72	58.62
418.943	86.62
419.166	86.62
419.389	95.62
419.611	80.62
419.834	96.62
420.057	85.62
420.28	92.62
420.503	77.62
420.726	107.62
420.948	83.62
421.171	91.62
421.394	91.62
421.617	75.62
421.839	100.62
422.062	77.62
422.285	92.62
422.507	98.62
422.73	92.62
422.953	88.62
423.175	75.62
423.398	83.62
423.621	90.62
423.843	98.62
424.066	93.62
424.288	83.62
424.511	92.62
424.733	102.62
424.956	110.62
425.178	105.62
425.401	101.62
425.623	99.62
425.846	84.62
426.068	81.62
426.291	97.62
426.513	83.62
426.735	94.62
426.958	87.62
427.18	98.62
427.402	122.62
427.625	148.62
427.847	116.62
428.069	92.62
428.292	95.62
428.514	82.62
428.736	95.62
428.958	80.62
429.181	94.62
429.403	79.62
429.625	83.62
429.847	83.62
430.069	102.62
430.292	81.62
430.514	87.62
430.736	89.62
430.958	94.62
431.18	84.62
431.402	84.62
431.624	79.62
431.846	79.62
432.068	88.62
432.29	91.62
432.512	78.62
432.734	85.62
432.956	85.62
433.178	102.62
433.4	93.62
433.622	84.62
433.844	101.62
434.066	86.62
434.287	97.62
434.509	86.62
434.731	89.62
434.953	92.62
435.175	89.62
435.397	82.62
435.618	87.62
435.84	109.62
436.062	130.62
436.284	111.62
436.505	106.62
436.727	90.62
436.949	105.62
437.17	93.62
437.392	100.62
437.614	84.62
437.835	98.62
438.057	111.62
438.278	108.62
438.5	112.62
438.721	115.62
438.943	111.62
439.165	81.62
439.386	70.62
439.608	95.62
439.829	91.62
440.05	115.62
440.272	140.62
440.493	97.62
440.715	87.62
440.936	95.62
441.158	89.62
441.379	97.62
441.6	98.62
441.822	103.62
442.043	96.62
442.264	102.62
442.486	114.62
442.707	101.62
442.928	93.62
443.149	126.62
443.371	112.62
443.592	111.62
443.813	122.62
444.034	96.62
444.255	94.62
444.476	83.62
444.698	78.62
444.919	78.62
445.14	130.62
445.361	138.62
445.582	111.62
445.803	121.62
446.024	128.62
446.245	139.62
446.466	91.62
446.687	88.62
446.908	89.62
447.129	98.62
447.35	93.62
447.571	93.62
447.792	93.62
448.013	101.62
448.234	97.62
448.455	92.62
448.675	114.62
448.896	115.62
449.117	95.62
449.338	119.62
449.559	134.62
449.779	121.62
450	89.62
450.221	75.62
450.442	82.62
450.662	100.62
450.883	100.62
451.104	110.62
451.324	84.62
451.545	105.62
451.766	88.62
451.986	99.62
452.207	87.62
452.428	84.62
452.648	97.62
452.869	108.62
453.089	106.62
453.31	117.62
453.53	101.62
453.751	91.62
453.971	97.62
454.192	107.62
454.412	97.62
454.633	97.62
454.853	91.62
455.073	90.62
455.294	91.62
455.514	112.62
455.734	101.62
455.955	94.62
456.175	83.62
456.395	88.62
456.616	88.62
456.836	84.62
457.056	85.62
457.276	69.62
457.497	81.62
457.717	82.62
457.937	68.62
458.157	95.62
458.377	98.62
458.598	98.62
458.818	132.62
459.038	159.62
459.258	105.62
459.478	97.62
459.698	87.62
459.918	83.62
460.138	80.62
460.358	80.62
460.578	105.62
460.798	98.62
461.018	76.62
461.238	76.62
461.458	98.62
461.678	89.62
461.898	92.62
462.118	80.62
462.338	82.62
462.558	93.62
462.777	88.62
462.997	86.62
463.217	87.62
463.437	90.62
463.657	98.62
463.876	74.62
464.096	90.62
464.316	95.62
464.536	96.62
464.755	91.62
464.975	109.62
465.195	156.62
465.414	153.62
465.634	98.62
465.854	92.62
466.073	81.62
466.293	82.62
466.512	96.62
466.732	81.62
466.951	75.62
467.171	88.62
467.391	90.62
467.61	80.62
467.829	111.62
468.049	84.62
468.268	96.62
468.488	92.62
468.707	83.62
468.927	78.62
469.146	95.62
469.365	88.62
469.585	104.62
469.804	100.62
470.023	76.62
470.243	90.62
470.462	96.62
470.681	108.62
470.901	93.62
471.12	89.62
471.339	90.62
471.558	83.62
471.777	92.62
471.997	101.62
472.216	82.62
472.435	96.62
472.654	95.62
472.873	88.62
473.092	81.62
473.311	79.62
473.53	77.62
473.749	91.62
473.968	96.62
474.187	113.62
474.406	95.62
474.625	100.62
474.844	104.62
475.063	93.62
475.282	88.62
475.501	75.62
475.72	94.62
475.939	92.62
476.158	82.62
476.377	98.62
476.596	79.62
476.814	76.62
477.033	88.62
477.252	81.62
477.471	105.62
477.69	91.62
477.908	93.62
478.127	83.62
478.346	80.62
478.564	101.62
478.783	94.62
479.002	94.62
479.22	104.62
479.439	101.62
479.658	104.62
479.876	97.62
480.095	79.62
480.313	97.62
480.532	95.62
480.751	88.62
480.969	87.62
481.188	89.62
481.406	97.62
481.624	91.62
481.843	84.62
482.061	111.62
482.28	89.62
482.498	75.62
482.717	92.62
482.935	89.62
483.153	92.62
483.372	81.62
483.59	88.62
483.808	109.62
484.027	101.62
484.245	81.62
484.463	75.62
484.681	95.62
484.9	86.62
485.118	90.62
485.336	93.62
485.554	117.62
485.772	94.62
485.99	106.62
486.209	105.62
486.427	113.62
486.645	101.62
486.863	90.62
487.081	105.62
487.299	97.62
487.517	84.62
487.735	100.62
487.953	95.62
488.171	90.62
488.389	103.62
488.607	93.62
488.825	88.62
489.043	97.62
489.261	101.62
489.479	80.62
489.696	94.62
489.914	92.62
490.132	87.62
490.35	95.62
490.568	86.62
490.786	101.62
491.003	75.62
491.221	95.62
491.439	91.62
491.657	91.62
491.874	95.62
492.092	84.62
492.31	99.62
492.527	90.62
492.745	85.62
492.963	85.62
493.18	106.62
493.398	90.62
493.615	107.62
493.833	112.62
494.05	92.62
494.268	110.62
494.485	84.62
494.703	92.62
494.92	89.62
495.138	90.62
495.355	103.62
495.573	91.62
495.79	89.62
496.008	86.62
496.225	104.62
496.442	100.62
496.66	97.62
496.877	92.62
497.094	108.62
497.312	98.62
497.529	93.62
497.746	96.62
497.963	100.62
498.181	94.62
498.398	103.62
498.615	103.62
498.832	112.62
499.049	97.62
499.267	104.62
499.484	81.62
499.701	94.62
499.918	93.62
500.135	97.62
500.352	93.62
500.569	107.62
500.786	87.62
501.003	87.62
501.22	91.62
501.437	94.62
501.654	104.62
501.871	102.62
502.088	84.62
502.305	91.62
502.522	84.62
502.739	91.62
502.956	95.62
503.172	110.62
503.389	84.62
503.606	115.62
503.823	103.62
504.04	102.62
504.256	101.62
504.473	104.62
504.69	87.62
504.907	100.62
505.123	107.62
505.34	86.62
505.557	90.62
505.773	100.62
505.99	81.62
506.207	80.62
506.423	89.62
506.64	91.62
506.856	85.62
507.073	92.62
507.289	94.62
507.506	101.62
507.722	95.62
507.939	99.62
508.155	92.62
508.372	95.62
508.588	90.62
508.805	101.62
509.021	96.62
509.238	97.62
509.454	92.62
509.67	114.62
509.887	118.62
510.103	138.62
510.319	243.62
510.536	778.62
510.752	2538.62
510.968	694.62
511.184	159.62
511.401	116.62
511.617	88.62
511.833	80.62
512.049	84.62
512.265	95.62
512.481	108.62
512.698	108.62
512.914	93.62
513.13	107.62
513.346	83.62
513.562	92.62
513.778	93.62
513.994	106.62
514.21	112.62
514.426	115.62
514.642	124.62
514.858	130.62
515.074	159.62
515.29	448.62
515.506	1476.62
