Data from Uncirc_1995_H10_HRD10591_00015.txt Node
Date: Wed Jan 03 11:35:36 EST 2024
User: Yrep
Spectrometer: HR+D1059
Trigger mode: 1
Integration Time (sec): 1.000000E-1
Scans to average: 1
Electric dark correction enabled: true
Nonlinearity correction enabled: false
Boxcar width: 0
XAxis mode: Wavelengths
Number of Pixels in Spectrum: 2048
>>>>>Begin Spectral Data<<<<<
223.165	-13.06
223.4	-13.06
223.635	-13.06
223.869	-30.06
224.104	-22.06
224.338	-9.06
224.573	-15.06
224.808	-13.06
225.042	-5.06
225.277	-15.06
225.511	-16.06
225.746	-2.06
225.98	12.94
226.215	24.94
226.449	11.94
226.683	22.94
226.918	38.94
227.152	28.94
227.387	40.94
227.621	45.94
227.856	37.94
228.09	49.94
228.324	59.94
228.559	54.94
228.793	69.94
229.027	83.94
229.262	69.94
229.496	82.94
229.73	70.94
229.964	84.94
230.199	78.94
230.433	80.94
230.667	86.94
230.901	80.94
231.136	86.94
231.37	82.94
231.604	91.94
231.838	76.94
232.072	84.94
232.306	87.94
232.541	83.94
232.775	85.94
233.009	88.94
233.243	78.94
233.477	92.94
233.711	65.94
233.945	106.94
234.179	78.94
234.413	86.94
234.647	75.94
234.881	71.94
235.115	77.94
235.349	87.94
235.583	84.94
235.817	90.94
236.051	75.94
236.285	55.94
236.519	80.94
236.753	94.94
236.987	86.94
237.221	84.94
237.455	94.94
237.689	74.94
237.922	76.94
238.156	94.94
238.39	91.94
238.624	74.94
238.858	81.94
239.091	89.94
239.325	86.94
239.559	80.94
239.793	78.94
240.027	78.94
240.26	78.94
240.494	63.94
240.728	70.94
240.961	79.94
241.195	89.94
241.429	67.94
241.662	96.94
241.896	88.94
242.13	79.94
242.363	78.94
242.597	77.94
242.83	81.94
243.064	73.94
243.298	79.94
243.531	81.94
243.765	90.94
243.998	80.94
244.232	83.94
244.465	87.94
244.699	78.94
244.932	70.94
245.166	83.94
245.399	86.94
245.633	89.94
245.866	79.94
246.099	72.94
246.333	68.94
246.566	83.94
246.8	94.94
247.033	84.94
247.266	97.94
247.5	75.94
247.733	94.94
247.966	89.94
248.2	74.94
248.433	71.94
248.666	71.94
248.899	77.94
249.133	98.94
249.366	98.94
249.599	99.94
249.832	77.94
250.066	82.94
250.299	97.94
250.532	85.94
250.765	75.94
250.998	81.94
251.231	88.94
251.465	85.94
251.698	88.94
251.931	107.94
252.164	63.94
252.397	92.94
252.63	98.94
252.863	95.94
253.096	86.94
253.329	71.94
253.562	72.94
253.795	78.94
254.028	92.94
254.261	85.94
254.494	99.94
254.727	91.94
254.96	92.94
255.193	77.94
255.426	76.94
255.659	101.94
255.892	91.94
256.124	74.94
256.357	82.94
256.59	83.94
256.823	62.94
257.056	77.94
257.289	77.94
257.521	83.94
257.754	102.94
257.987	57.94
258.22	78.94
258.452	80.94
258.685	84.94
258.918	82.94
259.151	77.94
259.383	83.94
259.616	95.94
259.849	84.94
260.081	94.94
260.314	94.94
260.547	68.94
260.779	94.94
261.012	77.94
261.244	78.94
261.477	88.94
261.71	95.94
261.942	111.94
262.175	115.94
262.407	94.94
262.64	75.94
262.872	85.94
263.105	81.94
263.337	95.94
263.57	78.94
263.802	79.94
264.035	73.94
264.267	80.94
264.499	80.94
264.732	81.94
264.964	99.94
265.197	87.94
265.429	93.94
265.661	73.94
265.894	85.94
266.126	77.94
266.358	91.94
266.591	87.94
266.823	90.94
267.055	108.94
267.287	95.94
267.52	92.94
267.752	85.94
267.984	78.94
268.216	85.94
268.448	82.94
268.681	79.94
268.913	74.94
269.145	87.94
269.377	92.94
269.609	88.94
269.841	88.94
270.073	80.94
270.306	89.94
270.538	83.94
270.77	79.94
271.002	79.94
271.234	83.94
271.466	84.94
271.698	86.94
271.93	85.94
272.162	92.94
272.394	95.94
272.626	94.94
272.858	104.94
273.09	82.94
273.322	86.94
273.553	104.94
273.785	97.94
274.017	100.94
274.249	82.94
274.481	82.94
274.713	93.94
274.945	86.94
275.176	87.94
275.408	90.94
275.64	87.94
275.872	85.94
276.104	84.94
276.335	80.94
276.567	102.94
276.799	107.94
277.031	98.94
277.262	91.94
277.494	94.94
277.726	93.94
277.957	96.94
278.189	78.94
278.421	82.94
278.652	85.94
278.884	96.94
279.115	84.94
279.347	85.94
279.579	86.94
279.81	80.94
280.042	92.94
280.273	87.94
280.505	76.94
280.736	92.94
280.968	96.94
281.199	91.94
281.431	91.94
281.662	86.94
281.894	103.94
282.125	90.94
282.356	112.94
282.588	128.94
282.819	113.94
283.051	100.94
283.282	101.94
283.513	81.94
283.745	89.94
283.976	85.94
284.207	96.94
284.439	90.94
284.67	93.94
284.901	90.94
285.132	109.94
285.364	86.94
285.595	96.94
285.826	83.94
286.057	88.94
286.288	85.94
286.52	99.94
286.751	103.94
286.982	95.94
287.213	83.94
287.444	91.94
287.675	90.94
287.906	93.94
288.138	99.94
288.369	98.94
288.6	98.94
288.831	81.94
289.062	90.94
289.293	87.94
289.524	100.94
289.755	100.94
289.986	85.94
290.217	82.94
290.448	81.94
290.679	102.94
290.91	96.94
291.141	99.94
291.371	91.94
291.602	85.94
291.833	92.94
292.064	92.94
292.295	104.94
292.526	87.94
292.757	88.94
292.987	83.94
293.218	92.94
293.449	92.94
293.68	86.94
293.91	98.94
294.141	99.94
294.372	99.94
294.603	92.94
294.833	100.94
295.064	97.94
295.295	90.94
295.525	85.94
295.756	97.94
295.987	112.94
296.217	124.94
296.448	130.94
296.679	100.94
296.909	97.94
297.14	79.94
297.37	100.94
297.601	86.94
297.831	83.94
298.062	89.94
298.292	93.94
298.523	98.94
298.753	81.94
298.984	92.94
299.214	92.94
299.445	91.94
299.675	91.94
299.905	83.94
300.136	95.94
300.366	95.94
300.597	107.94
300.827	89.94
301.057	89.94
301.288	80.94
301.518	92.94
301.748	95.94
301.979	96.94
302.209	91.94
302.439	81.94
302.669	100.94
302.9	102.94
303.13	98.94
303.36	86.94
303.59	104.94
303.82	112.94
304.051	97.94
304.281	105.94
304.511	89.94
304.741	85.94
304.971	94.94
305.201	99.94
305.431	77.94
305.661	92.94
305.891	92.94
306.121	88.94
306.352	90.94
306.582	102.94
306.812	87.94
307.042	93.94
307.272	96.94
307.502	101.94
307.731	84.94
307.961	98.94
308.191	89.94
308.421	102.94
308.651	108.94
308.881	96.94
309.111	95.94
309.341	99.94
309.571	108.94
309.8	109.94
310.03	89.94
310.26	97.94
310.49	93.94
310.72	106.94
310.949	107.94
311.179	87.94
311.409	94.94
311.639	104.94
311.868	108.94
312.098	110.94
312.328	93.94
312.557	94.94
312.787	103.94
313.017	97.94
313.246	84.94
313.476	107.94
313.706	108.94
313.935	94.94
314.165	99.94
314.394	94.94
314.624	101.94
314.853	102.94
315.083	99.94
315.312	107.94
315.542	96.94
315.771	99.94
316.001	99.94
316.23	88.94
316.46	104.94
316.689	93.94
316.919	98.94
317.148	94.94
317.377	103.94
317.607	108.94
317.836	103.94
318.065	88.94
318.295	79.94
318.524	103.94
318.753	96.94
318.983	101.94
319.212	106.94
319.441	103.94
319.67	115.94
319.9	95.94
320.129	107.94
320.358	95.94
320.587	86.94
320.816	100.94
321.046	108.94
321.275	100.94
321.504	101.94
321.733	109.94
321.962	103.94
322.191	101.94
322.42	109.94
322.649	99.94
322.878	114.94
323.108	114.94
323.337	119.94
323.566	131.94
323.795	153.94
324.024	192.94
324.253	378.94
324.482	797.94
324.71	1682.94
324.939	2178.94
325.168	808.94
325.397	245.94
325.626	142.94
325.855	134.94
326.084	134.94
326.313	135.94
326.542	156.94
326.77	231.94
326.999	454.94
327.228	958.94
327.457	1720.94
327.686	1370.94
327.914	366.94
328.143	213.94
328.372	133.94
328.6	126.94
328.829	117.94
329.058	122.94
329.287	121.94
329.515	121.94
329.744	110.94
329.972	105.94
330.201	96.94
330.43	103.94
330.658	110.94
330.887	133.94
331.115	125.94
331.344	79.94
331.572	97.94
331.801	101.94
332.03	95.94
332.258	86.94
332.486	93.94
332.715	105.94
332.943	83.94
333.172	110.94
333.4	100.94
333.629	120.94
333.857	111.94
334.085	106.94
334.314	102.94
334.542	92.94
334.771	86.94
334.999	98.94
335.227	93.94
335.455	96.94
335.684	105.94
335.912	101.94
336.14	102.94
336.369	100.94
336.597	93.94
336.825	100.94
337.053	99.94
337.281	107.94
337.51	108.94
337.738	104.94
337.966	108.94
338.194	103.94
338.422	97.94
338.65	106.94
338.878	94.94
339.106	99.94
339.334	100.94
339.562	97.94
339.79	88.94
340.018	94.94
340.246	85.94
340.474	90.94
340.702	98.94
340.93	91.94
341.158	90.94
341.386	89.94
341.614	105.94
341.842	92.94
342.07	98.94
342.298	110.94
342.526	99.94
342.754	94.94
342.981	95.94
343.209	84.94
343.437	112.94
343.665	99.94
343.893	102.94
344.12	98.94
344.348	105.94
344.576	99.94
344.804	96.94
345.031	93.94
345.259	86.94
345.487	87.94
345.714	78.94
345.942	94.94
346.17	101.94
346.397	96.94
346.625	99.94
346.853	80.94
347.08	94.94
347.308	99.94
347.535	98.94
347.763	111.94
347.99	95.94
348.218	103.94
348.445	112.94
348.673	101.94
348.9	84.94
349.128	106.94
349.355	98.94
349.583	89.94
349.81	91.94
350.037	94.94
350.265	104.94
350.492	103.94
350.72	107.94
350.947	113.94
351.174	114.94
351.402	102.94
351.629	110.94
351.856	102.94
352.083	93.94
352.311	119.94
352.538	118.94
352.765	108.94
352.992	114.94
353.22	109.94
353.447	114.94
353.674	111.94
353.901	105.94
354.128	111.94
354.355	103.94
354.583	115.94
354.81	103.94
355.037	106.94
355.264	106.94
355.491	91.94
355.718	97.94
355.945	112.94
356.172	86.94
356.399	87.94
356.626	106.94
356.853	97.94
357.08	79.94
357.307	84.94
357.534	92.94
357.761	95.94
357.988	96.94
358.215	101.94
358.441	90.94
358.668	100.94
358.895	97.94
359.122	104.94
359.349	92.94
359.576	97.94
359.802	106.94
360.029	116.94
360.256	124.94
360.483	94.94
360.709	91.94
360.936	99.94
361.163	85.94
361.39	95.94
361.616	95.94
361.843	103.94
362.07	94.94
362.296	107.94
362.523	83.94
362.749	85.94
362.976	96.94
363.203	102.94
363.429	96.94
363.656	84.94
363.882	93.94
364.109	97.94
364.335	98.94
364.562	100.94
364.788	95.94
365.015	93.94
365.241	84.94
365.468	104.94
365.694	105.94
365.92	88.94
366.147	110.94
366.373	93.94
366.599	83.94
366.826	94.94
367.052	88.94
367.278	92.94
367.505	102.94
367.731	93.94
367.957	92.94
368.184	90.94
368.41	103.94
368.636	118.94
368.862	127.94
369.089	110.94
369.315	90.94
369.541	99.94
369.767	96.94
369.993	101.94
370.219	103.94
370.445	89.94
370.672	102.94
370.898	91.94
371.124	88.94
371.35	100.94
371.576	90.94
371.802	82.94
372.028	93.94
372.254	78.94
372.48	97.94
372.706	98.94
372.932	86.94
373.158	82.94
373.384	94.94
373.61	101.94
373.835	102.94
374.061	90.94
374.287	103.94
374.513	96.94
374.739	105.94
374.965	94.94
375.191	98.94
375.416	99.94
375.642	115.94
375.868	92.94
376.094	95.94
376.319	96.94
376.545	90.94
376.771	89.94
376.997	99.94
377.222	84.94
377.448	89.94
377.674	106.94
377.899	102.94
378.125	102.94
378.35	93.94
378.576	87.94
378.802	91.94
379.027	100.94
379.253	98.94
379.478	95.94
379.704	83.94
379.929	100.94
380.155	93.94
380.38	92.94
380.606	99.94
380.831	104.94
381.057	101.94
381.282	95.94
381.507	107.94
381.733	107.94
381.958	92.94
382.184	110.94
382.409	93.94
382.634	98.94
382.86	98.94
383.085	107.94
383.31	90.94
383.535	102.94
383.761	114.94
383.986	104.94
384.211	103.94
384.436	115.94
384.662	102.94
384.887	116.94
385.112	120.94
385.337	102.94
385.562	108.94
385.787	118.94
386.013	109.94
386.238	124.94
386.463	120.94
386.688	110.94
386.913	108.94
387.138	104.94
387.363	101.94
387.588	110.94
387.813	113.94
388.038	111.94
388.263	124.94
388.488	119.94
388.713	99.94
388.938	105.94
389.163	98.94
389.387	104.94
389.612	106.94
389.837	88.94
390.062	96.94
390.287	107.94
390.512	101.94
390.736	90.94
390.961	93.94
391.186	96.94
391.411	91.94
391.636	109.94
391.86	89.94
392.085	94.94
392.31	87.94
392.534	94.94
392.759	61.94
392.984	85.94
393.208	96.94
393.433	95.94
393.658	95.94
393.882	83.94
394.107	88.94
394.331	91.94
394.556	94.94
394.78	93.94
395.005	90.94
395.229	88.94
395.454	89.94
395.678	94.94
395.903	86.94
396.127	78.94
396.352	69.94
396.576	96.94
396.801	79.94
397.025	96.94
397.249	90.94
397.474	88.94
397.698	86.94
397.922	80.94
398.147	70.94
398.371	86.94
398.595	94.94
398.82	90.94
399.044	95.94
399.268	105.94
399.492	84.94
399.717	96.94
399.941	99.94
400.165	94.94
400.389	99.94
400.613	88.94
400.837	99.94
401.062	97.94
401.286	96.94
401.51	107.94
401.734	88.94
401.958	109.94
402.182	115.94
402.406	154.94
402.63	124.94
402.854	95.94
403.078	95.94
403.302	98.94
403.526	98.94
403.75	111.94
403.974	88.94
404.198	91.94
404.422	95.94
404.645	93.94
404.869	85.94
405.093	92.94
405.317	113.94
405.541	97.94
405.765	111.94
405.988	125.94
406.212	159.94
406.436	201.94
406.66	127.94
406.883	98.94
407.107	103.94
407.331	96.94
407.555	94.94
407.778	101.94
408.002	94.94
408.226	90.94
408.449	89.94
408.673	96.94
408.896	96.94
409.12	100.94
409.344	93.94
409.567	88.94
409.791	94.94
410.014	87.94
410.238	98.94
410.461	89.94
410.685	100.94
410.908	104.94
411.132	121.94
411.355	99.94
411.578	91.94
411.802	79.94
412.025	102.94
412.249	85.94
412.472	87.94
412.695	95.94
412.919	77.94
413.142	84.94
413.365	91.94
413.589	90.94
413.812	91.94
414.035	92.94
414.258	101.94
414.482	96.94
414.705	93.94
414.928	85.94
415.151	109.94
415.374	113.94
415.597	101.94
415.821	87.94
416.044	91.94
416.267	98.94
416.49	89.94
416.713	96.94
416.936	88.94
417.159	82.94
417.382	102.94
417.605	101.94
417.828	89.94
418.051	88.94
418.274	91.94
418.497	95.94
418.72	104.94
418.943	103.94
419.166	94.94
419.389	95.94
419.611	92.94
419.834	83.94
420.057	96.94
420.28	77.94
420.503	88.94
420.726	77.94
420.948	98.94
421.171	102.94
421.394	90.94
421.617	100.94
421.839	91.94
422.062	88.94
422.285	95.94
422.507	101.94
422.73	99.94
422.953	108.94
423.175	91.94
423.398	99.94
423.621	96.94
423.843	91.94
424.066	88.94
424.288	86.94
424.511	86.94
424.733	96.94
424.956	114.94
425.178	98.94
425.401	99.94
425.623	98.94
425.846	103.94
426.068	83.94
426.291	93.94
426.513	78.94
426.735	86.94
426.958	98.94
427.18	105.94
427.402	129.94
427.625	141.94
427.847	127.94
428.069	92.94
428.292	104.94
428.514	97.94
428.736	94.94
428.958	94.94
429.181	89.94
429.403	91.94
429.625	97.94
429.847	104.94
430.069	102.94
430.292	67.94
430.514	85.94
430.736	91.94
430.958	83.94
431.18	89.94
431.402	89.94
431.624	94.94
431.846	88.94
432.068	98.94
432.29	95.94
432.512	67.94
432.734	91.94
432.956	78.94
433.178	94.94
433.4	104.94
433.622	88.94
433.844	87.94
434.066	103.94
434.287	105.94
434.509	93.94
434.731	99.94
434.953	90.94
435.175	79.94
435.397	100.94
435.618	93.94
435.84	103.94
436.062	125.94
436.284	108.94
436.505	108.94
436.727	96.94
436.949	112.94
437.17	92.94
437.392	90.94
437.614	90.94
437.835	88.94
438.057	103.94
438.278	113.94
438.5	107.94
438.721	106.94
438.943	101.94
439.165	82.94
439.386	85.94
439.608	98.94
439.829	98.94
440.05	114.94
440.272	144.94
440.493	105.94
440.715	105.94
440.936	97.94
441.158	98.94
441.379	89.94
441.6	82.94
441.822	89.94
442.043	94.94
442.264	99.94
442.486	106.94
442.707	91.94
442.928	104.94
443.149	125.94
443.371	125.94
443.592	102.94
443.813	104.94
444.034	104.94
444.255	95.94
444.476	98.94
444.698	84.94
444.919	95.94
445.14	128.94
445.361	124.94
445.582	118.94
445.803	142.94
446.024	133.94
446.245	122.94
446.466	109.94
446.687	104.94
446.908	90.94
447.129	85.94
447.35	76.94
447.571	82.94
447.792	98.94
448.013	100.94
448.234	101.94
448.455	104.94
448.675	108.94
448.896	129.94
449.117	114.94
449.338	112.94
449.559	133.94
449.779	140.94
450	102.94
450.221	96.94
450.442	94.94
450.662	100.94
450.883	97.94
451.104	106.94
451.324	93.94
451.545	109.94
451.766	96.94
451.986	91.94
452.207	90.94
452.428	92.94
452.648	91.94
452.869	118.94
453.089	103.94
453.31	119.94
453.53	108.94
453.751	99.94
453.971	106.94
454.192	102.94
454.412	103.94
454.633	109.94
454.853	94.94
455.073	81.94
455.294	89.94
455.514	95.94
455.734	76.94
455.955	93.94
456.175	109.94
456.395	99.94
456.616	76.94
456.836	97.94
457.056	98.94
457.276	83.94
457.497	94.94
457.717	89.94
457.937	87.94
458.157	95.94
458.377	79.94
458.598	97.94
458.818	159.94
459.038	144.94
459.258	107.94
459.478	86.94
459.698	93.94
459.918	88.94
460.138	92.94
460.358	91.94
460.578	93.94
460.798	87.94
461.018	99.94
461.238	85.94
461.458	104.94
461.678	84.94
461.898	83.94
462.118	104.94
462.338	83.94
462.558	97.94
462.777	91.94
462.997	94.94
463.217	100.94
463.437	115.94
463.657	93.94
463.876	87.94
464.096	86.94
464.316	88.94
464.536	84.94
464.755	87.94
464.975	99.94
465.195	159.94
465.414	152.94
465.634	106.94
465.854	101.94
466.073	113.94
466.293	81.94
466.512	88.94
466.732	78.94
466.951	96.94
467.171	94.94
467.391	115.94
467.61	98.94
467.829	91.94
468.049	88.94
468.268	96.94
468.488	92.94
468.707	100.94
468.927	83.94
469.146	87.94
469.365	91.94
469.585	91.94
469.804	94.94
470.023	106.94
470.243	113.94
470.462	107.94
470.681	99.94
470.901	101.94
471.12	75.94
471.339	89.94
471.558	85.94
471.777	85.94
471.997	88.94
472.216	89.94
472.435	82.94
472.654	96.94
472.873	90.94
473.092	88.94
473.311	82.94
473.53	90.94
473.749	91.94
473.968	103.94
474.187	102.94
474.406	93.94
474.625	84.94
474.844	85.94
475.063	91.94
475.282	87.94
475.501	98.94
475.72	92.94
475.939	110.94
476.158	86.94
476.377	81.94
476.596	96.94
476.814	90.94
477.033	77.94
477.252	96.94
477.471	101.94
477.69	82.94
477.908	84.94
478.127	103.94
478.346	94.94
478.564	104.94
478.783	102.94
479.002	95.94
479.22	102.94
479.439	100.94
479.658	98.94
479.876	101.94
480.095	80.94
480.313	99.94
480.532	102.94
480.751	94.94
480.969	96.94
481.188	95.94
481.406	103.94
481.624	97.94
481.843	96.94
482.061	92.94
482.28	88.94
482.498	102.94
482.717	95.94
482.935	97.94
483.153	95.94
483.372	84.94
483.59	92.94
483.808	92.94
484.027	97.94
484.245	108.94
484.463	87.94
484.681	103.94
484.9	111.94
485.118	92.94
485.336	99.94
485.554	99.94
485.772	99.94
485.99	121.94
486.209	100.94
486.427	119.94
486.645	114.94
486.863	113.94
487.081	100.94
487.299	95.94
487.517	99.94
487.735	93.94
487.953	95.94
488.171	86.94
488.389	84.94
488.607	101.94
488.825	102.94
489.043	93.94
489.261	97.94
489.479	93.94
489.696	78.94
489.914	96.94
490.132	84.94
490.35	99.94
490.568	94.94
490.786	100.94
491.003	94.94
491.221	92.94
491.439	87.94
491.657	90.94
491.874	98.94
492.092	96.94
492.31	100.94
492.527	88.94
492.745	107.94
492.963	84.94
493.18	100.94
493.398	95.94
493.615	107.94
493.833	101.94
494.05	102.94
494.268	88.94
494.485	96.94
494.703	84.94
494.92	92.94
495.138	91.94
495.355	94.94
495.573	95.94
495.79	88.94
496.008	98.94
496.225	102.94
496.442	89.94
496.66	102.94
496.877	106.94
497.094	95.94
497.312	80.94
497.529	99.94
497.746	103.94
497.963	103.94
498.181	90.94
498.398	99.94
498.615	111.94
498.832	99.94
499.049	94.94
499.267	93.94
499.484	84.94
499.701	93.94
499.918	82.94
500.135	102.94
500.352	96.94
500.569	90.94
500.786	83.94
501.003	93.94
501.22	97.94
501.437	102.94
501.654	94.94
501.871	107.94
502.088	104.94
502.305	93.94
502.522	101.94
502.739	96.94
502.956	99.94
503.172	98.94
503.389	86.94
503.606	115.94
503.823	110.94
504.04	100.94
504.256	108.94
504.473	86.94
504.69	95.94
504.907	99.94
505.123	98.94
505.34	94.94
505.557	105.94
505.773	98.94
505.99	106.94
506.207	91.94
506.423	96.94
506.64	98.94
506.856	98.94
507.073	96.94
507.289	99.94
507.506	102.94
507.722	113.94
507.939	113.94
508.155	94.94
508.372	90.94
508.588	102.94
508.805	89.94
509.021	88.94
509.238	93.94
509.454	90.94
509.67	108.94
509.887	112.94
510.103	135.94
510.319	222.94
510.536	708.94
510.752	2205.94
510.968	612.94
511.184	155.94
511.401	111.94
511.617	101.94
511.833	111.94
512.049	95.94
512.265	76.94
512.481	88.94
512.698	91.94
512.914	76.94
513.13	99.94
513.346	98.94
513.562	95.94
513.778	90.94
513.994	90.94
514.21	104.94
