Data from Uncirc_1995_H10_HRD10591_00010.txt Node
Date: Wed Jan 03 11:35:35 EST 2024
User: Yrep
Spectrometer: HR+D1059
Trigger mode: 1
Integration Time (sec): 1.000000E-1
Scans to average: 1
Electric dark correction enabled: true
Nonlinearity correction enabled: false
Boxcar width: 0
XAxis mode: Wavelengths
Number of Pixels in Spectrum: 2048
>>>>>Begin Spectral Data<<<<<
223.165	-19.06
223.4	-19.06
223.635	-19.06
223.869	-13.06
224.104	-24.06
224.338	-18.06
224.573	-20.06
224.808	-8.06
225.042	-7.06
225.277	-9.06
225.511	-2.06
225.746	5.94
225.98	-3.06
226.215	32.94
226.449	15.94
226.683	31.94
226.918	19.94
227.152	16.94
227.387	11.94
227.621	32.94
227.856	42.94
228.09	51.94
228.324	53.94
228.559	63.94
228.793	49.94
229.027	40.94
229.262	68.94
229.496	72.94
229.73	86.94
229.964	71.94
230.199	56.94
230.433	64.94
230.667	67.94
230.901	80.94
231.136	78.94
231.37	73.94
231.604	67.94
231.838	69.94
232.072	70.94
232.306	68.94
232.541	70.94
232.775	73.94
233.009	65.94
233.243	85.94
233.477	62.94
233.711	83.94
233.945	78.94
234.179	79.94
234.413	64.94
234.647	62.94
234.881	74.94
235.115	60.94
235.349	71.94
235.583	67.94
235.817	73.94
236.051	88.94
236.285	81.94
236.519	69.94
236.753	73.94
236.987	69.94
237.221	77.94
237.455	86.94
237.689	81.94
237.922	80.94
238.156	68.94
238.39	63.94
238.624	47.94
238.858	71.94
239.091	58.94
239.325	75.94
239.559	69.94
239.793	79.94
240.027	69.94
240.26	67.94
240.494	70.94
240.728	75.94
240.961	77.94
241.195	51.94
241.429	71.94
241.662	64.94
241.896	75.94
242.13	64.94
242.363	81.94
242.597	73.94
242.83	90.94
243.064	71.94
243.298	64.94
243.531	81.94
243.765	71.94
243.998	68.94
244.232	59.94
244.465	67.94
244.699	76.94
244.932	77.94
245.166	79.94
245.399	83.94
245.633	70.94
245.866	63.94
246.099	79.94
246.333	84.94
246.566	78.94
246.8	60.94
247.033	72.94
247.266	69.94
247.5	68.94
247.733	68.94
247.966	86.94
248.2	88.94
248.433	57.94
248.666	86.94
248.899	87.94
249.133	83.94
249.366	94.94
249.599	80.94
249.832	64.94
250.066	79.94
250.299	90.94
250.532	76.94
250.765	75.94
250.998	61.94
251.231	87.94
251.465	80.94
251.698	64.94
251.931	69.94
252.164	86.94
252.397	77.94
252.63	76.94
252.863	59.94
253.096	70.94
253.329	80.94
253.562	79.94
253.795	74.94
254.028	93.94
254.261	78.94
254.494	90.94
254.727	92.94
254.96	69.94
255.193	83.94
255.426	74.94
255.659	68.94
255.892	54.94
256.124	85.94
256.357	64.94
256.59	74.94
256.823	80.94
257.056	77.94
257.289	77.94
257.521	76.94
257.754	75.94
257.987	87.94
258.22	82.94
258.452	71.94
258.685	68.94
258.918	63.94
259.151	83.94
259.383	74.94
259.616	89.94
259.849	79.94
260.081	76.94
260.314	82.94
260.547	77.94
260.779	78.94
261.012	80.94
261.244	62.94
261.477	80.94
261.71	96.94
261.942	85.94
262.175	105.94
262.407	92.94
262.64	79.94
262.872	81.94
263.105	75.94
263.337	80.94
263.57	81.94
263.802	84.94
264.035	84.94
264.267	79.94
264.499	87.94
264.732	82.94
264.964	63.94
265.197	80.94
265.429	88.94
265.661	89.94
265.894	85.94
266.126	78.94
266.358	93.94
266.591	73.94
266.823	76.94
267.055	67.94
267.287	73.94
267.52	78.94
267.752	105.94
267.984	87.94
268.216	91.94
268.448	79.94
268.681	77.94
268.913	88.94
269.145	74.94
269.377	91.94
269.609	79.94
269.841	85.94
270.073	79.94
270.306	85.94
270.538	81.94
270.77	85.94
271.002	76.94
271.234	68.94
271.466	84.94
271.698	94.94
271.93	85.94
272.162	82.94
272.394	87.94
272.626	93.94
272.858	90.94
273.09	87.94
273.322	93.94
273.553	74.94
273.785	81.94
274.017	76.94
274.249	82.94
274.481	81.94
274.713	79.94
274.945	85.94
275.176	92.94
275.408	88.94
275.64	92.94
275.872	85.94
276.104	75.94
276.335	77.94
276.567	85.94
276.799	95.94
277.031	86.94
277.262	89.94
277.494	90.94
277.726	83.94
277.957	88.94
278.189	89.94
278.421	82.94
278.652	79.94
278.884	80.94
279.115	67.94
279.347	91.94
279.579	100.94
279.81	84.94
280.042	83.94
280.273	73.94
280.505	83.94
280.736	92.94
280.968	80.94
281.199	101.94
281.431	85.94
281.662	84.94
281.894	79.94
282.125	94.94
282.356	107.94
282.588	113.94
282.819	102.94
283.051	96.94
283.282	82.94
283.513	82.94
283.745	81.94
283.976	96.94
284.207	73.94
284.439	88.94
284.67	93.94
284.901	87.94
285.132	97.94
285.364	85.94
285.595	86.94
285.826	84.94
286.057	82.94
286.288	85.94
286.52	91.94
286.751	86.94
286.982	83.94
287.213	71.94
287.444	83.94
287.675	91.94
287.906	73.94
288.138	86.94
288.369	78.94
288.6	89.94
288.831	80.94
289.062	88.94
289.293	81.94
289.524	92.94
289.755	78.94
289.986	89.94
290.217	83.94
290.448	89.94
290.679	90.94
290.91	86.94
291.141	72.94
291.371	94.94
291.602	80.94
291.833	92.94
292.064	90.94
292.295	90.94
292.526	93.94
292.757	81.94
292.987	93.94
293.218	96.94
293.449	86.94
293.68	68.94
293.91	91.94
294.141	76.94
294.372	99.94
294.603	85.94
294.833	80.94
295.064	79.94
295.295	83.94
295.525	88.94
295.756	75.94
295.987	104.94
296.217	128.94
296.448	105.94
296.679	87.94
296.909	99.94
297.14	89.94
297.37	87.94
297.601	81.94
297.831	82.94
298.062	83.94
298.292	93.94
298.523	82.94
298.753	81.94
298.984	75.94
299.214	81.94
299.445	70.94
299.675	91.94
299.905	79.94
300.136	87.94
300.366	88.94
300.597	91.94
300.827	82.94
301.057	97.94
301.288	108.94
301.518	102.94
301.748	77.94
301.979	89.94
302.209	78.94
302.439	83.94
302.669	76.94
302.9	95.94
303.13	85.94
303.36	83.94
303.59	81.94
303.82	92.94
304.051	78.94
304.281	84.94
304.511	78.94
304.741	89.94
304.971	76.94
305.201	78.94
305.431	72.94
305.661	93.94
305.891	85.94
306.121	81.94
306.352	97.94
306.582	95.94
306.812	90.94
307.042	82.94
307.272	93.94
307.502	104.94
307.731	100.94
307.961	80.94
308.191	94.94
308.421	91.94
308.651	92.94
308.881	85.94
309.111	89.94
309.341	91.94
309.571	94.94
309.8	84.94
310.03	92.94
310.26	95.94
310.49	103.94
310.72	82.94
310.949	92.94
311.179	99.94
311.409	89.94
311.639	92.94
311.868	85.94
312.098	92.94
312.328	88.94
312.557	98.94
312.787	90.94
313.017	102.94
313.246	101.94
313.476	94.94
313.706	107.94
313.935	101.94
314.165	92.94
314.394	89.94
314.624	104.94
314.853	94.94
315.083	84.94
315.312	100.94
315.542	88.94
315.771	82.94
316.001	97.94
316.23	91.94
316.46	100.94
316.689	86.94
316.919	85.94
317.148	88.94
317.377	93.94
317.607	84.94
317.836	87.94
318.065	87.94
318.295	99.94
318.524	94.94
318.753	86.94
318.983	101.94
319.212	101.94
319.441	100.94
319.67	114.94
319.9	81.94
320.129	87.94
320.358	86.94
320.587	85.94
320.816	96.94
321.046	91.94
321.275	100.94
321.504	97.94
321.733	86.94
321.962	84.94
322.191	97.94
322.42	88.94
322.649	124.94
322.878	110.94
323.108	104.94
323.337	119.94
323.566	132.94
323.795	135.94
324.024	189.94
324.253	364.94
324.482	723.94
324.71	1532.94
324.939	1992.94
325.168	738.94
325.397	224.94
325.626	149.94
325.855	128.94
326.084	110.94
326.313	141.94
326.542	129.94
326.77	208.94
326.999	412.94
327.228	867.94
327.457	1621.94
327.686	1252.94
327.914	339.94
328.143	169.94
328.372	126.94
328.6	109.94
328.829	103.94
329.058	109.94
329.287	118.94
329.515	94.94
329.744	100.94
329.972	96.94
330.201	89.94
330.43	92.94
330.658	110.94
330.887	105.94
331.115	101.94
331.344	96.94
331.572	75.94
331.801	87.94
332.03	103.94
332.258	101.94
332.486	96.94
332.715	76.94
332.943	70.94
333.172	96.94
333.4	85.94
333.629	90.94
333.857	95.94
334.085	93.94
334.314	103.94
334.542	100.94
334.771	81.94
334.999	111.94
335.227	93.94
335.455	91.94
335.684	100.94
335.912	87.94
336.14	87.94
336.369	90.94
336.597	91.94
336.825	93.94
337.053	79.94
337.281	74.94
337.51	86.94
337.738	78.94
337.966	90.94
338.194	97.94
338.422	111.94
338.65	90.94
338.878	83.94
339.106	81.94
339.334	100.94
339.562	84.94
339.79	73.94
340.018	86.94
340.246	92.94
340.474	80.94
340.702	76.94
340.93	88.94
341.158	87.94
341.386	78.94
341.614	80.94
341.842	97.94
342.07	79.94
342.298	78.94
342.526	72.94
342.754	77.94
342.981	85.94
343.209	95.94
343.437	105.94
343.665	84.94
343.893	96.94
344.12	94.94
344.348	88.94
344.576	79.94
344.804	92.94
345.031	78.94
345.259	100.94
345.487	89.94
345.714	85.94
345.942	95.94
346.17	88.94
346.397	86.94
346.625	92.94
346.853	76.94
347.08	87.94
347.308	96.94
347.535	88.94
347.763	82.94
347.99	88.94
348.218	95.94
348.445	84.94
348.673	88.94
348.9	95.94
349.128	104.94
349.355	89.94
349.583	80.94
349.81	95.94
350.037	89.94
350.265	94.94
350.492	101.94
350.72	86.94
350.947	80.94
351.174	102.94
351.402	103.94
351.629	89.94
351.856	111.94
352.083	94.94
352.311	99.94
352.538	99.94
352.765	83.94
352.992	94.94
353.22	93.94
353.447	100.94
353.674	93.94
353.901	81.94
354.128	81.94
354.355	94.94
354.583	93.94
354.81	96.94
355.037	86.94
355.264	92.94
355.491	90.94
355.718	86.94
355.945	79.94
356.172	79.94
356.399	97.94
356.626	82.94
356.853	94.94
357.08	96.94
357.307	85.94
357.534	89.94
357.761	91.94
357.988	97.94
358.215	106.94
358.441	87.94
358.668	91.94
358.895	91.94
359.122	89.94
359.349	84.94
359.576	94.94
359.802	86.94
360.029	85.94
360.256	107.94
360.483	84.94
360.709	77.94
360.936	90.94
361.163	89.94
361.39	90.94
361.616	93.94
361.843	86.94
362.07	87.94
362.296	94.94
362.523	91.94
362.749	95.94
362.976	92.94
363.203	85.94
363.429	86.94
363.656	89.94
363.882	84.94
364.109	80.94
364.335	85.94
364.562	96.94
364.788	78.94
365.015	87.94
365.241	86.94
365.468	93.94
365.694	96.94
365.92	96.94
366.147	88.94
366.373	88.94
366.599	80.94
366.826	99.94
367.052	85.94
367.278	92.94
367.505	77.94
367.731	88.94
367.957	67.94
368.184	82.94
368.41	97.94
368.636	108.94
368.862	109.94
369.089	102.94
369.315	89.94
369.541	75.94
369.767	83.94
369.993	94.94
370.219	81.94
370.445	80.94
370.672	82.94
370.898	87.94
371.124	84.94
371.35	93.94
371.576	84.94
371.802	92.94
372.028	84.94
372.254	86.94
372.48	83.94
372.706	87.94
372.932	84.94
373.158	70.94
373.384	91.94
373.61	82.94
373.835	103.94
374.061	86.94
374.287	97.94
374.513	81.94
374.739	95.94
374.965	98.94
375.191	96.94
375.416	92.94
375.642	88.94
375.868	84.94
376.094	95.94
376.319	97.94
376.545	81.94
376.771	88.94
376.997	79.94
377.222	72.94
377.448	80.94
377.674	75.94
377.899	97.94
378.125	85.94
378.35	94.94
378.576	78.94
378.802	93.94
379.027	86.94
379.253	82.94
379.478	83.94
379.704	96.94
379.929	97.94
380.155	89.94
380.38	104.94
380.606	92.94
380.831	93.94
381.057	84.94
381.282	87.94
381.507	97.94
381.733	77.94
381.958	91.94
382.184	91.94
382.409	73.94
382.634	88.94
382.86	98.94
383.085	90.94
383.31	98.94
383.535	86.94
383.761	109.94
383.986	106.94
384.211	102.94
384.436	95.94
384.662	94.94
384.887	108.94
385.112	103.94
385.337	119.94
385.562	117.94
385.787	97.94
386.013	105.94
386.238	108.94
386.463	101.94
386.688	104.94
386.913	95.94
387.138	109.94
387.363	89.94
387.588	107.94
387.813	103.94
388.038	104.94
388.263	121.94
388.488	111.94
388.713	90.94
388.938	93.94
389.163	88.94
389.387	107.94
389.612	95.94
389.837	90.94
390.062	90.94
390.287	95.94
390.512	87.94
390.736	89.94
390.961	104.94
391.186	111.94
391.411	111.94
391.636	91.94
391.86	80.94
392.085	84.94
392.31	80.94
392.534	84.94
392.759	87.94
392.984	78.94
393.208	92.94
393.433	85.94
393.658	79.94
393.882	92.94
394.107	73.94
394.331	84.94
394.556	85.94
394.78	71.94
395.005	77.94
395.229	85.94
395.454	91.94
395.678	83.94
395.903	78.94
396.127	70.94
396.352	86.94
396.576	88.94
396.801	84.94
397.025	84.94
397.249	78.94
397.474	101.94
397.698	85.94
397.922	97.94
398.147	68.94
398.371	81.94
398.595	86.94
398.82	89.94
399.044	79.94
399.268	74.94
399.492	78.94
399.717	79.94
399.941	87.94
400.165	91.94
400.389	96.94
400.613	87.94
400.837	83.94
401.062	87.94
401.286	88.94
401.51	79.94
401.734	79.94
401.958	88.94
402.182	107.94
402.406	141.94
402.63	112.94
402.854	83.94
403.078	87.94
403.302	85.94
403.526	91.94
403.75	84.94
403.974	79.94
404.198	87.94
404.422	78.94
404.645	67.94
404.869	96.94
405.093	79.94
405.317	76.94
405.541	88.94
405.765	90.94
405.988	100.94
406.212	147.94
406.436	189.94
406.66	123.94
406.883	88.94
407.107	93.94
407.331	95.94
407.555	101.94
407.778	97.94
408.002	97.94
408.226	100.94
408.449	89.94
408.673	76.94
408.896	92.94
409.12	91.94
409.344	84.94
409.567	94.94
409.791	95.94
410.014	99.94
410.238	84.94
410.461	74.94
410.685	102.94
410.908	103.94
411.132	103.94
411.355	97.94
411.578	76.94
411.802	97.94
412.025	92.94
412.249	92.94
412.472	97.94
412.695	78.94
412.919	84.94
413.142	87.94
413.365	81.94
413.589	87.94
413.812	90.94
414.035	81.94
414.258	80.94
414.482	85.94
414.705	78.94
414.928	105.94
415.151	88.94
415.374	101.94
415.597	95.94
415.821	94.94
416.044	85.94
416.267	94.94
416.49	84.94
416.713	74.94
416.936	88.94
417.159	93.94
417.382	87.94
417.605	83.94
417.828	88.94
418.051	81.94
418.274	91.94
418.497	83.94
418.72	85.94
418.943	88.94
419.166	80.94
419.389	91.94
419.611	88.94
419.834	80.94
420.057	88.94
420.28	86.94
420.503	89.94
420.726	74.94
420.948	89.94
421.171	84.94
421.394	96.94
421.617	77.94
421.839	85.94
422.062	88.94
422.285	99.94
422.507	101.94
422.73	95.94
422.953	96.94
423.175	89.94
423.398	90.94
423.621	83.94
423.843	83.94
424.066	81.94
424.288	76.94
424.511	95.94
424.733	97.94
424.956	90.94
425.178	87.94
425.401	97.94
425.623	97.94
425.846	97.94
426.068	78.94
426.291	86.94
426.513	79.94
426.735	87.94
426.958	94.94
427.18	95.94
427.402	126.94
427.625	126.94
427.847	102.94
428.069	93.94
428.292	73.94
428.514	86.94
428.736	80.94
428.958	64.94
429.181	81.94
429.403	87.94
429.625	80.94
429.847	94.94
430.069	88.94
430.292	91.94
430.514	86.94
430.736	83.94
430.958	78.94
431.18	75.94
431.402	87.94
431.624	79.94
431.846	76.94
432.068	101.94
432.29	88.94
432.512	89.94
432.734	83.94
432.956	86.94
433.178	88.94
433.4	85.94
433.622	93.94
433.844	87.94
434.066	81.94
434.287	80.94
434.509	85.94
434.731	73.94
434.953	93.94
435.175	80.94
435.397	83.94
435.618	82.94
435.84	89.94
436.062	99.94
436.284	129.94
436.505	97.94
436.727	100.94
436.949	84.94
437.17	75.94
437.392	83.94
437.614	83.94
437.835	97.94
438.057	103.94
438.278	92.94
438.5	89.94
438.721	103.94
438.943	91.94
439.165	88.94
439.386	81.94
439.608	90.94
439.829	83.94
440.05	119.94
440.272	99.94
440.493	82.94
440.715	83.94
440.936	88.94
441.158	92.94
441.379	89.94
441.6	89.94
441.822	88.94
442.043	92.94
442.264	93.94
442.486	97.94
442.707	81.94
442.928	95.94
443.149	116.94
443.371	118.94
443.592	106.94
443.813	111.94
444.034	101.94
444.255	95.94
444.476	83.94
444.698	84.94
444.919	84.94
445.14	134.94
445.361	108.94
445.582	90.94
445.803	106.94
446.024	125.94
446.245	116.94
446.466	91.94
446.687	79.94
446.908	97.94
447.129	79.94
447.35	83.94
447.571	97.94
447.792	79.94
448.013	97.94
448.234	98.94
448.455	107.94
448.675	99.94
448.896	95.94
449.117	89.94
449.338	95.94
449.559	120.94
449.779	117.94
450	78.94
450.221	90.94
450.442	71.94
450.662	79.94
450.883	96.94
451.104	93.94
451.324	80.94
451.545	80.94
451.766	86.94
451.986	81.94
452.207	88.94
452.428	75.94
452.648	89.94
452.869	105.94
453.089	106.94
453.31	107.94
453.53	74.94
453.751	86.94
453.971	90.94
454.192	99.94
454.412	83.94
454.633	74.94
454.853	81.94
455.073	79.94
455.294	74.94
455.514	92.94
455.734	80.94
455.955	89.94
456.175	87.94
456.395	86.94
456.616	92.94
456.836	90.94
457.056	76.94
457.276	88.94
457.497	68.94
457.717	67.94
457.937	81.94
458.157	100.94
458.377	106.94
458.598	108.94
458.818	129.94
459.038	140.94
459.258	92.94
459.478	88.94
459.698	69.94
459.918	92.94
460.138	92.94
460.358	95.94
460.578	86.94
460.798	91.94
461.018	89.94
461.238	80.94
461.458	75.94
461.678	85.94
461.898	92.94
462.118	85.94
462.338	89.94
462.558	78.94
462.777	73.94
462.997	93.94
463.217	83.94
463.437	66.94
463.657	83.94
463.876	80.94
464.096	71.94
464.316	89.94
464.536	88.94
464.755	100.94
464.975	88.94
465.195	138.94
465.414	137.94
465.634	103.94
465.854	95.94
466.073	83.94
466.293	81.94
466.512	62.94
466.732	75.94
466.951	79.94
467.171	85.94
467.391	92.94
467.61	96.94
467.829	89.94
468.049	97.94
468.268	89.94
468.488	74.94
468.707	81.94
468.927	89.94
469.146	71.94
469.365	75.94
469.585	82.94
469.804	79.94
470.023	87.94
470.243	81.94
470.462	94.94
470.681	83.94
470.901	89.94
471.12	101.94
471.339	74.94
471.558	101.94
471.777	84.94
471.997	88.94
472.216	78.94
472.435	90.94
472.654	69.94
472.873	95.94
473.092	75.94
473.311	100.94
473.53	85.94
473.749	80.94
473.968	88.94
474.187	84.94
474.406	79.94
474.625	90.94
474.844	81.94
475.063	79.94
475.282	89.94
475.501	79.94
475.72	92.94
475.939	82.94
476.158	88.94
476.377	74.94
476.596	81.94
476.814	99.94
477.033	99.94
477.252	98.94
477.471	88.94
477.69	63.94
477.908	88.94
478.127	93.94
478.346	95.94
478.564	86.94
478.783	102.94
479.002	95.94
479.22	92.94
479.439	94.94
479.658	99.94
479.876	91.94
480.095	92.94
480.313	78.94
480.532	90.94
480.751	92.94
480.969	72.94
481.188	93.94
481.406	83.94
481.624	90.94
481.843	89.94
482.061	86.94
482.28	87.94
482.498	88.94
482.717	89.94
482.935	81.94
483.153	94.94
483.372	93.94
483.59	79.94
483.808	79.94
484.027	58.94
484.245	95.94
484.463	91.94
484.681	104.94
484.9	92.94
485.118	95.94
485.336	84.94
485.554	75.94
485.772	92.94
485.99	95.94
486.209	88.94
486.427	104.94
486.645	116.94
486.863	97.94
487.081	103.94
487.299	104.94
487.517	106.94
487.735	83.94
487.953	95.94
488.171	81.94
488.389	95.94
488.607	85.94
488.825	94.94
489.043	80.94
489.261	99.94
489.479	75.94
489.696	84.94
489.914	75.94
490.132	73.94
490.35	90.94
490.568	85.94
490.786	90.94
491.003	81.94
491.221	97.94
491.439	93.94
491.657	82.94
491.874	85.94
492.092	87.94
492.31	87.94
492.527	91.94
492.745	81.94
492.963	95.94
493.18	86.94
493.398	79.94
493.615	91.94
493.833	79.94
494.05	87.94
494.268	80.94
494.485	97.94
494.703	92.94
494.92	79.94
495.138	69.94
495.355	94.94
495.573	96.94
495.79	79.94
496.008	79.94
496.225	88.94
496.442	84.94
496.66	88.94
496.877	102.94
497.094	103.94
497.312	90.94
497.529	94.94
497.746	89.94
497.963	92.94
498.181	98.94
498.398	101.94
498.615	101.94
498.832	93.94
499.049	72.94
499.267	85.94
499.484	73.94
499.701	77.94
499.918	80.94
500.135	80.94
500.352	101.94
500.569	79.94
500.786	81.94
501.003	83.94
501.22	85.94
501.437	88.94
501.654	83.94
501.871	105.94
502.088	87.94
502.305	87.94
502.522	94.94
502.739	71.94
502.956	96.94
503.172	76.94
503.389	90.94
503.606	89.94
503.823	86.94
504.04	96.94
504.256	96.94
504.473	85.94
504.69	86.94
504.907	91.94
505.123	89.94
505.34	84.94
505.557	76.94
505.773	96.94
505.99	79.94
506.207	87.94
506.423	94.94
506.64	93.94
506.856	102.94
507.073	89.94
507.289	85.94
507.506	79.94
507.722	92.94
507.939	98.94
508.155	101.94
508.372	91.94
508.588	96.94
508.805	105.94
509.021	91.94
509.238	98.94
509.454	88.94
509.67	107.94
509.887	94.94
510.103	126.94
510.319	192.94
510.536	669.94
510.752	2037.94
510.968	556.94
511.184	139.94
511.401	96.94
511.617	101.94
511.833	86.94
512.049	87.94
512.265	84.94
512.481	94.94
512.698	98.94
512.914	73.94
513.13	100.94
513.346	77.94
513.562	81.94
513.778	80.94
513.994	87.94
514.21	101.94
514.426	81.94
514.642	127.94
514.858	128.94
515.074	161.94
515.29	376.94
515.506	1130.94
515.721	416.94
515.937	131.94
516.153	83.94
516.369	100.94
516.585	92.94
516.801	95.94
517.016	99.94
517.232	91.94
