Data from Uncirc_1995_H10_HRD10591_00026.txt Node
Date: Wed Jan 03 11:35:39 EST 2024
User: Yrep
Spectrometer: HR+D1059
Trigger mode: 1
Integration Time (sec): 1.000000E-1
Scans to average: 1
Electric dark correction enabled: true
Nonlinearity correction enabled: false
Boxcar width: 0
XAxis mode: Wavelengths
Number of Pixels in Spectrum: 2048
>>>>>Begin Spectral Data<<<<<
223.165	-22.75
223.4	-22.75
223.635	-22.75
223.869	-12.75
224.104	-7.75
224.338	-4.75
224.573	-19.75
224.808	-7.75
225.042	-17.75
225.277	-19.75
225.511	-3.75
225.746	15.25
225.98	5.25
226.215	6.25
226.449	11.25
226.683	25.25
226.918	24.25
227.152	29.25
227.387	45.25
227.621	37.25
227.856	34.25
228.09	45.25
228.324	60.25
228.559	51.25
228.793	61.25
229.027	64.25
229.262	47.25
229.496	64.25
229.73	71.25
229.964	77.25
230.199	79.25
230.433	67.25
230.667	77.25
230.901	72.25
231.136	73.25
231.37	75.25
231.604	75.25
231.838	92.25
232.072	90.25
232.306	78.25
232.541	75.25
232.775	97.25
233.009	75.25
233.243	84.25
233.477	85.25
233.711	72.25
233.945	92.25
234.179	74.25
234.413	86.25
234.647	89.25
234.881	65.25
235.115	79.25
235.349	73.25
235.583	74.25
235.817	87.25
236.051	81.25
236.285	81.25
236.519	82.25
236.753	78.25
236.987	71.25
237.221	82.25
237.455	81.25
237.689	71.25
237.922	64.25
238.156	77.25
238.39	78.25
238.624	59.25
238.858	89.25
239.091	80.25
239.325	71.25
239.559	81.25
239.793	79.25
240.027	92.25
240.26	86.25
240.494	74.25
240.728	89.25
240.961	71.25
241.195	65.25
241.429	65.25
241.662	75.25
241.896	72.25
242.13	78.25
242.363	85.25
242.597	77.25
242.83	85.25
243.064	90.25
243.298	87.25
243.531	68.25
243.765	89.25
243.998	77.25
244.232	81.25
244.465	93.25
244.699	82.25
244.932	67.25
245.166	69.25
245.399	85.25
245.633	81.25
245.866	83.25
246.099	88.25
246.333	86.25
246.566	67.25
246.8	84.25
247.033	89.25
247.266	88.25
247.5	81.25
247.733	80.25
247.966	90.25
248.2	91.25
248.433	78.25
248.666	78.25
248.899	85.25
249.133	83.25
249.366	86.25
249.599	79.25
249.832	91.25
250.066	82.25
250.299	83.25
250.532	97.25
250.765	77.25
250.998	81.25
251.231	101.25
251.465	77.25
251.698	90.25
251.931	82.25
252.164	71.25
252.397	95.25
252.63	78.25
252.863	98.25
253.096	69.25
253.329	79.25
253.562	57.25
253.795	69.25
254.028	82.25
254.261	69.25
254.494	86.25
254.727	88.25
254.96	78.25
255.193	81.25
255.426	75.25
255.659	70.25
255.892	75.25
256.124	70.25
256.357	95.25
256.59	82.25
256.823	86.25
257.056	79.25
257.289	86.25
257.521	79.25
257.754	77.25
257.987	74.25
258.22	86.25
258.452	97.25
258.685	79.25
258.918	76.25
259.151	97.25
259.383	72.25
259.616	87.25
259.849	80.25
260.081	86.25
260.314	71.25
260.547	76.25
260.779	88.25
261.012	73.25
261.244	83.25
261.477	77.25
261.71	93.25
261.942	98.25
262.175	126.25
262.407	85.25
262.64	78.25
262.872	78.25
263.105	77.25
263.337	82.25
263.57	71.25
263.802	89.25
264.035	91.25
264.267	87.25
264.499	77.25
264.732	86.25
264.964	78.25
265.197	90.25
265.429	90.25
265.661	74.25
265.894	85.25
266.126	79.25
266.358	89.25
266.591	87.25
266.823	96.25
267.055	75.25
267.287	86.25
267.52	84.25
267.752	69.25
267.984	72.25
268.216	71.25
268.448	87.25
268.681	73.25
268.913	87.25
269.145	93.25
269.377	81.25
269.609	87.25
269.841	89.25
270.073	78.25
270.306	95.25
270.538	75.25
270.77	81.25
271.002	74.25
271.234	82.25
271.466	88.25
271.698	90.25
271.93	77.25
272.162	86.25
272.394	74.25
272.626	86.25
272.858	86.25
273.09	88.25
273.322	72.25
273.553	75.25
273.785	80.25
274.017	81.25
274.249	66.25
274.481	71.25
274.713	84.25
274.945	82.25
275.176	81.25
275.408	77.25
275.64	90.25
275.872	93.25
276.104	83.25
276.335	88.25
276.567	99.25
276.799	108.25
277.031	89.25
277.262	92.25
277.494	82.25
277.726	82.25
277.957	80.25
278.189	99.25
278.421	81.25
278.652	86.25
278.884	86.25
279.115	78.25
279.347	93.25
279.579	98.25
279.81	90.25
280.042	91.25
280.273	83.25
280.505	82.25
280.736	83.25
280.968	90.25
281.199	88.25
281.431	89.25
281.662	93.25
281.894	97.25
282.125	98.25
282.356	118.25
282.588	126.25
282.819	96.25
283.051	87.25
283.282	88.25
283.513	81.25
283.745	81.25
283.976	96.25
284.207	75.25
284.439	83.25
284.67	73.25
284.901	94.25
285.132	92.25
285.364	78.25
285.595	81.25
285.826	97.25
286.057	80.25
286.288	86.25
286.52	76.25
286.751	72.25
286.982	85.25
287.213	89.25
287.444	91.25
287.675	89.25
287.906	88.25
288.138	73.25
288.369	81.25
288.6	87.25
288.831	87.25
289.062	74.25
289.293	87.25
289.524	89.25
289.755	105.25
289.986	77.25
290.217	81.25
290.448	83.25
290.679	83.25
290.91	82.25
291.141	83.25
291.371	88.25
291.602	80.25
291.833	86.25
292.064	75.25
292.295	84.25
292.526	86.25
292.757	78.25
292.987	82.25
293.218	91.25
293.449	86.25
293.68	85.25
293.91	78.25
294.141	82.25
294.372	78.25
294.603	92.25
294.833	77.25
295.064	81.25
295.295	84.25
295.525	98.25
295.756	102.25
295.987	107.25
296.217	129.25
296.448	110.25
296.679	116.25
296.909	93.25
297.14	79.25
297.37	82.25
297.601	88.25
297.831	95.25
298.062	95.25
298.292	89.25
298.523	92.25
298.753	87.25
298.984	93.25
299.214	83.25
299.445	78.25
299.675	92.25
299.905	93.25
300.136	77.25
300.366	71.25
300.597	77.25
300.827	90.25
301.057	92.25
301.288	89.25
301.518	78.25
301.748	101.25
301.979	97.25
302.209	96.25
302.439	78.25
302.669	78.25
302.9	86.25
303.13	92.25
303.36	80.25
303.59	96.25
303.82	82.25
304.051	87.25
304.281	91.25
304.511	87.25
304.741	89.25
304.971	94.25
305.201	102.25
305.431	88.25
305.661	91.25
305.891	90.25
306.121	98.25
306.352	87.25
306.582	103.25
306.812	93.25
307.042	91.25
307.272	90.25
307.502	88.25
307.731	81.25
307.961	94.25
308.191	93.25
308.421	101.25
308.651	97.25
308.881	104.25
309.111	97.25
309.341	106.25
309.571	97.25
309.8	89.25
310.03	97.25
310.26	85.25
310.49	105.25
310.72	95.25
310.949	99.25
311.179	87.25
311.409	95.25
311.639	98.25
311.868	88.25
312.098	95.25
312.328	102.25
312.557	96.25
312.787	89.25
313.017	101.25
313.246	92.25
313.476	89.25
313.706	76.25
313.935	77.25
314.165	89.25
314.394	91.25
314.624	93.25
314.853	117.25
315.083	97.25
315.312	98.25
315.542	89.25
315.771	99.25
316.001	103.25
316.23	83.25
316.46	84.25
316.689	85.25
316.919	97.25
317.148	95.25
317.377	97.25
317.607	100.25
317.836	91.25
318.065	105.25
318.295	89.25
318.524	82.25
318.753	97.25
318.983	84.25
319.212	97.25
319.441	103.25
319.67	91.25
319.9	107.25
320.129	107.25
320.358	90.25
320.587	113.25
320.816	90.25
321.046	97.25
321.275	91.25
321.504	83.25
321.733	82.25
321.962	87.25
322.191	107.25
322.42	90.25
322.649	106.25
322.878	110.25
323.108	100.25
323.337	111.25
323.566	114.25
323.795	158.25
324.024	173.25
324.253	379.25
324.482	765.25
324.71	1599.25
324.939	2071.25
325.168	766.25
325.397	230.25
325.626	145.25
325.855	135.25
326.084	116.25
326.313	124.25
326.542	131.25
326.77	222.25
326.999	447.25
327.228	917.25
327.457	1671.25
327.686	1294.25
327.914	349.25
328.143	173.25
328.372	139.25
328.6	103.25
328.829	115.25
329.058	114.25
329.287	114.25
329.515	105.25
329.744	96.25
329.972	96.25
330.201	96.25
330.43	92.25
330.658	94.25
330.887	118.25
331.115	122.25
331.344	100.25
331.572	89.25
331.801	92.25
332.03	98.25
332.258	77.25
332.486	80.25
332.715	93.25
332.943	89.25
333.172	82.25
333.4	85.25
333.629	100.25
333.857	102.25
334.085	99.25
334.314	94.25
334.542	96.25
334.771	101.25
334.999	104.25
335.227	101.25
335.455	91.25
335.684	101.25
335.912	96.25
336.14	93.25
336.369	88.25
336.597	98.25
336.825	94.25
337.053	96.25
337.281	85.25
337.51	87.25
337.738	98.25
337.966	80.25
338.194	94.25
338.422	110.25
338.65	90.25
338.878	89.25
339.106	98.25
339.334	85.25
339.562	98.25
339.79	100.25
340.018	90.25
340.246	83.25
340.474	82.25
340.702	79.25
340.93	98.25
341.158	91.25
341.386	96.25
341.614	104.25
341.842	90.25
342.07	78.25
342.298	85.25
342.526	85.25
342.754	99.25
342.981	85.25
343.209	80.25
343.437	90.25
343.665	87.25
343.893	93.25
344.12	84.25
344.348	93.25
344.576	97.25
344.804	83.25
345.031	88.25
345.259	89.25
345.487	102.25
345.714	105.25
345.942	97.25
346.17	87.25
346.397	98.25
346.625	91.25
346.853	98.25
347.08	80.25
347.308	92.25
347.535	107.25
347.763	106.25
347.99	91.25
348.218	96.25
348.445	107.25
348.673	101.25
348.9	99.25
349.128	103.25
349.355	97.25
349.583	109.25
349.81	98.25
350.037	83.25
350.265	89.25
350.492	96.25
350.72	87.25
350.947	100.25
351.174	106.25
351.402	106.25
351.629	98.25
351.856	96.25
352.083	94.25
352.311	101.25
352.538	119.25
352.765	112.25
352.992	114.25
353.22	106.25
353.447	102.25
353.674	110.25
353.901	100.25
354.128	93.25
354.355	108.25
354.583	100.25
354.81	93.25
355.037	87.25
355.264	108.25
355.491	105.25
355.718	83.25
355.945	83.25
356.172	95.25
356.399	92.25
356.626	91.25
356.853	93.25
357.08	91.25
357.307	94.25
357.534	103.25
357.761	90.25
357.988	90.25
358.215	85.25
358.441	103.25
358.668	86.25
358.895	93.25
359.122	84.25
359.349	81.25
359.576	87.25
359.802	89.25
360.029	87.25
360.256	111.25
360.483	98.25
360.709	80.25
360.936	85.25
361.163	88.25
361.39	92.25
361.616	95.25
361.843	86.25
362.07	86.25
362.296	93.25
362.523	94.25
362.749	99.25
362.976	77.25
363.203	98.25
363.429	97.25
363.656	87.25
363.882	78.25
364.109	81.25
364.335	101.25
364.562	86.25
364.788	89.25
365.015	103.25
365.241	83.25
365.468	105.25
365.694	97.25
365.92	94.25
366.147	77.25
366.373	99.25
366.599	94.25
366.826	87.25
367.052	113.25
367.278	82.25
367.505	107.25
367.731	91.25
367.957	90.25
368.184	91.25
368.41	106.25
368.636	97.25
368.862	118.25
369.089	114.25
369.315	97.25
369.541	101.25
369.767	79.25
369.993	90.25
370.219	90.25
370.445	96.25
370.672	82.25
370.898	98.25
371.124	85.25
371.35	75.25
371.576	96.25
371.802	81.25
372.028	91.25
372.254	85.25
372.48	99.25
372.706	82.25
372.932	88.25
373.158	101.25
373.384	92.25
373.61	99.25
373.835	86.25
374.061	88.25
374.287	85.25
374.513	96.25
374.739	92.25
374.965	95.25
375.191	99.25
375.416	93.25
375.642	90.25
375.868	87.25
376.094	89.25
376.319	99.25
376.545	69.25
376.771	97.25
376.997	77.25
377.222	87.25
377.448	80.25
377.674	89.25
377.899	83.25
378.125	92.25
378.35	90.25
378.576	97.25
378.802	94.25
379.027	92.25
379.253	92.25
379.478	93.25
379.704	91.25
379.929	77.25
380.155	95.25
380.38	91.25
380.606	90.25
380.831	83.25
381.057	112.25
381.282	101.25
381.507	91.25
381.733	90.25
381.958	83.25
382.184	93.25
382.409	103.25
382.634	100.25
382.86	101.25
383.085	96.25
383.31	96.25
383.535	93.25
383.761	104.25
383.986	93.25
384.211	101.25
384.436	89.25
384.662	95.25
384.887	104.25
385.112	94.25
385.337	106.25
385.562	108.25
385.787	96.25
386.013	100.25
386.238	120.25
386.463	102.25
386.688	96.25
386.913	118.25
387.138	114.25
387.363	106.25
387.588	82.25
387.813	102.25
388.038	110.25
388.263	114.25
388.488	109.25
388.713	87.25
388.938	89.25
389.163	89.25
389.387	97.25
389.612	90.25
389.837	94.25
390.062	82.25
390.287	89.25
390.512	95.25
390.736	84.25
390.961	89.25
391.186	93.25
391.411	83.25
391.636	73.25
391.86	80.25
392.085	107.25
392.31	90.25
392.534	93.25
392.759	82.25
392.984	80.25
393.208	90.25
393.433	85.25
393.658	100.25
393.882	96.25
394.107	101.25
394.331	71.25
394.556	91.25
394.78	92.25
395.005	81.25
395.229	77.25
395.454	104.25
395.678	82.25
395.903	83.25
396.127	86.25
396.352	82.25
396.576	85.25
396.801	101.25
397.025	88.25
397.249	99.25
397.474	97.25
397.698	93.25
397.922	87.25
398.147	83.25
398.371	70.25
398.595	93.25
398.82	73.25
399.044	97.25
399.268	84.25
399.492	85.25
399.717	74.25
399.941	86.25
400.165	99.25
400.389	80.25
400.613	64.25
400.837	80.25
401.062	94.25
401.286	89.25
401.51	86.25
401.734	95.25
401.958	91.25
402.182	121.25
402.406	147.25
402.63	104.25
402.854	92.25
403.078	91.25
403.302	82.25
403.526	97.25
403.75	89.25
403.974	97.25
404.198	102.25
404.422	96.25
404.645	81.25
404.869	89.25
405.093	95.25
405.317	89.25
405.541	95.25
405.765	86.25
405.988	111.25
406.212	154.25
406.436	201.25
406.66	127.25
406.883	99.25
407.107	94.25
407.331	97.25
407.555	94.25
407.778	93.25
408.002	85.25
408.226	105.25
408.449	89.25
408.673	86.25
408.896	95.25
409.12	106.25
409.344	98.25
409.567	91.25
409.791	85.25
410.014	100.25
410.238	90.25
410.461	79.25
410.685	92.25
410.908	93.25
411.132	114.25
411.355	82.25
411.578	94.25
411.802	77.25
412.025	85.25
412.249	90.25
412.472	92.25
412.695	97.25
412.919	81.25
413.142	82.25
413.365	80.25
413.589	88.25
413.812	83.25
414.035	88.25
414.258	85.25
414.482	97.25
414.705	92.25
414.928	96.25
415.151	104.25
415.374	90.25
415.597	93.25
415.821	104.25
416.044	95.25
416.267	81.25
416.49	91.25
416.713	91.25
416.936	90.25
417.159	95.25
417.382	91.25
417.605	91.25
417.828	90.25
418.051	87.25
418.274	85.25
418.497	91.25
418.72	83.25
418.943	94.25
419.166	81.25
419.389	77.25
419.611	84.25
419.834	96.25
420.057	88.25
420.28	93.25
420.503	77.25
420.726	82.25
420.948	81.25
421.171	90.25
421.394	106.25
421.617	98.25
421.839	87.25
422.062	95.25
422.285	103.25
422.507	82.25
422.73	75.25
422.953	81.25
423.175	81.25
423.398	92.25
423.621	90.25
423.843	92.25
424.066	82.25
424.288	89.25
424.511	88.25
424.733	80.25
424.956	87.25
425.178	99.25
425.401	77.25
425.623	89.25
425.846	86.25
426.068	96.25
426.291	114.25
426.513	93.25
426.735	91.25
426.958	89.25
427.18	102.25
427.402	125.25
427.625	140.25
427.847	133.25
428.069	106.25
428.292	86.25
428.514	89.25
428.736	85.25
428.958	85.25
429.181	85.25
429.403	76.25
429.625	81.25
429.847	94.25
430.069	86.25
430.292	98.25
430.514	94.25
430.736	90.25
430.958	87.25
431.18	83.25
431.402	86.25
431.624	93.25
431.846	86.25
432.068	85.25
432.29	80.25
432.512	81.25
432.734	73.25
432.956	80.25
433.178	86.25
433.4	111.25
433.622	95.25
433.844	91.25
434.066	96.25
434.287	87.25
434.509	96.25
434.731	107.25
434.953	95.25
435.175	82.25
435.397	102.25
435.618	100.25
435.84	103.25
436.062	107.25
436.284	102.25
436.505	86.25
436.727	94.25
436.949	92.25
437.17	82.25
437.392	96.25
437.614	98.25
437.835	95.25
438.057	103.25
438.278	108.25
438.5	108.25
438.721	113.25
438.943	94.25
439.165	95.25
439.386	81.25
439.608	88.25
439.829	101.25
440.05	120.25
440.272	129.25
440.493	85.25
440.715	96.25
440.936	99.25
441.158	84.25
441.379	85.25
441.6	93.25
441.822	84.25
442.043	106.25
442.264	93.25
442.486	86.25
442.707	90.25
442.928	86.25
443.149	111.25
443.371	118.25
443.592	114.25
443.813	97.25
444.034	106.25
444.255	98.25
444.476	77.25
444.698	81.25
444.919	82.25
445.14	134.25
445.361	111.25
445.582	104.25
445.803	118.25
446.024	121.25
446.245	123.25
446.466	105.25
446.687	84.25
446.908	98.25
447.129	97.25
447.35	89.25
447.571	87.25
447.792	94.25
448.013	101.25
448.234	95.25
448.455	93.25
448.675	89.25
448.896	105.25
449.117	98.25
449.338	94.25
449.559	115.25
449.779	130.25
450	97.25
450.221	79.25
450.442	93.25
450.662	81.25
450.883	90.25
451.104	94.25
451.324	81.25
451.545	71.25
451.766	93.25
451.986	86.25
452.207	98.25
452.428	80.25
452.648	87.25
452.869	102.25
453.089	110.25
453.31	127.25
453.53	90.25
453.751	89.25
453.971	85.25
454.192	110.25
454.412	90.25
454.633	100.25
454.853	96.25
455.073	82.25
455.294	80.25
455.514	91.25
455.734	86.25
455.955	72.25
456.175	78.25
456.395	80.25
456.616	90.25
456.836	87.25
457.056	90.25
457.276	82.25
457.497	82.25
457.717	97.25
457.937	82.25
458.157	88.25
458.377	92.25
458.598	100.25
458.818	142.25
459.038	135.25
459.258	93.25
459.478	92.25
459.698	93.25
459.918	83.25
460.138	80.25
460.358	89.25
460.578	90.25
460.798	96.25
461.018	96.25
461.238	93.25
461.458	81.25
461.678	97.25
461.898	94.25
462.118	94.25
462.338	89.25
462.558	91.25
462.777	81.25
462.997	73.25
463.217	86.25
463.437	80.25
463.657	91.25
463.876	95.25
464.096	91.25
464.316	67.25
464.536	85.25
464.755	102.25
464.975	102.25
465.195	131.25
465.414	135.25
465.634	108.25
465.854	94.25
466.073	80.25
466.293	87.25
466.512	87.25
466.732	82.25
466.951	82.25
467.171	102.25
467.391	69.25
467.61	93.25
467.829	86.25
468.049	103.25
468.268	81.25
468.488	81.25
468.707	81.25
468.927	83.25
469.146	85.25
469.365	82.25
469.585	95.25
469.804	88.25
470.023	104.25
470.243	93.25
470.462	103.25
470.681	104.25
470.901	70.25
471.12	86.25
471.339	72.25
471.558	80.25
471.777	91.25
471.997	73.25
472.216	87.25
472.435	81.25
472.654	85.25
472.873	78.25
473.092	82.25
473.311	79.25
473.53	92.25
473.749	82.25
473.968	89.25
474.187	82.25
474.406	104.25
474.625	94.25
474.844	96.25
475.063	87.25
475.282	94.25
475.501	92.25
475.72	73.25
475.939	79.25
476.158	86.25
476.377	88.25
476.596	95.25
476.814	79.25
477.033	103.25
477.252	86.25
477.471	97.25
477.69	99.25
477.908	73.25
478.127	90.25
478.346	88.25
478.564	70.25
478.783	92.25
479.002	81.25
479.22	89.25
479.439	89.25
479.658	113.25
479.876	87.25
480.095	98.25
480.313	97.25
480.532	88.25
480.751	74.25
480.969	91.25
481.188	103.25
481.406	99.25
481.624	104.25
481.843	87.25
482.061	79.25
482.28	75.25
482.498	80.25
482.717	82.25
482.935	96.25
483.153	97.25
483.372	74.25
483.59	93.25
483.808	99.25
484.027	92.25
484.245	100.25
484.463	90.25
484.681	91.25
484.9	96.25
485.118	86.25
485.336	96.25
485.554	105.25
485.772	111.25
485.99	89.25
486.209	105.25
486.427	102.25
486.645	96.25
486.863	93.25
487.081	102.25
487.299	106.25
487.517	96.25
487.735	91.25
487.953	95.25
488.171	81.25
488.389	84.25
488.607	97.25
488.825	98.25
489.043	93.25
489.261	85.25
489.479	99.25
489.696	88.25
489.914	105.25
490.132	79.25
490.35	98.25
490.568	86.25
490.786	90.25
491.003	89.25
491.221	98.25
491.439	97.25
491.657	104.25
491.874	99.25
492.092	91.25
492.31	87.25
492.527	88.25
492.745	88.25
492.963	88.25
493.18	96.25
493.398	93.25
493.615	92.25
493.833	98.25
494.05	83.25
494.268	98.25
494.485	103.25
494.703	94.25
494.92	104.25
495.138	74.25
495.355	93.25
495.573	82.25
495.79	92.25
496.008	89.25
496.225	103.25
496.442	93.25
496.66	81.25
496.877	83.25
497.094	93.25
497.312	94.25
497.529	91.25
497.746	83.25
497.963	93.25
498.181	89.25
498.398	95.25
498.615	111.25
498.832	106.25
499.049	104.25
499.267	81.25
499.484	86.25
499.701	91.25
499.918	94.25
500.135	89.25
500.352	82.25
500.569	90.25
500.786	87.25
501.003	95.25
501.22	93.25
501.437	90.25
501.654	95.25
501.871	119.25
502.088	102.25
502.305	105.25
502.522	98.25
502.739	86.25
502.956	91.25
503.172	104.25
503.389	102.25
503.606	96.25
503.823	97.25
504.04	95.25
504.256	86.25
504.473	96.25
504.69	82.25
504.907	99.25
505.123	95.25
505.34	95.25
505.557	99.25
505.773	87.25
505.99	92.25
506.207	81.25
506.423	94.25
506.64	102.25
506.856	101.25
507.073	102.25
507.289	88.25
507.506	103.25
507.722	102.25
507.939	113.25
508.155	98.25
508.372	89.25
508.588	89.25
508.805	86.25
509.021	84.25
509.238	99.25
509.454	93.25
509.67	96.25
509.887	111.25
510.103	130.25
510.319	216.25
510.536	739.25
510.752	2200.25
510.968	617.25
511.184	137.25
511.401	104.25
511.617	97.25
511.833	93.25
512.049	97.25
512.265	84.25
512.481	87.25
512.698	86.25
512.914	100.25
513.13	96.25
513.346	90.25
513.562	99.25
513.778	97.25
513.994	95.25
514.21	101.25
514.426	114.25
514.642	130.25
514.858	119.25
515.074	153.25
515.29	379.25
515.506	1288.25
515.721	440.25
515.937	152.25
516.153	110.25
516.369	92.25
