Data from Uncirc_1995_H10_HRD10591_00073.txt Node
Date: Wed Jan 03 11:35:48 EST 2024
User: Yrep
Spectrometer: HR+D1059
Trigger mode: 1
Integration Time (sec): 1.000000E-1
Scans to average: 1
Electric dark correction enabled: true
Nonlinearity correction enabled: false
Boxcar width: 0
XAxis mode: Wavelengths
Number of Pixels in Spectrum: 2048
>>>>>Begin Spectral Data<<<<<
223.165	-17.06
223.4	-17.06
223.635	-17.06
223.869	-20.06
224.104	-20.06
224.338	-16.06
224.573	-9.06
224.808	-13.06
225.042	-18.06
225.277	-7.06
225.511	-3.06
225.746	6.94
225.98	12.94
226.215	17.94
226.449	7.94
226.683	21.94
226.918	31.94
227.152	23.94
227.387	16.94
227.621	38.94
227.856	19.94
228.09	53.94
228.324	55.94
228.559	40.94
228.793	49.94
229.027	54.94
229.262	50.94
229.496	70.94
229.73	67.94
229.964	77.94
230.199	66.94
230.433	79.94
230.667	72.94
230.901	83.94
231.136	77.94
231.37	73.94
231.604	71.94
231.838	80.94
232.072	75.94
232.306	86.94
232.541	79.94
232.775	73.94
233.009	79.94
233.243	67.94
233.477	84.94
233.711	64.94
233.945	80.94
234.179	84.94
234.413	62.94
234.647	69.94
234.881	75.94
235.115	85.94
235.349	69.94
235.583	76.94
235.817	66.94
236.051	64.94
236.285	74.94
236.519	62.94
236.753	65.94
236.987	61.94
237.221	82.94
237.455	87.94
237.689	84.94
237.922	53.94
238.156	71.94
238.39	64.94
238.624	75.94
238.858	59.94
239.091	79.94
239.325	76.94
239.559	80.94
239.793	71.94
240.027	68.94
240.26	78.94
240.494	63.94
240.728	76.94
240.961	58.94
241.195	66.94
241.429	68.94
241.662	62.94
241.896	62.94
242.13	60.94
242.363	76.94
242.597	78.94
242.83	71.94
243.064	75.94
243.298	68.94
243.531	77.94
243.765	71.94
243.998	68.94
244.232	76.94
244.465	81.94
244.699	61.94
244.932	66.94
245.166	77.94
245.399	60.94
245.633	72.94
245.866	76.94
246.099	76.94
246.333	67.94
246.566	67.94
246.8	84.94
247.033	86.94
247.266	77.94
247.5	74.94
247.733	74.94
247.966	86.94
248.2	77.94
248.433	76.94
248.666	67.94
248.899	68.94
249.133	68.94
249.366	96.94
249.599	96.94
249.832	79.94
250.066	79.94
250.299	76.94
250.532	76.94
250.765	69.94
250.998	77.94
251.231	62.94
251.465	83.94
251.698	71.94
251.931	74.94
252.164	78.94
252.397	79.94
252.63	74.94
252.863	72.94
253.096	80.94
253.329	84.94
253.562	64.94
253.795	78.94
254.028	83.94
254.261	72.94
254.494	78.94
254.727	75.94
254.96	68.94
255.193	66.94
255.426	68.94
255.659	83.94
255.892	87.94
256.124	68.94
256.357	72.94
256.59	89.94
256.823	77.94
257.056	76.94
257.289	74.94
257.521	80.94
257.754	77.94
257.987	66.94
258.22	78.94
258.452	80.94
258.685	80.94
258.918	82.94
259.151	66.94
259.383	84.94
259.616	78.94
259.849	75.94
260.081	70.94
260.314	74.94
260.547	73.94
260.779	77.94
261.012	88.94
261.244	90.94
261.477	77.94
261.71	85.94
261.942	101.94
262.175	101.94
262.407	88.94
262.64	78.94
262.872	80.94
263.105	72.94
263.337	79.94
263.57	55.94
263.802	76.94
264.035	83.94
264.267	74.94
264.499	82.94
264.732	69.94
264.964	76.94
265.197	73.94
265.429	76.94
265.661	71.94
265.894	71.94
266.126	83.94
266.358	64.94
266.591	80.94
266.823	74.94
267.055	64.94
267.287	92.94
267.52	82.94
267.752	69.94
267.984	84.94
268.216	78.94
268.448	89.94
268.681	78.94
268.913	98.94
269.145	76.94
269.377	92.94
269.609	84.94
269.841	96.94
270.073	72.94
270.306	74.94
270.538	69.94
270.77	98.94
271.002	92.94
271.234	77.94
271.466	76.94
271.698	80.94
271.93	88.94
272.162	85.94
272.394	94.94
272.626	90.94
272.858	69.94
273.09	60.94
273.322	74.94
273.553	102.94
273.785	70.94
274.017	83.94
274.249	85.94
274.481	76.94
274.713	83.94
274.945	85.94
275.176	91.94
275.408	77.94
275.64	85.94
275.872	69.94
276.104	68.94
276.335	77.94
276.567	85.94
276.799	104.94
277.031	81.94
277.262	79.94
277.494	83.94
277.726	82.94
277.957	76.94
278.189	94.94
278.421	82.94
278.652	71.94
278.884	75.94
279.115	78.94
279.347	75.94
279.579	82.94
279.81	83.94
280.042	77.94
280.273	82.94
280.505	66.94
280.736	70.94
280.968	93.94
281.199	90.94
281.431	72.94
281.662	69.94
281.894	77.94
282.125	93.94
282.356	113.94
282.588	128.94
282.819	107.94
283.051	101.94
283.282	78.94
283.513	73.94
283.745	69.94
283.976	86.94
284.207	77.94
284.439	99.94
284.67	74.94
284.901	86.94
285.132	85.94
285.364	68.94
285.595	78.94
285.826	91.94
286.057	77.94
286.288	76.94
286.52	88.94
286.751	75.94
286.982	75.94
287.213	88.94
287.444	74.94
287.675	78.94
287.906	86.94
288.138	93.94
288.369	101.94
288.6	77.94
288.831	79.94
289.062	83.94
289.293	75.94
289.524	79.94
289.755	71.94
289.986	101.94
290.217	74.94
290.448	75.94
290.679	87.94
290.91	70.94
291.141	76.94
291.371	86.94
291.602	69.94
291.833	74.94
292.064	92.94
292.295	76.94
292.526	91.94
292.757	93.94
292.987	80.94
293.218	74.94
293.449	72.94
293.68	94.94
293.91	77.94
294.141	70.94
294.372	83.94
294.603	94.94
294.833	93.94
295.064	84.94
295.295	83.94
295.525	89.94
295.756	99.94
295.987	102.94
296.217	132.94
296.448	115.94
296.679	81.94
296.909	85.94
297.14	78.94
297.37	76.94
297.601	84.94
297.831	86.94
298.062	96.94
298.292	82.94
298.523	77.94
298.753	86.94
298.984	88.94
299.214	95.94
299.445	82.94
299.675	94.94
299.905	100.94
300.136	86.94
300.366	77.94
300.597	71.94
300.827	99.94
301.057	91.94
301.288	83.94
301.518	76.94
301.748	80.94
301.979	102.94
302.209	89.94
302.439	93.94
302.669	94.94
302.9	78.94
303.13	87.94
303.36	79.94
303.59	100.94
303.82	99.94
304.051	100.94
304.281	83.94
304.511	86.94
304.741	88.94
304.971	91.94
305.201	87.94
305.431	86.94
305.661	68.94
305.891	85.94
306.121	87.94
306.352	95.94
306.582	98.94
306.812	85.94
307.042	90.94
307.272	92.94
307.502	68.94
307.731	83.94
307.961	88.94
308.191	81.94
308.421	88.94
308.651	78.94
308.881	84.94
309.111	86.94
309.341	88.94
309.571	89.94
309.8	94.94
310.03	85.94
310.26	91.94
310.49	82.94
310.72	86.94
310.949	99.94
311.179	84.94
311.409	88.94
311.639	92.94
311.868	86.94
312.098	103.94
312.328	88.94
312.557	99.94
312.787	81.94
313.017	96.94
313.246	94.94
313.476	90.94
313.706	90.94
313.935	85.94
314.165	97.94
314.394	81.94
314.624	90.94
314.853	97.94
315.083	81.94
315.312	83.94
315.542	68.94
315.771	92.94
316.001	87.94
316.23	83.94
316.46	92.94
316.689	80.94
316.919	84.94
317.148	87.94
317.377	84.94
317.607	102.94
317.836	87.94
318.065	60.94
318.295	94.94
318.524	72.94
318.753	87.94
318.983	75.94
319.212	82.94
319.441	100.94
319.67	93.94
319.9	79.94
320.129	96.94
320.358	83.94
320.587	94.94
320.816	97.94
321.046	97.94
321.275	95.94
321.504	94.94
321.733	93.94
321.962	78.94
322.191	100.94
322.42	105.94
322.649	102.94
322.878	96.94
323.108	108.94
323.337	113.94
323.566	126.94
323.795	151.94
324.024	204.94
324.253	404.94
324.482	827.94
324.71	1689.94
324.939	2238.94
325.168	836.94
325.397	246.94
325.626	130.94
325.855	116.94
326.084	125.94
326.313	127.94
326.542	147.94
326.77	223.94
326.999	459.94
327.228	966.94
327.457	1723.94
327.686	1374.94
327.914	364.94
328.143	178.94
328.372	144.94
328.6	116.94
328.829	109.94
329.058	111.94
329.287	111.94
329.515	104.94
329.744	106.94
329.972	100.94
330.201	93.94
330.43	104.94
330.658	116.94
330.887	140.94
331.115	111.94
331.344	102.94
331.572	109.94
331.801	95.94
332.03	100.94
332.258	101.94
332.486	82.94
332.715	80.94
332.943	111.94
333.172	90.94
333.4	90.94
333.629	82.94
333.857	105.94
334.085	102.94
334.314	85.94
334.542	91.94
334.771	94.94
334.999	93.94
335.227	86.94
335.455	97.94
335.684	88.94
335.912	86.94
336.14	89.94
336.369	83.94
336.597	87.94
336.825	85.94
337.053	85.94
337.281	88.94
337.51	83.94
337.738	89.94
337.966	75.94
338.194	88.94
338.422	107.94
338.65	96.94
338.878	90.94
339.106	87.94
339.334	79.94
339.562	94.94
339.79	95.94
340.018	92.94
340.246	79.94
340.474	104.94
340.702	90.94
340.93	87.94
341.158	94.94
341.386	86.94
341.614	85.94
341.842	97.94
342.07	83.94
342.298	80.94
342.526	86.94
342.754	91.94
342.981	80.94
343.209	96.94
343.437	103.94
343.665	74.94
343.893	86.94
344.12	84.94
344.348	74.94
344.576	89.94
344.804	92.94
345.031	96.94
345.259	82.94
345.487	92.94
345.714	91.94
345.942	87.94
346.17	94.94
346.397	79.94
346.625	88.94
346.853	99.94
347.08	94.94
347.308	80.94
347.535	91.94
347.763	103.94
347.99	94.94
348.218	93.94
348.445	111.94
348.673	94.94
348.9	91.94
349.128	95.94
349.355	94.94
349.583	80.94
349.81	78.94
350.037	87.94
350.265	96.94
350.492	89.94
350.72	110.94
350.947	98.94
351.174	102.94
351.402	96.94
351.629	96.94
351.856	97.94
352.083	88.94
352.311	101.94
352.538	107.94
352.765	100.94
352.992	102.94
353.22	97.94
353.447	98.94
353.674	104.94
353.901	96.94
354.128	115.94
354.355	97.94
354.583	99.94
354.81	89.94
355.037	104.94
355.264	90.94
355.491	90.94
355.718	95.94
355.945	99.94
356.172	84.94
356.399	90.94
356.626	92.94
356.853	95.94
357.08	93.94
357.307	78.94
357.534	99.94
357.761	91.94
357.988	90.94
358.215	103.94
358.441	82.94
358.668	90.94
358.895	83.94
359.122	88.94
359.349	78.94
359.576	67.94
359.802	88.94
360.029	95.94
360.256	97.94
360.483	92.94
360.709	100.94
360.936	96.94
361.163	107.94
361.39	82.94
361.616	95.94
361.843	103.94
362.07	87.94
362.296	90.94
362.523	74.94
362.749	85.94
362.976	79.94
363.203	86.94
363.429	72.94
363.656	91.94
363.882	110.94
364.109	82.94
364.335	88.94
364.562	97.94
364.788	80.94
365.015	80.94
365.241	89.94
365.468	95.94
365.694	101.94
365.92	100.94
366.147	90.94
366.373	80.94
366.599	90.94
366.826	79.94
367.052	78.94
367.278	85.94
367.505	88.94
367.731	85.94
367.957	82.94
368.184	72.94
368.41	99.94
368.636	99.94
368.862	113.94
369.089	106.94
369.315	89.94
369.541	75.94
369.767	85.94
369.993	92.94
370.219	87.94
370.445	93.94
370.672	111.94
370.898	72.94
371.124	82.94
371.35	86.94
371.576	88.94
371.802	72.94
372.028	85.94
372.254	79.94
372.48	70.94
372.706	75.94
372.932	75.94
373.158	89.94
373.384	96.94
373.61	82.94
373.835	83.94
374.061	84.94
374.287	99.94
374.513	87.94
374.739	76.94
374.965	77.94
375.191	83.94
375.416	92.94
375.642	77.94
375.868	101.94
376.094	77.94
376.319	78.94
376.545	94.94
376.771	79.94
376.997	71.94
377.222	78.94
377.448	94.94
377.674	85.94
377.899	86.94
378.125	95.94
378.35	91.94
378.576	80.94
378.802	89.94
379.027	86.94
379.253	73.94
379.478	92.94
379.704	85.94
379.929	83.94
380.155	96.94
380.38	92.94
380.606	87.94
380.831	98.94
381.057	81.94
381.282	86.94
381.507	84.94
381.733	100.94
381.958	97.94
382.184	101.94
382.409	104.94
382.634	101.94
382.86	96.94
383.085	93.94
383.31	102.94
383.535	87.94
383.761	79.94
383.986	93.94
384.211	96.94
384.436	93.94
384.662	79.94
384.887	85.94
385.112	90.94
385.337	91.94
385.562	100.94
385.787	95.94
386.013	104.94
386.238	96.94
386.463	98.94
386.688	96.94
386.913	99.94
387.138	100.94
387.363	78.94
387.588	93.94
387.813	95.94
388.038	115.94
388.263	105.94
388.488	89.94
388.713	93.94
388.938	82.94
389.163	91.94
389.387	92.94
389.612	102.94
389.837	87.94
390.062	93.94
390.287	73.94
390.512	102.94
390.736	93.94
390.961	96.94
391.186	101.94
391.411	95.94
391.636	103.94
391.86	87.94
392.085	88.94
392.31	87.94
392.534	100.94
392.759	84.94
392.984	66.94
393.208	74.94
393.433	86.94
393.658	85.94
393.882	82.94
394.107	71.94
394.331	60.94
394.556	90.94
394.78	85.94
395.005	87.94
395.229	76.94
395.454	82.94
395.678	84.94
395.903	71.94
396.127	85.94
396.352	91.94
396.576	80.94
396.801	96.94
397.025	72.94
397.249	87.94
397.474	94.94
397.698	84.94
397.922	88.94
398.147	84.94
398.371	95.94
398.595	92.94
398.82	90.94
399.044	92.94
399.268	91.94
399.492	85.94
399.717	76.94
399.941	84.94
400.165	88.94
400.389	96.94
400.613	83.94
400.837	88.94
401.062	88.94
401.286	77.94
401.51	79.94
401.734	84.94
401.958	90.94
402.182	128.94
402.406	153.94
402.63	95.94
402.854	71.94
403.078	96.94
403.302	82.94
403.526	82.94
403.75	81.94
403.974	88.94
404.198	85.94
404.422	87.94
404.645	80.94
404.869	100.94
405.093	95.94
405.317	98.94
405.541	92.94
405.765	92.94
405.988	109.94
406.212	182.94
406.436	219.94
406.66	136.94
406.883	86.94
407.107	99.94
407.331	90.94
407.555	94.94
407.778	100.94
408.002	77.94
408.226	80.94
408.449	86.94
408.673	84.94
408.896	85.94
409.12	79.94
409.344	83.94
409.567	77.94
409.791	85.94
410.014	101.94
410.238	96.94
410.461	95.94
410.685	84.94
410.908	99.94
411.132	102.94
411.355	94.94
411.578	80.94
411.802	93.94
412.025	75.94
412.249	89.94
412.472	86.94
412.695	84.94
412.919	84.94
413.142	96.94
413.365	92.94
413.589	90.94
413.812	87.94
414.035	81.94
414.258	71.94
414.482	87.94
414.705	87.94
414.928	85.94
415.151	81.94
415.374	88.94
415.597	79.94
415.821	86.94
416.044	80.94
416.267	74.94
416.49	82.94
416.713	92.94
416.936	89.94
417.159	75.94
417.382	85.94
417.605	93.94
417.828	85.94
418.051	75.94
418.274	90.94
418.497	86.94
418.72	93.94
418.943	82.94
419.166	85.94
419.389	87.94
419.611	94.94
419.834	74.94
420.057	102.94
420.28	74.94
420.503	91.94
420.726	89.94
420.948	86.94
421.171	85.94
421.394	86.94
421.617	92.94
421.839	76.94
422.062	89.94
422.285	82.94
422.507	94.94
422.73	87.94
422.953	82.94
423.175	91.94
423.398	82.94
423.621	77.94
423.843	86.94
424.066	87.94
424.288	86.94
424.511	79.94
424.733	84.94
424.956	90.94
425.178	97.94
425.401	94.94
425.623	91.94
425.846	86.94
426.068	87.94
426.291	80.94
426.513	102.94
426.735	83.94
426.958	95.94
427.18	106.94
427.402	131.94
427.625	164.94
427.847	109.94
428.069	92.94
428.292	90.94
428.514	77.94
428.736	99.94
428.958	78.94
429.181	79.94
429.403	91.94
429.625	87.94
429.847	95.94
430.069	84.94
430.292	94.94
430.514	70.94
430.736	75.94
430.958	85.94
431.18	68.94
431.402	90.94
431.624	74.94
431.846	74.94
432.068	70.94
432.29	75.94
432.512	78.94
432.734	75.94
432.956	77.94
433.178	95.94
433.4	96.94
433.622	82.94
433.844	81.94
434.066	89.94
434.287	91.94
434.509	91.94
434.731	81.94
434.953	96.94
435.175	89.94
435.397	93.94
435.618	96.94
435.84	85.94
436.062	112.94
436.284	97.94
436.505	96.94
436.727	104.94
436.949	82.94
437.17	86.94
437.392	89.94
437.614	74.94
437.835	97.94
438.057	113.94
438.278	97.94
438.5	94.94
438.721	107.94
438.943	96.94
439.165	82.94
439.386	96.94
439.608	96.94
439.829	102.94
440.05	112.94
440.272	109.94
440.493	96.94
440.715	96.94
440.936	84.94
441.158	85.94
441.379	77.94
441.6	86.94
441.822	74.94
442.043	87.94
442.264	100.94
442.486	89.94
442.707	89.94
442.928	80.94
443.149	108.94
443.371	118.94
443.592	89.94
443.813	103.94
444.034	96.94
444.255	84.94
444.476	83.94
444.698	84.94
444.919	76.94
445.14	134.94
445.361	110.94
445.582	99.94
445.803	96.94
446.024	123.94
446.245	125.94
446.466	98.94
446.687	88.94
446.908	90.94
447.129	77.94
447.35	102.94
447.571	74.94
447.792	87.94
448.013	106.94
448.234	95.94
448.455	103.94
448.675	104.94
448.896	123.94
449.117	86.94
449.338	90.94
449.559	118.94
449.779	111.94
450	87.94
450.221	93.94
450.442	78.94
450.662	100.94
450.883	99.94
451.104	108.94
451.324	91.94
451.545	94.94
451.766	90.94
451.986	86.94
452.207	94.94
452.428	92.94
452.648	96.94
452.869	101.94
453.089	100.94
453.31	100.94
453.53	101.94
453.751	79.94
453.971	114.94
454.192	88.94
454.412	100.94
454.633	76.94
454.853	88.94
455.073	99.94
455.294	93.94
455.514	82.94
455.734	74.94
455.955	86.94
456.175	90.94
456.395	72.94
456.616	81.94
456.836	77.94
457.056	89.94
457.276	89.94
457.497	85.94
457.717	89.94
457.937	86.94
458.157	97.94
458.377	111.94
458.598	126.94
458.818	153.94
459.038	146.94
459.258	124.94
459.478	94.94
459.698	90.94
459.918	95.94
460.138	84.94
460.358	82.94
460.578	81.94
460.798	71.94
461.018	80.94
461.238	80.94
461.458	75.94
461.678	88.94
461.898	83.94
462.118	64.94
462.338	75.94
462.558	70.94
462.777	79.94
462.997	99.94
463.217	73.94
463.437	83.94
463.657	79.94
463.876	79.94
464.096	78.94
464.316	98.94
464.536	85.94
464.755	91.94
464.975	108.94
465.195	136.94
465.414	134.94
465.634	96.94
465.854	90.94
466.073	84.94
466.293	83.94
466.512	77.94
466.732	85.94
466.951	88.94
467.171	83.94
467.391	97.94
467.61	106.94
467.829	96.94
468.049	79.94
468.268	80.94
468.488	78.94
468.707	77.94
468.927	84.94
469.146	86.94
469.365	74.94
469.585	87.94
469.804	89.94
470.023	92.94
470.243	85.94
470.462	88.94
470.681	108.94
470.901	78.94
471.12	62.94
471.339	81.94
471.558	74.94
471.777	91.94
471.997	96.94
472.216	88.94
472.435	86.94
472.654	96.94
472.873	84.94
473.092	88.94
473.311	88.94
473.53	90.94
473.749	82.94
473.968	90.94
474.187	95.94
474.406	103.94
474.625	90.94
474.844	71.94
475.063	71.94
475.282	97.94
475.501	79.94
475.72	91.94
475.939	79.94
476.158	96.94
476.377	84.94
476.596	104.94
476.814	69.94
477.033	84.94
477.252	70.94
477.471	83.94
477.69	86.94
477.908	85.94
478.127	92.94
478.346	76.94
478.564	85.94
478.783	87.94
479.002	99.94
479.22	92.94
479.439	92.94
479.658	93.94
479.876	91.94
480.095	76.94
480.313	87.94
480.532	88.94
480.751	84.94
480.969	98.94
481.188	100.94
481.406	87.94
481.624	79.94
481.843	91.94
482.061	87.94
482.28	93.94
482.498	85.94
482.717	90.94
482.935	90.94
483.153	96.94
483.372	83.94
483.59	78.94
483.808	84.94
484.027	86.94
484.245	98.94
484.463	82.94
484.681	89.94
484.9	102.94
485.118	88.94
485.336	78.94
485.554	79.94
485.772	101.94
485.99	95.94
486.209	86.94
486.427	99.94
486.645	100.94
486.863	103.94
487.081	100.94
487.299	87.94
487.517	94.94
487.735	104.94
487.953	95.94
488.171	87.94
488.389	91.94
488.607	102.94
488.825	77.94
489.043	95.94
489.261	88.94
489.479	86.94
489.696	86.94
489.914	79.94
490.132	81.94
490.35	82.94
490.568	91.94
490.786	81.94
491.003	88.94
491.221	94.94
491.439	79.94
491.657	101.94
491.874	88.94
492.092	85.94
492.31	84.94
492.527	79.94
492.745	71.94
492.963	77.94
493.18	96.94
493.398	86.94
493.615	84.94
493.833	103.94
494.05	87.94
494.268	95.94
494.485	91.94
494.703	80.94
494.92	92.94
495.138	90.94
495.355	77.94
495.573	84.94
495.79	78.94
496.008	86.94
496.225	81.94
496.442	85.94
496.66	72.94
496.877	76.94
497.094	91.94
497.312	82.94
497.529	81.94
497.746	89.94
497.963	93.94
498.181	90.94
498.398	81.94
498.615	96.94
498.832	109.94
499.049	91.94
499.267	82.94
499.484	94.94
499.701	89.94
499.918	97.94
500.135	95.94
500.352	102.94
500.569	77.94
500.786	88.94
501.003	87.94
501.22	78.94
501.437	90.94
501.654	91.94
501.871	100.94
502.088	79.94
502.305	94.94
502.522	84.94
502.739	100.94
502.956	91.94
503.172	86.94
503.389	95.94
503.606	96.94
503.823	96.94
504.04	81.94
504.256	87.94
504.473	85.94
504.69	99.94
504.907	93.94
505.123	77.94
505.34	93.94
505.557	96.94
505.773	98.94
505.99	83.94
506.207	82.94
506.423	86.94
506.64	70.94
506.856	89.94
507.073	82.94
507.289	85.94
507.506	96.94
507.722	104.94
507.939	104.94
508.155	100.94
508.372	90.94
508.588	93.94
508.805	96.94
509.021	99.94
509.238	101.94
509.454	78.94
509.67	95.94
509.887	90.94
510.103	119.94
510.319	202.94
510.536	775.94
510.752	2468.94
510.968	688.94
511.184	162.94
511.401	92.94
511.617	88.94
511.833	83.94
512.049	86.94
512.265	98.94
512.481	85.94
512.698	78.94
512.914	69.94
513.13	87.94
513.346	76.94
513.562	84.94
513.778	99.94
513.994	95.94
514.21	102.94
514.426	102.94
514.642	109.94
514.858	124.94
515.074	158.94
515.29	440.94
515.506	1455.94
515.721	527.94
515.937	148.94
516.153	93.94
516.369	91.94
516.585	96.94
516.801	81.94
517.016	84.94
517.232	93.94
