Data from Uncirc_1995_H10_HRD10591_00072.txt Node
Date: Wed Jan 03 11:35:48 EST 2024
User: Yrep
Spectrometer: HR+D1059
Trigger mode: 1
Integration Time (sec): 1.000000E-1
Scans to average: 1
Electric dark correction enabled: true
Nonlinearity correction enabled: false
Boxcar width: 0
XAxis mode: Wavelengths
Number of Pixels in Spectrum: 2048
>>>>>Begin Spectral Data<<<<<
223.165	-16.38
223.4	-16.38
223.635	-16.38
223.869	-18.38
224.104	-22.38
224.338	-22.38
224.573	-33.38
224.808	2.62
225.042	-14.38
225.277	-11.38
225.511	5.62
225.746	2.62
225.98	9.62
226.215	18.62
226.449	19.62
226.683	24.62
226.918	24.62
227.152	30.62
227.387	23.62
227.621	31.62
227.856	30.62
228.09	54.62
228.324	30.62
228.559	63.62
228.793	62.62
229.027	54.62
229.262	51.62
229.496	64.62
229.73	85.62
229.964	78.62
230.199	64.62
230.433	70.62
230.667	73.62
230.901	81.62
231.136	76.62
231.37	82.62
231.604	74.62
231.838	76.62
232.072	84.62
232.306	73.62
232.541	72.62
232.775	96.62
233.009	90.62
233.243	84.62
233.477	71.62
233.711	76.62
233.945	54.62
234.179	71.62
234.413	82.62
234.647	76.62
234.881	72.62
235.115	80.62
235.349	83.62
235.583	78.62
235.817	63.62
236.051	78.62
236.285	74.62
236.519	83.62
236.753	54.62
236.987	74.62
237.221	80.62
237.455	90.62
237.689	71.62
237.922	54.62
238.156	56.62
238.39	87.62
238.624	73.62
238.858	70.62
239.091	74.62
239.325	64.62
239.559	88.62
239.793	69.62
240.027	80.62
240.26	94.62
240.494	78.62
240.728	79.62
240.961	70.62
241.195	77.62
241.429	83.62
241.662	65.62
241.896	75.62
242.13	74.62
242.363	70.62
242.597	71.62
242.83	75.62
243.064	67.62
243.298	77.62
243.531	74.62
243.765	80.62
243.998	62.62
244.232	75.62
244.465	85.62
244.699	79.62
244.932	73.62
245.166	76.62
245.399	84.62
245.633	87.62
245.866	78.62
246.099	66.62
246.333	74.62
246.566	62.62
246.8	79.62
247.033	84.62
247.266	63.62
247.5	76.62
247.733	66.62
247.966	89.62
248.2	78.62
248.433	76.62
248.666	71.62
248.899	68.62
249.133	82.62
249.366	91.62
249.599	94.62
249.832	88.62
250.066	87.62
250.299	79.62
250.532	80.62
250.765	74.62
250.998	73.62
251.231	68.62
251.465	90.62
251.698	80.62
251.931	84.62
252.164	77.62
252.397	72.62
252.63	79.62
252.863	88.62
253.096	88.62
253.329	82.62
253.562	76.62
253.795	80.62
254.028	81.62
254.261	70.62
254.494	76.62
254.727	77.62
254.96	86.62
255.193	71.62
255.426	70.62
255.659	89.62
255.892	72.62
256.124	70.62
256.357	76.62
256.59	77.62
256.823	74.62
257.056	75.62
257.289	85.62
257.521	85.62
257.754	83.62
257.987	69.62
258.22	77.62
258.452	94.62
258.685	78.62
258.918	91.62
259.151	76.62
259.383	80.62
259.616	69.62
259.849	90.62
260.081	85.62
260.314	77.62
260.547	81.62
260.779	72.62
261.012	78.62
261.244	79.62
261.477	82.62
261.71	92.62
261.942	101.62
262.175	104.62
262.407	94.62
262.64	68.62
262.872	79.62
263.105	75.62
263.337	83.62
263.57	91.62
263.802	81.62
264.035	94.62
264.267	69.62
264.499	81.62
264.732	89.62
264.964	74.62
265.197	78.62
265.429	81.62
265.661	81.62
265.894	85.62
266.126	71.62
266.358	81.62
266.591	68.62
266.823	78.62
267.055	65.62
267.287	71.62
267.52	80.62
267.752	86.62
267.984	81.62
268.216	80.62
268.448	85.62
268.681	80.62
268.913	65.62
269.145	87.62
269.377	87.62
269.609	77.62
269.841	86.62
270.073	89.62
270.306	80.62
270.538	74.62
270.77	88.62
271.002	86.62
271.234	86.62
271.466	78.62
271.698	76.62
271.93	83.62
272.162	81.62
272.394	73.62
272.626	73.62
272.858	89.62
273.09	78.62
273.322	80.62
273.553	70.62
273.785	85.62
274.017	90.62
274.249	97.62
274.481	82.62
274.713	77.62
274.945	85.62
275.176	77.62
275.408	83.62
275.64	85.62
275.872	80.62
276.104	85.62
276.335	76.62
276.567	91.62
276.799	95.62
277.031	90.62
277.262	94.62
277.494	84.62
277.726	88.62
277.957	80.62
278.189	81.62
278.421	88.62
278.652	78.62
278.884	84.62
279.115	91.62
279.347	73.62
279.579	93.62
279.81	89.62
280.042	85.62
280.273	85.62
280.505	71.62
280.736	82.62
280.968	87.62
281.199	74.62
281.431	84.62
281.662	86.62
281.894	81.62
282.125	96.62
282.356	103.62
282.588	129.62
282.819	104.62
283.051	90.62
283.282	96.62
283.513	88.62
283.745	69.62
283.976	95.62
284.207	88.62
284.439	74.62
284.67	93.62
284.901	71.62
285.132	97.62
285.364	86.62
285.595	88.62
285.826	78.62
286.057	64.62
286.288	89.62
286.52	71.62
286.751	82.62
286.982	87.62
287.213	84.62
287.444	80.62
287.675	84.62
287.906	96.62
288.138	94.62
288.369	92.62
288.6	86.62
288.831	88.62
289.062	80.62
289.293	87.62
289.524	86.62
289.755	86.62
289.986	86.62
290.217	88.62
290.448	82.62
290.679	70.62
290.91	78.62
291.141	93.62
291.371	79.62
291.602	90.62
291.833	92.62
292.064	94.62
292.295	77.62
292.526	85.62
292.757	80.62
292.987	65.62
293.218	78.62
293.449	93.62
293.68	92.62
293.91	81.62
294.141	88.62
294.372	86.62
294.603	82.62
294.833	78.62
295.064	96.62
295.295	80.62
295.525	100.62
295.756	93.62
295.987	103.62
296.217	132.62
296.448	122.62
296.679	102.62
296.909	91.62
297.14	94.62
297.37	94.62
297.601	84.62
297.831	81.62
298.062	93.62
298.292	81.62
298.523	84.62
298.753	83.62
298.984	85.62
299.214	91.62
299.445	82.62
299.675	106.62
299.905	88.62
300.136	82.62
300.366	83.62
300.597	96.62
300.827	84.62
301.057	100.62
301.288	89.62
301.518	86.62
301.748	110.62
301.979	102.62
302.209	93.62
302.439	86.62
302.669	104.62
302.9	93.62
303.13	77.62
303.36	101.62
303.59	94.62
303.82	95.62
304.051	76.62
304.281	97.62
304.511	91.62
304.741	89.62
304.971	81.62
305.201	78.62
305.431	90.62
305.661	83.62
305.891	97.62
306.121	92.62
306.352	98.62
306.582	98.62
306.812	90.62
307.042	90.62
307.272	93.62
307.502	88.62
307.731	91.62
307.961	92.62
308.191	90.62
308.421	113.62
308.651	97.62
308.881	96.62
309.111	102.62
309.341	96.62
309.571	82.62
309.8	102.62
310.03	77.62
310.26	94.62
310.49	86.62
310.72	95.62
310.949	81.62
311.179	94.62
311.409	99.62
311.639	94.62
311.868	95.62
312.098	96.62
312.328	97.62
312.557	95.62
312.787	92.62
313.017	111.62
313.246	97.62
313.476	83.62
313.706	102.62
313.935	101.62
314.165	92.62
314.394	103.62
314.624	96.62
314.853	84.62
315.083	78.62
315.312	76.62
315.542	87.62
315.771	88.62
316.001	95.62
316.23	85.62
316.46	86.62
316.689	90.62
316.919	86.62
317.148	90.62
317.377	104.62
317.607	74.62
317.836	83.62
318.065	96.62
318.295	98.62
318.524	90.62
318.753	98.62
318.983	95.62
319.212	96.62
319.441	104.62
319.67	95.62
319.9	98.62
320.129	85.62
320.358	101.62
320.587	94.62
320.816	94.62
321.046	93.62
321.275	95.62
321.504	90.62
321.733	101.62
321.962	97.62
322.191	97.62
322.42	102.62
322.649	100.62
322.878	105.62
323.108	107.62
323.337	124.62
323.566	120.62
323.795	145.62
324.024	188.62
324.253	359.62
324.482	810.62
324.71	1668.62
324.939	2228.62
325.168	785.62
325.397	232.62
325.626	151.62
325.855	126.62
326.084	119.62
326.313	134.62
326.542	160.62
326.77	222.62
326.999	434.62
327.228	948.62
327.457	1739.62
327.686	1364.62
327.914	350.62
328.143	177.62
328.372	119.62
328.6	106.62
328.829	113.62
329.058	117.62
329.287	108.62
329.515	102.62
329.744	96.62
329.972	91.62
330.201	112.62
330.43	111.62
330.658	120.62
330.887	117.62
331.115	111.62
331.344	92.62
331.572	91.62
331.801	105.62
332.03	86.62
332.258	102.62
332.486	80.62
332.715	89.62
332.943	96.62
333.172	105.62
333.4	96.62
333.629	100.62
333.857	103.62
334.085	108.62
334.314	86.62
334.542	89.62
334.771	93.62
334.999	95.62
335.227	106.62
335.455	100.62
335.684	96.62
335.912	90.62
336.14	101.62
336.369	97.62
336.597	102.62
336.825	92.62
337.053	92.62
337.281	97.62
337.51	86.62
337.738	96.62
337.966	76.62
338.194	88.62
338.422	91.62
338.65	91.62
338.878	82.62
339.106	71.62
339.334	78.62
339.562	100.62
339.79	82.62
340.018	80.62
340.246	84.62
340.474	77.62
340.702	91.62
340.93	79.62
341.158	89.62
341.386	98.62
341.614	97.62
341.842	85.62
342.07	95.62
342.298	86.62
342.526	88.62
342.754	76.62
342.981	98.62
343.209	97.62
343.437	104.62
343.665	80.62
343.893	93.62
344.12	96.62
344.348	96.62
344.576	90.62
344.804	92.62
345.031	88.62
345.259	90.62
345.487	86.62
345.714	96.62
345.942	98.62
346.17	90.62
346.397	97.62
346.625	97.62
346.853	88.62
347.08	86.62
347.308	79.62
347.535	92.62
347.763	96.62
347.99	99.62
348.218	94.62
348.445	96.62
348.673	89.62
348.9	89.62
349.128	96.62
349.355	89.62
349.583	92.62
349.81	94.62
350.037	89.62
350.265	94.62
350.492	88.62
350.72	95.62
350.947	94.62
351.174	94.62
351.402	101.62
351.629	106.62
351.856	94.62
352.083	102.62
352.311	106.62
352.538	111.62
352.765	119.62
352.992	110.62
353.22	113.62
353.447	101.62
353.674	105.62
353.901	112.62
354.128	94.62
354.355	93.62
354.583	84.62
354.81	101.62
355.037	93.62
355.264	100.62
355.491	97.62
355.718	88.62
355.945	100.62
356.172	92.62
356.399	105.62
356.626	97.62
356.853	95.62
357.08	105.62
357.307	86.62
357.534	89.62
357.761	103.62
357.988	92.62
358.215	102.62
358.441	103.62
358.668	76.62
358.895	72.62
359.122	93.62
359.349	90.62
359.576	93.62
359.802	97.62
360.029	108.62
360.256	98.62
360.483	93.62
360.709	77.62
360.936	79.62
361.163	83.62
361.39	93.62
361.616	93.62
361.843	82.62
362.07	91.62
362.296	93.62
362.523	105.62
362.749	81.62
362.976	86.62
363.203	94.62
363.429	98.62
363.656	72.62
363.882	96.62
364.109	80.62
364.335	77.62
364.562	88.62
364.788	78.62
365.015	102.62
365.241	99.62
365.468	100.62
365.694	102.62
365.92	76.62
366.147	86.62
366.373	88.62
366.599	97.62
366.826	92.62
367.052	87.62
367.278	69.62
367.505	76.62
367.731	84.62
367.957	84.62
368.184	96.62
368.41	79.62
368.636	111.62
368.862	109.62
369.089	100.62
369.315	89.62
369.541	87.62
369.767	78.62
369.993	83.62
370.219	87.62
370.445	87.62
370.672	81.62
370.898	94.62
371.124	74.62
371.35	87.62
371.576	87.62
371.802	85.62
372.028	81.62
372.254	83.62
372.48	91.62
372.706	85.62
372.932	87.62
373.158	90.62
373.384	101.62
373.61	92.62
373.835	85.62
374.061	83.62
374.287	90.62
374.513	82.62
374.739	87.62
374.965	94.62
375.191	104.62
375.416	92.62
375.642	93.62
375.868	95.62
376.094	97.62
376.319	77.62
376.545	93.62
376.771	96.62
376.997	90.62
377.222	84.62
377.448	86.62
377.674	89.62
377.899	105.62
378.125	100.62
378.35	96.62
378.576	92.62
378.802	87.62
379.027	84.62
379.253	100.62
379.478	82.62
379.704	105.62
379.929	105.62
380.155	83.62
380.38	90.62
380.606	106.62
380.831	86.62
381.057	87.62
381.282	90.62
381.507	87.62
381.733	92.62
381.958	105.62
382.184	88.62
382.409	104.62
382.634	97.62
382.86	82.62
383.085	89.62
383.31	98.62
383.535	94.62
383.761	93.62
383.986	91.62
384.211	105.62
384.436	90.62
384.662	102.62
384.887	88.62
385.112	101.62
385.337	102.62
385.562	104.62
385.787	119.62
386.013	118.62
386.238	105.62
386.463	98.62
386.688	96.62
386.913	102.62
387.138	97.62
387.363	92.62
387.588	106.62
387.813	112.62
388.038	101.62
388.263	103.62
388.488	102.62
388.713	93.62
388.938	92.62
389.163	92.62
389.387	102.62
389.612	92.62
389.837	88.62
390.062	94.62
390.287	92.62
390.512	94.62
390.736	80.62
390.961	81.62
391.186	84.62
391.411	95.62
391.636	98.62
391.86	65.62
392.085	75.62
392.31	76.62
392.534	95.62
392.759	89.62
392.984	89.62
393.208	90.62
393.433	81.62
393.658	98.62
393.882	80.62
394.107	92.62
394.331	97.62
394.556	93.62
394.78	84.62
395.005	80.62
395.229	92.62
395.454	81.62
395.678	73.62
395.903	81.62
396.127	87.62
396.352	68.62
396.576	82.62
396.801	89.62
397.025	91.62
397.249	89.62
397.474	82.62
397.698	97.62
397.922	97.62
398.147	80.62
398.371	90.62
398.595	76.62
398.82	80.62
399.044	73.62
399.268	86.62
399.492	89.62
399.717	80.62
399.941	86.62
400.165	84.62
400.389	77.62
400.613	87.62
400.837	84.62
401.062	76.62
401.286	89.62
401.51	82.62
401.734	89.62
401.958	93.62
402.182	107.62
402.406	129.62
402.63	109.62
402.854	103.62
403.078	101.62
403.302	84.62
403.526	84.62
403.75	104.62
403.974	80.62
404.198	85.62
404.422	81.62
404.645	88.62
404.869	88.62
405.093	89.62
405.317	97.62
405.541	88.62
405.765	94.62
405.988	114.62
406.212	171.62
406.436	206.62
406.66	141.62
406.883	80.62
407.107	86.62
407.331	99.62
407.555	92.62
407.778	105.62
408.002	82.62
408.226	73.62
408.449	85.62
408.673	88.62
408.896	109.62
409.12	93.62
409.344	92.62
409.567	94.62
409.791	82.62
410.014	94.62
410.238	87.62
410.461	94.62
410.685	92.62
410.908	91.62
411.132	99.62
411.355	88.62
411.578	92.62
411.802	90.62
412.025	94.62
412.249	91.62
412.472	90.62
412.695	90.62
412.919	84.62
413.142	89.62
413.365	81.62
413.589	94.62
413.812	85.62
414.035	97.62
414.258	87.62
414.482	98.62
414.705	78.62
414.928	87.62
415.151	90.62
415.374	96.62
415.597	88.62
415.821	89.62
416.044	87.62
416.267	79.62
416.49	90.62
416.713	86.62
416.936	83.62
417.159	86.62
417.382	77.62
417.605	89.62
417.828	98.62
418.051	80.62
418.274	82.62
418.497	82.62
418.72	91.62
418.943	89.62
419.166	86.62
419.389	83.62
419.611	91.62
419.834	88.62
420.057	88.62
420.28	77.62
420.503	91.62
420.726	95.62
420.948	82.62
421.171	97.62
421.394	102.62
421.617	77.62
421.839	70.62
422.062	88.62
422.285	82.62
422.507	98.62
422.73	76.62
422.953	85.62
423.175	76.62
423.398	82.62
423.621	86.62
423.843	93.62
424.066	79.62
424.288	84.62
424.511	67.62
424.733	85.62
424.956	98.62
425.178	86.62
425.401	92.62
425.623	86.62
425.846	83.62
426.068	84.62
426.291	86.62
426.513	104.62
426.735	108.62
426.958	88.62
427.18	93.62
427.402	113.62
427.625	144.62
427.847	124.62
428.069	96.62
428.292	97.62
428.514	98.62
428.736	84.62
428.958	87.62
429.181	88.62
429.403	71.62
429.625	88.62
429.847	77.62
430.069	92.62
430.292	91.62
430.514	95.62
430.736	91.62
430.958	86.62
431.18	86.62
431.402	101.62
431.624	92.62
431.846	87.62
432.068	79.62
432.29	84.62
432.512	103.62
432.734	87.62
432.956	98.62
433.178	103.62
433.4	85.62
433.622	86.62
433.844	76.62
434.066	96.62
434.287	102.62
434.509	76.62
434.731	84.62
434.953	85.62
435.175	84.62
435.397	73.62
435.618	92.62
435.84	95.62
436.062	135.62
436.284	118.62
436.505	108.62
436.727	97.62
436.949	98.62
437.17	76.62
437.392	78.62
437.614	87.62
437.835	108.62
438.057	104.62
438.278	111.62
438.5	103.62
438.721	120.62
438.943	92.62
439.165	82.62
439.386	78.62
439.608	83.62
439.829	106.62
440.05	106.62
440.272	139.62
440.493	89.62
440.715	100.62
440.936	90.62
441.158	72.62
441.379	86.62
441.6	85.62
441.822	94.62
442.043	88.62
442.264	97.62
442.486	98.62
442.707	81.62
442.928	105.62
443.149	112.62
443.371	120.62
443.592	95.62
443.813	110.62
444.034	81.62
444.255	92.62
444.476	86.62
444.698	85.62
444.919	79.62
445.14	122.62
445.361	118.62
445.582	107.62
445.803	121.62
446.024	113.62
446.245	129.62
446.466	104.62
446.687	95.62
446.908	92.62
447.129	80.62
447.35	87.62
447.571	89.62
447.792	92.62
448.013	103.62
448.234	102.62
448.455	97.62
448.675	111.62
448.896	108.62
449.117	84.62
449.338	91.62
449.559	109.62
449.779	112.62
450	88.62
450.221	78.62
450.442	94.62
450.662	82.62
450.883	93.62
451.104	106.62
451.324	87.62
451.545	103.62
451.766	89.62
451.986	79.62
452.207	90.62
452.428	98.62
452.648	104.62
452.869	98.62
453.089	108.62
453.31	108.62
453.53	85.62
453.751	90.62
453.971	98.62
454.192	93.62
454.412	76.62
454.633	87.62
454.853	90.62
455.073	87.62
455.294	84.62
455.514	108.62
455.734	95.62
455.955	76.62
456.175	86.62
456.395	81.62
456.616	86.62
456.836	63.62
457.056	76.62
457.276	80.62
457.497	80.62
457.717	82.62
457.937	83.62
458.157	84.62
458.377	78.62
458.598	96.62
458.818	135.62
459.038	132.62
459.258	104.62
459.478	81.62
459.698	73.62
459.918	77.62
460.138	94.62
460.358	84.62
460.578	89.62
460.798	73.62
461.018	86.62
461.238	90.62
461.458	73.62
461.678	78.62
461.898	87.62
462.118	76.62
462.338	68.62
462.558	83.62
462.777	77.62
462.997	91.62
463.217	83.62
463.437	82.62
463.657	61.62
463.876	88.62
464.096	87.62
464.316	93.62
464.536	98.62
464.755	85.62
464.975	97.62
465.195	148.62
465.414	156.62
465.634	91.62
465.854	101.62
466.073	86.62
466.293	92.62
466.512	81.62
466.732	95.62
466.951	89.62
467.171	80.62
467.391	90.62
467.61	92.62
467.829	96.62
468.049	84.62
468.268	90.62
468.488	80.62
468.707	98.62
468.927	88.62
469.146	103.62
469.365	73.62
469.585	74.62
469.804	93.62
470.023	94.62
470.243	79.62
470.462	91.62
470.681	87.62
470.901	82.62
471.12	89.62
471.339	86.62
471.558	92.62
471.777	76.62
471.997	78.62
472.216	93.62
472.435	100.62
472.654	84.62
472.873	81.62
473.092	82.62
473.311	76.62
473.53	88.62
473.749	77.62
473.968	91.62
474.187	93.62
474.406	104.62
474.625	87.62
474.844	102.62
475.063	80.62
475.282	84.62
475.501	94.62
475.72	82.62
475.939	89.62
476.158	83.62
476.377	90.62
476.596	102.62
476.814	96.62
477.033	98.62
477.252	87.62
477.471	96.62
477.69	88.62
477.908	74.62
478.127	72.62
478.346	75.62
478.564	94.62
478.783	94.62
479.002	90.62
479.22	92.62
479.439	92.62
479.658	97.62
479.876	81.62
480.095	86.62
480.313	95.62
480.532	77.62
480.751	85.62
480.969	74.62
481.188	89.62
481.406	79.62
481.624	82.62
481.843	104.62
482.061	89.62
482.28	89.62
482.498	116.62
482.717	89.62
482.935	72.62
483.153	86.62
483.372	84.62
483.59	92.62
483.808	101.62
484.027	88.62
484.245	86.62
484.463	80.62
484.681	106.62
484.9	87.62
485.118	95.62
485.336	100.62
485.554	103.62
485.772	86.62
485.99	99.62
486.209	93.62
486.427	102.62
486.645	108.62
486.863	108.62
487.081	101.62
487.299	90.62
487.517	85.62
487.735	91.62
487.953	91.62
488.171	89.62
488.389	101.62
488.607	108.62
488.825	84.62
489.043	95.62
489.261	96.62
489.479	96.62
489.696	73.62
489.914	90.62
490.132	84.62
490.35	85.62
490.568	74.62
490.786	94.62
491.003	90.62
491.221	85.62
491.439	81.62
491.657	89.62
491.874	96.62
492.092	81.62
492.31	99.62
492.527	95.62
492.745	99.62
492.963	88.62
493.18	96.62
493.398	84.62
493.615	88.62
493.833	86.62
494.05	83.62
494.268	80.62
494.485	97.62
494.703	84.62
494.92	91.62
495.138	87.62
495.355	76.62
495.573	91.62
495.79	89.62
496.008	89.62
496.225	93.62
496.442	80.62
496.66	84.62
496.877	81.62
497.094	91.62
497.312	92.62
497.529	90.62
497.746	91.62
497.963	96.62
498.181	88.62
498.398	96.62
498.615	90.62
498.832	81.62
499.049	103.62
499.267	87.62
499.484	89.62
499.701	87.62
499.918	91.62
500.135	78.62
500.352	91.62
500.569	82.62
500.786	75.62
501.003	84.62
501.22	76.62
501.437	79.62
501.654	88.62
501.871	108.62
502.088	85.62
502.305	91.62
502.522	74.62
502.739	91.62
502.956	97.62
503.172	92.62
503.389	86.62
503.606	101.62
503.823	106.62
504.04	86.62
504.256	95.62
504.473	88.62
504.69	84.62
504.907	102.62
505.123	90.62
505.34	83.62
505.557	76.62
505.773	84.62
505.99	70.62
506.207	88.62
506.423	101.62
506.64	94.62
506.856	89.62
507.073	93.62
507.289	91.62
507.506	93.62
507.722	91.62
507.939	101.62
508.155	88.62
508.372	97.62
508.588	101.62
508.805	95.62
509.021	84.62
509.238	98.62
509.454	87.62
509.67	97.62
509.887	107.62
510.103	133.62
510.319	209.62
510.536	719.62
510.752	2335.62
510.968	633.62
511.184	138.62
511.401	113.62
511.617	96.62
511.833	82.62
512.049	93.62
512.265	91.62
512.481	97.62
512.698	91.62
512.914	84.62
513.13	84.62
513.346	93.62
513.562	85.62
513.778	88.62
513.994	76.62
514.21	101.62
514.426	117.62
514.642	116.62
514.858	124.62
515.074	148.62
515.29	423.62
515.506	1332.62
515.721	494.62
515.937	129.62
516.153	100.62
516.369	95.62
516.585	95.62
516.801	92.62
