Data from Uncirc_1995_H10_HRD10591_00023.txt Node
Date: Wed Jan 03 11:35:38 EST 2024
User: Yrep
Spectrometer: HR+D1059
Trigger mode: 1
Integration Time (sec): 1.000000E-1
Scans to average: 1
Electric dark correction enabled: true
Nonlinearity correction enabled: false
Boxcar width: 0
XAxis mode: Wavelengths
Number of Pixels in Spectrum: 2048
>>>>>Begin Spectral Data<<<<<
223.165	-11.31
223.4	-11.31
223.635	-11.31
223.869	-15.31
224.104	-9.31
224.338	-19.31
224.573	-4.31
224.808	-26.31
225.042	-12.31
225.277	-11.31
225.511	7.69
225.746	8.69
225.98	10.69
226.215	17.69
226.449	7.69
226.683	14.69
226.918	11.69
227.152	30.69
227.387	43.69
227.621	35.69
227.856	31.69
228.09	56.69
228.324	40.69
228.559	57.69
228.793	54.69
229.027	63.69
229.262	57.69
229.496	52.69
229.73	77.69
229.964	74.69
230.199	60.69
230.433	78.69
230.667	72.69
230.901	74.69
231.136	74.69
231.37	66.69
231.604	82.69
231.838	81.69
232.072	75.69
232.306	80.69
232.541	82.69
232.775	77.69
233.009	79.69
233.243	87.69
233.477	93.69
233.711	79.69
233.945	83.69
234.179	80.69
234.413	79.69
234.647	87.69
234.881	101.69
235.115	79.69
235.349	80.69
235.583	75.69
235.817	90.69
236.051	79.69
236.285	88.69
236.519	79.69
236.753	65.69
236.987	64.69
237.221	82.69
237.455	86.69
237.689	81.69
237.922	83.69
238.156	95.69
238.39	71.69
238.624	81.69
238.858	64.69
239.091	69.69
239.325	70.69
239.559	89.69
239.793	87.69
240.027	71.69
240.26	69.69
240.494	77.69
240.728	58.69
240.961	67.69
241.195	73.69
241.429	65.69
241.662	82.69
241.896	90.69
242.13	66.69
242.363	78.69
242.597	76.69
242.83	79.69
243.064	72.69
243.298	88.69
243.531	78.69
243.765	91.69
243.998	88.69
244.232	85.69
244.465	86.69
244.699	90.69
244.932	78.69
245.166	73.69
245.399	74.69
245.633	79.69
245.866	88.69
246.099	70.69
246.333	64.69
246.566	74.69
246.8	72.69
247.033	75.69
247.266	79.69
247.5	87.69
247.733	87.69
247.966	67.69
248.2	83.69
248.433	79.69
248.666	77.69
248.899	79.69
249.133	86.69
249.366	106.69
249.599	89.69
249.832	58.69
250.066	80.69
250.299	80.69
250.532	87.69
250.765	81.69
250.998	81.69
251.231	74.69
251.465	83.69
251.698	72.69
251.931	76.69
252.164	72.69
252.397	91.69
252.63	83.69
252.863	85.69
253.096	70.69
253.329	77.69
253.562	77.69
253.795	64.69
254.028	62.69
254.261	82.69
254.494	79.69
254.727	64.69
254.96	77.69
255.193	87.69
255.426	84.69
255.659	65.69
255.892	81.69
256.124	93.69
256.357	98.69
256.59	86.69
256.823	80.69
257.056	81.69
257.289	76.69
257.521	74.69
257.754	90.69
257.987	75.69
258.22	82.69
258.452	74.69
258.685	89.69
258.918	73.69
259.151	78.69
259.383	81.69
259.616	78.69
259.849	76.69
260.081	91.69
260.314	81.69
260.547	83.69
260.779	83.69
261.012	89.69
261.244	92.69
261.477	85.69
261.71	88.69
261.942	103.69
262.175	100.69
262.407	86.69
262.64	83.69
262.872	73.69
263.105	75.69
263.337	83.69
263.57	86.69
263.802	65.69
264.035	81.69
264.267	93.69
264.499	80.69
264.732	82.69
264.964	82.69
265.197	77.69
265.429	79.69
265.661	89.69
265.894	84.69
266.126	76.69
266.358	84.69
266.591	83.69
266.823	99.69
267.055	73.69
267.287	84.69
267.52	74.69
267.752	86.69
267.984	84.69
268.216	80.69
268.448	89.69
268.681	92.69
268.913	76.69
269.145	79.69
269.377	84.69
269.609	72.69
269.841	90.69
270.073	86.69
270.306	87.69
270.538	80.69
270.77	77.69
271.002	89.69
271.234	83.69
271.466	92.69
271.698	88.69
271.93	88.69
272.162	82.69
272.394	93.69
272.626	89.69
272.858	83.69
273.09	83.69
273.322	98.69
273.553	66.69
273.785	76.69
274.017	81.69
274.249	88.69
274.481	80.69
274.713	77.69
274.945	80.69
275.176	96.69
275.408	90.69
275.64	78.69
275.872	80.69
276.104	95.69
276.335	84.69
276.567	101.69
276.799	104.69
277.031	86.69
277.262	87.69
277.494	91.69
277.726	79.69
277.957	80.69
278.189	84.69
278.421	83.69
278.652	75.69
278.884	80.69
279.115	72.69
279.347	86.69
279.579	79.69
279.81	98.69
280.042	86.69
280.273	84.69
280.505	89.69
280.736	81.69
280.968	93.69
281.199	89.69
281.431	79.69
281.662	102.69
281.894	88.69
282.125	100.69
282.356	110.69
282.588	129.69
282.819	116.69
283.051	91.69
283.282	81.69
283.513	83.69
283.745	91.69
283.976	85.69
284.207	79.69
284.439	85.69
284.67	93.69
284.901	85.69
285.132	80.69
285.364	86.69
285.595	81.69
285.826	73.69
286.057	91.69
286.288	93.69
286.52	97.69
286.751	98.69
286.982	72.69
287.213	87.69
287.444	72.69
287.675	86.69
287.906	91.69
288.138	76.69
288.369	73.69
288.6	97.69
288.831	90.69
289.062	84.69
289.293	83.69
289.524	78.69
289.755	96.69
289.986	79.69
290.217	84.69
290.448	83.69
290.679	85.69
290.91	84.69
291.141	84.69
291.371	86.69
291.602	90.69
291.833	72.69
292.064	90.69
292.295	83.69
292.526	99.69
292.757	87.69
292.987	87.69
293.218	85.69
293.449	90.69
293.68	95.69
293.91	81.69
294.141	94.69
294.372	77.69
294.603	89.69
294.833	90.69
295.064	95.69
295.295	86.69
295.525	95.69
295.756	90.69
295.987	99.69
296.217	131.69
296.448	125.69
296.679	91.69
296.909	89.69
297.14	79.69
297.37	85.69
297.601	82.69
297.831	107.69
298.062	78.69
298.292	86.69
298.523	95.69
298.753	82.69
298.984	96.69
299.214	92.69
299.445	97.69
299.675	100.69
299.905	92.69
300.136	99.69
300.366	94.69
300.597	98.69
300.827	88.69
301.057	92.69
301.288	88.69
301.518	94.69
301.748	96.69
301.979	100.69
302.209	83.69
302.439	91.69
302.669	79.69
302.9	89.69
303.13	95.69
303.36	87.69
303.59	89.69
303.82	98.69
304.051	100.69
304.281	75.69
304.511	95.69
304.741	86.69
304.971	99.69
305.201	79.69
305.431	90.69
305.661	84.69
305.891	72.69
306.121	91.69
306.352	81.69
306.582	100.69
306.812	103.69
307.042	86.69
307.272	97.69
307.502	95.69
307.731	90.69
307.961	96.69
308.191	84.69
308.421	92.69
308.651	97.69
308.881	99.69
309.111	94.69
309.341	103.69
309.571	100.69
309.8	96.69
310.03	102.69
310.26	99.69
310.49	106.69
310.72	88.69
310.949	97.69
311.179	88.69
311.409	90.69
311.639	103.69
311.868	94.69
312.098	95.69
312.328	100.69
312.557	96.69
312.787	89.69
313.017	99.69
313.246	93.69
313.476	91.69
313.706	99.69
313.935	102.69
314.165	101.69
314.394	101.69
314.624	87.69
314.853	99.69
315.083	104.69
315.312	82.69
315.542	84.69
315.771	83.69
316.001	76.69
316.23	89.69
316.46	82.69
316.689	88.69
316.919	98.69
317.148	88.69
317.377	107.69
317.607	84.69
317.836	98.69
318.065	91.69
318.295	90.69
318.524	84.69
318.753	83.69
318.983	104.69
319.212	81.69
319.441	106.69
319.67	82.69
319.9	93.69
320.129	90.69
320.358	98.69
320.587	81.69
320.816	107.69
321.046	88.69
321.275	91.69
321.504	87.69
321.733	82.69
321.962	93.69
322.191	97.69
322.42	108.69
322.649	108.69
322.878	105.69
323.108	124.69
323.337	122.69
323.566	136.69
323.795	137.69
324.024	195.69
324.253	367.69
324.482	776.69
324.71	1564.69
324.939	2049.69
325.168	726.69
325.397	224.69
325.626	144.69
325.855	136.69
326.084	142.69
326.313	118.69
326.542	156.69
326.77	229.69
326.999	430.69
327.228	879.69
327.457	1591.69
327.686	1251.69
327.914	353.69
328.143	193.69
328.372	140.69
328.6	117.69
328.829	110.69
329.058	111.69
329.287	109.69
329.515	99.69
329.744	104.69
329.972	97.69
330.201	98.69
330.43	100.69
330.658	120.69
330.887	110.69
331.115	113.69
331.344	91.69
331.572	89.69
331.801	106.69
332.03	98.69
332.258	83.69
332.486	97.69
332.715	94.69
332.943	97.69
333.172	115.69
333.4	91.69
333.629	86.69
333.857	113.69
334.085	96.69
334.314	94.69
334.542	96.69
334.771	102.69
334.999	103.69
335.227	91.69
335.455	92.69
335.684	88.69
335.912	93.69
336.14	91.69
336.369	88.69
336.597	100.69
336.825	97.69
337.053	102.69
337.281	91.69
337.51	95.69
337.738	87.69
337.966	80.69
338.194	100.69
338.422	99.69
338.65	88.69
338.878	95.69
339.106	90.69
339.334	95.69
339.562	82.69
339.79	101.69
340.018	80.69
340.246	78.69
340.474	88.69
340.702	87.69
340.93	99.69
341.158	93.69
341.386	99.69
341.614	96.69
341.842	92.69
342.07	83.69
342.298	80.69
342.526	80.69
342.754	96.69
342.981	95.69
343.209	78.69
343.437	97.69
343.665	83.69
343.893	74.69
344.12	101.69
344.348	87.69
344.576	91.69
344.804	87.69
345.031	108.69
345.259	101.69
345.487	79.69
345.714	97.69
345.942	81.69
346.17	92.69
346.397	92.69
346.625	105.69
346.853	100.69
347.08	84.69
347.308	96.69
347.535	78.69
347.763	98.69
347.99	96.69
348.218	103.69
348.445	93.69
348.673	95.69
348.9	96.69
349.128	87.69
349.355	92.69
349.583	89.69
349.81	90.69
350.037	111.69
350.265	98.69
350.492	88.69
350.72	82.69
350.947	104.69
351.174	94.69
351.402	100.69
351.629	106.69
351.856	106.69
352.083	92.69
352.311	110.69
352.538	109.69
352.765	113.69
352.992	102.69
353.22	111.69
353.447	110.69
353.674	97.69
353.901	108.69
354.128	94.69
354.355	89.69
354.583	86.69
354.81	95.69
355.037	87.69
355.264	89.69
355.491	86.69
355.718	96.69
355.945	99.69
356.172	87.69
356.399	88.69
356.626	98.69
356.853	96.69
357.08	98.69
357.307	87.69
357.534	81.69
357.761	98.69
357.988	104.69
358.215	91.69
358.441	95.69
358.668	91.69
358.895	90.69
359.122	87.69
359.349	81.69
359.576	84.69
359.802	108.69
360.029	105.69
360.256	110.69
360.483	108.69
360.709	91.69
360.936	88.69
361.163	90.69
361.39	101.69
361.616	87.69
361.843	90.69
362.07	89.69
362.296	88.69
362.523	91.69
362.749	99.69
362.976	92.69
363.203	97.69
363.429	84.69
363.656	87.69
363.882	93.69
364.109	88.69
364.335	86.69
364.562	94.69
364.788	109.69
365.015	99.69
365.241	101.69
365.468	94.69
365.694	113.69
365.92	90.69
366.147	86.69
366.373	93.69
366.599	91.69
366.826	82.69
367.052	92.69
367.278	89.69
367.505	87.69
367.731	75.69
367.957	70.69
368.184	90.69
368.41	102.69
368.636	109.69
368.862	117.69
369.089	101.69
369.315	89.69
369.541	83.69
369.767	82.69
369.993	93.69
370.219	87.69
370.445	102.69
370.672	68.69
370.898	91.69
371.124	93.69
371.35	88.69
371.576	80.69
371.802	80.69
372.028	90.69
372.254	84.69
372.48	91.69
372.706	103.69
372.932	92.69
373.158	79.69
373.384	85.69
373.61	98.69
373.835	91.69
374.061	96.69
374.287	92.69
374.513	88.69
374.739	91.69
374.965	75.69
375.191	91.69
375.416	88.69
375.642	87.69
375.868	94.69
376.094	98.69
376.319	82.69
376.545	94.69
376.771	103.69
376.997	90.69
377.222	90.69
377.448	87.69
377.674	86.69
377.899	93.69
378.125	96.69
378.35	92.69
378.576	86.69
378.802	96.69
379.027	90.69
379.253	107.69
379.478	99.69
379.704	91.69
379.929	101.69
380.155	83.69
380.38	99.69
380.606	100.69
380.831	94.69
381.057	94.69
381.282	99.69
381.507	93.69
381.733	107.69
381.958	84.69
382.184	88.69
382.409	99.69
382.634	102.69
382.86	94.69
383.085	93.69
383.31	96.69
383.535	113.69
383.761	86.69
383.986	100.69
384.211	90.69
384.436	100.69
384.662	83.69
384.887	104.69
385.112	100.69
385.337	95.69
385.562	117.69
385.787	97.69
386.013	102.69
386.238	115.69
386.463	106.69
386.688	95.69
386.913	113.69
387.138	112.69
387.363	104.69
387.588	110.69
387.813	86.69
388.038	117.69
388.263	115.69
388.488	117.69
388.713	91.69
388.938	92.69
389.163	97.69
389.387	101.69
389.612	90.69
389.837	99.69
390.062	90.69
390.287	80.69
390.512	98.69
390.736	86.69
390.961	103.69
391.186	103.69
391.411	104.69
391.636	112.69
391.86	99.69
392.085	95.69
392.31	84.69
392.534	85.69
392.759	84.69
392.984	70.69
393.208	89.69
393.433	96.69
393.658	92.69
393.882	97.69
394.107	88.69
394.331	91.69
394.556	101.69
394.78	96.69
395.005	101.69
395.229	88.69
395.454	89.69
395.678	86.69
395.903	90.69
396.127	95.69
396.352	94.69
396.576	85.69
396.801	80.69
397.025	70.69
397.249	88.69
397.474	105.69
397.698	90.69
397.922	83.69
398.147	93.69
398.371	89.69
398.595	95.69
398.82	91.69
399.044	83.69
399.268	77.69
399.492	91.69
399.717	93.69
399.941	94.69
400.165	86.69
400.389	89.69
400.613	78.69
400.837	92.69
401.062	80.69
401.286	92.69
401.51	97.69
401.734	79.69
401.958	102.69
402.182	111.69
402.406	127.69
402.63	106.69
402.854	102.69
403.078	98.69
403.302	90.69
403.526	99.69
403.75	88.69
403.974	95.69
404.198	90.69
404.422	78.69
404.645	81.69
404.869	95.69
405.093	83.69
405.317	79.69
405.541	98.69
405.765	97.69
405.988	107.69
406.212	158.69
406.436	203.69
406.66	138.69
406.883	94.69
407.107	86.69
407.331	93.69
407.555	103.69
407.778	94.69
408.002	87.69
408.226	91.69
408.449	84.69
408.673	91.69
408.896	86.69
409.12	99.69
409.344	87.69
409.567	82.69
409.791	99.69
410.014	83.69
410.238	81.69
410.461	106.69
410.685	73.69
410.908	94.69
411.132	101.69
411.355	106.69
411.578	99.69
411.802	100.69
412.025	98.69
412.249	87.69
412.472	85.69
412.695	89.69
412.919	93.69
413.142	87.69
413.365	99.69
413.589	88.69
413.812	74.69
414.035	87.69
414.258	86.69
414.482	100.69
414.705	88.69
414.928	73.69
415.151	79.69
415.374	99.69
415.597	86.69
415.821	85.69
416.044	79.69
416.267	98.69
416.49	78.69
416.713	80.69
416.936	87.69
417.159	91.69
417.382	93.69
417.605	85.69
417.828	102.69
418.051	88.69
418.274	87.69
418.497	95.69
418.72	74.69
418.943	86.69
419.166	81.69
419.389	86.69
419.611	105.69
419.834	99.69
420.057	90.69
420.28	71.69
420.503	94.69
420.726	88.69
420.948	93.69
421.171	86.69
421.394	92.69
421.617	94.69
421.839	104.69
422.062	94.69
422.285	85.69
422.507	102.69
422.73	109.69
422.953	91.69
423.175	88.69
423.398	91.69
423.621	93.69
423.843	80.69
424.066	86.69
424.288	95.69
424.511	92.69
424.733	83.69
424.956	100.69
425.178	102.69
425.401	86.69
425.623	81.69
425.846	93.69
426.068	80.69
426.291	91.69
426.513	109.69
426.735	83.69
426.958	83.69
427.18	98.69
427.402	120.69
427.625	137.69
427.847	109.69
428.069	102.69
428.292	93.69
428.514	76.69
428.736	88.69
428.958	86.69
429.181	87.69
429.403	97.69
429.625	90.69
429.847	93.69
430.069	96.69
430.292	83.69
430.514	82.69
430.736	97.69
430.958	93.69
431.18	92.69
431.402	96.69
431.624	86.69
431.846	77.69
432.068	89.69
432.29	95.69
432.512	91.69
432.734	84.69
432.956	100.69
433.178	88.69
433.4	92.69
433.622	75.69
433.844	101.69
434.066	91.69
434.287	80.69
434.509	97.69
434.731	104.69
434.953	79.69
435.175	86.69
435.397	92.69
435.618	96.69
435.84	101.69
436.062	134.69
436.284	118.69
436.505	81.69
436.727	96.69
436.949	84.69
437.17	84.69
437.392	97.69
437.614	74.69
437.835	96.69
438.057	103.69
438.278	104.69
438.5	100.69
438.721	107.69
438.943	105.69
439.165	91.69
439.386	93.69
439.608	102.69
439.829	91.69
440.05	92.69
440.272	110.69
440.493	102.69
440.715	92.69
440.936	95.69
441.158	91.69
441.379	100.69
441.6	88.69
441.822	86.69
442.043	89.69
442.264	100.69
442.486	99.69
442.707	91.69
442.928	113.69
443.149	110.69
443.371	112.69
443.592	106.69
443.813	90.69
444.034	93.69
444.255	107.69
444.476	85.69
444.698	85.69
444.919	72.69
445.14	137.69
445.361	109.69
445.582	116.69
445.803	110.69
446.024	132.69
446.245	129.69
446.466	106.69
446.687	105.69
446.908	91.69
447.129	95.69
447.35	93.69
447.571	95.69
447.792	86.69
448.013	96.69
448.234	99.69
448.455	105.69
448.675	94.69
448.896	125.69
449.117	98.69
449.338	101.69
449.559	112.69
449.779	131.69
450	92.69
450.221	76.69
450.442	82.69
450.662	85.69
450.883	102.69
451.104	106.69
451.324	80.69
451.545	90.69
451.766	86.69
451.986	84.69
452.207	94.69
452.428	100.69
452.648	98.69
452.869	107.69
453.089	120.69
453.31	121.69
453.53	97.69
453.751	71.69
453.971	99.69
454.192	109.69
454.412	90.69
454.633	88.69
454.853	95.69
455.073	71.69
455.294	78.69
455.514	79.69
455.734	74.69
455.955	88.69
456.175	83.69
456.395	83.69
456.616	71.69
456.836	82.69
457.056	99.69
457.276	79.69
457.497	85.69
457.717	95.69
457.937	87.69
458.157	80.69
458.377	101.69
458.598	99.69
458.818	126.69
459.038	137.69
459.258	104.69
459.478	78.69
459.698	100.69
459.918	98.69
460.138	87.69
460.358	91.69
460.578	76.69
460.798	82.69
461.018	79.69
461.238	97.69
461.458	91.69
461.678	89.69
461.898	81.69
462.118	88.69
462.338	94.69
462.558	86.69
462.777	88.69
462.997	95.69
463.217	86.69
463.437	89.69
463.657	88.69
463.876	84.69
464.096	97.69
464.316	94.69
464.536	97.69
464.755	96.69
464.975	99.69
465.195	143.69
465.414	143.69
465.634	97.69
465.854	88.69
466.073	96.69
466.293	101.69
466.512	90.69
466.732	94.69
466.951	81.69
467.171	80.69
467.391	87.69
467.61	99.69
467.829	76.69
468.049	90.69
468.268	84.69
468.488	83.69
468.707	72.69
468.927	87.69
469.146	87.69
469.365	88.69
469.585	75.69
469.804	95.69
470.023	91.69
470.243	106.69
470.462	91.69
470.681	103.69
470.901	82.69
471.12	88.69
471.339	75.69
471.558	103.69
471.777	87.69
471.997	83.69
472.216	89.69
472.435	99.69
472.654	79.69
472.873	90.69
473.092	90.69
473.311	88.69
473.53	81.69
473.749	87.69
473.968	92.69
474.187	94.69
474.406	100.69
474.625	96.69
474.844	87.69
475.063	79.69
475.282	86.69
475.501	82.69
475.72	86.69
475.939	81.69
476.158	80.69
476.377	91.69
476.596	87.69
476.814	96.69
477.033	75.69
477.252	88.69
477.471	85.69
477.69	83.69
477.908	81.69
478.127	82.69
478.346	108.69
478.564	88.69
478.783	111.69
479.002	95.69
479.22	86.69
479.439	93.69
479.658	106.69
479.876	99.69
480.095	78.69
480.313	96.69
480.532	84.69
480.751	99.69
480.969	94.69
481.188	101.69
481.406	96.69
481.624	98.69
481.843	79.69
482.061	91.69
482.28	84.69
482.498	82.69
482.717	72.69
482.935	99.69
483.153	84.69
483.372	82.69
483.59	92.69
483.808	81.69
484.027	97.69
484.245	94.69
484.463	96.69
484.681	90.69
484.9	92.69
485.118	100.69
485.336	94.69
485.554	96.69
485.772	92.69
485.99	107.69
486.209	115.69
486.427	97.69
486.645	115.69
486.863	124.69
487.081	98.69
487.299	97.69
487.517	88.69
487.735	95.69
487.953	81.69
488.171	94.69
488.389	87.69
488.607	80.69
488.825	93.69
489.043	92.69
489.261	96.69
489.479	92.69
489.696	90.69
489.914	70.69
490.132	97.69
490.35	98.69
490.568	96.69
490.786	91.69
491.003	86.69
491.221	90.69
491.439	91.69
491.657	103.69
491.874	89.69
492.092	84.69
492.31	98.69
492.527	89.69
492.745	91.69
492.963	99.69
493.18	99.69
493.398	80.69
493.615	91.69
493.833	106.69
494.05	87.69
494.268	96.69
494.485	95.69
494.703	88.69
494.92	86.69
495.138	87.69
495.355	98.69
495.573	81.69
495.79	89.69
496.008	81.69
496.225	92.69
496.442	92.69
496.66	103.69
496.877	92.69
497.094	92.69
497.312	79.69
497.529	99.69
497.746	106.69
497.963	121.69
498.181	88.69
498.398	96.69
498.615	99.69
498.832	93.69
499.049	98.69
499.267	87.69
499.484	100.69
499.701	97.69
499.918	92.69
500.135	94.69
500.352	97.69
500.569	82.69
500.786	96.69
501.003	101.69
501.22	82.69
501.437	103.69
501.654	96.69
501.871	92.69
502.088	90.69
502.305	92.69
502.522	98.69
502.739	79.69
502.956	95.69
503.172	87.69
503.389	92.69
503.606	92.69
503.823	88.69
504.04	95.69
504.256	104.69
504.473	85.69
504.69	102.69
504.907	90.69
505.123	86.69
505.34	95.69
505.557	92.69
505.773	86.69
505.99	83.69
506.207	93.69
506.423	102.69
506.64	99.69
506.856	92.69
507.073	95.69
507.289	98.69
507.506	96.69
507.722	100.69
507.939	114.69
508.155	107.69
508.372	82.69
508.588	94.69
508.805	100.69
509.021	92.69
509.238	110.69
509.454	97.69
509.67	105.69
509.887	106.69
510.103	125.69
510.319	193.69
510.536	676.69
510.752	2159.69
510.968	605.69
511.184	150.69
511.401	100.69
511.617	99.69
511.833	90.69
512.049	96.69
512.265	85.69
512.481	96.69
512.698	94.69
512.914	77.69
513.13	101.69
513.346	89.69
513.562	100.69
513.778	90.69
513.994	87.69
514.21	104.69
514.426	103.69
514.642	127.69
514.858	112.69
515.074	158.69
515.29	381.69
515.506	1228.69
515.721	468.69
515.937	122.69
516.153	104.69
