Data from Uncirc_1995_H10_HRD10591_00016.txt Node
Date: Wed Jan 03 11:35:37 EST 2024
User: Yrep
Spectrometer: HR+D1059
Trigger mode: 1
Integration Time (sec): 1.000000E-1
Scans to average: 1
Electric dark correction enabled: true
Nonlinearity correction enabled: false
Boxcar width: 0
XAxis mode: Wavelengths
Number of Pixels in Spectrum: 2048
>>>>>Begin Spectral Data<<<<<
223.165	-11.62
223.4	-11.62
223.635	-11.62
223.869	-20.62
224.104	-15.62
224.338	-14.62
224.573	-18.62
224.808	-8.62
225.042	-11.62
225.277	-2.62
225.511	-3.62
225.746	-1.62
225.98	19.38
226.215	1.38
226.449	25.38
226.683	19.38
226.918	21.38
227.152	22.38
227.387	29.38
227.621	41.38
227.856	47.38
228.09	40.38
228.324	54.38
228.559	49.38
228.793	69.38
229.027	55.38
229.262	79.38
229.496	84.38
229.73	82.38
229.964	75.38
230.199	65.38
230.433	82.38
230.667	95.38
230.901	81.38
231.136	71.38
231.37	69.38
231.604	64.38
231.838	77.38
232.072	82.38
232.306	80.38
232.541	79.38
232.775	83.38
233.009	74.38
233.243	94.38
233.477	94.38
233.711	86.38
233.945	82.38
234.179	95.38
234.413	89.38
234.647	72.38
234.881	77.38
235.115	63.38
235.349	75.38
235.583	68.38
235.817	74.38
236.051	89.38
236.285	85.38
236.519	79.38
236.753	75.38
236.987	74.38
237.221	73.38
237.455	72.38
237.689	80.38
237.922	70.38
238.156	89.38
238.39	76.38
238.624	85.38
238.858	85.38
239.091	78.38
239.325	80.38
239.559	71.38
239.793	73.38
240.027	68.38
240.26	79.38
240.494	80.38
240.728	77.38
240.961	58.38
241.195	71.38
241.429	83.38
241.662	82.38
241.896	84.38
242.13	86.38
242.363	82.38
242.597	83.38
242.83	87.38
243.064	81.38
243.298	82.38
243.531	66.38
243.765	75.38
243.998	88.38
244.232	91.38
244.465	88.38
244.699	80.38
244.932	77.38
245.166	81.38
245.399	81.38
245.633	95.38
245.866	68.38
246.099	75.38
246.333	82.38
246.566	65.38
246.8	75.38
247.033	81.38
247.266	81.38
247.5	88.38
247.733	78.38
247.966	90.38
248.2	85.38
248.433	80.38
248.666	86.38
248.899	76.38
249.133	86.38
249.366	93.38
249.599	105.38
249.832	78.38
250.066	85.38
250.299	73.38
250.532	80.38
250.765	71.38
250.998	75.38
251.231	80.38
251.465	79.38
251.698	84.38
251.931	59.38
252.164	82.38
252.397	75.38
252.63	77.38
252.863	74.38
253.096	81.38
253.329	90.38
253.562	89.38
253.795	68.38
254.028	80.38
254.261	90.38
254.494	82.38
254.727	78.38
254.96	86.38
255.193	90.38
255.426	85.38
255.659	74.38
255.892	87.38
256.124	77.38
256.357	77.38
256.59	64.38
256.823	71.38
257.056	87.38
257.289	82.38
257.521	73.38
257.754	75.38
257.987	88.38
258.22	86.38
258.452	88.38
258.685	83.38
258.918	97.38
259.151	88.38
259.383	90.38
259.616	77.38
259.849	80.38
260.081	77.38
260.314	80.38
260.547	62.38
260.779	83.38
261.012	83.38
261.244	85.38
261.477	88.38
261.71	91.38
261.942	114.38
262.175	98.38
262.407	75.38
262.64	86.38
262.872	83.38
263.105	90.38
263.337	80.38
263.57	67.38
263.802	79.38
264.035	84.38
264.267	85.38
264.499	80.38
264.732	77.38
264.964	79.38
265.197	85.38
265.429	79.38
265.661	66.38
265.894	83.38
266.126	96.38
266.358	79.38
266.591	95.38
266.823	85.38
267.055	83.38
267.287	96.38
267.52	74.38
267.752	79.38
267.984	61.38
268.216	87.38
268.448	87.38
268.681	79.38
268.913	86.38
269.145	71.38
269.377	83.38
269.609	75.38
269.841	90.38
270.073	86.38
270.306	80.38
270.538	87.38
270.77	96.38
271.002	81.38
271.234	91.38
271.466	85.38
271.698	80.38
271.93	88.38
272.162	85.38
272.394	93.38
272.626	98.38
272.858	96.38
273.09	105.38
273.322	84.38
273.553	90.38
273.785	92.38
274.017	84.38
274.249	80.38
274.481	74.38
274.713	82.38
274.945	83.38
275.176	94.38
275.408	98.38
275.64	91.38
275.872	100.38
276.104	103.38
276.335	101.38
276.567	107.38
276.799	95.38
277.031	99.38
277.262	85.38
277.494	87.38
277.726	90.38
277.957	87.38
278.189	104.38
278.421	75.38
278.652	79.38
278.884	99.38
279.115	83.38
279.347	83.38
279.579	91.38
279.81	97.38
280.042	88.38
280.273	93.38
280.505	96.38
280.736	83.38
280.968	87.38
281.199	78.38
281.431	91.38
281.662	87.38
281.894	92.38
282.125	73.38
282.356	110.38
282.588	129.38
282.819	105.38
283.051	98.38
283.282	100.38
283.513	69.38
283.745	87.38
283.976	80.38
284.207	83.38
284.439	74.38
284.67	82.38
284.901	93.38
285.132	79.38
285.364	78.38
285.595	88.38
285.826	67.38
286.057	77.38
286.288	89.38
286.52	83.38
286.751	81.38
286.982	78.38
287.213	87.38
287.444	99.38
287.675	95.38
287.906	81.38
288.138	96.38
288.369	92.38
288.6	79.38
288.831	83.38
289.062	93.38
289.293	90.38
289.524	97.38
289.755	88.38
289.986	78.38
290.217	74.38
290.448	96.38
290.679	94.38
290.91	83.38
291.141	81.38
291.371	99.38
291.602	90.38
291.833	92.38
292.064	82.38
292.295	88.38
292.526	90.38
292.757	92.38
292.987	89.38
293.218	85.38
293.449	89.38
293.68	95.38
293.91	95.38
294.141	81.38
294.372	98.38
294.603	87.38
294.833	95.38
295.064	91.38
295.295	80.38
295.525	89.38
295.756	94.38
295.987	105.38
296.217	110.38
296.448	110.38
296.679	86.38
296.909	76.38
297.14	90.38
297.37	87.38
297.601	79.38
297.831	84.38
298.062	92.38
298.292	83.38
298.523	74.38
298.753	83.38
298.984	110.38
299.214	92.38
299.445	95.38
299.675	82.38
299.905	100.38
300.136	93.38
300.366	79.38
300.597	77.38
300.827	92.38
301.057	92.38
301.288	101.38
301.518	104.38
301.748	80.38
301.979	91.38
302.209	88.38
302.439	95.38
302.669	98.38
302.9	97.38
303.13	98.38
303.36	112.38
303.59	105.38
303.82	97.38
304.051	79.38
304.281	88.38
304.511	80.38
304.741	87.38
304.971	79.38
305.201	90.38
305.431	100.38
305.661	79.38
305.891	86.38
306.121	92.38
306.352	97.38
306.582	89.38
306.812	80.38
307.042	86.38
307.272	100.38
307.502	91.38
307.731	94.38
307.961	98.38
308.191	106.38
308.421	98.38
308.651	85.38
308.881	87.38
309.111	96.38
309.341	94.38
309.571	105.38
309.8	94.38
310.03	92.38
310.26	94.38
310.49	80.38
310.72	96.38
310.949	102.38
311.179	91.38
311.409	90.38
311.639	82.38
311.868	109.38
312.098	90.38
312.328	91.38
312.557	95.38
312.787	91.38
313.017	97.38
313.246	97.38
313.476	99.38
313.706	100.38
313.935	105.38
314.165	99.38
314.394	100.38
314.624	92.38
314.853	96.38
315.083	91.38
315.312	102.38
315.542	98.38
315.771	83.38
316.001	94.38
316.23	96.38
316.46	88.38
316.689	89.38
316.919	94.38
317.148	89.38
317.377	93.38
317.607	102.38
317.836	79.38
318.065	84.38
318.295	104.38
318.524	95.38
318.753	93.38
318.983	91.38
319.212	91.38
319.441	106.38
319.67	105.38
319.9	82.38
320.129	104.38
320.358	83.38
320.587	99.38
320.816	97.38
321.046	106.38
321.275	92.38
321.504	104.38
321.733	103.38
321.962	94.38
322.191	93.38
322.42	88.38
322.649	105.38
322.878	112.38
323.108	116.38
323.337	113.38
323.566	128.38
323.795	147.38
324.024	201.38
324.253	361.38
324.482	785.38
324.71	1531.38
324.939	2086.38
325.168	762.38
325.397	227.38
325.626	146.38
325.855	107.38
326.084	131.38
326.313	120.38
326.542	157.38
326.77	225.38
326.999	438.38
327.228	884.38
327.457	1602.38
327.686	1270.38
327.914	356.38
328.143	167.38
328.372	138.38
328.6	112.38
328.829	109.38
329.058	118.38
329.287	125.38
329.515	116.38
329.744	91.38
329.972	110.38
330.201	110.38
330.43	100.38
330.658	118.38
330.887	115.38
331.115	109.38
331.344	99.38
331.572	105.38
331.801	85.38
332.03	105.38
332.258	96.38
332.486	73.38
332.715	97.38
332.943	97.38
333.172	107.38
333.4	88.38
333.629	97.38
333.857	89.38
334.085	101.38
334.314	101.38
334.542	99.38
334.771	94.38
334.999	88.38
335.227	95.38
335.455	103.38
335.684	89.38
335.912	101.38
336.14	98.38
336.369	97.38
336.597	106.38
336.825	99.38
337.053	85.38
337.281	83.38
337.51	79.38
337.738	90.38
337.966	100.38
338.194	99.38
338.422	98.38
338.65	87.38
338.878	104.38
339.106	83.38
339.334	92.38
339.562	91.38
339.79	89.38
340.018	94.38
340.246	87.38
340.474	95.38
340.702	82.38
340.93	89.38
341.158	87.38
341.386	103.38
341.614	98.38
341.842	92.38
342.07	94.38
342.298	91.38
342.526	94.38
342.754	87.38
342.981	84.38
343.209	85.38
343.437	98.38
343.665	89.38
343.893	96.38
344.12	86.38
344.348	95.38
344.576	92.38
344.804	97.38
345.031	92.38
345.259	97.38
345.487	100.38
345.714	91.38
345.942	91.38
346.17	85.38
346.397	94.38
346.625	80.38
346.853	88.38
347.08	88.38
347.308	83.38
347.535	98.38
347.763	85.38
347.99	96.38
348.218	92.38
348.445	106.38
348.673	89.38
348.9	91.38
349.128	91.38
349.355	98.38
349.583	99.38
349.81	87.38
350.037	111.38
350.265	98.38
350.492	85.38
350.72	102.38
350.947	91.38
351.174	110.38
351.402	109.38
351.629	93.38
351.856	94.38
352.083	111.38
352.311	98.38
352.538	111.38
352.765	102.38
352.992	120.38
353.22	111.38
353.447	103.38
353.674	102.38
353.901	97.38
354.128	106.38
354.355	84.38
354.583	107.38
354.81	97.38
355.037	111.38
355.264	101.38
355.491	100.38
355.718	108.38
355.945	108.38
356.172	87.38
356.399	98.38
356.626	90.38
356.853	94.38
357.08	98.38
357.307	90.38
357.534	83.38
357.761	89.38
357.988	110.38
358.215	89.38
358.441	83.38
358.668	85.38
358.895	83.38
359.122	96.38
359.349	104.38
359.576	97.38
359.802	77.38
360.029	106.38
360.256	111.38
360.483	82.38
360.709	94.38
360.936	87.38
361.163	92.38
361.39	88.38
361.616	81.38
361.843	89.38
362.07	98.38
362.296	96.38
362.523	92.38
362.749	92.38
362.976	84.38
363.203	83.38
363.429	87.38
363.656	99.38
363.882	86.38
364.109	89.38
364.335	82.38
364.562	100.38
364.788	91.38
365.015	88.38
365.241	91.38
365.468	100.38
365.694	107.38
365.92	98.38
366.147	90.38
366.373	96.38
366.599	87.38
366.826	98.38
367.052	88.38
367.278	103.38
367.505	89.38
367.731	93.38
367.957	89.38
368.184	87.38
368.41	100.38
368.636	102.38
368.862	111.38
369.089	96.38
369.315	103.38
369.541	89.38
369.767	92.38
369.993	105.38
370.219	93.38
370.445	81.38
370.672	96.38
370.898	96.38
371.124	101.38
371.35	82.38
371.576	100.38
371.802	89.38
372.028	88.38
372.254	76.38
372.48	79.38
372.706	97.38
372.932	81.38
373.158	91.38
373.384	98.38
373.61	99.38
373.835	102.38
374.061	87.38
374.287	99.38
374.513	99.38
374.739	88.38
374.965	89.38
375.191	88.38
375.416	87.38
375.642	102.38
375.868	105.38
376.094	87.38
376.319	93.38
376.545	94.38
376.771	95.38
376.997	98.38
377.222	86.38
377.448	91.38
377.674	104.38
377.899	96.38
378.125	90.38
378.35	96.38
378.576	92.38
378.802	99.38
379.027	91.38
379.253	110.38
379.478	81.38
379.704	99.38
379.929	91.38
380.155	87.38
380.38	88.38
380.606	106.38
380.831	98.38
381.057	109.38
381.282	95.38
381.507	91.38
381.733	96.38
381.958	100.38
382.184	97.38
382.409	90.38
382.634	102.38
382.86	107.38
383.085	97.38
383.31	124.38
383.535	95.38
383.761	97.38
383.986	87.38
384.211	99.38
384.436	102.38
384.662	98.38
384.887	107.38
385.112	101.38
385.337	107.38
385.562	105.38
385.787	103.38
386.013	108.38
386.238	125.38
386.463	100.38
386.688	110.38
386.913	101.38
387.138	117.38
387.363	109.38
387.588	105.38
387.813	114.38
388.038	98.38
388.263	114.38
388.488	107.38
388.713	81.38
388.938	83.38
389.163	93.38
389.387	93.38
389.612	93.38
389.837	81.38
390.062	89.38
390.287	97.38
390.512	87.38
390.736	95.38
390.961	97.38
391.186	97.38
391.411	97.38
391.636	91.38
391.86	73.38
392.085	85.38
392.31	84.38
392.534	92.38
392.759	75.38
392.984	78.38
393.208	81.38
393.433	105.38
393.658	99.38
393.882	98.38
394.107	83.38
394.331	88.38
394.556	85.38
394.78	85.38
395.005	96.38
395.229	87.38
395.454	83.38
395.678	92.38
395.903	93.38
396.127	83.38
396.352	101.38
396.576	88.38
396.801	100.38
397.025	91.38
397.249	92.38
397.474	78.38
397.698	89.38
397.922	83.38
398.147	95.38
398.371	92.38
398.595	89.38
398.82	93.38
399.044	85.38
399.268	84.38
399.492	98.38
399.717	86.38
399.941	83.38
400.165	100.38
400.389	79.38
400.613	90.38
400.837	93.38
401.062	85.38
401.286	65.38
401.51	95.38
401.734	98.38
401.958	103.38
402.182	125.38
402.406	126.38
402.63	108.38
402.854	103.38
403.078	101.38
403.302	94.38
403.526	88.38
403.75	77.38
403.974	87.38
404.198	97.38
404.422	95.38
404.645	91.38
404.869	91.38
405.093	99.38
405.317	113.38
405.541	113.38
405.765	89.38
405.988	114.38
406.212	161.38
406.436	203.38
406.66	128.38
406.883	88.38
407.107	94.38
407.331	104.38
407.555	83.38
407.778	101.38
408.002	94.38
408.226	85.38
408.449	95.38
408.673	99.38
408.896	114.38
409.12	95.38
409.344	90.38
409.567	97.38
409.791	107.38
410.014	99.38
410.238	95.38
410.461	81.38
410.685	88.38
410.908	97.38
411.132	113.38
411.355	101.38
411.578	93.38
411.802	84.38
412.025	93.38
412.249	96.38
412.472	92.38
412.695	90.38
412.919	88.38
413.142	88.38
413.365	93.38
413.589	86.38
413.812	95.38
414.035	84.38
414.258	99.38
414.482	88.38
414.705	87.38
414.928	81.38
415.151	79.38
415.374	92.38
415.597	94.38
415.821	87.38
416.044	95.38
416.267	91.38
416.49	88.38
416.713	83.38
416.936	81.38
417.159	103.38
417.382	84.38
417.605	87.38
417.828	89.38
418.051	88.38
418.274	93.38
418.497	80.38
418.72	91.38
418.943	93.38
419.166	88.38
419.389	90.38
419.611	96.38
419.834	99.38
420.057	99.38
420.28	89.38
420.503	104.38
420.726	95.38
420.948	95.38
421.171	95.38
421.394	83.38
421.617	88.38
421.839	88.38
422.062	110.38
422.285	88.38
422.507	123.38
422.73	106.38
422.953	89.38
423.175	93.38
423.398	93.38
423.621	86.38
423.843	80.38
424.066	87.38
424.288	91.38
424.511	87.38
424.733	101.38
424.956	89.38
425.178	85.38
425.401	87.38
425.623	101.38
425.846	92.38
426.068	98.38
426.291	77.38
426.513	91.38
426.735	85.38
426.958	98.38
427.18	93.38
427.402	128.38
427.625	152.38
427.847	119.38
428.069	87.38
428.292	102.38
428.514	84.38
428.736	84.38
428.958	93.38
429.181	92.38
429.403	88.38
429.625	99.38
429.847	89.38
430.069	96.38
430.292	88.38
430.514	79.38
430.736	92.38
430.958	80.38
431.18	78.38
431.402	73.38
431.624	90.38
431.846	87.38
432.068	87.38
432.29	79.38
432.512	105.38
432.734	77.38
432.956	82.38
433.178	91.38
433.4	96.38
433.622	88.38
433.844	83.38
434.066	87.38
434.287	82.38
434.509	98.38
434.731	93.38
434.953	87.38
435.175	92.38
435.397	88.38
435.618	93.38
435.84	94.38
436.062	116.38
436.284	107.38
436.505	113.38
436.727	91.38
436.949	83.38
437.17	86.38
437.392	81.38
437.614	91.38
437.835	98.38
438.057	112.38
438.278	109.38
438.5	100.38
438.721	121.38
438.943	106.38
439.165	82.38
439.386	80.38
439.608	101.38
439.829	98.38
440.05	120.38
440.272	136.38
440.493	94.38
440.715	71.38
440.936	82.38
441.158	91.38
441.379	98.38
441.6	101.38
441.822	94.38
442.043	85.38
442.264	102.38
442.486	103.38
442.707	88.38
442.928	96.38
443.149	119.38
443.371	128.38
443.592	104.38
443.813	111.38
444.034	97.38
444.255	98.38
444.476	82.38
444.698	86.38
444.919	83.38
445.14	137.38
445.361	120.38
445.582	113.38
445.803	124.38
446.024	144.38
446.245	126.38
446.466	104.38
446.687	92.38
446.908	101.38
447.129	93.38
447.35	83.38
447.571	79.38
447.792	86.38
448.013	97.38
448.234	98.38
448.455	97.38
448.675	106.38
448.896	103.38
449.117	100.38
449.338	101.38
449.559	125.38
449.779	131.38
450	96.38
450.221	84.38
450.442	87.38
450.662	90.38
450.883	101.38
451.104	91.38
451.324	112.38
451.545	97.38
451.766	88.38
451.986	79.38
452.207	91.38
452.428	94.38
452.648	79.38
452.869	99.38
453.089	104.38
453.31	103.38
453.53	85.38
453.751	84.38
453.971	108.38
454.192	103.38
454.412	87.38
454.633	80.38
454.853	75.38
455.073	95.38
455.294	95.38
455.514	87.38
455.734	64.38
455.955	89.38
456.175	90.38
456.395	87.38
456.616	94.38
456.836	88.38
457.056	82.38
457.276	97.38
457.497	95.38
457.717	93.38
457.937	94.38
458.157	77.38
458.377	89.38
458.598	109.38
458.818	139.38
459.038	136.38
459.258	111.38
459.478	118.38
459.698	98.38
459.918	89.38
460.138	77.38
460.358	78.38
460.578	81.38
460.798	92.38
461.018	85.38
461.238	95.38
461.458	75.38
461.678	85.38
461.898	79.38
462.118	87.38
462.338	82.38
462.558	87.38
462.777	89.38
462.997	82.38
463.217	79.38
463.437	79.38
463.657	81.38
463.876	96.38
464.096	91.38
464.316	83.38
464.536	90.38
464.755	94.38
464.975	92.38
465.195	160.38
465.414	151.38
465.634	93.38
465.854	105.38
466.073	95.38
466.293	98.38
466.512	78.38
466.732	95.38
466.951	90.38
467.171	99.38
467.391	88.38
467.61	101.38
467.829	89.38
468.049	79.38
468.268	90.38
468.488	80.38
468.707	92.38
468.927	89.38
469.146	91.38
469.365	83.38
469.585	92.38
469.804	97.38
470.023	97.38
470.243	90.38
470.462	94.38
470.681	110.38
470.901	104.38
471.12	73.38
471.339	89.38
471.558	89.38
471.777	77.38
471.997	100.38
472.216	85.38
472.435	92.38
472.654	79.38
472.873	80.38
473.092	87.38
473.311	95.38
473.53	87.38
473.749	89.38
473.968	89.38
474.187	103.38
474.406	90.38
474.625	92.38
474.844	85.38
475.063	79.38
475.282	87.38
475.501	97.38
475.72	101.38
475.939	84.38
476.158	79.38
476.377	97.38
476.596	93.38
476.814	82.38
477.033	83.38
477.252	89.38
477.471	87.38
477.69	97.38
477.908	75.38
478.127	97.38
478.346	90.38
478.564	88.38
478.783	100.38
479.002	104.38
479.22	102.38
479.439	89.38
479.658	110.38
479.876	97.38
480.095	87.38
480.313	99.38
480.532	108.38
480.751	81.38
480.969	91.38
481.188	79.38
481.406	100.38
481.624	92.38
481.843	100.38
482.061	81.38
482.28	79.38
482.498	96.38
482.717	101.38
482.935	85.38
483.153	91.38
483.372	81.38
483.59	83.38
483.808	94.38
484.027	89.38
484.245	107.38
484.463	96.38
484.681	105.38
484.9	99.38
485.118	101.38
485.336	94.38
485.554	92.38
485.772	96.38
485.99	109.38
486.209	97.38
486.427	107.38
486.645	103.38
486.863	125.38
487.081	112.38
487.299	106.38
487.517	112.38
487.735	100.38
487.953	103.38
488.171	93.38
488.389	87.38
488.607	99.38
488.825	71.38
489.043	93.38
489.261	91.38
489.479	92.38
489.696	109.38
489.914	95.38
490.132	89.38
490.35	94.38
490.568	87.38
490.786	94.38
491.003	79.38
491.221	88.38
491.439	95.38
491.657	104.38
491.874	101.38
492.092	92.38
492.31	94.38
492.527	99.38
492.745	92.38
492.963	92.38
493.18	96.38
493.398	103.38
493.615	113.38
493.833	100.38
494.05	83.38
494.268	83.38
494.485	83.38
494.703	95.38
494.92	100.38
495.138	91.38
495.355	108.38
495.573	95.38
495.79	103.38
496.008	95.38
496.225	79.38
496.442	91.38
496.66	105.38
496.877	89.38
497.094	102.38
497.312	85.38
497.529	106.38
497.746	91.38
497.963	91.38
498.181	92.38
498.398	101.38
498.615	103.38
498.832	95.38
499.049	90.38
499.267	87.38
499.484	99.38
499.701	97.38
499.918	98.38
500.135	89.38
500.352	87.38
500.569	96.38
500.786	84.38
501.003	77.38
501.22	91.38
501.437	97.38
501.654	93.38
501.871	118.38
502.088	93.38
502.305	100.38
502.522	89.38
502.739	95.38
502.956	78.38
503.172	93.38
503.389	100.38
503.606	93.38
503.823	105.38
504.04	93.38
504.256	92.38
504.473	102.38
504.69	96.38
504.907	106.38
505.123	83.38
505.34	91.38
505.557	94.38
505.773	68.38
505.99	100.38
506.207	99.38
506.423	90.38
506.64	99.38
506.856	86.38
507.073	83.38
507.289	90.38
507.506	97.38
507.722	116.38
507.939	111.38
508.155	96.38
508.372	89.38
508.588	96.38
508.805	87.38
509.021	107.38
509.238	97.38
509.454	103.38
509.67	103.38
509.887	116.38
510.103	135.38
510.319	205.38
510.536	667.38
510.752	2003.38
510.968	587.38
511.184	140.38
511.401	116.38
511.617	93.38
511.833	100.38
512.049	98.38
512.265	92.38
512.481	95.38
512.698	91.38
512.914	91.38
513.13	90.38
513.346	92.38
513.562	92.38
513.778	93.38
513.994	107.38
514.21	116.38
514.426	114.38
514.642	138.38
514.858	107.38
515.074	143.38
515.29	368.38
515.506	1180.38
515.721	448.38
