Data from Penny_1_HRD10591_00009.txt Node
Date: Wed Nov 05 15:33:23 EST 2025
User: Yrep
Spectrometer: HR+D1059
Trigger mode: 1
Integration Time (sec): 1.000000E-1
Scans to average: 1
Electric dark correction enabled: true
Nonlinearity correction enabled: false
Boxcar width: 0
XAxis mode: Wavelengths
Number of Pixels in Spectrum: 2048
>>>>>Begin Spectral Data<<<<<
223.165	-13.56
223.4	-13.56
223.635	-13.56
223.869	-10.56
224.104	-26.56
224.338	-4.56
224.573	-21.56
224.808	-6.56
225.042	-12.56
225.277	-1.56
225.511	0.44
225.746	10.44
225.98	8.44
226.215	-1.56
226.449	5.44
226.683	10.44
226.918	19.44
227.152	44.44
227.387	39.44
227.621	48.44
227.856	41.44
228.09	45.44
228.324	54.44
228.559	51.44
228.793	57.44
229.027	65.44
229.262	65.44
229.496	64.44
229.73	80.44
229.964	61.44
230.199	71.44
230.433	67.44
230.667	78.44
230.901	78.44
231.136	71.44
231.37	79.44
231.604	79.44
231.838	78.44
232.072	89.44
232.306	85.44
232.541	64.44
232.775	78.44
233.009	69.44
233.243	75.44
233.477	65.44
233.711	80.44
233.945	87.44
234.179	79.44
234.413	78.44
234.647	93.44
234.881	79.44
235.115	85.44
235.349	68.44
235.583	59.44
235.817	75.44
236.051	68.44
236.285	87.44
236.519	65.44
236.753	66.44
236.987	86.44
237.221	74.44
237.455	100.44
237.689	70.44
237.922	77.44
238.156	77.44
238.39	65.44
238.624	76.44
238.858	75.44
239.091	75.44
239.325	80.44
239.559	80.44
239.793	64.44
240.027	82.44
240.26	79.44
240.494	59.44
240.728	79.44
240.961	75.44
241.195	89.44
241.429	68.44
241.662	87.44
241.896	67.44
242.13	82.44
242.363	66.44
242.597	79.44
242.83	78.44
243.064	78.44
243.298	80.44
243.531	73.44
243.765	76.44
243.998	72.44
244.232	97.44
244.465	85.44
244.699	73.44
244.932	71.44
245.166	86.44
245.399	78.44
245.633	84.44
245.866	76.44
246.099	77.44
246.333	83.44
246.566	75.44
246.8	93.44
247.033	87.44
247.266	86.44
247.5	76.44
247.733	81.44
247.966	77.44
248.2	75.44
248.433	81.44
248.666	89.44
248.899	79.44
249.133	92.44
249.366	83.44
249.599	90.44
249.832	84.44
250.066	78.44
250.299	93.44
250.532	72.44
250.765	81.44
250.998	70.44
251.231	73.44
251.465	83.44
251.698	89.44
251.931	81.44
252.164	83.44
252.397	69.44
252.63	87.44
252.863	74.44
253.096	80.44
253.329	78.44
253.562	91.44
253.795	79.44
254.028	73.44
254.261	83.44
254.494	99.44
254.727	81.44
254.96	77.44
255.193	74.44
255.426	83.44
255.659	71.44
255.892	78.44
256.124	65.44
256.357	86.44
256.59	89.44
256.823	81.44
257.056	92.44
257.289	77.44
257.521	79.44
257.754	90.44
257.987	56.44
258.22	76.44
258.452	72.44
258.685	78.44
258.918	66.44
259.151	76.44
259.383	82.44
259.616	88.44
259.849	77.44
260.081	80.44
260.314	74.44
260.547	65.44
260.779	83.44
261.012	91.44
261.244	68.44
261.477	86.44
261.71	92.44
261.942	85.44
262.175	85.44
262.407	81.44
262.64	84.44
262.872	76.44
263.105	74.44
263.337	76.44
263.57	73.44
263.802	82.44
264.035	83.44
264.267	86.44
264.499	69.44
264.732	77.44
264.964	80.44
265.197	79.44
265.429	84.44
265.661	86.44
265.894	75.44
266.126	79.44
266.358	76.44
266.591	75.44
266.823	71.44
267.055	70.44
267.287	82.44
267.52	77.44
267.752	78.44
267.984	79.44
268.216	84.44
268.448	79.44
268.681	81.44
268.913	85.44
269.145	88.44
269.377	89.44
269.609	81.44
269.841	94.44
270.073	88.44
270.306	86.44
270.538	79.44
270.77	82.44
271.002	97.44
271.234	82.44
271.466	89.44
271.698	89.44
271.93	78.44
272.162	90.44
272.394	89.44
272.626	72.44
272.858	80.44
273.09	86.44
273.322	77.44
273.553	85.44
273.785	87.44
274.017	73.44
274.249	83.44
274.481	76.44
274.713	92.44
274.945	75.44
275.176	89.44
275.408	73.44
275.64	89.44
275.872	86.44
276.104	93.44
276.335	86.44
276.567	90.44
276.799	97.44
277.031	85.44
277.262	81.44
277.494	94.44
277.726	83.44
277.957	78.44
278.189	81.44
278.421	73.44
278.652	79.44
278.884	77.44
279.115	82.44
279.347	94.44
279.579	73.44
279.81	73.44
280.042	86.44
280.273	95.44
280.505	79.44
280.736	90.44
280.968	92.44
281.199	79.44
281.431	90.44
281.662	76.44
281.894	81.44
282.125	85.44
282.356	80.44
282.588	84.44
282.819	90.44
283.051	91.44
283.282	82.44
283.513	89.44
283.745	71.44
283.976	94.44
284.207	77.44
284.439	93.44
284.67	90.44
284.901	101.44
285.132	77.44
285.364	87.44
285.595	86.44
285.826	91.44
286.057	83.44
286.288	87.44
286.52	85.44
286.751	90.44
286.982	79.44
287.213	101.44
287.444	93.44
287.675	90.44
287.906	67.44
288.138	82.44
288.369	90.44
288.6	72.44
288.831	85.44
289.062	91.44
289.293	76.44
289.524	90.44
289.755	76.44
289.986	72.44
290.217	81.44
290.448	67.44
290.679	91.44
290.91	83.44
291.141	86.44
291.371	85.44
291.602	78.44
291.833	90.44
292.064	106.44
292.295	97.44
292.526	89.44
292.757	85.44
292.987	86.44
293.218	89.44
293.449	80.44
293.68	83.44
293.91	84.44
294.141	82.44
294.372	86.44
294.603	72.44
294.833	79.44
295.064	95.44
295.295	85.44
295.525	85.44
295.756	77.44
295.987	83.44
296.217	77.44
296.448	84.44
296.679	74.44
296.909	89.44
297.14	85.44
297.37	102.44
297.601	78.44
297.831	77.44
298.062	71.44
298.292	76.44
298.523	83.44
298.753	97.44
298.984	87.44
299.214	82.44
299.445	82.44
299.675	78.44
299.905	94.44
300.136	84.44
300.366	78.44
300.597	89.44
300.827	85.44
301.057	85.44
301.288	91.44
301.518	97.44
301.748	76.44
301.979	82.44
302.209	67.44
302.439	76.44
302.669	94.44
302.9	91.44
303.13	103.44
303.36	69.44
303.59	85.44
303.82	78.44
304.051	87.44
304.281	87.44
304.511	77.44
304.741	75.44
304.971	75.44
305.201	85.44
305.431	89.44
305.661	86.44
305.891	81.44
306.121	83.44
306.352	91.44
306.582	94.44
306.812	80.44
307.042	78.44
307.272	87.44
307.502	76.44
307.731	91.44
307.961	88.44
308.191	80.44
308.421	89.44
308.651	76.44
308.881	77.44
309.111	73.44
309.341	99.44
309.571	86.44
309.8	74.44
310.03	83.44
310.26	90.44
310.49	86.44
310.72	93.44
310.949	89.44
311.179	74.44
311.409	85.44
311.639	105.44
311.868	95.44
312.098	82.44
312.328	91.44
312.557	91.44
312.787	79.44
313.017	91.44
313.246	88.44
313.476	86.44
313.706	74.44
313.935	76.44
314.165	86.44
314.394	85.44
314.624	84.44
314.853	90.44
315.083	95.44
315.312	83.44
315.542	85.44
315.771	86.44
316.001	92.44
316.23	89.44
316.46	99.44
316.689	83.44
316.919	85.44
317.148	84.44
317.377	87.44
317.607	88.44
317.836	78.44
318.065	77.44
318.295	85.44
318.524	92.44
318.753	86.44
318.983	91.44
319.212	85.44
319.441	87.44
319.67	84.44
319.9	95.44
320.129	97.44
320.358	69.44
320.587	83.44
320.816	79.44
321.046	85.44
321.275	85.44
321.504	84.44
321.733	76.44
321.962	95.44
322.191	91.44
322.42	66.44
322.649	80.44
322.878	89.44
323.108	95.44
323.337	96.44
323.566	83.44
323.795	83.44
324.024	86.44
324.253	116.44
324.482	138.44
324.71	162.44
324.939	158.44
325.168	103.44
325.397	87.44
325.626	94.44
325.855	75.44
326.084	98.44
326.313	85.44
326.542	98.44
326.77	105.44
326.999	109.44
327.228	119.44
327.457	144.44
327.686	131.44
327.914	101.44
328.143	110.44
328.372	102.44
328.6	100.44
328.829	90.44
329.058	85.44
329.287	78.44
329.515	101.44
329.744	83.44
329.972	115.44
330.201	117.44
330.43	121.44
330.658	94.44
330.887	92.44
331.115	95.44
331.344	85.44
331.572	83.44
331.801	91.44
332.03	84.44
332.258	69.44
332.486	77.44
332.715	95.44
332.943	93.44
333.172	101.44
333.4	80.44
333.629	86.44
333.857	89.44
334.085	108.44
334.314	128.44
334.542	151.44
334.771	119.44
334.999	91.44
335.227	84.44
335.455	85.44
335.684	91.44
335.912	83.44
336.14	85.44
336.369	94.44
336.597	87.44
336.825	89.44
337.053	89.44
337.281	86.44
337.51	79.44
337.738	81.44
337.966	83.44
338.194	82.44
338.422	69.44
338.65	83.44
338.878	87.44
339.106	82.44
339.334	80.44
339.562	77.44
339.79	87.44
340.018	75.44
340.246	84.44
340.474	93.44
340.702	84.44
340.93	91.44
341.158	75.44
341.386	80.44
341.614	87.44
341.842	85.44
342.07	83.44
342.298	88.44
342.526	91.44
342.754	79.44
342.981	78.44
343.209	85.44
343.437	109.44
343.665	91.44
343.893	103.44
344.12	81.44
344.348	88.44
344.576	93.44
344.804	75.44
345.031	81.44
345.259	79.44
345.487	86.44
345.714	71.44
345.942	76.44
346.17	87.44
346.397	94.44
346.625	89.44
346.853	87.44
347.08	85.44
347.308	100.44
347.535	82.44
347.763	78.44
347.99	91.44
348.218	87.44
348.445	97.44
348.673	92.44
348.9	91.44
349.128	99.44
349.355	90.44
349.583	85.44
349.81	86.44
350.037	94.44
350.265	89.44
350.492	74.44
350.72	83.44
350.947	102.44
351.174	94.44
351.402	91.44
351.629	88.44
351.856	82.44
352.083	89.44
352.311	77.44
352.538	70.44
352.765	74.44
352.992	93.44
353.22	90.44
353.447	83.44
353.674	83.44
353.901	108.44
354.128	70.44
354.355	84.44
354.583	87.44
354.81	89.44
355.037	80.44
355.264	97.44
355.491	76.44
355.718	78.44
355.945	79.44
356.172	67.44
356.399	66.44
356.626	75.44
356.853	65.44
357.08	100.44
357.307	90.44
357.534	92.44
357.761	85.44
357.988	82.44
358.215	85.44
358.441	86.44
358.668	98.44
358.895	89.44
359.122	80.44
359.349	74.44
359.576	89.44
359.802	77.44
360.029	87.44
360.256	73.44
360.483	73.44
360.709	84.44
360.936	85.44
361.163	74.44
361.39	87.44
361.616	76.44
361.843	83.44
362.07	87.44
362.296	89.44
362.523	101.44
362.749	95.44
362.976	95.44
363.203	78.44
363.429	91.44
363.656	79.44
363.882	90.44
364.109	86.44
364.335	94.44
364.562	85.44
364.788	83.44
365.015	95.44
365.241	85.44
365.468	87.44
365.694	77.44
365.92	79.44
366.147	82.44
366.373	87.44
366.599	78.44
366.826	91.44
367.052	68.44
367.278	101.44
367.505	89.44
367.731	102.44
367.957	77.44
368.184	85.44
368.41	94.44
368.636	79.44
368.862	96.44
369.089	95.44
369.315	89.44
369.541	92.44
369.767	80.44
369.993	83.44
370.219	81.44
370.445	83.44
370.672	86.44
370.898	71.44
371.124	73.44
371.35	89.44
371.576	93.44
371.802	93.44
372.028	80.44
372.254	86.44
372.48	87.44
372.706	76.44
372.932	86.44
373.158	78.44
373.384	94.44
373.61	91.44
373.835	95.44
374.061	85.44
374.287	69.44
374.513	83.44
374.739	94.44
374.965	85.44
375.191	85.44
375.416	85.44
375.642	70.44
375.868	78.44
376.094	88.44
376.319	79.44
376.545	73.44
376.771	69.44
376.997	89.44
377.222	75.44
377.448	91.44
377.674	79.44
377.899	83.44
378.125	83.44
378.35	90.44
378.576	77.44
378.802	77.44
379.027	80.44
379.253	79.44
379.478	83.44
379.704	89.44
379.929	91.44
380.155	78.44
380.38	98.44
380.606	80.44
380.831	89.44
381.057	98.44
381.282	83.44
381.507	77.44
381.733	91.44
381.958	83.44
382.184	93.44
382.409	85.44
382.634	87.44
382.86	79.44
383.085	88.44
383.31	81.44
383.535	74.44
383.761	78.44
383.986	84.44
384.211	81.44
384.436	67.44
384.662	85.44
384.887	83.44
385.112	76.44
385.337	75.44
385.562	81.44
385.787	91.44
386.013	78.44
386.238	91.44
386.463	93.44
386.688	100.44
386.913	83.44
387.138	75.44
387.363	82.44
387.588	74.44
387.813	77.44
388.038	79.44
388.263	91.44
388.488	84.44
388.713	73.44
388.938	85.44
389.163	73.44
389.387	72.44
389.612	92.44
389.837	89.44
390.062	61.44
390.287	85.44
390.512	89.44
390.736	84.44
390.961	87.44
391.186	92.44
391.411	81.44
391.636	84.44
391.86	77.44
392.085	83.44
392.31	77.44
392.534	85.44
392.759	89.44
392.984	86.44
393.208	79.44
393.433	75.44
393.658	80.44
393.882	88.44
394.107	70.44
394.331	92.44
394.556	89.44
394.78	87.44
395.005	94.44
395.229	93.44
395.454	89.44
395.678	73.44
395.903	86.44
396.127	90.44
396.352	91.44
396.576	94.44
396.801	89.44
397.025	76.44
397.249	86.44
397.474	81.44
397.698	96.44
397.922	93.44
398.147	83.44
398.371	77.44
398.595	77.44
398.82	92.44
399.044	87.44
399.268	78.44
399.492	83.44
399.717	85.44
399.941	81.44
400.165	99.44
400.389	84.44
400.613	83.44
400.837	70.44
401.062	74.44
401.286	73.44
401.51	76.44
401.734	89.44
401.958	78.44
402.182	80.44
402.406	71.44
402.63	85.44
402.854	92.44
403.078	102.44
403.302	79.44
403.526	84.44
403.75	83.44
403.974	77.44
404.198	73.44
404.422	90.44
404.645	86.44
404.869	77.44
405.093	87.44
405.317	87.44
405.541	74.44
405.765	88.44
405.988	101.44
406.212	97.44
406.436	89.44
406.66	102.44
406.883	93.44
407.107	79.44
407.331	94.44
407.555	89.44
407.778	94.44
408.002	83.44
408.226	83.44
408.449	90.44
408.673	77.44
408.896	74.44
409.12	90.44
409.344	90.44
409.567	93.44
409.791	85.44
410.014	95.44
410.238	94.44
410.461	80.44
410.685	95.44
410.908	78.44
411.132	82.44
411.355	74.44
411.578	66.44
411.802	71.44
412.025	69.44
412.249	88.44
412.472	72.44
412.695	88.44
412.919	86.44
413.142	83.44
413.365	83.44
413.589	85.44
413.812	87.44
414.035	94.44
414.258	79.44
414.482	110.44
414.705	79.44
414.928	80.44
415.151	81.44
415.374	71.44
415.597	97.44
415.821	87.44
416.044	85.44
416.267	88.44
416.49	86.44
416.713	93.44
416.936	87.44
417.159	77.44
417.382	75.44
417.605	87.44
417.828	75.44
418.051	75.44
418.274	87.44
418.497	80.44
418.72	87.44
418.943	87.44
419.166	94.44
419.389	93.44
419.611	83.44
419.834	75.44
420.057	77.44
420.28	79.44
420.503	74.44
420.726	79.44
420.948	85.44
421.171	69.44
421.394	77.44
421.617	82.44
421.839	85.44
422.062	87.44
422.285	81.44
422.507	89.44
422.73	97.44
422.953	83.44
423.175	84.44
423.398	75.44
423.621	75.44
423.843	90.44
424.066	85.44
424.288	72.44
424.511	85.44
424.733	72.44
424.956	84.44
425.178	89.44
425.401	77.44
425.623	72.44
425.846	81.44
426.068	80.44
426.291	83.44
426.513	77.44
426.735	90.44
426.958	97.44
427.18	93.44
427.402	87.44
427.625	87.44
427.847	84.44
428.069	91.44
428.292	90.44
428.514	79.44
428.736	80.44
428.958	73.44
429.181	83.44
429.403	87.44
429.625	100.44
429.847	73.44
430.069	90.44
430.292	90.44
430.514	82.44
430.736	85.44
430.958	83.44
431.18	81.44
431.402	89.44
431.624	83.44
431.846	91.44
432.068	94.44
432.29	90.44
432.512	89.44
432.734	93.44
432.956	63.44
433.178	91.44
433.4	87.44
433.622	90.44
433.844	77.44
434.066	80.44
434.287	71.44
434.509	80.44
434.731	75.44
434.953	80.44
435.175	95.44
435.397	93.44
435.618	94.44
435.84	91.44
436.062	82.44
436.284	95.44
436.505	90.44
436.727	82.44
436.949	67.44
437.17	87.44
437.392	76.44
437.614	89.44
437.835	93.44
438.057	80.44
438.278	90.44
438.5	85.44
438.721	89.44
438.943	78.44
439.165	76.44
439.386	79.44
439.608	88.44
439.829	93.44
440.05	89.44
440.272	99.44
440.493	88.44
440.715	65.44
440.936	70.44
441.158	85.44
441.379	65.44
441.6	98.44
441.822	86.44
442.043	90.44
442.264	93.44
442.486	91.44
442.707	82.44
442.928	96.44
443.149	98.44
443.371	85.44
443.592	93.44
443.813	73.44
444.034	82.44
444.255	78.44
444.476	83.44
444.698	73.44
444.919	76.44
445.14	164.44
445.361	129.44
445.582	89.44
445.803	98.44
446.024	72.44
446.245	89.44
446.466	82.44
446.687	87.44
446.908	91.44
447.129	90.44
447.35	85.44
447.571	82.44
447.792	81.44
448.013	74.44
448.234	85.44
448.455	85.44
448.675	86.44
448.896	76.44
449.117	88.44
449.338	89.44
449.559	89.44
449.779	88.44
450	91.44
450.221	90.44
450.442	93.44
450.662	83.44
450.883	80.44
451.104	82.44
451.324	87.44
451.545	79.44
451.766	73.44
451.986	77.44
452.207	81.44
452.428	76.44
452.648	89.44
452.869	97.44
453.089	84.44
453.31	77.44
453.53	77.44
453.751	92.44
453.971	70.44
454.192	96.44
454.412	86.44
454.633	90.44
454.853	88.44
455.073	69.44
455.294	85.44
455.514	93.44
455.734	73.44
455.955	81.44
456.175	98.44
456.395	80.44
456.616	82.44
456.836	90.44
457.056	79.44
457.276	85.44
457.497	71.44
457.717	91.44
457.937	87.44
458.157	69.44
458.377	76.44
458.598	89.44
458.818	98.44
459.038	97.44
459.258	75.44
459.478	74.44
459.698	77.44
459.918	72.44
460.138	87.44
460.358	85.44
460.578	85.44
460.798	86.44
461.018	91.44
461.238	79.44
461.458	81.44
461.678	77.44
461.898	78.44
462.118	90.44
462.338	72.44
462.558	82.44
462.777	82.44
462.997	87.44
463.217	86.44
463.437	87.44
463.657	67.44
463.876	83.44
464.096	82.44
464.316	83.44
464.536	84.44
464.755	80.44
464.975	100.44
465.195	100.44
465.414	94.44
465.634	82.44
465.854	86.44
466.073	97.44
466.293	77.44
466.512	86.44
466.732	82.44
466.951	94.44
467.171	96.44
467.391	90.44
467.61	93.44
467.829	99.44
468.049	105.44
468.268	121.44
468.488	91.44
468.707	82.44
468.927	86.44
469.146	88.44
469.365	86.44
469.585	87.44
469.804	87.44
470.023	88.44
470.243	75.44
470.462	76.44
470.681	85.44
470.901	92.44
471.12	82.44
471.339	95.44
471.558	85.44
471.777	90.44
471.997	101.44
472.216	127.44
472.435	156.44
472.654	85.44
472.873	96.44
473.092	87.44
473.311	83.44
473.53	52.44
473.749	67.44
473.968	91.44
474.187	83.44
474.406	87.44
474.625	83.44
474.844	75.44
475.063	80.44
475.282	94.44
475.501	73.44
475.72	93.44
475.939	92.44
476.158	84.44
476.377	87.44
476.596	77.44
476.814	97.44
477.033	86.44
477.252	92.44
477.471	88.44
477.69	82.44
477.908	91.44
478.127	89.44
478.346	86.44
478.564	86.44
478.783	84.44
479.002	82.44
479.22	71.44
479.439	95.44
479.658	86.44
479.876	83.44
480.095	79.44
480.313	94.44
480.532	78.44
480.751	95.44
480.969	145.44
481.188	243.44
481.406	153.44
481.624	91.44
481.843	88.44
482.061	91.44
482.28	92.44
482.498	75.44
482.717	85.44
482.935	84.44
483.153	77.44
483.372	89.44
483.59	91.44
483.808	88.44
484.027	82.44
484.245	87.44
484.463	92.44
484.681	81.44
484.9	83.44
485.118	85.44
485.336	98.44
485.554	90.44
485.772	79.44
485.99	94.44
486.209	74.44
486.427	99.44
486.645	88.44
486.863	93.44
487.081	94.44
487.299	87.44
487.517	93.44
487.735	81.44
487.953	86.44
488.171	78.44
488.389	93.44
488.607	72.44
488.825	85.44
489.043	74.44
489.261	86.44
489.479	92.44
489.696	83.44
489.914	93.44
490.132	85.44
490.35	95.44
490.568	97.44
490.786	83.44
491.003	81.44
491.221	89.44
491.439	63.44
491.657	85.44
491.874	82.44
492.092	90.44
492.31	94.44
492.527	74.44
492.745	83.44
492.963	86.44
493.18	95.44
493.398	84.44
493.615	86.44
493.833	95.44
494.05	79.44
494.268	79.44
494.485	84.44
494.703	87.44
494.92	97.44
495.138	85.44
495.355	100.44
495.573	90.44
495.79	74.44
496.008	91.44
496.225	87.44
496.442	92.44
496.66	98.44
496.877	84.44
497.094	97.44
497.312	79.44
497.529	77.44
497.746	93.44
497.963	92.44
498.181	91.44
498.398	74.44
498.615	93.44
498.832	104.44
499.049	96.44
499.267	76.44
499.484	86.44
499.701	64.44
499.918	87.44
500.135	79.44
500.352	88.44
500.569	85.44
500.786	73.44
501.003	91.44
501.22	86.44
501.437	92.44
501.654	84.44
501.871	80.44
502.088	74.44
502.305	87.44
502.522	95.44
502.739	75.44
502.956	87.44
503.172	67.44
503.389	84.44
503.606	82.44
503.823	83.44
504.04	81.44
504.256	86.44
504.473	83.44
504.69	91.44
504.907	92.44
505.123	90.44
505.34	93.44
505.557	97.44
505.773	83.44
505.99	73.44
506.207	93.44
506.423	87.44
506.64	97.44
506.856	89.44
507.073	92.44
507.289	97.44
507.506	86.44
507.722	85.44
507.939	91.44
508.155	95.44
508.372	76.44
508.588	79.44
508.805	83.44
509.021	85.44
509.238	79.44
509.454	83.44
509.67	79.44
509.887	81.44
510.103	76.44
510.319	105.44
510.536	139.44
510.752	199.44
510.968	113.44
511.184	87.44
511.401	94.44
511.617	79.44
511.833	84.44
512.049	90.44
512.265	105.44
512.481	95.44
512.698	93.44
512.914	95.44
513.13	92.44
513.346	103.44
513.562	82.44
513.778	93.44
513.994	83.44
514.21	66.44
514.426	90.44
514.642	91.44
514.858	90.44
515.074	105.44
515.29	147.44
515.506	223.44
515.721	131.44
515.937	109.44
516.153	79.44
516.369	78.44
516.585	81.44
516.801	89.44
517.016	79.44
517.232	73.44
517.448	85.44
517.664	77.44
517.879	88.44
518.095	81.44
518.311	79.44
518.527	89.44
518.742	87.44
518.958	84.44
519.173	71.44
519.389	86.44
