Data from Penny_1_HRD10591_00005.txt Node
Date: Wed Nov 05 15:33:21 EST 2025
User: Yrep
Spectrometer: HR+D1059
Trigger mode: 1
Integration Time (sec): 1.000000E-1
Scans to average: 1
Electric dark correction enabled: true
Nonlinearity correction enabled: false
Boxcar width: 0
XAxis mode: Wavelengths
Number of Pixels in Spectrum: 2048
>>>>>Begin Spectral Data<<<<<
223.165	-19.88
223.4	-19.88
223.635	-19.88
223.869	-12.88
224.104	-5.88
224.338	-16.88
224.573	-2.88
224.808	-18.88
225.042	0.12
225.277	-9.88
225.511	8.12
225.746	11.12
225.98	12.12
226.215	9.12
226.449	15.12
226.683	5.12
226.918	14.12
227.152	12.12
227.387	13.12
227.621	36.12
227.856	35.12
228.09	43.12
228.324	33.12
228.559	57.12
228.793	56.12
229.027	43.12
229.262	73.12
229.496	61.12
229.73	67.12
229.964	77.12
230.199	74.12
230.433	86.12
230.667	79.12
230.901	82.12
231.136	75.12
231.37	71.12
231.604	93.12
231.838	92.12
232.072	73.12
232.306	79.12
232.541	81.12
232.775	79.12
233.009	68.12
233.243	77.12
233.477	77.12
233.711	70.12
233.945	89.12
234.179	77.12
234.413	81.12
234.647	72.12
234.881	70.12
235.115	75.12
235.349	80.12
235.583	75.12
235.817	74.12
236.051	68.12
236.285	88.12
236.519	71.12
236.753	77.12
236.987	83.12
237.221	69.12
237.455	65.12
237.689	82.12
237.922	74.12
238.156	66.12
238.39	74.12
238.624	83.12
238.858	78.12
239.091	79.12
239.325	75.12
239.559	81.12
239.793	65.12
240.027	83.12
240.26	74.12
240.494	84.12
240.728	72.12
240.961	83.12
241.195	71.12
241.429	67.12
241.662	67.12
241.896	84.12
242.13	73.12
242.363	74.12
242.597	67.12
242.83	71.12
243.064	64.12
243.298	74.12
243.531	84.12
243.765	75.12
243.998	83.12
244.232	83.12
244.465	65.12
244.699	89.12
244.932	72.12
245.166	79.12
245.399	74.12
245.633	75.12
245.866	61.12
246.099	82.12
246.333	81.12
246.566	70.12
246.8	75.12
247.033	68.12
247.266	63.12
247.5	73.12
247.733	79.12
247.966	69.12
248.2	76.12
248.433	79.12
248.666	72.12
248.899	78.12
249.133	78.12
249.366	66.12
249.599	73.12
249.832	75.12
250.066	75.12
250.299	60.12
250.532	82.12
250.765	76.12
250.998	89.12
251.231	90.12
251.465	83.12
251.698	63.12
251.931	68.12
252.164	64.12
252.397	77.12
252.63	69.12
252.863	77.12
253.096	88.12
253.329	68.12
253.562	84.12
253.795	72.12
254.028	81.12
254.261	76.12
254.494	87.12
254.727	81.12
254.96	73.12
255.193	78.12
255.426	67.12
255.659	76.12
255.892	72.12
256.124	91.12
256.357	77.12
256.59	72.12
256.823	83.12
257.056	81.12
257.289	83.12
257.521	83.12
257.754	83.12
257.987	78.12
258.22	87.12
258.452	87.12
258.685	65.12
258.918	78.12
259.151	72.12
259.383	72.12
259.616	72.12
259.849	64.12
260.081	86.12
260.314	91.12
260.547	90.12
260.779	95.12
261.012	79.12
261.244	77.12
261.477	78.12
261.71	81.12
261.942	75.12
262.175	78.12
262.407	87.12
262.64	85.12
262.872	80.12
263.105	73.12
263.337	87.12
263.57	76.12
263.802	91.12
264.035	89.12
264.267	77.12
264.499	83.12
264.732	76.12
264.964	92.12
265.197	86.12
265.429	79.12
265.661	72.12
265.894	75.12
266.126	79.12
266.358	80.12
266.591	86.12
266.823	89.12
267.055	91.12
267.287	84.12
267.52	77.12
267.752	82.12
267.984	87.12
268.216	77.12
268.448	83.12
268.681	76.12
268.913	85.12
269.145	80.12
269.377	73.12
269.609	73.12
269.841	83.12
270.073	78.12
270.306	73.12
270.538	87.12
270.77	80.12
271.002	89.12
271.234	84.12
271.466	93.12
271.698	98.12
271.93	74.12
272.162	72.12
272.394	84.12
272.626	96.12
272.858	85.12
273.09	89.12
273.322	85.12
273.553	75.12
273.785	83.12
274.017	96.12
274.249	89.12
274.481	71.12
274.713	91.12
274.945	82.12
275.176	84.12
275.408	92.12
275.64	98.12
275.872	70.12
276.104	89.12
276.335	88.12
276.567	75.12
276.799	85.12
277.031	89.12
277.262	91.12
277.494	88.12
277.726	77.12
277.957	88.12
278.189	87.12
278.421	77.12
278.652	80.12
278.884	80.12
279.115	93.12
279.347	87.12
279.579	67.12
279.81	90.12
280.042	89.12
280.273	87.12
280.505	75.12
280.736	83.12
280.968	74.12
281.199	74.12
281.431	81.12
281.662	76.12
281.894	79.12
282.125	89.12
282.356	77.12
282.588	85.12
282.819	80.12
283.051	98.12
283.282	72.12
283.513	77.12
283.745	84.12
283.976	92.12
284.207	90.12
284.439	82.12
284.67	96.12
284.901	83.12
285.132	81.12
285.364	74.12
285.595	90.12
285.826	94.12
286.057	73.12
286.288	91.12
286.52	89.12
286.751	75.12
286.982	85.12
287.213	78.12
287.444	92.12
287.675	88.12
287.906	68.12
288.138	76.12
288.369	85.12
288.6	108.12
288.831	69.12
289.062	83.12
289.293	97.12
289.524	95.12
289.755	88.12
289.986	76.12
290.217	76.12
290.448	89.12
290.679	75.12
290.91	90.12
291.141	100.12
291.371	104.12
291.602	86.12
291.833	77.12
292.064	67.12
292.295	85.12
292.526	106.12
292.757	84.12
292.987	91.12
293.218	84.12
293.449	90.12
293.68	67.12
293.91	95.12
294.141	89.12
294.372	75.12
294.603	71.12
294.833	80.12
295.064	76.12
295.295	87.12
295.525	80.12
295.756	84.12
295.987	95.12
296.217	81.12
296.448	75.12
296.679	99.12
296.909	94.12
297.14	100.12
297.37	91.12
297.601	88.12
297.831	78.12
298.062	76.12
298.292	88.12
298.523	101.12
298.753	88.12
298.984	89.12
299.214	86.12
299.445	83.12
299.675	85.12
299.905	84.12
300.136	86.12
300.366	87.12
300.597	82.12
300.827	69.12
301.057	83.12
301.288	94.12
301.518	74.12
301.748	92.12
301.979	95.12
302.209	73.12
302.439	84.12
302.669	82.12
302.9	83.12
303.13	74.12
303.36	73.12
303.59	79.12
303.82	71.12
304.051	91.12
304.281	97.12
304.511	99.12
304.741	83.12
304.971	87.12
305.201	77.12
305.431	89.12
305.661	87.12
305.891	83.12
306.121	80.12
306.352	79.12
306.582	86.12
306.812	90.12
307.042	104.12
307.272	84.12
307.502	96.12
307.731	92.12
307.961	82.12
308.191	67.12
308.421	88.12
308.651	91.12
308.881	78.12
309.111	79.12
309.341	81.12
309.571	82.12
309.8	87.12
310.03	76.12
310.26	85.12
310.49	91.12
310.72	86.12
310.949	92.12
311.179	96.12
311.409	75.12
311.639	97.12
311.868	93.12
312.098	79.12
312.328	99.12
312.557	80.12
312.787	81.12
313.017	95.12
313.246	99.12
313.476	83.12
313.706	82.12
313.935	97.12
314.165	72.12
314.394	88.12
314.624	94.12
314.853	81.12
315.083	95.12
315.312	96.12
315.542	81.12
315.771	71.12
316.001	81.12
316.23	84.12
316.46	75.12
316.689	88.12
316.919	79.12
317.148	79.12
317.377	97.12
317.607	91.12
317.836	77.12
318.065	76.12
318.295	69.12
318.524	86.12
318.753	100.12
318.983	99.12
319.212	69.12
319.441	80.12
319.67	69.12
319.9	85.12
320.129	85.12
320.358	80.12
320.587	77.12
320.816	87.12
321.046	83.12
321.275	72.12
321.504	85.12
321.733	73.12
321.962	87.12
322.191	79.12
322.42	98.12
322.649	83.12
322.878	92.12
323.108	81.12
323.337	89.12
323.566	83.12
323.795	86.12
324.024	96.12
324.253	126.12
324.482	129.12
324.71	159.12
324.939	160.12
325.168	115.12
325.397	84.12
325.626	85.12
325.855	83.12
326.084	86.12
326.313	77.12
326.542	91.12
326.77	102.12
326.999	83.12
327.228	135.12
327.457	136.12
327.686	121.12
327.914	102.12
328.143	93.12
328.372	94.12
328.6	87.12
328.829	94.12
329.058	93.12
329.287	97.12
329.515	110.12
329.744	97.12
329.972	90.12
330.201	115.12
330.43	121.12
330.658	86.12
330.887	97.12
331.115	112.12
331.344	77.12
331.572	84.12
331.801	81.12
332.03	73.12
332.258	78.12
332.486	83.12
332.715	91.12
332.943	83.12
333.172	81.12
333.4	92.12
333.629	101.12
333.857	89.12
334.085	91.12
334.314	114.12
334.542	127.12
334.771	136.12
334.999	82.12
335.227	87.12
335.455	86.12
335.684	82.12
335.912	97.12
336.14	91.12
336.369	85.12
336.597	81.12
336.825	98.12
337.053	84.12
337.281	93.12
337.51	84.12
337.738	93.12
337.966	69.12
338.194	99.12
338.422	80.12
338.65	88.12
338.878	82.12
339.106	82.12
339.334	84.12
339.562	77.12
339.79	87.12
340.018	92.12
340.246	87.12
340.474	69.12
340.702	80.12
340.93	88.12
341.158	98.12
341.386	91.12
341.614	85.12
341.842	83.12
342.07	87.12
342.298	82.12
342.526	77.12
342.754	87.12
342.981	77.12
343.209	88.12
343.437	97.12
343.665	89.12
343.893	78.12
344.12	91.12
344.348	87.12
344.576	82.12
344.804	88.12
345.031	80.12
345.259	101.12
345.487	72.12
345.714	83.12
345.942	75.12
346.17	89.12
346.397	87.12
346.625	90.12
346.853	84.12
347.08	88.12
347.308	86.12
347.535	95.12
347.763	77.12
347.99	79.12
348.218	83.12
348.445	77.12
348.673	85.12
348.9	101.12
349.128	87.12
349.355	101.12
349.583	81.12
349.81	74.12
350.037	89.12
350.265	99.12
350.492	76.12
350.72	75.12
350.947	85.12
351.174	82.12
351.402	90.12
351.629	93.12
351.856	107.12
352.083	79.12
352.311	67.12
352.538	89.12
352.765	87.12
352.992	91.12
353.22	64.12
353.447	81.12
353.674	82.12
353.901	83.12
354.128	88.12
354.355	78.12
354.583	99.12
354.81	82.12
355.037	84.12
355.264	80.12
355.491	83.12
355.718	70.12
355.945	70.12
356.172	76.12
356.399	77.12
356.626	68.12
356.853	87.12
357.08	75.12
357.307	72.12
357.534	86.12
357.761	81.12
357.988	83.12
358.215	93.12
358.441	78.12
358.668	79.12
358.895	71.12
359.122	81.12
359.349	88.12
359.576	86.12
359.802	75.12
360.029	79.12
360.256	97.12
360.483	73.12
360.709	85.12
360.936	91.12
361.163	75.12
361.39	75.12
361.616	82.12
361.843	102.12
362.07	81.12
362.296	97.12
362.523	84.12
362.749	73.12
362.976	87.12
363.203	79.12
363.429	84.12
363.656	83.12
363.882	90.12
364.109	77.12
364.335	92.12
364.562	81.12
364.788	83.12
365.015	72.12
365.241	76.12
365.468	81.12
365.694	88.12
365.92	82.12
366.147	97.12
366.373	82.12
366.599	85.12
366.826	91.12
367.052	91.12
367.278	92.12
367.505	91.12
367.731	83.12
367.957	71.12
368.184	91.12
368.41	92.12
368.636	76.12
368.862	86.12
369.089	87.12
369.315	76.12
369.541	79.12
369.767	88.12
369.993	84.12
370.219	84.12
370.445	87.12
370.672	88.12
370.898	77.12
371.124	76.12
371.35	78.12
371.576	75.12
371.802	76.12
372.028	74.12
372.254	85.12
372.48	97.12
372.706	80.12
372.932	76.12
373.158	97.12
373.384	79.12
373.61	83.12
373.835	84.12
374.061	96.12
374.287	82.12
374.513	84.12
374.739	75.12
374.965	79.12
375.191	93.12
375.416	76.12
375.642	74.12
375.868	92.12
376.094	73.12
376.319	88.12
376.545	62.12
376.771	92.12
376.997	75.12
377.222	75.12
377.448	80.12
377.674	77.12
377.899	92.12
378.125	74.12
378.35	73.12
378.576	78.12
378.802	71.12
379.027	65.12
379.253	74.12
379.478	73.12
379.704	83.12
379.929	90.12
380.155	78.12
380.38	85.12
380.606	92.12
380.831	96.12
381.057	99.12
381.282	80.12
381.507	83.12
381.733	92.12
381.958	68.12
382.184	65.12
382.409	80.12
382.634	87.12
382.86	79.12
383.085	74.12
383.31	82.12
383.535	73.12
383.761	97.12
383.986	97.12
384.211	81.12
384.436	74.12
384.662	82.12
384.887	90.12
385.112	83.12
385.337	84.12
385.562	80.12
385.787	84.12
386.013	77.12
386.238	81.12
386.463	79.12
386.688	93.12
386.913	84.12
387.138	91.12
387.363	96.12
387.588	101.12
387.813	80.12
388.038	75.12
388.263	86.12
388.488	83.12
388.713	95.12
388.938	75.12
389.163	75.12
389.387	86.12
389.612	64.12
389.837	78.12
390.062	85.12
390.287	78.12
390.512	75.12
390.736	75.12
390.961	80.12
391.186	83.12
391.411	74.12
391.636	79.12
391.86	77.12
392.085	89.12
392.31	69.12
392.534	89.12
392.759	83.12
392.984	91.12
393.208	76.12
393.433	73.12
393.658	81.12
393.882	75.12
394.107	75.12
394.331	86.12
394.556	75.12
394.78	79.12
395.005	69.12
395.229	69.12
395.454	92.12
395.678	87.12
395.903	75.12
396.127	81.12
396.352	85.12
396.576	84.12
396.801	68.12
397.025	80.12
397.249	91.12
397.474	83.12
397.698	96.12
397.922	87.12
398.147	83.12
398.371	78.12
398.595	68.12
398.82	76.12
399.044	74.12
399.268	63.12
399.492	75.12
399.717	84.12
399.941	81.12
400.165	77.12
400.389	81.12
400.613	81.12
400.837	91.12
401.062	90.12
401.286	78.12
401.51	79.12
401.734	84.12
401.958	91.12
402.182	95.12
402.406	87.12
402.63	79.12
402.854	84.12
403.078	68.12
403.302	74.12
403.526	79.12
403.75	85.12
403.974	88.12
404.198	77.12
404.422	88.12
404.645	79.12
404.869	80.12
405.093	68.12
405.317	89.12
405.541	83.12
405.765	86.12
405.988	84.12
406.212	77.12
406.436	80.12
406.66	89.12
406.883	92.12
407.107	71.12
407.331	78.12
407.555	82.12
407.778	74.12
408.002	67.12
408.226	77.12
408.449	96.12
408.673	83.12
408.896	73.12
409.12	69.12
409.344	99.12
409.567	78.12
409.791	77.12
410.014	83.12
410.238	76.12
410.461	87.12
410.685	88.12
410.908	80.12
411.132	88.12
411.355	90.12
411.578	72.12
411.802	89.12
412.025	84.12
412.249	89.12
412.472	73.12
412.695	77.12
412.919	75.12
413.142	69.12
413.365	75.12
413.589	85.12
413.812	67.12
414.035	69.12
414.258	60.12
414.482	92.12
414.705	75.12
414.928	95.12
415.151	69.12
415.374	81.12
415.597	83.12
415.821	78.12
416.044	75.12
416.267	88.12
416.49	76.12
416.713	83.12
416.936	88.12
417.159	89.12
417.382	69.12
417.605	84.12
417.828	73.12
418.051	71.12
418.274	76.12
418.497	74.12
418.72	83.12
418.943	87.12
419.166	78.12
419.389	68.12
419.611	77.12
419.834	91.12
420.057	78.12
420.28	82.12
420.503	87.12
420.726	73.12
420.948	93.12
421.171	77.12
421.394	79.12
421.617	84.12
421.839	81.12
422.062	75.12
422.285	75.12
422.507	80.12
422.73	77.12
422.953	79.12
423.175	81.12
423.398	88.12
423.621	67.12
423.843	78.12
424.066	75.12
424.288	84.12
424.511	81.12
424.733	77.12
424.956	76.12
425.178	73.12
425.401	72.12
425.623	85.12
425.846	93.12
426.068	84.12
426.291	72.12
426.513	83.12
426.735	84.12
426.958	81.12
427.18	76.12
427.402	93.12
427.625	85.12
427.847	75.12
428.069	82.12
428.292	83.12
428.514	83.12
428.736	87.12
428.958	67.12
429.181	61.12
429.403	89.12
429.625	86.12
429.847	77.12
430.069	75.12
430.292	68.12
430.514	78.12
430.736	88.12
430.958	70.12
431.18	84.12
431.402	69.12
431.624	79.12
431.846	81.12
432.068	78.12
432.29	74.12
432.512	74.12
432.734	67.12
432.956	82.12
433.178	75.12
433.4	71.12
433.622	77.12
433.844	85.12
434.066	79.12
434.287	95.12
434.509	91.12
434.731	70.12
434.953	79.12
435.175	80.12
435.397	71.12
435.618	71.12
435.84	76.12
436.062	85.12
436.284	70.12
436.505	82.12
436.727	73.12
436.949	85.12
437.17	85.12
437.392	73.12
437.614	86.12
437.835	72.12
438.057	91.12
438.278	79.12
438.5	84.12
438.721	79.12
438.943	76.12
439.165	91.12
439.386	78.12
439.608	75.12
439.829	79.12
440.05	85.12
440.272	68.12
440.493	78.12
440.715	81.12
440.936	79.12
441.158	95.12
441.379	87.12
441.6	88.12
441.822	87.12
442.043	75.12
442.264	78.12
442.486	89.12
442.707	70.12
442.928	76.12
443.149	81.12
443.371	77.12
443.592	85.12
443.813	81.12
444.034	81.12
444.255	72.12
444.476	80.12
444.698	89.12
444.919	82.12
445.14	171.12
445.361	96.12
445.582	75.12
445.803	85.12
446.024	73.12
446.245	92.12
446.466	96.12
446.687	66.12
446.908	80.12
447.129	76.12
447.35	89.12
447.571	72.12
447.792	84.12
448.013	82.12
448.234	73.12
448.455	85.12
448.675	82.12
448.896	76.12
449.117	78.12
449.338	89.12
449.559	76.12
449.779	83.12
450	83.12
450.221	81.12
450.442	84.12
450.662	74.12
450.883	84.12
451.104	82.12
451.324	92.12
451.545	83.12
451.766	76.12
451.986	79.12
452.207	62.12
452.428	76.12
452.648	82.12
452.869	88.12
453.089	84.12
453.31	86.12
453.53	76.12
453.751	78.12
453.971	84.12
454.192	93.12
454.412	79.12
454.633	79.12
454.853	88.12
455.073	75.12
455.294	79.12
455.514	76.12
455.734	81.12
455.955	70.12
456.175	76.12
456.395	75.12
456.616	81.12
456.836	82.12
457.056	81.12
457.276	76.12
457.497	69.12
457.717	85.12
457.937	73.12
458.157	83.12
458.377	74.12
458.598	84.12
458.818	75.12
459.038	77.12
459.258	82.12
459.478	80.12
459.698	83.12
459.918	95.12
460.138	68.12
460.358	81.12
460.578	83.12
460.798	85.12
461.018	87.12
461.238	88.12
461.458	77.12
461.678	83.12
461.898	91.12
462.118	79.12
462.338	87.12
462.558	83.12
462.777	73.12
462.997	66.12
463.217	75.12
463.437	90.12
463.657	98.12
463.876	77.12
464.096	79.12
464.316	89.12
464.536	85.12
464.755	98.12
464.975	95.12
465.195	90.12
465.414	87.12
465.634	83.12
465.854	78.12
466.073	90.12
466.293	75.12
466.512	81.12
466.732	85.12
466.951	74.12
467.171	94.12
467.391	84.12
467.61	89.12
467.829	76.12
468.049	105.12
468.268	105.12
468.488	75.12
468.707	85.12
468.927	72.12
469.146	89.12
469.365	59.12
469.585	76.12
469.804	81.12
470.023	89.12
470.243	88.12
470.462	95.12
470.681	72.12
470.901	89.12
471.12	89.12
471.339	83.12
471.558	75.12
471.777	83.12
471.997	101.12
472.216	129.12
472.435	153.12
472.654	101.12
472.873	88.12
473.092	76.12
473.311	78.12
473.53	98.12
473.749	89.12
473.968	69.12
474.187	68.12
474.406	67.12
474.625	76.12
474.844	85.12
475.063	89.12
475.282	87.12
475.501	79.12
475.72	76.12
475.939	77.12
476.158	88.12
476.377	97.12
476.596	73.12
476.814	68.12
477.033	81.12
477.252	85.12
477.471	88.12
477.69	83.12
477.908	87.12
478.127	79.12
478.346	68.12
478.564	95.12
478.783	75.12
479.002	67.12
479.22	89.12
479.439	79.12
479.658	67.12
479.876	97.12
480.095	81.12
480.313	82.12
480.532	81.12
480.751	99.12
480.969	133.12
481.188	211.12
481.406	149.12
481.624	97.12
481.843	85.12
482.061	84.12
482.28	83.12
482.498	82.12
482.717	74.12
482.935	97.12
483.153	92.12
483.372	95.12
483.59	77.12
483.808	77.12
484.027	74.12
484.245	85.12
484.463	79.12
484.681	86.12
484.9	74.12
485.118	84.12
485.336	72.12
485.554	88.12
485.772	100.12
485.99	88.12
486.209	71.12
486.427	87.12
486.645	73.12
486.863	81.12
487.081	77.12
487.299	69.12
487.517	86.12
487.735	84.12
487.953	83.12
488.171	85.12
488.389	83.12
488.607	80.12
488.825	86.12
489.043	92.12
489.261	88.12
489.479	90.12
489.696	95.12
489.914	92.12
490.132	74.12
490.35	69.12
490.568	85.12
490.786	70.12
491.003	87.12
491.221	76.12
491.439	75.12
491.657	74.12
491.874	76.12
492.092	83.12
492.31	85.12
492.527	82.12
492.745	78.12
492.963	89.12
493.18	89.12
493.398	81.12
493.615	83.12
493.833	82.12
494.05	83.12
494.268	70.12
494.485	80.12
494.703	84.12
494.92	91.12
495.138	75.12
495.355	91.12
495.573	84.12
495.79	78.12
496.008	99.12
496.225	73.12
496.442	81.12
496.66	96.12
496.877	78.12
497.094	87.12
497.312	83.12
497.529	84.12
497.746	68.12
497.963	78.12
498.181	65.12
498.398	76.12
498.615	80.12
498.832	88.12
499.049	81.12
499.267	72.12
499.484	77.12
499.701	91.12
499.918	90.12
500.135	78.12
500.352	85.12
500.569	85.12
500.786	75.12
501.003	78.12
501.22	79.12
501.437	76.12
501.654	75.12
501.871	74.12
502.088	78.12
502.305	87.12
502.522	74.12
502.739	83.12
502.956	89.12
503.172	94.12
503.389	84.12
503.606	77.12
503.823	82.12
504.04	76.12
504.256	76.12
504.473	72.12
504.69	69.12
504.907	97.12
505.123	94.12
505.34	92.12
505.557	95.12
505.773	81.12
505.99	81.12
506.207	89.12
506.423	85.12
506.64	68.12
506.856	83.12
507.073	86.12
507.289	70.12
507.506	99.12
507.722	67.12
507.939	75.12
508.155	95.12
508.372	76.12
508.588	93.12
508.805	99.12
509.021	81.12
509.238	88.12
509.454	84.12
509.67	78.12
509.887	90.12
510.103	81.12
510.319	102.12
510.536	145.12
510.752	221.12
510.968	121.12
511.184	89.12
511.401	87.12
511.617	85.12
511.833	88.12
512.049	97.12
512.265	81.12
512.481	80.12
512.698	76.12
512.914	88.12
513.13	83.12
513.346	74.12
513.562	87.12
513.778	81.12
513.994	72.12
514.21	81.12
514.426	91.12
514.642	84.12
514.858	82.12
515.074	93.12
515.29	136.12
515.506	207.12
515.721	107.12
515.937	81.12
516.153	77.12
516.369	83.12
516.585	79.12
516.801	76.12
517.016	85.12
517.232	82.12
517.448	88.12
517.664	77.12
517.879	84.12
518.095	90.12
518.311	84.12
518.527	92.12
518.742	89.12
518.958	84.12
519.173	87.12
519.389	92.12
519.605	85.12
