Data from Penny_1_HRD10591_00015.txt Node
Date: Wed Nov 05 15:33:26 EST 2025
User: Yrep
Spectrometer: HR+D1059
Trigger mode: 1
Integration Time (sec): 1.000000E-1
Scans to average: 1
Electric dark correction enabled: true
Nonlinearity correction enabled: false
Boxcar width: 0
XAxis mode: Wavelengths
Number of Pixels in Spectrum: 2048
>>>>>Begin Spectral Data<<<<<
223.165	-26.25
223.4	-26.25
223.635	-26.25
223.869	-20.25
224.104	-12.25
224.338	-4.25
224.573	-9.25
224.808	-12.25
225.042	-6.25
225.277	-20.25
225.511	-12.25
225.746	2.75
225.98	-3.25
226.215	16.75
226.449	24.75
226.683	29.75
226.918	22.75
227.152	29.75
227.387	42.75
227.621	27.75
227.856	52.75
228.09	49.75
228.324	57.75
228.559	68.75
228.793	61.75
229.027	61.75
229.262	66.75
229.496	66.75
229.73	77.75
229.964	71.75
230.199	69.75
230.433	82.75
230.667	81.75
230.901	89.75
231.136	79.75
231.37	79.75
231.604	73.75
231.838	85.75
232.072	81.75
232.306	79.75
232.541	93.75
232.775	74.75
233.009	77.75
233.243	80.75
233.477	86.75
233.711	85.75
233.945	87.75
234.179	73.75
234.413	81.75
234.647	72.75
234.881	85.75
235.115	75.75
235.349	73.75
235.583	77.75
235.817	71.75
236.051	78.75
236.285	82.75
236.519	89.75
236.753	84.75
236.987	76.75
237.221	83.75
237.455	87.75
237.689	91.75
237.922	77.75
238.156	69.75
238.39	78.75
238.624	80.75
238.858	76.75
239.091	82.75
239.325	72.75
239.559	86.75
239.793	73.75
240.027	78.75
240.26	89.75
240.494	86.75
240.728	80.75
240.961	69.75
241.195	86.75
241.429	76.75
241.662	71.75
241.896	67.75
242.13	87.75
242.363	80.75
242.597	69.75
242.83	76.75
243.064	87.75
243.298	87.75
243.531	73.75
243.765	82.75
243.998	91.75
244.232	73.75
244.465	89.75
244.699	81.75
244.932	80.75
245.166	81.75
245.399	81.75
245.633	84.75
245.866	89.75
246.099	80.75
246.333	83.75
246.566	88.75
246.8	82.75
247.033	95.75
247.266	72.75
247.5	79.75
247.733	81.75
247.966	90.75
248.2	85.75
248.433	71.75
248.666	87.75
248.899	71.75
249.133	65.75
249.366	78.75
249.599	89.75
249.832	80.75
250.066	71.75
250.299	72.75
250.532	80.75
250.765	81.75
250.998	76.75
251.231	80.75
251.465	78.75
251.698	92.75
251.931	68.75
252.164	89.75
252.397	71.75
252.63	79.75
252.863	82.75
253.096	67.75
253.329	81.75
253.562	72.75
253.795	87.75
254.028	71.75
254.261	74.75
254.494	72.75
254.727	75.75
254.96	77.75
255.193	93.75
255.426	86.75
255.659	77.75
255.892	85.75
256.124	88.75
256.357	71.75
256.59	75.75
256.823	83.75
257.056	87.75
257.289	71.75
257.521	80.75
257.754	81.75
257.987	92.75
258.22	75.75
258.452	83.75
258.685	78.75
258.918	88.75
259.151	79.75
259.383	96.75
259.616	70.75
259.849	78.75
260.081	83.75
260.314	74.75
260.547	92.75
260.779	93.75
261.012	83.75
261.244	84.75
261.477	84.75
261.71	77.75
261.942	73.75
262.175	81.75
262.407	85.75
262.64	83.75
262.872	88.75
263.105	91.75
263.337	91.75
263.57	80.75
263.802	76.75
264.035	74.75
264.267	81.75
264.499	83.75
264.732	81.75
264.964	85.75
265.197	86.75
265.429	99.75
265.661	81.75
265.894	88.75
266.126	81.75
266.358	92.75
266.591	81.75
266.823	82.75
267.055	79.75
267.287	73.75
267.52	82.75
267.752	83.75
267.984	72.75
268.216	71.75
268.448	81.75
268.681	70.75
268.913	92.75
269.145	93.75
269.377	74.75
269.609	82.75
269.841	91.75
270.073	80.75
270.306	93.75
270.538	73.75
270.77	73.75
271.002	84.75
271.234	81.75
271.466	102.75
271.698	84.75
271.93	83.75
272.162	80.75
272.394	87.75
272.626	75.75
272.858	81.75
273.09	101.75
273.322	85.75
273.553	89.75
273.785	82.75
274.017	81.75
274.249	75.75
274.481	87.75
274.713	78.75
274.945	81.75
275.176	85.75
275.408	95.75
275.64	85.75
275.872	104.75
276.104	85.75
276.335	85.75
276.567	76.75
276.799	79.75
277.031	85.75
277.262	80.75
277.494	85.75
277.726	70.75
277.957	81.75
278.189	93.75
278.421	71.75
278.652	73.75
278.884	88.75
279.115	79.75
279.347	95.75
279.579	96.75
279.81	83.75
280.042	79.75
280.273	81.75
280.505	76.75
280.736	93.75
280.968	70.75
281.199	91.75
281.431	92.75
281.662	80.75
281.894	81.75
282.125	86.75
282.356	76.75
282.588	77.75
282.819	104.75
283.051	79.75
283.282	84.75
283.513	82.75
283.745	79.75
283.976	85.75
284.207	87.75
284.439	80.75
284.67	85.75
284.901	85.75
285.132	86.75
285.364	76.75
285.595	90.75
285.826	83.75
286.057	89.75
286.288	92.75
286.52	95.75
286.751	94.75
286.982	87.75
287.213	93.75
287.444	81.75
287.675	83.75
287.906	77.75
288.138	85.75
288.369	86.75
288.6	82.75
288.831	91.75
289.062	99.75
289.293	85.75
289.524	69.75
289.755	102.75
289.986	78.75
290.217	89.75
290.448	71.75
290.679	89.75
290.91	91.75
291.141	94.75
291.371	80.75
291.602	96.75
291.833	95.75
292.064	82.75
292.295	97.75
292.526	95.75
292.757	81.75
292.987	77.75
293.218	92.75
293.449	89.75
293.68	86.75
293.91	82.75
294.141	82.75
294.372	84.75
294.603	81.75
294.833	88.75
295.064	87.75
295.295	87.75
295.525	91.75
295.756	76.75
295.987	73.75
296.217	91.75
296.448	98.75
296.679	95.75
296.909	93.75
297.14	91.75
297.37	95.75
297.601	82.75
297.831	102.75
298.062	83.75
298.292	82.75
298.523	98.75
298.753	85.75
298.984	96.75
299.214	87.75
299.445	82.75
299.675	84.75
299.905	87.75
300.136	92.75
300.366	89.75
300.597	79.75
300.827	88.75
301.057	75.75
301.288	90.75
301.518	83.75
301.748	87.75
301.979	94.75
302.209	83.75
302.439	93.75
302.669	85.75
302.9	82.75
303.13	97.75
303.36	89.75
303.59	85.75
303.82	78.75
304.051	85.75
304.281	81.75
304.511	87.75
304.741	75.75
304.971	91.75
305.201	93.75
305.431	76.75
305.661	73.75
305.891	93.75
306.121	86.75
306.352	70.75
306.582	86.75
306.812	94.75
307.042	82.75
307.272	72.75
307.502	91.75
307.731	93.75
307.961	79.75
308.191	73.75
308.421	73.75
308.651	92.75
308.881	77.75
309.111	93.75
309.341	84.75
309.571	83.75
309.8	89.75
310.03	73.75
310.26	91.75
310.49	92.75
310.72	76.75
310.949	79.75
311.179	81.75
311.409	87.75
311.639	93.75
311.868	105.75
312.098	79.75
312.328	91.75
312.557	105.75
312.787	92.75
313.017	103.75
313.246	92.75
313.476	86.75
313.706	86.75
313.935	103.75
314.165	90.75
314.394	94.75
314.624	88.75
314.853	80.75
315.083	100.75
315.312	94.75
315.542	80.75
315.771	85.75
316.001	77.75
316.23	75.75
316.46	79.75
316.689	78.75
316.919	94.75
317.148	88.75
317.377	86.75
317.607	83.75
317.836	93.75
318.065	84.75
318.295	68.75
318.524	79.75
318.753	101.75
318.983	77.75
319.212	90.75
319.441	92.75
319.67	78.75
319.9	99.75
320.129	99.75
320.358	78.75
320.587	85.75
320.816	88.75
321.046	85.75
321.275	90.75
321.504	83.75
321.733	87.75
321.962	86.75
322.191	84.75
322.42	70.75
322.649	73.75
322.878	101.75
323.108	89.75
323.337	96.75
323.566	90.75
323.795	99.75
324.024	88.75
324.253	93.75
324.482	102.75
324.71	143.75
324.939	134.75
325.168	109.75
325.397	95.75
325.626	96.75
325.855	84.75
326.084	88.75
326.313	96.75
326.542	96.75
326.77	91.75
326.999	103.75
327.228	111.75
327.457	131.75
327.686	112.75
327.914	94.75
328.143	96.75
328.372	107.75
328.6	86.75
328.829	92.75
329.058	90.75
329.287	95.75
329.515	91.75
329.744	103.75
329.972	93.75
330.201	105.75
330.43	109.75
330.658	108.75
330.887	84.75
331.115	78.75
331.344	87.75
331.572	95.75
331.801	90.75
332.03	85.75
332.258	85.75
332.486	82.75
332.715	77.75
332.943	90.75
333.172	83.75
333.4	74.75
333.629	85.75
333.857	106.75
334.085	94.75
334.314	105.75
334.542	120.75
334.771	122.75
334.999	98.75
335.227	91.75
335.455	81.75
335.684	86.75
335.912	85.75
336.14	103.75
336.369	79.75
336.597	99.75
336.825	80.75
337.053	66.75
337.281	81.75
337.51	86.75
337.738	84.75
337.966	83.75
338.194	82.75
338.422	92.75
338.65	104.75
338.878	78.75
339.106	80.75
339.334	95.75
339.562	87.75
339.79	92.75
340.018	69.75
340.246	91.75
340.474	103.75
340.702	91.75
340.93	69.75
341.158	87.75
341.386	73.75
341.614	96.75
341.842	92.75
342.07	89.75
342.298	92.75
342.526	87.75
342.754	90.75
342.981	80.75
343.209	85.75
343.437	91.75
343.665	92.75
343.893	93.75
344.12	94.75
344.348	107.75
344.576	102.75
344.804	88.75
345.031	78.75
345.259	101.75
345.487	82.75
345.714	85.75
345.942	89.75
346.17	90.75
346.397	89.75
346.625	78.75
346.853	64.75
347.08	87.75
347.308	76.75
347.535	84.75
347.763	89.75
347.99	76.75
348.218	97.75
348.445	100.75
348.673	88.75
348.9	89.75
349.128	101.75
349.355	93.75
349.583	85.75
349.81	75.75
350.037	90.75
350.265	92.75
350.492	85.75
350.72	88.75
350.947	85.75
351.174	88.75
351.402	104.75
351.629	92.75
351.856	95.75
352.083	86.75
352.311	87.75
352.538	84.75
352.765	96.75
352.992	80.75
353.22	91.75
353.447	89.75
353.674	80.75
353.901	78.75
354.128	80.75
354.355	90.75
354.583	77.75
354.81	85.75
355.037	94.75
355.264	81.75
355.491	92.75
355.718	89.75
355.945	75.75
356.172	79.75
356.399	89.75
356.626	96.75
356.853	84.75
357.08	66.75
357.307	81.75
357.534	107.75
357.761	81.75
357.988	81.75
358.215	98.75
358.441	95.75
358.668	89.75
358.895	90.75
359.122	72.75
359.349	73.75
359.576	76.75
359.802	72.75
360.029	93.75
360.256	94.75
360.483	84.75
360.709	97.75
360.936	93.75
361.163	87.75
361.39	91.75
361.616	88.75
361.843	78.75
362.07	85.75
362.296	87.75
362.523	88.75
362.749	99.75
362.976	88.75
363.203	77.75
363.429	81.75
363.656	76.75
363.882	79.75
364.109	91.75
364.335	78.75
364.562	85.75
364.788	69.75
365.015	92.75
365.241	95.75
365.468	88.75
365.694	72.75
365.92	79.75
366.147	85.75
366.373	102.75
366.599	65.75
366.826	90.75
367.052	91.75
367.278	92.75
367.505	93.75
367.731	104.75
367.957	77.75
368.184	105.75
368.41	94.75
368.636	83.75
368.862	97.75
369.089	91.75
369.315	80.75
369.541	82.75
369.767	83.75
369.993	85.75
370.219	88.75
370.445	86.75
370.672	84.75
370.898	89.75
371.124	91.75
371.35	80.75
371.576	80.75
371.802	86.75
372.028	87.75
372.254	79.75
372.48	80.75
372.706	78.75
372.932	92.75
373.158	79.75
373.384	76.75
373.61	79.75
373.835	86.75
374.061	83.75
374.287	86.75
374.513	84.75
374.739	77.75
374.965	85.75
375.191	81.75
375.416	87.75
375.642	87.75
375.868	88.75
376.094	93.75
376.319	87.75
376.545	84.75
376.771	74.75
376.997	86.75
377.222	87.75
377.448	80.75
377.674	87.75
377.899	76.75
378.125	60.75
378.35	93.75
378.576	77.75
378.802	79.75
379.027	93.75
379.253	93.75
379.478	82.75
379.704	81.75
379.929	85.75
380.155	79.75
380.38	79.75
380.606	81.75
380.831	95.75
381.057	82.75
381.282	81.75
381.507	71.75
381.733	89.75
381.958	84.75
382.184	92.75
382.409	83.75
382.634	84.75
382.86	82.75
383.085	85.75
383.31	79.75
383.535	87.75
383.761	94.75
383.986	89.75
384.211	82.75
384.436	87.75
384.662	77.75
384.887	71.75
385.112	91.75
385.337	89.75
385.562	76.75
385.787	93.75
386.013	87.75
386.238	94.75
386.463	86.75
386.688	97.75
386.913	82.75
387.138	69.75
387.363	76.75
387.588	85.75
387.813	81.75
388.038	88.75
388.263	94.75
388.488	78.75
388.713	81.75
388.938	87.75
389.163	89.75
389.387	90.75
389.612	95.75
389.837	91.75
390.062	85.75
390.287	88.75
390.512	79.75
390.736	81.75
390.961	107.75
391.186	94.75
391.411	91.75
391.636	88.75
391.86	85.75
392.085	85.75
392.31	71.75
392.534	74.75
392.759	68.75
392.984	89.75
393.208	96.75
393.433	86.75
393.658	78.75
393.882	93.75
394.107	95.75
394.331	89.75
394.556	84.75
394.78	71.75
395.005	79.75
395.229	75.75
395.454	79.75
395.678	93.75
395.903	91.75
396.127	84.75
396.352	79.75
396.576	80.75
396.801	87.75
397.025	77.75
397.249	83.75
397.474	78.75
397.698	84.75
397.922	89.75
398.147	81.75
398.371	84.75
398.595	83.75
398.82	76.75
399.044	79.75
399.268	77.75
399.492	95.75
399.717	93.75
399.941	86.75
400.165	84.75
400.389	88.75
400.613	79.75
400.837	96.75
401.062	76.75
401.286	87.75
401.51	91.75
401.734	73.75
401.958	72.75
402.182	84.75
402.406	85.75
402.63	85.75
402.854	75.75
403.078	85.75
403.302	84.75
403.526	89.75
403.75	86.75
403.974	85.75
404.198	82.75
404.422	98.75
404.645	88.75
404.869	81.75
405.093	78.75
405.317	88.75
405.541	82.75
405.765	88.75
405.988	86.75
406.212	101.75
406.436	92.75
406.66	81.75
406.883	67.75
407.107	85.75
407.331	84.75
407.555	76.75
407.778	76.75
408.002	80.75
408.226	75.75
408.449	83.75
408.673	80.75
408.896	81.75
409.12	79.75
409.344	82.75
409.567	81.75
409.791	89.75
410.014	78.75
410.238	79.75
410.461	86.75
410.685	88.75
410.908	94.75
411.132	81.75
411.355	81.75
411.578	85.75
411.802	75.75
412.025	84.75
412.249	78.75
412.472	85.75
412.695	91.75
412.919	95.75
413.142	79.75
413.365	80.75
413.589	68.75
413.812	87.75
414.035	97.75
414.258	107.75
414.482	87.75
414.705	93.75
414.928	95.75
415.151	100.75
415.374	79.75
415.597	84.75
415.821	88.75
416.044	93.75
416.267	83.75
416.49	74.75
416.713	93.75
416.936	81.75
417.159	80.75
417.382	81.75
417.605	89.75
417.828	103.75
418.051	80.75
418.274	77.75
418.497	82.75
418.72	86.75
418.943	82.75
419.166	91.75
419.389	90.75
419.611	79.75
419.834	81.75
420.057	93.75
420.28	87.75
420.503	76.75
420.726	79.75
420.948	75.75
421.171	92.75
421.394	75.75
421.617	80.75
421.839	103.75
422.062	84.75
422.285	83.75
422.507	92.75
422.73	75.75
422.953	87.75
423.175	80.75
423.398	77.75
423.621	103.75
423.843	83.75
424.066	81.75
424.288	87.75
424.511	88.75
424.733	87.75
424.956	89.75
425.178	92.75
425.401	77.75
425.623	101.75
425.846	94.75
426.068	74.75
426.291	80.75
426.513	87.75
426.735	79.75
426.958	85.75
427.18	77.75
427.402	80.75
427.625	85.75
427.847	87.75
428.069	91.75
428.292	81.75
428.514	76.75
428.736	75.75
428.958	79.75
429.181	90.75
429.403	76.75
429.625	83.75
429.847	93.75
430.069	87.75
430.292	91.75
430.514	92.75
430.736	83.75
430.958	97.75
431.18	69.75
431.402	86.75
431.624	88.75
431.846	91.75
432.068	96.75
432.29	77.75
432.512	81.75
432.734	80.75
432.956	87.75
433.178	81.75
433.4	89.75
433.622	78.75
433.844	83.75
434.066	95.75
434.287	81.75
434.509	79.75
434.731	83.75
434.953	91.75
435.175	77.75
435.397	75.75
435.618	83.75
435.84	85.75
436.062	76.75
436.284	81.75
436.505	87.75
436.727	80.75
436.949	62.75
437.17	69.75
437.392	69.75
437.614	78.75
437.835	83.75
438.057	87.75
438.278	75.75
438.5	82.75
438.721	93.75
438.943	98.75
439.165	80.75
439.386	88.75
439.608	87.75
439.829	88.75
440.05	86.75
440.272	94.75
440.493	89.75
440.715	80.75
440.936	86.75
441.158	86.75
441.379	95.75
441.6	95.75
441.822	68.75
442.043	81.75
442.264	97.75
442.486	96.75
442.707	95.75
442.928	102.75
443.149	88.75
443.371	81.75
443.592	83.75
443.813	91.75
444.034	73.75
444.255	90.75
444.476	67.75
444.698	91.75
444.919	88.75
445.14	160.75
445.361	125.75
445.582	91.75
445.803	81.75
446.024	84.75
446.245	89.75
446.466	101.75
446.687	71.75
446.908	76.75
447.129	83.75
447.35	94.75
447.571	78.75
447.792	68.75
448.013	81.75
448.234	78.75
448.455	81.75
448.675	92.75
448.896	85.75
449.117	75.75
449.338	79.75
449.559	82.75
449.779	81.75
450	71.75
450.221	81.75
450.442	89.75
450.662	78.75
450.883	83.75
451.104	95.75
451.324	86.75
451.545	80.75
451.766	73.75
451.986	83.75
452.207	81.75
452.428	88.75
452.648	81.75
452.869	73.75
453.089	85.75
453.31	67.75
453.53	94.75
453.751	85.75
453.971	87.75
454.192	86.75
454.412	97.75
454.633	78.75
454.853	101.75
455.073	72.75
455.294	93.75
455.514	83.75
455.734	90.75
455.955	84.75
456.175	78.75
456.395	69.75
456.616	79.75
456.836	76.75
457.056	99.75
457.276	73.75
457.497	67.75
457.717	79.75
457.937	82.75
458.157	93.75
458.377	79.75
458.598	92.75
458.818	87.75
459.038	75.75
459.258	84.75
459.478	91.75
459.698	79.75
459.918	80.75
460.138	81.75
460.358	94.75
460.578	71.75
460.798	91.75
461.018	71.75
461.238	76.75
461.458	79.75
461.678	81.75
461.898	87.75
462.118	86.75
462.338	89.75
462.558	85.75
462.777	75.75
462.997	103.75
463.217	85.75
463.437	88.75
463.657	75.75
463.876	71.75
464.096	86.75
464.316	99.75
464.536	71.75
464.755	94.75
464.975	86.75
465.195	86.75
465.414	69.75
465.634	84.75
465.854	81.75
466.073	87.75
466.293	77.75
466.512	80.75
466.732	93.75
466.951	101.75
467.171	80.75
467.391	87.75
467.61	77.75
467.829	87.75
468.049	99.75
468.268	94.75
468.488	86.75
468.707	82.75
468.927	89.75
469.146	77.75
469.365	87.75
469.585	89.75
469.804	88.75
470.023	80.75
470.243	75.75
470.462	86.75
470.681	82.75
470.901	78.75
471.12	87.75
471.339	90.75
471.558	83.75
471.777	81.75
471.997	93.75
472.216	109.75
472.435	130.75
472.654	91.75
472.873	76.75
473.092	87.75
473.311	77.75
473.53	89.75
473.749	85.75
473.968	88.75
474.187	85.75
474.406	77.75
474.625	74.75
474.844	91.75
475.063	85.75
475.282	88.75
475.501	88.75
475.72	91.75
475.939	87.75
476.158	77.75
476.377	94.75
476.596	95.75
476.814	75.75
477.033	94.75
477.252	76.75
477.471	75.75
477.69	79.75
477.908	77.75
478.127	72.75
478.346	96.75
478.564	89.75
478.783	84.75
479.002	81.75
479.22	94.75
479.439	86.75
479.658	99.75
479.876	86.75
480.095	82.75
480.313	89.75
480.532	97.75
480.751	94.75
480.969	115.75
481.188	175.75
481.406	134.75
481.624	90.75
481.843	92.75
482.061	80.75
482.28	81.75
482.498	84.75
482.717	75.75
482.935	93.75
483.153	89.75
483.372	77.75
483.59	79.75
483.808	63.75
484.027	99.75
484.245	85.75
484.463	79.75
484.681	74.75
484.9	93.75
485.118	101.75
485.336	92.75
485.554	90.75
485.772	88.75
485.99	89.75
486.209	82.75
486.427	81.75
486.645	93.75
486.863	97.75
487.081	92.75
487.299	83.75
487.517	81.75
487.735	79.75
487.953	88.75
488.171	80.75
488.389	74.75
488.607	89.75
488.825	91.75
489.043	77.75
489.261	85.75
489.479	100.75
489.696	81.75
489.914	74.75
490.132	81.75
490.35	83.75
490.568	90.75
490.786	83.75
491.003	82.75
491.221	84.75
491.439	86.75
491.657	79.75
491.874	95.75
492.092	83.75
492.31	89.75
492.527	78.75
492.745	76.75
492.963	80.75
493.18	97.75
493.398	67.75
493.615	82.75
493.833	88.75
494.05	80.75
494.268	71.75
494.485	74.75
494.703	82.75
494.92	97.75
495.138	74.75
495.355	94.75
495.573	78.75
495.79	86.75
496.008	89.75
496.225	79.75
496.442	73.75
496.66	92.75
496.877	87.75
497.094	89.75
497.312	79.75
497.529	81.75
497.746	83.75
497.963	91.75
498.181	85.75
498.398	86.75
498.615	83.75
498.832	92.75
499.049	92.75
499.267	71.75
499.484	75.75
499.701	90.75
499.918	77.75
500.135	93.75
500.352	88.75
500.569	82.75
500.786	84.75
501.003	82.75
501.22	85.75
501.437	76.75
501.654	82.75
501.871	93.75
502.088	83.75
502.305	79.75
502.522	79.75
502.739	90.75
502.956	93.75
503.172	81.75
503.389	82.75
503.606	83.75
503.823	88.75
504.04	93.75
504.256	73.75
504.473	96.75
504.69	92.75
504.907	85.75
505.123	103.75
505.34	90.75
505.557	81.75
505.773	95.75
505.99	77.75
506.207	87.75
506.423	79.75
506.64	83.75
506.856	81.75
507.073	86.75
507.289	80.75
507.506	80.75
507.722	72.75
507.939	73.75
508.155	89.75
508.372	83.75
508.588	85.75
508.805	93.75
509.021	81.75
509.238	78.75
509.454	73.75
509.67	87.75
509.887	90.75
510.103	95.75
510.319	88.75
510.536	131.75
510.752	196.75
510.968	112.75
511.184	76.75
511.401	94.75
511.617	79.75
511.833	90.75
512.049	90.75
512.265	71.75
512.481	94.75
512.698	95.75
512.914	95.75
513.13	92.75
513.346	87.75
513.562	96.75
513.778	81.75
513.994	96.75
514.21	89.75
514.426	84.75
514.642	84.75
514.858	91.75
515.074	99.75
515.29	112.75
515.506	181.75
515.721	107.75
515.937	87.75
516.153	84.75
516.369	86.75
516.585	86.75
516.801	81.75
517.016	87.75
517.232	86.75
517.448	90.75
517.664	100.75
517.879	91.75
518.095	94.75
518.311	95.75
518.527	91.75
518.742	85.75
518.958	83.75
519.173	93.75
