Data from Penny_1_HRD10591_00018.txt Node
Date: Wed Nov 05 15:33:27 EST 2025
User: Yrep
Spectrometer: HR+D1059
Trigger mode: 1
Integration Time (sec): 1.000000E-1
Scans to average: 1
Electric dark correction enabled: true
Nonlinearity correction enabled: false
Boxcar width: 0
XAxis mode: Wavelengths
Number of Pixels in Spectrum: 2048
>>>>>Begin Spectral Data<<<<<
223.165	-9.94
223.4	-9.94
223.635	-9.94
223.869	-19.94
224.104	-23.94
224.338	-11.94
224.573	-22.94
224.808	-8.94
225.042	-4.94
225.277	-13.94
225.511	1.06
225.746	5.06
225.98	12.06
226.215	12.06
226.449	13.06
226.683	25.06
226.918	17.06
227.152	31.06
227.387	37.06
227.621	37.06
227.856	56.06
228.09	43.06
228.324	45.06
228.559	63.06
228.793	51.06
229.027	62.06
229.262	72.06
229.496	65.06
229.73	79.06
229.964	75.06
230.199	71.06
230.433	60.06
230.667	79.06
230.901	62.06
231.136	69.06
231.37	88.06
231.604	77.06
231.838	78.06
232.072	71.06
232.306	94.06
232.541	92.06
232.775	88.06
233.009	68.06
233.243	90.06
233.477	98.06
233.711	92.06
233.945	84.06
234.179	95.06
234.413	79.06
234.647	74.06
234.881	81.06
235.115	94.06
235.349	85.06
235.583	77.06
235.817	80.06
236.051	78.06
236.285	88.06
236.519	91.06
236.753	74.06
236.987	86.06
237.221	84.06
237.455	75.06
237.689	77.06
237.922	79.06
238.156	67.06
238.39	80.06
238.624	70.06
238.858	80.06
239.091	76.06
239.325	72.06
239.559	80.06
239.793	81.06
240.027	78.06
240.26	67.06
240.494	85.06
240.728	72.06
240.961	68.06
241.195	78.06
241.429	68.06
241.662	88.06
241.896	80.06
242.13	74.06
242.363	86.06
242.597	83.06
242.83	93.06
243.064	81.06
243.298	73.06
243.531	86.06
243.765	92.06
243.998	77.06
244.232	76.06
244.465	73.06
244.699	98.06
244.932	88.06
245.166	76.06
245.399	86.06
245.633	72.06
245.866	66.06
246.099	82.06
246.333	82.06
246.566	71.06
246.8	83.06
247.033	79.06
247.266	77.06
247.5	78.06
247.733	82.06
247.966	73.06
248.2	72.06
248.433	86.06
248.666	80.06
248.899	86.06
249.133	82.06
249.366	89.06
249.599	68.06
249.832	78.06
250.066	81.06
250.299	86.06
250.532	75.06
250.765	71.06
250.998	79.06
251.231	79.06
251.465	86.06
251.698	72.06
251.931	86.06
252.164	86.06
252.397	88.06
252.63	80.06
252.863	81.06
253.096	85.06
253.329	80.06
253.562	93.06
253.795	89.06
254.028	81.06
254.261	92.06
254.494	94.06
254.727	88.06
254.96	84.06
255.193	89.06
255.426	82.06
255.659	102.06
255.892	81.06
256.124	89.06
256.357	81.06
256.59	68.06
256.823	80.06
257.056	80.06
257.289	74.06
257.521	74.06
257.754	88.06
257.987	72.06
258.22	85.06
258.452	83.06
258.685	76.06
258.918	81.06
259.151	81.06
259.383	87.06
259.616	84.06
259.849	81.06
260.081	92.06
260.314	78.06
260.547	76.06
260.779	86.06
261.012	91.06
261.244	84.06
261.477	88.06
261.71	78.06
261.942	67.06
262.175	88.06
262.407	78.06
262.64	88.06
262.872	82.06
263.105	85.06
263.337	80.06
263.57	84.06
263.802	88.06
264.035	98.06
264.267	76.06
264.499	68.06
264.732	82.06
264.964	82.06
265.197	74.06
265.429	93.06
265.661	78.06
265.894	92.06
266.126	80.06
266.358	97.06
266.591	86.06
266.823	81.06
267.055	86.06
267.287	82.06
267.52	94.06
267.752	86.06
267.984	100.06
268.216	98.06
268.448	94.06
268.681	94.06
268.913	89.06
269.145	82.06
269.377	88.06
269.609	88.06
269.841	86.06
270.073	69.06
270.306	82.06
270.538	77.06
270.77	83.06
271.002	82.06
271.234	93.06
271.466	80.06
271.698	93.06
271.93	82.06
272.162	96.06
272.394	100.06
272.626	89.06
272.858	88.06
273.09	84.06
273.322	97.06
273.553	78.06
273.785	90.06
274.017	94.06
274.249	85.06
274.481	88.06
274.713	92.06
274.945	73.06
275.176	78.06
275.408	79.06
275.64	89.06
275.872	82.06
276.104	80.06
276.335	85.06
276.567	78.06
276.799	81.06
277.031	93.06
277.262	82.06
277.494	72.06
277.726	85.06
277.957	82.06
278.189	79.06
278.421	85.06
278.652	86.06
278.884	77.06
279.115	98.06
279.347	94.06
279.579	80.06
279.81	94.06
280.042	86.06
280.273	106.06
280.505	101.06
280.736	93.06
280.968	94.06
281.199	89.06
281.431	92.06
281.662	78.06
281.894	90.06
282.125	78.06
282.356	89.06
282.588	86.06
282.819	85.06
283.051	89.06
283.282	90.06
283.513	80.06
283.745	88.06
283.976	79.06
284.207	94.06
284.439	88.06
284.67	93.06
284.901	85.06
285.132	91.06
285.364	84.06
285.595	76.06
285.826	80.06
286.057	100.06
286.288	102.06
286.52	82.06
286.751	75.06
286.982	91.06
287.213	85.06
287.444	81.06
287.675	112.06
287.906	79.06
288.138	87.06
288.369	82.06
288.6	100.06
288.831	85.06
289.062	102.06
289.293	98.06
289.524	76.06
289.755	83.06
289.986	69.06
290.217	100.06
290.448	76.06
290.679	88.06
290.91	79.06
291.141	82.06
291.371	94.06
291.602	77.06
291.833	86.06
292.064	108.06
292.295	83.06
292.526	87.06
292.757	96.06
292.987	93.06
293.218	93.06
293.449	68.06
293.68	79.06
293.91	79.06
294.141	91.06
294.372	80.06
294.603	88.06
294.833	93.06
295.064	84.06
295.295	89.06
295.525	84.06
295.756	91.06
295.987	96.06
296.217	94.06
296.448	89.06
296.679	77.06
296.909	90.06
297.14	92.06
297.37	88.06
297.601	93.06
297.831	100.06
298.062	88.06
298.292	80.06
298.523	79.06
298.753	83.06
298.984	85.06
299.214	88.06
299.445	87.06
299.675	90.06
299.905	84.06
300.136	90.06
300.366	72.06
300.597	73.06
300.827	82.06
301.057	87.06
301.288	80.06
301.518	78.06
301.748	85.06
301.979	95.06
302.209	84.06
302.439	89.06
302.669	79.06
302.9	98.06
303.13	88.06
303.36	96.06
303.59	93.06
303.82	88.06
304.051	98.06
304.281	94.06
304.511	97.06
304.741	79.06
304.971	95.06
305.201	95.06
305.431	89.06
305.661	93.06
305.891	91.06
306.121	71.06
306.352	93.06
306.582	71.06
306.812	92.06
307.042	100.06
307.272	95.06
307.502	80.06
307.731	89.06
307.961	86.06
308.191	99.06
308.421	81.06
308.651	84.06
308.881	84.06
309.111	90.06
309.341	87.06
309.571	101.06
309.8	105.06
310.03	82.06
310.26	87.06
310.49	103.06
310.72	80.06
310.949	91.06
311.179	93.06
311.409	98.06
311.639	74.06
311.868	86.06
312.098	90.06
312.328	92.06
312.557	102.06
312.787	95.06
313.017	94.06
313.246	86.06
313.476	82.06
313.706	81.06
313.935	86.06
314.165	81.06
314.394	84.06
314.624	77.06
314.853	85.06
315.083	80.06
315.312	87.06
315.542	89.06
315.771	79.06
316.001	89.06
316.23	98.06
316.46	82.06
316.689	90.06
316.919	96.06
317.148	81.06
317.377	85.06
317.607	100.06
317.836	91.06
318.065	98.06
318.295	91.06
318.524	82.06
318.753	82.06
318.983	84.06
319.212	88.06
319.441	100.06
319.67	82.06
319.9	85.06
320.129	88.06
320.358	96.06
320.587	90.06
320.816	82.06
321.046	66.06
321.275	88.06
321.504	80.06
321.733	94.06
321.962	93.06
322.191	99.06
322.42	89.06
322.649	85.06
322.878	92.06
323.108	94.06
323.337	95.06
323.566	98.06
323.795	109.06
324.024	101.06
324.253	105.06
324.482	113.06
324.71	133.06
324.939	151.06
325.168	109.06
325.397	81.06
325.626	90.06
325.855	90.06
326.084	90.06
326.313	95.06
326.542	86.06
326.77	98.06
326.999	110.06
327.228	124.06
327.457	135.06
327.686	116.06
327.914	113.06
328.143	110.06
328.372	108.06
328.6	106.06
328.829	108.06
329.058	77.06
329.287	78.06
329.515	90.06
329.744	91.06
329.972	95.06
330.201	109.06
330.43	104.06
330.658	105.06
330.887	94.06
331.115	78.06
331.344	69.06
331.572	85.06
331.801	80.06
332.03	90.06
332.258	92.06
332.486	103.06
332.715	90.06
332.943	94.06
333.172	81.06
333.4	88.06
333.629	91.06
333.857	97.06
334.085	108.06
334.314	129.06
334.542	137.06
334.771	110.06
334.999	94.06
335.227	88.06
335.455	94.06
335.684	92.06
335.912	99.06
336.14	92.06
336.369	82.06
336.597	104.06
336.825	85.06
337.053	104.06
337.281	83.06
337.51	68.06
337.738	105.06
337.966	75.06
338.194	82.06
338.422	85.06
338.65	94.06
338.878	77.06
339.106	82.06
339.334	101.06
339.562	90.06
339.79	94.06
340.018	91.06
340.246	76.06
340.474	87.06
340.702	97.06
340.93	88.06
341.158	80.06
341.386	85.06
341.614	70.06
341.842	82.06
342.07	95.06
342.298	89.06
342.526	91.06
342.754	93.06
342.981	82.06
343.209	93.06
343.437	101.06
343.665	92.06
343.893	105.06
344.12	97.06
344.348	81.06
344.576	94.06
344.804	80.06
345.031	82.06
345.259	93.06
345.487	88.06
345.714	88.06
345.942	85.06
346.17	78.06
346.397	88.06
346.625	90.06
346.853	77.06
347.08	87.06
347.308	81.06
347.535	81.06
347.763	89.06
347.99	88.06
348.218	88.06
348.445	85.06
348.673	79.06
348.9	98.06
349.128	98.06
349.355	80.06
349.583	77.06
349.81	66.06
350.037	83.06
350.265	86.06
350.492	93.06
350.72	79.06
350.947	96.06
351.174	93.06
351.402	97.06
351.629	81.06
351.856	95.06
352.083	106.06
352.311	86.06
352.538	77.06
352.765	82.06
352.992	102.06
353.22	93.06
353.447	82.06
353.674	82.06
353.901	72.06
354.128	88.06
354.355	86.06
354.583	87.06
354.81	93.06
355.037	88.06
355.264	90.06
355.491	92.06
355.718	79.06
355.945	74.06
356.172	73.06
356.399	89.06
356.626	81.06
356.853	94.06
357.08	89.06
357.307	90.06
357.534	82.06
357.761	96.06
357.988	88.06
358.215	92.06
358.441	81.06
358.668	93.06
358.895	83.06
359.122	84.06
359.349	80.06
359.576	80.06
359.802	97.06
360.029	88.06
360.256	76.06
360.483	86.06
360.709	78.06
360.936	80.06
361.163	98.06
361.39	118.06
361.616	74.06
361.843	80.06
362.07	94.06
362.296	90.06
362.523	76.06
362.749	92.06
362.976	76.06
363.203	80.06
363.429	82.06
363.656	88.06
363.882	78.06
364.109	91.06
364.335	84.06
364.562	76.06
364.788	98.06
365.015	78.06
365.241	83.06
365.468	91.06
365.694	83.06
365.92	85.06
366.147	87.06
366.373	91.06
366.599	92.06
366.826	92.06
367.052	81.06
367.278	86.06
367.505	97.06
367.731	89.06
367.957	102.06
368.184	81.06
368.41	92.06
368.636	78.06
368.862	86.06
369.089	77.06
369.315	83.06
369.541	94.06
369.767	89.06
369.993	87.06
370.219	76.06
370.445	81.06
370.672	89.06
370.898	96.06
371.124	93.06
371.35	92.06
371.576	99.06
371.802	82.06
372.028	83.06
372.254	83.06
372.48	89.06
372.706	66.06
372.932	90.06
373.158	100.06
373.384	97.06
373.61	87.06
373.835	83.06
374.061	84.06
374.287	91.06
374.513	82.06
374.739	86.06
374.965	74.06
375.191	92.06
375.416	95.06
375.642	97.06
375.868	95.06
376.094	74.06
376.319	72.06
376.545	89.06
376.771	78.06
376.997	78.06
377.222	77.06
377.448	78.06
377.674	82.06
377.899	85.06
378.125	85.06
378.35	91.06
378.576	90.06
378.802	87.06
379.027	90.06
379.253	88.06
379.478	81.06
379.704	91.06
379.929	75.06
380.155	86.06
380.38	97.06
380.606	96.06
380.831	78.06
381.057	82.06
381.282	77.06
381.507	80.06
381.733	84.06
381.958	79.06
382.184	81.06
382.409	93.06
382.634	81.06
382.86	94.06
383.085	97.06
383.31	81.06
383.535	92.06
383.761	89.06
383.986	81.06
384.211	92.06
384.436	82.06
384.662	83.06
384.887	86.06
385.112	86.06
385.337	71.06
385.562	81.06
385.787	97.06
386.013	87.06
386.238	81.06
386.463	94.06
386.688	102.06
386.913	100.06
387.138	101.06
387.363	82.06
387.588	78.06
387.813	89.06
388.038	94.06
388.263	86.06
388.488	80.06
388.713	92.06
388.938	73.06
389.163	82.06
389.387	91.06
389.612	81.06
389.837	83.06
390.062	84.06
390.287	85.06
390.512	96.06
390.736	86.06
390.961	90.06
391.186	73.06
391.411	83.06
391.636	66.06
391.86	78.06
392.085	76.06
392.31	84.06
392.534	92.06
392.759	88.06
392.984	86.06
393.208	80.06
393.433	82.06
393.658	83.06
393.882	74.06
394.107	96.06
394.331	75.06
394.556	77.06
394.78	93.06
395.005	96.06
395.229	77.06
395.454	96.06
395.678	92.06
395.903	85.06
396.127	79.06
396.352	77.06
396.576	81.06
396.801	94.06
397.025	83.06
397.249	92.06
397.474	82.06
397.698	88.06
397.922	83.06
398.147	98.06
398.371	72.06
398.595	86.06
398.82	89.06
399.044	91.06
399.268	86.06
399.492	101.06
399.717	89.06
399.941	82.06
400.165	82.06
400.389	82.06
400.613	88.06
400.837	68.06
401.062	95.06
401.286	74.06
401.51	79.06
401.734	81.06
401.958	87.06
402.182	80.06
402.406	80.06
402.63	90.06
402.854	91.06
403.078	81.06
403.302	77.06
403.526	87.06
403.75	98.06
403.974	63.06
404.198	95.06
404.422	90.06
404.645	98.06
404.869	89.06
405.093	85.06
405.317	94.06
405.541	83.06
405.765	89.06
405.988	82.06
406.212	84.06
406.436	84.06
406.66	96.06
406.883	94.06
407.107	78.06
407.331	92.06
407.555	86.06
407.778	94.06
408.002	85.06
408.226	94.06
408.449	83.06
408.673	90.06
408.896	90.06
409.12	76.06
409.344	88.06
409.567	89.06
409.791	86.06
410.014	90.06
410.238	80.06
410.461	78.06
410.685	79.06
410.908	92.06
411.132	82.06
411.355	88.06
411.578	94.06
411.802	80.06
412.025	81.06
412.249	81.06
412.472	90.06
412.695	88.06
412.919	83.06
413.142	76.06
413.365	86.06
413.589	92.06
413.812	85.06
414.035	72.06
414.258	71.06
414.482	82.06
414.705	85.06
414.928	91.06
415.151	82.06
415.374	70.06
415.597	86.06
415.821	85.06
416.044	80.06
416.267	95.06
416.49	89.06
416.713	81.06
416.936	69.06
417.159	73.06
417.382	82.06
417.605	90.06
417.828	81.06
418.051	75.06
418.274	89.06
418.497	86.06
418.72	79.06
418.943	92.06
419.166	89.06
419.389	69.06
419.611	74.06
419.834	92.06
420.057	98.06
420.28	86.06
420.503	90.06
420.726	92.06
420.948	85.06
421.171	75.06
421.394	72.06
421.617	91.06
421.839	86.06
422.062	78.06
422.285	73.06
422.507	84.06
422.73	89.06
422.953	86.06
423.175	75.06
423.398	78.06
423.621	72.06
423.843	90.06
424.066	92.06
424.288	100.06
424.511	86.06
424.733	84.06
424.956	95.06
425.178	77.06
425.401	81.06
425.623	77.06
425.846	99.06
426.068	70.06
426.291	78.06
426.513	80.06
426.735	85.06
426.958	82.06
427.18	100.06
427.402	89.06
427.625	92.06
427.847	91.06
428.069	105.06
428.292	75.06
428.514	94.06
428.736	92.06
428.958	79.06
429.181	77.06
429.403	83.06
429.625	76.06
429.847	81.06
430.069	79.06
430.292	107.06
430.514	99.06
430.736	75.06
430.958	81.06
431.18	88.06
431.402	92.06
431.624	87.06
431.846	73.06
432.068	78.06
432.29	90.06
432.512	96.06
432.734	93.06
432.956	86.06
433.178	82.06
433.4	99.06
433.622	80.06
433.844	75.06
434.066	95.06
434.287	78.06
434.509	102.06
434.731	80.06
434.953	72.06
435.175	81.06
435.397	91.06
435.618	88.06
435.84	82.06
436.062	82.06
436.284	86.06
436.505	85.06
436.727	87.06
436.949	76.06
437.17	98.06
437.392	90.06
437.614	85.06
437.835	79.06
438.057	84.06
438.278	75.06
438.5	92.06
438.721	79.06
438.943	88.06
439.165	76.06
439.386	96.06
439.608	84.06
439.829	83.06
440.05	88.06
440.272	88.06
440.493	87.06
440.715	87.06
440.936	81.06
441.158	91.06
441.379	92.06
441.6	72.06
441.822	90.06
442.043	86.06
442.264	84.06
442.486	96.06
442.707	64.06
442.928	86.06
443.149	108.06
443.371	82.06
443.592	88.06
443.813	75.06
444.034	78.06
444.255	78.06
444.476	88.06
444.698	93.06
444.919	80.06
445.14	156.06
445.361	114.06
445.582	80.06
445.803	78.06
446.024	78.06
446.245	93.06
446.466	89.06
446.687	65.06
446.908	87.06
447.129	81.06
447.35	82.06
447.571	76.06
447.792	96.06
448.013	85.06
448.234	86.06
448.455	92.06
448.675	74.06
448.896	90.06
449.117	89.06
449.338	89.06
449.559	80.06
449.779	88.06
450	66.06
450.221	95.06
450.442	85.06
450.662	78.06
450.883	80.06
451.104	87.06
451.324	80.06
451.545	64.06
451.766	78.06
451.986	91.06
452.207	79.06
452.428	93.06
452.648	90.06
452.869	86.06
453.089	78.06
453.31	96.06
453.53	82.06
453.751	95.06
453.971	88.06
454.192	71.06
454.412	78.06
454.633	90.06
454.853	86.06
455.073	96.06
455.294	81.06
455.514	85.06
455.734	81.06
455.955	79.06
456.175	95.06
456.395	89.06
456.616	77.06
456.836	82.06
457.056	80.06
457.276	96.06
457.497	78.06
457.717	72.06
457.937	75.06
458.157	97.06
458.377	81.06
458.598	87.06
458.818	93.06
459.038	74.06
459.258	83.06
459.478	75.06
459.698	92.06
459.918	94.06
460.138	74.06
460.358	87.06
460.578	88.06
460.798	89.06
461.018	82.06
461.238	91.06
461.458	98.06
461.678	106.06
461.898	81.06
462.118	74.06
462.338	71.06
462.558	74.06
462.777	88.06
462.997	82.06
463.217	76.06
463.437	93.06
463.657	86.06
463.876	78.06
464.096	90.06
464.316	71.06
464.536	86.06
464.755	83.06
464.975	88.06
465.195	95.06
465.414	87.06
465.634	86.06
465.854	85.06
466.073	79.06
466.293	91.06
466.512	78.06
466.732	72.06
466.951	78.06
467.171	81.06
467.391	73.06
467.61	92.06
467.829	85.06
468.049	100.06
468.268	105.06
468.488	72.06
468.707	82.06
468.927	83.06
469.146	91.06
469.365	87.06
469.585	79.06
469.804	90.06
470.023	79.06
470.243	92.06
470.462	70.06
470.681	91.06
470.901	71.06
471.12	80.06
471.339	92.06
471.558	80.06
471.777	79.06
471.997	100.06
472.216	110.06
472.435	130.06
472.654	82.06
472.873	95.06
473.092	98.06
473.311	89.06
473.53	77.06
473.749	73.06
473.968	97.06
474.187	88.06
474.406	86.06
474.625	93.06
474.844	87.06
475.063	94.06
475.282	83.06
475.501	81.06
475.72	80.06
475.939	88.06
476.158	83.06
476.377	80.06
476.596	70.06
476.814	90.06
477.033	80.06
477.252	80.06
477.471	78.06
477.69	68.06
477.908	86.06
478.127	89.06
478.346	83.06
478.564	97.06
478.783	79.06
479.002	84.06
479.22	83.06
479.439	88.06
479.658	83.06
479.876	75.06
480.095	86.06
480.313	94.06
480.532	85.06
480.751	87.06
480.969	137.06
481.188	204.06
481.406	128.06
481.624	87.06
481.843	88.06
482.061	94.06
482.28	74.06
482.498	70.06
482.717	81.06
482.935	80.06
483.153	87.06
483.372	97.06
483.59	106.06
483.808	84.06
484.027	71.06
484.245	95.06
484.463	77.06
484.681	78.06
484.9	94.06
485.118	93.06
485.336	88.06
485.554	96.06
485.772	74.06
485.99	75.06
486.209	92.06
486.427	89.06
486.645	108.06
486.863	84.06
487.081	88.06
487.299	87.06
487.517	88.06
487.735	82.06
487.953	79.06
488.171	94.06
488.389	86.06
488.607	92.06
488.825	95.06
489.043	83.06
489.261	79.06
489.479	87.06
489.696	88.06
489.914	93.06
490.132	82.06
490.35	86.06
490.568	82.06
490.786	96.06
491.003	88.06
491.221	80.06
491.439	91.06
491.657	82.06
491.874	90.06
492.092	78.06
492.31	86.06
492.527	90.06
492.745	106.06
492.963	76.06
493.18	88.06
493.398	84.06
493.615	83.06
493.833	81.06
494.05	87.06
494.268	83.06
494.485	84.06
494.703	85.06
494.92	94.06
495.138	101.06
495.355	101.06
495.573	78.06
495.79	77.06
496.008	92.06
496.225	86.06
496.442	83.06
496.66	92.06
496.877	88.06
497.094	85.06
497.312	74.06
497.529	86.06
497.746	80.06
497.963	70.06
498.181	86.06
498.398	88.06
498.615	82.06
498.832	82.06
499.049	79.06
499.267	89.06
499.484	79.06
499.701	94.06
499.918	104.06
500.135	94.06
500.352	86.06
500.569	80.06
500.786	92.06
501.003	92.06
501.22	73.06
501.437	91.06
501.654	84.06
501.871	89.06
502.088	99.06
502.305	89.06
502.522	89.06
502.739	83.06
502.956	97.06
503.172	88.06
503.389	77.06
503.606	101.06
503.823	82.06
504.04	68.06
504.256	89.06
504.473	88.06
504.69	95.06
504.907	85.06
505.123	101.06
505.34	83.06
505.557	86.06
505.773	75.06
505.99	74.06
506.207	93.06
506.423	81.06
506.64	86.06
506.856	78.06
507.073	83.06
507.289	96.06
507.506	79.06
507.722	80.06
507.939	102.06
508.155	80.06
508.372	76.06
508.588	86.06
508.805	80.06
509.021	86.06
509.238	79.06
509.454	84.06
509.67	80.06
509.887	93.06
510.103	82.06
510.319	97.06
510.536	136.06
510.752	204.06
510.968	112.06
511.184	93.06
511.401	86.06
511.617	90.06
511.833	93.06
512.049	85.06
512.265	94.06
512.481	84.06
512.698	77.06
512.914	77.06
513.13	86.06
513.346	85.06
513.562	82.06
513.778	94.06
513.994	82.06
514.21	83.06
514.426	94.06
514.642	88.06
514.858	89.06
515.074	87.06
515.29	116.06
515.506	170.06
515.721	108.06
515.937	93.06
516.153	83.06
516.369	89.06
516.585	76.06
516.801	84.06
517.016	81.06
517.232	91.06
517.448	81.06
517.664	90.06
517.879	80.06
518.095	75.06
518.311	82.06
518.527	76.06
518.742	77.06
518.958	89.06
