Data from Penny_1_HRD10591_00002.txt Node
Date: Wed Nov 05 15:33:19 EST 2025
User: Yrep
Spectrometer: HR+D1059
Trigger mode: 1
Integration Time (sec): 1.000000E-1
Scans to average: 1
Electric dark correction enabled: true
Nonlinearity correction enabled: false
Boxcar width: 0
XAxis mode: Wavelengths
Number of Pixels in Spectrum: 2048
>>>>>Begin Spectral Data<<<<<
223.165	-7.12
223.4	-7.12
223.635	-7.12
223.869	-13.12
224.104	-14.12
224.338	-23.12
224.573	-26.12
224.808	-8.12
225.042	-5.12
225.277	-14.12
225.511	-4.12
225.746	1.88
225.98	0.88
226.215	15.88
226.449	11.88
226.683	21.88
226.918	25.88
227.152	36.88
227.387	25.88
227.621	38.88
227.856	22.88
228.09	43.88
228.324	54.88
228.559	65.88
228.793	55.88
229.027	63.88
229.262	54.88
229.496	71.88
229.73	59.88
229.964	68.88
230.199	64.88
230.433	70.88
230.667	78.88
230.901	72.88
231.136	69.88
231.37	83.88
231.604	67.88
231.838	76.88
232.072	70.88
232.306	82.88
232.541	73.88
232.775	70.88
233.009	76.88
233.243	73.88
233.477	85.88
233.711	73.88
233.945	78.88
234.179	68.88
234.413	79.88
234.647	70.88
234.881	81.88
235.115	81.88
235.349	72.88
235.583	54.88
235.817	65.88
236.051	63.88
236.285	68.88
236.519	75.88
236.753	79.88
236.987	85.88
237.221	75.88
237.455	76.88
237.689	65.88
237.922	78.88
238.156	75.88
238.39	70.88
238.624	62.88
238.858	69.88
239.091	76.88
239.325	70.88
239.559	74.88
239.793	66.88
240.027	78.88
240.26	75.88
240.494	79.88
240.728	88.88
240.961	95.88
241.195	69.88
241.429	52.88
241.662	75.88
241.896	65.88
242.13	74.88
242.363	67.88
242.597	73.88
242.83	67.88
243.064	68.88
243.298	73.88
243.531	73.88
243.765	62.88
243.998	90.88
244.232	96.88
244.465	80.88
244.699	68.88
244.932	81.88
245.166	79.88
245.399	76.88
245.633	75.88
245.866	80.88
246.099	76.88
246.333	77.88
246.566	76.88
246.8	72.88
247.033	79.88
247.266	82.88
247.5	91.88
247.733	81.88
247.966	72.88
248.2	76.88
248.433	78.88
248.666	87.88
248.899	64.88
249.133	63.88
249.366	79.88
249.599	71.88
249.832	79.88
250.066	76.88
250.299	71.88
250.532	87.88
250.765	80.88
250.998	85.88
251.231	70.88
251.465	83.88
251.698	74.88
251.931	83.88
252.164	67.88
252.397	89.88
252.63	57.88
252.863	78.88
253.096	75.88
253.329	77.88
253.562	83.88
253.795	73.88
254.028	77.88
254.261	74.88
254.494	67.88
254.727	77.88
254.96	87.88
255.193	76.88
255.426	81.88
255.659	86.88
255.892	83.88
256.124	88.88
256.357	68.88
256.59	70.88
256.823	64.88
257.056	87.88
257.289	75.88
257.521	79.88
257.754	79.88
257.987	66.88
258.22	72.88
258.452	75.88
258.685	75.88
258.918	67.88
259.151	72.88
259.383	70.88
259.616	69.88
259.849	64.88
260.081	74.88
260.314	83.88
260.547	77.88
260.779	82.88
261.012	89.88
261.244	81.88
261.477	89.88
261.71	83.88
261.942	82.88
262.175	83.88
262.407	85.88
262.64	77.88
262.872	76.88
263.105	85.88
263.337	73.88
263.57	88.88
263.802	74.88
264.035	83.88
264.267	84.88
264.499	76.88
264.732	90.88
264.964	80.88
265.197	75.88
265.429	75.88
265.661	75.88
265.894	67.88
266.126	60.88
266.358	92.88
266.591	68.88
266.823	89.88
267.055	75.88
267.287	82.88
267.52	77.88
267.752	81.88
267.984	73.88
268.216	86.88
268.448	75.88
268.681	72.88
268.913	89.88
269.145	80.88
269.377	90.88
269.609	91.88
269.841	83.88
270.073	86.88
270.306	81.88
270.538	68.88
270.77	72.88
271.002	75.88
271.234	89.88
271.466	77.88
271.698	70.88
271.93	79.88
272.162	89.88
272.394	84.88
272.626	73.88
272.858	96.88
273.09	83.88
273.322	91.88
273.553	82.88
273.785	74.88
274.017	87.88
274.249	77.88
274.481	82.88
274.713	73.88
274.945	88.88
275.176	73.88
275.408	93.88
275.64	83.88
275.872	82.88
276.104	78.88
276.335	95.88
276.567	94.88
276.799	87.88
277.031	74.88
277.262	90.88
277.494	81.88
277.726	70.88
277.957	61.88
278.189	75.88
278.421	90.88
278.652	83.88
278.884	68.88
279.115	70.88
279.347	74.88
279.579	82.88
279.81	88.88
280.042	75.88
280.273	59.88
280.505	73.88
280.736	66.88
280.968	80.88
281.199	97.88
281.431	85.88
281.662	88.88
281.894	75.88
282.125	91.88
282.356	79.88
282.588	80.88
282.819	83.88
283.051	88.88
283.282	80.88
283.513	99.88
283.745	81.88
283.976	73.88
284.207	87.88
284.439	71.88
284.67	76.88
284.901	79.88
285.132	79.88
285.364	80.88
285.595	79.88
285.826	82.88
286.057	73.88
286.288	85.88
286.52	76.88
286.751	88.88
286.982	86.88
287.213	81.88
287.444	74.88
287.675	82.88
287.906	85.88
288.138	76.88
288.369	79.88
288.6	77.88
288.831	73.88
289.062	83.88
289.293	87.88
289.524	73.88
289.755	76.88
289.986	83.88
290.217	78.88
290.448	78.88
290.679	76.88
290.91	91.88
291.141	74.88
291.371	78.88
291.602	90.88
291.833	92.88
292.064	73.88
292.295	76.88
292.526	77.88
292.757	79.88
292.987	85.88
293.218	86.88
293.449	83.88
293.68	89.88
293.91	87.88
294.141	83.88
294.372	82.88
294.603	85.88
294.833	97.88
295.064	61.88
295.295	74.88
295.525	75.88
295.756	83.88
295.987	89.88
296.217	80.88
296.448	69.88
296.679	67.88
296.909	79.88
297.14	80.88
297.37	77.88
297.601	82.88
297.831	81.88
298.062	71.88
298.292	72.88
298.523	76.88
298.753	83.88
298.984	86.88
299.214	83.88
299.445	83.88
299.675	71.88
299.905	79.88
300.136	74.88
300.366	83.88
300.597	78.88
300.827	74.88
301.057	74.88
301.288	84.88
301.518	78.88
301.748	75.88
301.979	93.88
302.209	72.88
302.439	75.88
302.669	84.88
302.9	80.88
303.13	84.88
303.36	66.88
303.59	85.88
303.82	81.88
304.051	78.88
304.281	93.88
304.511	89.88
304.741	77.88
304.971	76.88
305.201	78.88
305.431	94.88
305.661	82.88
305.891	99.88
306.121	83.88
306.352	83.88
306.582	79.88
306.812	81.88
307.042	84.88
307.272	78.88
307.502	74.88
307.731	81.88
307.961	73.88
308.191	80.88
308.421	93.88
308.651	89.88
308.881	84.88
309.111	83.88
309.341	72.88
309.571	77.88
309.8	87.88
310.03	79.88
310.26	79.88
310.49	84.88
310.72	72.88
310.949	73.88
311.179	97.88
311.409	84.88
311.639	73.88
311.868	93.88
312.098	85.88
312.328	89.88
312.557	84.88
312.787	80.88
313.017	70.88
313.246	68.88
313.476	66.88
313.706	89.88
313.935	89.88
314.165	90.88
314.394	94.88
314.624	80.88
314.853	81.88
315.083	78.88
315.312	72.88
315.542	71.88
315.771	77.88
316.001	72.88
316.23	91.88
316.46	84.88
316.689	86.88
316.919	86.88
317.148	85.88
317.377	84.88
317.607	83.88
317.836	85.88
318.065	83.88
318.295	83.88
318.524	87.88
318.753	81.88
318.983	81.88
319.212	94.88
319.441	81.88
319.67	84.88
319.9	69.88
320.129	76.88
320.358	87.88
320.587	90.88
320.816	93.88
321.046	82.88
321.275	94.88
321.504	81.88
321.733	83.88
321.962	91.88
322.191	83.88
322.42	98.88
322.649	85.88
322.878	89.88
323.108	87.88
323.337	85.88
323.566	80.88
323.795	92.88
324.024	85.88
324.253	106.88
324.482	111.88
324.71	131.88
324.939	121.88
325.168	101.88
325.397	79.88
325.626	77.88
325.855	94.88
326.084	93.88
326.313	89.88
326.542	88.88
326.77	91.88
326.999	90.88
327.228	113.88
327.457	123.88
327.686	110.88
327.914	98.88
328.143	89.88
328.372	95.88
328.6	93.88
328.829	76.88
329.058	77.88
329.287	88.88
329.515	109.88
329.744	91.88
329.972	83.88
330.201	97.88
330.43	103.88
330.658	82.88
330.887	94.88
331.115	82.88
331.344	77.88
331.572	83.88
331.801	95.88
332.03	86.88
332.258	82.88
332.486	91.88
332.715	90.88
332.943	83.88
333.172	87.88
333.4	85.88
333.629	101.88
333.857	87.88
334.085	92.88
334.314	107.88
334.542	121.88
334.771	113.88
334.999	90.88
335.227	71.88
335.455	69.88
335.684	86.88
335.912	82.88
336.14	81.88
336.369	81.88
336.597	79.88
336.825	88.88
337.053	68.88
337.281	81.88
337.51	65.88
337.738	88.88
337.966	97.88
338.194	81.88
338.422	81.88
338.65	90.88
338.878	75.88
339.106	92.88
339.334	76.88
339.562	78.88
339.79	85.88
340.018	78.88
340.246	74.88
340.474	66.88
340.702	79.88
340.93	89.88
341.158	71.88
341.386	84.88
341.614	89.88
341.842	91.88
342.07	76.88
342.298	83.88
342.526	88.88
342.754	96.88
342.981	81.88
343.209	90.88
343.437	94.88
343.665	84.88
343.893	82.88
344.12	85.88
344.348	81.88
344.576	87.88
344.804	79.88
345.031	72.88
345.259	89.88
345.487	74.88
345.714	83.88
345.942	93.88
346.17	97.88
346.397	86.88
346.625	83.88
346.853	71.88
347.08	77.88
347.308	79.88
347.535	102.88
347.763	81.88
347.99	88.88
348.218	81.88
348.445	91.88
348.673	78.88
348.9	79.88
349.128	81.88
349.355	65.88
349.583	73.88
349.81	87.88
350.037	91.88
350.265	75.88
350.492	89.88
350.72	75.88
350.947	73.88
351.174	70.88
351.402	79.88
351.629	83.88
351.856	89.88
352.083	82.88
352.311	74.88
352.538	70.88
352.765	85.88
352.992	86.88
353.22	86.88
353.447	84.88
353.674	70.88
353.901	81.88
354.128	80.88
354.355	75.88
354.583	75.88
354.81	93.88
355.037	85.88
355.264	82.88
355.491	83.88
355.718	77.88
355.945	77.88
356.172	83.88
356.399	88.88
356.626	84.88
356.853	76.88
357.08	74.88
357.307	84.88
357.534	74.88
357.761	73.88
357.988	83.88
358.215	83.88
358.441	78.88
358.668	84.88
358.895	80.88
359.122	86.88
359.349	86.88
359.576	81.88
359.802	81.88
360.029	73.88
360.256	90.88
360.483	86.88
360.709	73.88
360.936	89.88
361.163	81.88
361.39	86.88
361.616	67.88
361.843	91.88
362.07	81.88
362.296	79.88
362.523	73.88
362.749	70.88
362.976	87.88
363.203	85.88
363.429	87.88
363.656	90.88
363.882	77.88
364.109	75.88
364.335	91.88
364.562	82.88
364.788	77.88
365.015	75.88
365.241	71.88
365.468	82.88
365.694	81.88
365.92	84.88
366.147	76.88
366.373	84.88
366.599	83.88
366.826	75.88
367.052	91.88
367.278	80.88
367.505	97.88
367.731	75.88
367.957	86.88
368.184	100.88
368.41	82.88
368.636	97.88
368.862	83.88
369.089	76.88
369.315	74.88
369.541	71.88
369.767	87.88
369.993	85.88
370.219	89.88
370.445	77.88
370.672	62.88
370.898	81.88
371.124	69.88
371.35	101.88
371.576	79.88
371.802	71.88
372.028	80.88
372.254	93.88
372.48	79.88
372.706	81.88
372.932	66.88
373.158	79.88
373.384	73.88
373.61	82.88
373.835	80.88
374.061	76.88
374.287	82.88
374.513	75.88
374.739	76.88
374.965	81.88
375.191	88.88
375.416	76.88
375.642	72.88
375.868	62.88
376.094	80.88
376.319	83.88
376.545	89.88
376.771	81.88
376.997	92.88
377.222	73.88
377.448	70.88
377.674	80.88
377.899	75.88
378.125	78.88
378.35	91.88
378.576	94.88
378.802	78.88
379.027	81.88
379.253	66.88
379.478	83.88
379.704	82.88
379.929	71.88
380.155	69.88
380.38	84.88
380.606	81.88
380.831	78.88
381.057	85.88
381.282	73.88
381.507	81.88
381.733	88.88
381.958	81.88
382.184	81.88
382.409	83.88
382.634	85.88
382.86	74.88
383.085	77.88
383.31	73.88
383.535	73.88
383.761	88.88
383.986	93.88
384.211	86.88
384.436	85.88
384.662	75.88
384.887	90.88
385.112	87.88
385.337	86.88
385.562	83.88
385.787	77.88
386.013	88.88
386.238	70.88
386.463	77.88
386.688	74.88
386.913	85.88
387.138	81.88
387.363	73.88
387.588	90.88
387.813	79.88
388.038	72.88
388.263	77.88
388.488	73.88
388.713	79.88
388.938	85.88
389.163	85.88
389.387	72.88
389.612	66.88
389.837	71.88
390.062	72.88
390.287	72.88
390.512	87.88
390.736	71.88
390.961	84.88
391.186	85.88
391.411	91.88
391.636	68.88
391.86	79.88
392.085	72.88
392.31	81.88
392.534	85.88
392.759	74.88
392.984	87.88
393.208	85.88
393.433	82.88
393.658	64.88
393.882	85.88
394.107	72.88
394.331	93.88
394.556	93.88
394.78	81.88
395.005	76.88
395.229	71.88
395.454	91.88
395.678	61.88
395.903	78.88
396.127	71.88
396.352	73.88
396.576	81.88
396.801	89.88
397.025	91.88
397.249	87.88
397.474	77.88
397.698	82.88
397.922	86.88
398.147	68.88
398.371	85.88
398.595	81.88
398.82	89.88
399.044	74.88
399.268	91.88
399.492	71.88
399.717	73.88
399.941	78.88
400.165	87.88
400.389	61.88
400.613	82.88
400.837	81.88
401.062	94.88
401.286	77.88
401.51	85.88
401.734	79.88
401.958	83.88
402.182	94.88
402.406	81.88
402.63	88.88
402.854	79.88
403.078	82.88
403.302	71.88
403.526	78.88
403.75	74.88
403.974	75.88
404.198	71.88
404.422	75.88
404.645	74.88
404.869	75.88
405.093	69.88
405.317	86.88
405.541	79.88
405.765	76.88
405.988	73.88
406.212	90.88
406.436	98.88
406.66	90.88
406.883	89.88
407.107	84.88
407.331	85.88
407.555	91.88
407.778	81.88
408.002	87.88
408.226	81.88
408.449	75.88
408.673	86.88
408.896	76.88
409.12	74.88
409.344	81.88
409.567	73.88
409.791	92.88
410.014	85.88
410.238	81.88
410.461	97.88
410.685	73.88
410.908	70.88
411.132	91.88
411.355	80.88
411.578	83.88
411.802	77.88
412.025	86.88
412.249	96.88
412.472	66.88
412.695	81.88
412.919	88.88
413.142	73.88
413.365	82.88
413.589	73.88
413.812	70.88
414.035	96.88
414.258	85.88
414.482	77.88
414.705	98.88
414.928	88.88
415.151	78.88
415.374	99.88
415.597	77.88
415.821	79.88
416.044	80.88
416.267	74.88
416.49	67.88
416.713	83.88
416.936	83.88
417.159	77.88
417.382	65.88
417.605	72.88
417.828	98.88
418.051	86.88
418.274	79.88
418.497	65.88
418.72	87.88
418.943	84.88
419.166	79.88
419.389	82.88
419.611	82.88
419.834	73.88
420.057	80.88
420.28	85.88
420.503	79.88
420.726	79.88
420.948	61.88
421.171	88.88
421.394	77.88
421.617	79.88
421.839	76.88
422.062	71.88
422.285	62.88
422.507	90.88
422.73	74.88
422.953	79.88
423.175	80.88
423.398	81.88
423.621	80.88
423.843	90.88
424.066	93.88
424.288	75.88
424.511	86.88
424.733	79.88
424.956	84.88
425.178	82.88
425.401	74.88
425.623	84.88
425.846	81.88
426.068	85.88
426.291	78.88
426.513	78.88
426.735	72.88
426.958	81.88
427.18	78.88
427.402	76.88
427.625	83.88
427.847	73.88
428.069	93.88
428.292	75.88
428.514	84.88
428.736	65.88
428.958	90.88
429.181	79.88
429.403	87.88
429.625	87.88
429.847	94.88
430.069	94.88
430.292	84.88
430.514	86.88
430.736	85.88
430.958	75.88
431.18	73.88
431.402	86.88
431.624	88.88
431.846	91.88
432.068	70.88
432.29	84.88
432.512	97.88
432.734	77.88
432.956	76.88
433.178	104.88
433.4	79.88
433.622	73.88
433.844	79.88
434.066	79.88
434.287	75.88
434.509	71.88
434.731	75.88
434.953	90.88
435.175	82.88
435.397	68.88
435.618	88.88
435.84	83.88
436.062	75.88
436.284	73.88
436.505	78.88
436.727	81.88
436.949	84.88
437.17	71.88
437.392	61.88
437.614	85.88
437.835	63.88
438.057	85.88
438.278	83.88
438.5	82.88
438.721	85.88
438.943	75.88
439.165	82.88
439.386	75.88
439.608	88.88
439.829	95.88
440.05	81.88
440.272	83.88
440.493	65.88
440.715	80.88
440.936	101.88
441.158	86.88
441.379	77.88
441.6	76.88
441.822	84.88
442.043	92.88
442.264	89.88
442.486	83.88
442.707	79.88
442.928	87.88
443.149	89.88
443.371	79.88
443.592	93.88
443.813	81.88
444.034	66.88
444.255	84.88
444.476	73.88
444.698	71.88
444.919	90.88
445.14	158.88
445.361	120.88
445.582	87.88
445.803	77.88
446.024	62.88
446.245	90.88
446.466	87.88
446.687	69.88
446.908	79.88
447.129	81.88
447.35	70.88
447.571	86.88
447.792	81.88
448.013	82.88
448.234	69.88
448.455	66.88
448.675	69.88
448.896	83.88
449.117	72.88
449.338	72.88
449.559	84.88
449.779	81.88
450	79.88
450.221	79.88
450.442	89.88
450.662	79.88
450.883	72.88
451.104	94.88
451.324	81.88
451.545	77.88
451.766	94.88
451.986	64.88
452.207	88.88
452.428	77.88
452.648	87.88
452.869	83.88
453.089	93.88
453.31	79.88
453.53	76.88
453.751	86.88
453.971	97.88
454.192	71.88
454.412	80.88
454.633	73.88
454.853	66.88
455.073	71.88
455.294	66.88
455.514	77.88
455.734	77.88
455.955	75.88
456.175	71.88
456.395	67.88
456.616	85.88
456.836	89.88
457.056	80.88
457.276	86.88
457.497	95.88
457.717	75.88
457.937	86.88
458.157	96.88
458.377	79.88
458.598	81.88
458.818	83.88
459.038	74.88
459.258	75.88
459.478	75.88
459.698	80.88
459.918	81.88
460.138	75.88
460.358	82.88
460.578	83.88
460.798	73.88
461.018	88.88
461.238	82.88
461.458	84.88
461.678	83.88
461.898	73.88
462.118	96.88
462.338	78.88
462.558	85.88
462.777	79.88
462.997	69.88
463.217	89.88
463.437	86.88
463.657	69.88
463.876	85.88
464.096	85.88
464.316	86.88
464.536	87.88
464.755	96.88
464.975	75.88
465.195	77.88
465.414	82.88
465.634	91.88
465.854	87.88
466.073	82.88
466.293	75.88
466.512	89.88
466.732	80.88
466.951	79.88
467.171	77.88
467.391	84.88
467.61	76.88
467.829	91.88
468.049	109.88
468.268	97.88
468.488	73.88
468.707	79.88
468.927	75.88
469.146	80.88
469.365	80.88
469.585	87.88
469.804	80.88
470.023	90.88
470.243	91.88
470.462	78.88
470.681	87.88
470.901	65.88
471.12	78.88
471.339	79.88
471.558	78.88
471.777	80.88
471.997	83.88
472.216	105.88
472.435	131.88
472.654	82.88
472.873	73.88
473.092	78.88
473.311	93.88
473.53	76.88
473.749	77.88
473.968	76.88
474.187	85.88
474.406	85.88
474.625	81.88
474.844	76.88
475.063	79.88
475.282	73.88
475.501	94.88
475.72	77.88
475.939	90.88
476.158	69.88
476.377	70.88
476.596	93.88
476.814	82.88
477.033	78.88
477.252	68.88
477.471	92.88
477.69	84.88
477.908	82.88
478.127	88.88
478.346	83.88
478.564	84.88
478.783	86.88
479.002	82.88
479.22	75.88
479.439	94.88
479.658	65.88
479.876	73.88
480.095	86.88
480.313	76.88
480.532	76.88
480.751	80.88
480.969	125.88
481.188	176.88
481.406	124.88
481.624	86.88
481.843	99.88
482.061	88.88
482.28	98.88
482.498	90.88
482.717	73.88
482.935	85.88
483.153	94.88
483.372	83.88
483.59	74.88
483.808	90.88
484.027	78.88
484.245	93.88
484.463	82.88
484.681	75.88
484.9	81.88
485.118	96.88
485.336	81.88
485.554	65.88
485.772	95.88
485.99	87.88
486.209	71.88
486.427	73.88
486.645	75.88
486.863	75.88
487.081	84.88
487.299	83.88
487.517	81.88
487.735	71.88
487.953	85.88
488.171	81.88
488.389	88.88
488.607	86.88
488.825	69.88
489.043	77.88
489.261	86.88
489.479	100.88
489.696	78.88
489.914	65.88
490.132	80.88
490.35	89.88
490.568	74.88
490.786	79.88
491.003	88.88
491.221	87.88
491.439	93.88
491.657	85.88
491.874	76.88
492.092	84.88
492.31	94.88
492.527	71.88
492.745	72.88
492.963	76.88
493.18	85.88
493.398	92.88
493.615	81.88
493.833	78.88
494.05	78.88
494.268	75.88
494.485	93.88
494.703	90.88
494.92	96.88
495.138	91.88
495.355	69.88
495.573	85.88
495.79	75.88
496.008	88.88
496.225	83.88
496.442	74.88
496.66	87.88
496.877	72.88
497.094	82.88
497.312	78.88
497.529	81.88
497.746	89.88
497.963	90.88
498.181	86.88
498.398	79.88
498.615	90.88
498.832	73.88
499.049	75.88
499.267	78.88
499.484	100.88
499.701	85.88
499.918	78.88
500.135	68.88
500.352	71.88
500.569	79.88
500.786	90.88
501.003	85.88
501.22	81.88
501.437	81.88
501.654	70.88
501.871	102.88
502.088	86.88
502.305	82.88
502.522	84.88
502.739	76.88
502.956	75.88
503.172	80.88
503.389	65.88
503.606	83.88
503.823	85.88
504.04	90.88
504.256	81.88
504.473	61.88
504.69	69.88
504.907	65.88
505.123	77.88
505.34	80.88
505.557	75.88
505.773	79.88
505.99	88.88
506.207	85.88
506.423	75.88
506.64	94.88
506.856	79.88
507.073	65.88
507.289	77.88
507.506	90.88
507.722	90.88
507.939	93.88
508.155	70.88
508.372	70.88
508.588	61.88
508.805	66.88
509.021	86.88
509.238	80.88
509.454	74.88
509.67	82.88
509.887	75.88
510.103	70.88
510.319	85.88
510.536	126.88
510.752	175.88
510.968	107.88
511.184	78.88
511.401	74.88
511.617	89.88
511.833	69.88
512.049	85.88
512.265	94.88
512.481	81.88
512.698	92.88
512.914	79.88
513.13	83.88
513.346	86.88
513.562	93.88
513.778	89.88
513.994	89.88
514.21	84.88
514.426	82.88
514.642	81.88
514.858	90.88
515.074	75.88
515.29	124.88
515.506	169.88
515.721	102.88
515.937	92.88
516.153	81.88
516.369	85.88
516.585	75.88
516.801	79.88
517.016	94.88
517.232	67.88
517.448	75.88
517.664	94.88
517.879	74.88
518.095	76.88
518.311	82.88
518.527	82.88
518.742	75.88
518.958	82.88
519.173	86.88
519.389	76.88
519.605	88.88
519.82	91.88
