Data from Penny_1_HRD10591_00014.txt Node
Date: Wed Nov 05 15:33:25 EST 2025
User: Yrep
Spectrometer: HR+D1059
Trigger mode: 1
Integration Time (sec): 1.000000E-1
Scans to average: 1
Electric dark correction enabled: true
Nonlinearity correction enabled: false
Boxcar width: 0
XAxis mode: Wavelengths
Number of Pixels in Spectrum: 2048
>>>>>Begin Spectral Data<<<<<
223.165	-19.44
223.4	-19.44
223.635	-19.44
223.869	-16.44
224.104	-8.44
224.338	-10.44
224.573	-16.44
224.808	-12.44
225.042	-12.44
225.277	-6.44
225.511	-4.44
225.746	4.56
225.98	-2.44
226.215	6.56
226.449	16.56
226.683	17.56
226.918	33.56
227.152	30.56
227.387	30.56
227.621	44.56
227.856	48.56
228.09	54.56
228.324	62.56
228.559	44.56
228.793	44.56
229.027	66.56
229.262	63.56
229.496	64.56
229.73	63.56
229.964	57.56
230.199	75.56
230.433	81.56
230.667	91.56
230.901	80.56
231.136	70.56
231.37	83.56
231.604	74.56
231.838	80.56
232.072	85.56
232.306	77.56
232.541	72.56
232.775	79.56
233.009	89.56
233.243	70.56
233.477	88.56
233.711	71.56
233.945	69.56
234.179	59.56
234.413	74.56
234.647	72.56
234.881	84.56
235.115	79.56
235.349	86.56
235.583	65.56
235.817	82.56
236.051	76.56
236.285	71.56
236.519	69.56
236.753	97.56
236.987	76.56
237.221	66.56
237.455	78.56
237.689	75.56
237.922	88.56
238.156	78.56
238.39	71.56
238.624	79.56
238.858	85.56
239.091	86.56
239.325	72.56
239.559	72.56
239.793	68.56
240.027	63.56
240.26	75.56
240.494	78.56
240.728	71.56
240.961	64.56
241.195	83.56
241.429	78.56
241.662	76.56
241.896	59.56
242.13	73.56
242.363	66.56
242.597	75.56
242.83	86.56
243.064	67.56
243.298	83.56
243.531	80.56
243.765	84.56
243.998	78.56
244.232	70.56
244.465	74.56
244.699	89.56
244.932	79.56
245.166	81.56
245.399	60.56
245.633	83.56
245.866	77.56
246.099	79.56
246.333	85.56
246.566	63.56
246.8	76.56
247.033	56.56
247.266	75.56
247.5	79.56
247.733	73.56
247.966	73.56
248.2	67.56
248.433	77.56
248.666	68.56
248.899	87.56
249.133	71.56
249.366	83.56
249.599	72.56
249.832	78.56
250.066	63.56
250.299	65.56
250.532	82.56
250.765	84.56
250.998	70.56
251.231	71.56
251.465	84.56
251.698	81.56
251.931	79.56
252.164	68.56
252.397	63.56
252.63	87.56
252.863	72.56
253.096	90.56
253.329	89.56
253.562	83.56
253.795	87.56
254.028	82.56
254.261	82.56
254.494	68.56
254.727	78.56
254.96	86.56
255.193	74.56
255.426	80.56
255.659	74.56
255.892	75.56
256.124	85.56
256.357	71.56
256.59	88.56
256.823	76.56
257.056	68.56
257.289	75.56
257.521	87.56
257.754	71.56
257.987	69.56
258.22	75.56
258.452	78.56
258.685	65.56
258.918	75.56
259.151	81.56
259.383	77.56
259.616	69.56
259.849	76.56
260.081	86.56
260.314	88.56
260.547	88.56
260.779	88.56
261.012	94.56
261.244	75.56
261.477	65.56
261.71	82.56
261.942	74.56
262.175	71.56
262.407	71.56
262.64	72.56
262.872	67.56
263.105	67.56
263.337	76.56
263.57	80.56
263.802	76.56
264.035	78.56
264.267	70.56
264.499	80.56
264.732	73.56
264.964	79.56
265.197	76.56
265.429	85.56
265.661	81.56
265.894	76.56
266.126	85.56
266.358	88.56
266.591	90.56
266.823	86.56
267.055	69.56
267.287	87.56
267.52	78.56
267.752	78.56
267.984	63.56
268.216	83.56
268.448	81.56
268.681	83.56
268.913	80.56
269.145	85.56
269.377	76.56
269.609	74.56
269.841	85.56
270.073	69.56
270.306	69.56
270.538	84.56
270.77	85.56
271.002	90.56
271.234	86.56
271.466	70.56
271.698	85.56
271.93	75.56
272.162	83.56
272.394	72.56
272.626	72.56
272.858	70.56
273.09	70.56
273.322	74.56
273.553	88.56
273.785	73.56
274.017	66.56
274.249	82.56
274.481	68.56
274.713	74.56
274.945	91.56
275.176	86.56
275.408	77.56
275.64	77.56
275.872	82.56
276.104	75.56
276.335	85.56
276.567	81.56
276.799	78.56
277.031	69.56
277.262	63.56
277.494	82.56
277.726	82.56
277.957	70.56
278.189	85.56
278.421	74.56
278.652	72.56
278.884	64.56
279.115	81.56
279.347	63.56
279.579	75.56
279.81	87.56
280.042	91.56
280.273	74.56
280.505	83.56
280.736	88.56
280.968	76.56
281.199	90.56
281.431	63.56
281.662	78.56
281.894	84.56
282.125	76.56
282.356	72.56
282.588	91.56
282.819	69.56
283.051	81.56
283.282	81.56
283.513	94.56
283.745	89.56
283.976	84.56
284.207	73.56
284.439	99.56
284.67	97.56
284.901	71.56
285.132	73.56
285.364	75.56
285.595	78.56
285.826	86.56
286.057	77.56
286.288	83.56
286.52	61.56
286.751	90.56
286.982	71.56
287.213	76.56
287.444	83.56
287.675	77.56
287.906	86.56
288.138	63.56
288.369	65.56
288.6	98.56
288.831	70.56
289.062	79.56
289.293	92.56
289.524	79.56
289.755	83.56
289.986	82.56
290.217	80.56
290.448	76.56
290.679	84.56
290.91	86.56
291.141	64.56
291.371	99.56
291.602	83.56
291.833	88.56
292.064	85.56
292.295	83.56
292.526	84.56
292.757	57.56
292.987	83.56
293.218	83.56
293.449	87.56
293.68	84.56
293.91	75.56
294.141	93.56
294.372	86.56
294.603	90.56
294.833	80.56
295.064	77.56
295.295	73.56
295.525	77.56
295.756	93.56
295.987	81.56
296.217	74.56
296.448	82.56
296.679	73.56
296.909	78.56
297.14	73.56
297.37	79.56
297.601	78.56
297.831	84.56
298.062	91.56
298.292	89.56
298.523	93.56
298.753	95.56
298.984	71.56
299.214	77.56
299.445	85.56
299.675	69.56
299.905	79.56
300.136	89.56
300.366	77.56
300.597	76.56
300.827	81.56
301.057	85.56
301.288	72.56
301.518	79.56
301.748	85.56
301.979	99.56
302.209	81.56
302.439	84.56
302.669	76.56
302.9	92.56
303.13	79.56
303.36	91.56
303.59	82.56
303.82	85.56
304.051	82.56
304.281	77.56
304.511	93.56
304.741	88.56
304.971	92.56
305.201	92.56
305.431	77.56
305.661	83.56
305.891	74.56
306.121	88.56
306.352	75.56
306.582	86.56
306.812	90.56
307.042	98.56
307.272	84.56
307.502	76.56
307.731	68.56
307.961	92.56
308.191	70.56
308.421	76.56
308.651	93.56
308.881	77.56
309.111	80.56
309.341	69.56
309.571	82.56
309.8	64.56
310.03	64.56
310.26	88.56
310.49	90.56
310.72	76.56
310.949	99.56
311.179	87.56
311.409	84.56
311.639	88.56
311.868	71.56
312.098	85.56
312.328	80.56
312.557	76.56
312.787	82.56
313.017	75.56
313.246	91.56
313.476	82.56
313.706	89.56
313.935	90.56
314.165	75.56
314.394	73.56
314.624	86.56
314.853	90.56
315.083	78.56
315.312	89.56
315.542	97.56
315.771	77.56
316.001	75.56
316.23	86.56
316.46	83.56
316.689	79.56
316.919	71.56
317.148	93.56
317.377	90.56
317.607	84.56
317.836	75.56
318.065	75.56
318.295	66.56
318.524	81.56
318.753	79.56
318.983	90.56
319.212	85.56
319.441	84.56
319.67	91.56
319.9	77.56
320.129	82.56
320.358	87.56
320.587	84.56
320.816	97.56
321.046	81.56
321.275	88.56
321.504	74.56
321.733	87.56
321.962	91.56
322.191	95.56
322.42	81.56
322.649	88.56
322.878	84.56
323.108	81.56
323.337	82.56
323.566	90.56
323.795	88.56
324.024	97.56
324.253	98.56
324.482	113.56
324.71	151.56
324.939	152.56
325.168	103.56
325.397	82.56
325.626	84.56
325.855	78.56
326.084	78.56
326.313	77.56
326.542	88.56
326.77	79.56
326.999	82.56
327.228	117.56
327.457	131.56
327.686	126.56
327.914	87.56
328.143	96.56
328.372	92.56
328.6	86.56
328.829	102.56
329.058	77.56
329.287	70.56
329.515	81.56
329.744	89.56
329.972	103.56
330.201	126.56
330.43	116.56
330.658	98.56
330.887	89.56
331.115	83.56
331.344	85.56
331.572	89.56
331.801	87.56
332.03	75.56
332.258	77.56
332.486	72.56
332.715	75.56
332.943	81.56
333.172	85.56
333.4	95.56
333.629	86.56
333.857	90.56
334.085	95.56
334.314	97.56
334.542	117.56
334.771	119.56
334.999	73.56
335.227	84.56
335.455	99.56
335.684	77.56
335.912	68.56
336.14	86.56
336.369	83.56
336.597	87.56
336.825	90.56
337.053	80.56
337.281	83.56
337.51	78.56
337.738	83.56
337.966	88.56
338.194	84.56
338.422	81.56
338.65	82.56
338.878	78.56
339.106	72.56
339.334	87.56
339.562	72.56
339.79	74.56
340.018	92.56
340.246	80.56
340.474	83.56
340.702	84.56
340.93	76.56
341.158	83.56
341.386	83.56
341.614	85.56
341.842	80.56
342.07	81.56
342.298	85.56
342.526	80.56
342.754	73.56
342.981	85.56
343.209	86.56
343.437	83.56
343.665	65.56
343.893	86.56
344.12	94.56
344.348	83.56
344.576	78.56
344.804	89.56
345.031	87.56
345.259	78.56
345.487	79.56
345.714	79.56
345.942	74.56
346.17	77.56
346.397	74.56
346.625	77.56
346.853	83.56
347.08	93.56
347.308	79.56
347.535	78.56
347.763	71.56
347.99	86.56
348.218	70.56
348.445	81.56
348.673	83.56
348.9	88.56
349.128	87.56
349.355	82.56
349.583	88.56
349.81	77.56
350.037	84.56
350.265	90.56
350.492	76.56
350.72	83.56
350.947	72.56
351.174	74.56
351.402	87.56
351.629	75.56
351.856	81.56
352.083	87.56
352.311	81.56
352.538	88.56
352.765	84.56
352.992	91.56
353.22	80.56
353.447	103.56
353.674	86.56
353.901	82.56
354.128	88.56
354.355	76.56
354.583	76.56
354.81	79.56
355.037	83.56
355.264	75.56
355.491	83.56
355.718	72.56
355.945	72.56
356.172	81.56
356.399	94.56
356.626	68.56
356.853	87.56
357.08	85.56
357.307	81.56
357.534	85.56
357.761	65.56
357.988	85.56
358.215	86.56
358.441	83.56
358.668	84.56
358.895	91.56
359.122	81.56
359.349	98.56
359.576	85.56
359.802	74.56
360.029	84.56
360.256	81.56
360.483	82.56
360.709	88.56
360.936	89.56
361.163	90.56
361.39	84.56
361.616	89.56
361.843	100.56
362.07	92.56
362.296	80.56
362.523	73.56
362.749	92.56
362.976	64.56
363.203	87.56
363.429	93.56
363.656	73.56
363.882	66.56
364.109	68.56
364.335	86.56
364.562	79.56
364.788	97.56
365.015	83.56
365.241	93.56
365.468	85.56
365.694	71.56
365.92	90.56
366.147	72.56
366.373	89.56
366.599	83.56
366.826	79.56
367.052	83.56
367.278	87.56
367.505	75.56
367.731	84.56
367.957	75.56
368.184	78.56
368.41	83.56
368.636	88.56
368.862	81.56
369.089	88.56
369.315	71.56
369.541	88.56
369.767	81.56
369.993	87.56
370.219	69.56
370.445	85.56
370.672	76.56
370.898	87.56
371.124	73.56
371.35	64.56
371.576	81.56
371.802	87.56
372.028	74.56
372.254	84.56
372.48	81.56
372.706	75.56
372.932	62.56
373.158	80.56
373.384	83.56
373.61	83.56
373.835	73.56
374.061	87.56
374.287	66.56
374.513	76.56
374.739	75.56
374.965	83.56
375.191	79.56
375.416	92.56
375.642	81.56
375.868	73.56
376.094	78.56
376.319	71.56
376.545	71.56
376.771	64.56
376.997	80.56
377.222	68.56
377.448	71.56
377.674	98.56
377.899	76.56
378.125	75.56
378.35	75.56
378.576	69.56
378.802	85.56
379.027	74.56
379.253	69.56
379.478	82.56
379.704	79.56
379.929	83.56
380.155	92.56
380.38	81.56
380.606	89.56
380.831	97.56
381.057	76.56
381.282	88.56
381.507	76.56
381.733	85.56
381.958	75.56
382.184	78.56
382.409	74.56
382.634	53.56
382.86	88.56
383.085	101.56
383.31	87.56
383.535	73.56
383.761	87.56
383.986	82.56
384.211	75.56
384.436	85.56
384.662	88.56
384.887	95.56
385.112	77.56
385.337	75.56
385.562	91.56
385.787	90.56
386.013	90.56
386.238	85.56
386.463	75.56
386.688	101.56
386.913	83.56
387.138	60.56
387.363	82.56
387.588	78.56
387.813	97.56
388.038	76.56
388.263	71.56
388.488	89.56
388.713	95.56
388.938	87.56
389.163	76.56
389.387	88.56
389.612	83.56
389.837	74.56
390.062	74.56
390.287	73.56
390.512	73.56
390.736	95.56
390.961	73.56
391.186	75.56
391.411	69.56
391.636	85.56
391.86	73.56
392.085	81.56
392.31	81.56
392.534	82.56
392.759	74.56
392.984	87.56
393.208	83.56
393.433	87.56
393.658	78.56
393.882	74.56
394.107	69.56
394.331	77.56
394.556	69.56
394.78	86.56
395.005	71.56
395.229	85.56
395.454	91.56
395.678	72.56
395.903	83.56
396.127	79.56
396.352	90.56
396.576	69.56
396.801	80.56
397.025	75.56
397.249	81.56
397.474	87.56
397.698	85.56
397.922	72.56
398.147	73.56
398.371	79.56
398.595	78.56
398.82	88.56
399.044	54.56
399.268	78.56
399.492	80.56
399.717	79.56
399.941	78.56
400.165	78.56
400.389	72.56
400.613	82.56
400.837	74.56
401.062	75.56
401.286	77.56
401.51	104.56
401.734	77.56
401.958	75.56
402.182	88.56
402.406	79.56
402.63	75.56
402.854	95.56
403.078	87.56
403.302	89.56
403.526	82.56
403.75	94.56
403.974	79.56
404.198	93.56
404.422	86.56
404.645	69.56
404.869	95.56
405.093	81.56
405.317	82.56
405.541	73.56
405.765	78.56
405.988	83.56
406.212	89.56
406.436	93.56
406.66	73.56
406.883	88.56
407.107	74.56
407.331	65.56
407.555	82.56
407.778	83.56
408.002	73.56
408.226	79.56
408.449	71.56
408.673	78.56
408.896	75.56
409.12	75.56
409.344	72.56
409.567	76.56
409.791	78.56
410.014	94.56
410.238	77.56
410.461	77.56
410.685	74.56
410.908	76.56
411.132	73.56
411.355	63.56
411.578	80.56
411.802	75.56
412.025	76.56
412.249	81.56
412.472	88.56
412.695	91.56
412.919	76.56
413.142	79.56
413.365	71.56
413.589	88.56
413.812	64.56
414.035	87.56
414.258	79.56
414.482	76.56
414.705	79.56
414.928	83.56
415.151	83.56
415.374	84.56
415.597	77.56
415.821	90.56
416.044	71.56
416.267	73.56
416.49	81.56
416.713	80.56
416.936	89.56
417.159	82.56
417.382	77.56
417.605	83.56
417.828	68.56
418.051	69.56
418.274	75.56
418.497	73.56
418.72	88.56
418.943	83.56
419.166	71.56
419.389	86.56
419.611	80.56
419.834	88.56
420.057	81.56
420.28	72.56
420.503	89.56
420.726	80.56
420.948	84.56
421.171	96.56
421.394	84.56
421.617	98.56
421.839	94.56
422.062	74.56
422.285	81.56
422.507	72.56
422.73	87.56
422.953	77.56
423.175	86.56
423.398	67.56
423.621	83.56
423.843	82.56
424.066	83.56
424.288	70.56
424.511	89.56
424.733	73.56
424.956	70.56
425.178	71.56
425.401	64.56
425.623	75.56
425.846	72.56
426.068	72.56
426.291	82.56
426.513	76.56
426.735	88.56
426.958	84.56
427.18	81.56
427.402	90.56
427.625	95.56
427.847	72.56
428.069	84.56
428.292	83.56
428.514	87.56
428.736	67.56
428.958	94.56
429.181	75.56
429.403	75.56
429.625	82.56
429.847	82.56
430.069	83.56
430.292	83.56
430.514	81.56
430.736	73.56
430.958	93.56
431.18	67.56
431.402	89.56
431.624	77.56
431.846	72.56
432.068	77.56
432.29	71.56
432.512	81.56
432.734	74.56
432.956	73.56
433.178	89.56
433.4	85.56
433.622	87.56
433.844	72.56
434.066	85.56
434.287	82.56
434.509	64.56
434.731	81.56
434.953	67.56
435.175	72.56
435.397	72.56
435.618	83.56
435.84	80.56
436.062	79.56
436.284	81.56
436.505	80.56
436.727	84.56
436.949	68.56
437.17	70.56
437.392	83.56
437.614	92.56
437.835	78.56
438.057	88.56
438.278	88.56
438.5	73.56
438.721	86.56
438.943	76.56
439.165	71.56
439.386	84.56
439.608	92.56
439.829	83.56
440.05	88.56
440.272	83.56
440.493	76.56
440.715	83.56
440.936	85.56
441.158	83.56
441.379	88.56
441.6	93.56
441.822	92.56
442.043	77.56
442.264	95.56
442.486	86.56
442.707	80.56
442.928	93.56
443.149	91.56
443.371	88.56
443.592	91.56
443.813	82.56
444.034	80.56
444.255	99.56
444.476	82.56
444.698	74.56
444.919	72.56
445.14	161.56
445.361	135.56
445.582	69.56
445.803	79.56
446.024	83.56
446.245	76.56
446.466	69.56
446.687	84.56
446.908	64.56
447.129	85.56
447.35	78.56
447.571	70.56
447.792	76.56
448.013	80.56
448.234	89.56
448.455	68.56
448.675	87.56
448.896	91.56
449.117	84.56
449.338	69.56
449.559	74.56
449.779	79.56
450	86.56
450.221	86.56
450.442	86.56
450.662	96.56
450.883	88.56
451.104	70.56
451.324	85.56
451.545	78.56
451.766	77.56
451.986	70.56
452.207	86.56
452.428	91.56
452.648	94.56
452.869	74.56
453.089	85.56
453.31	77.56
453.53	82.56
453.751	74.56
453.971	76.56
454.192	71.56
454.412	67.56
454.633	76.56
454.853	85.56
455.073	84.56
455.294	73.56
455.514	82.56
455.734	65.56
455.955	76.56
456.175	81.56
456.395	84.56
456.616	87.56
456.836	69.56
457.056	77.56
457.276	82.56
457.497	71.56
457.717	74.56
457.937	69.56
458.157	72.56
458.377	85.56
458.598	75.56
458.818	81.56
459.038	83.56
459.258	87.56
459.478	85.56
459.698	74.56
459.918	83.56
460.138	72.56
460.358	87.56
460.578	81.56
460.798	81.56
461.018	86.56
461.238	83.56
461.458	81.56
461.678	81.56
461.898	99.56
462.118	92.56
462.338	94.56
462.558	81.56
462.777	68.56
462.997	80.56
463.217	83.56
463.437	75.56
463.657	72.56
463.876	58.56
464.096	75.56
464.316	81.56
464.536	89.56
464.755	79.56
464.975	78.56
465.195	80.56
465.414	74.56
465.634	87.56
465.854	89.56
466.073	87.56
466.293	89.56
466.512	74.56
466.732	79.56
466.951	76.56
467.171	87.56
467.391	82.56
467.61	91.56
467.829	92.56
468.049	107.56
468.268	106.56
468.488	90.56
468.707	73.56
468.927	71.56
469.146	80.56
469.365	69.56
469.585	91.56
469.804	90.56
470.023	78.56
470.243	65.56
470.462	84.56
470.681	79.56
470.901	69.56
471.12	95.56
471.339	76.56
471.558	89.56
471.777	83.56
471.997	86.56
472.216	135.56
472.435	138.56
472.654	86.56
472.873	89.56
473.092	80.56
473.311	100.56
473.53	81.56
473.749	83.56
473.968	77.56
474.187	84.56
474.406	72.56
474.625	78.56
474.844	83.56
475.063	88.56
475.282	77.56
475.501	77.56
475.72	82.56
475.939	75.56
476.158	75.56
476.377	84.56
476.596	83.56
476.814	82.56
477.033	79.56
477.252	85.56
477.471	67.56
477.69	85.56
477.908	91.56
478.127	85.56
478.346	83.56
478.564	86.56
478.783	84.56
479.002	79.56
479.22	79.56
479.439	76.56
479.658	81.56
479.876	79.56
480.095	93.56
480.313	80.56
480.532	93.56
480.751	102.56
480.969	137.56
481.188	205.56
481.406	143.56
481.624	81.56
481.843	77.56
482.061	99.56
482.28	84.56
482.498	75.56
482.717	77.56
482.935	67.56
483.153	69.56
483.372	82.56
483.59	84.56
483.808	73.56
484.027	76.56
484.245	69.56
484.463	71.56
484.681	76.56
484.9	86.56
485.118	77.56
485.336	71.56
485.554	79.56
485.772	77.56
485.99	66.56
486.209	79.56
486.427	71.56
486.645	75.56
486.863	81.56
487.081	91.56
487.299	69.56
487.517	85.56
487.735	89.56
487.953	81.56
488.171	82.56
488.389	80.56
488.607	88.56
488.825	91.56
489.043	87.56
489.261	75.56
489.479	68.56
489.696	64.56
489.914	92.56
490.132	81.56
490.35	70.56
490.568	73.56
490.786	59.56
491.003	74.56
491.221	89.56
491.439	71.56
491.657	73.56
491.874	79.56
492.092	71.56
492.31	75.56
492.527	84.56
492.745	70.56
492.963	63.56
493.18	72.56
493.398	81.56
493.615	77.56
493.833	90.56
494.05	100.56
494.268	77.56
494.485	80.56
494.703	83.56
494.92	72.56
495.138	87.56
495.355	83.56
495.573	89.56
495.79	86.56
496.008	81.56
496.225	94.56
496.442	84.56
496.66	81.56
496.877	64.56
497.094	97.56
497.312	90.56
497.529	89.56
497.746	92.56
497.963	76.56
498.181	77.56
498.398	73.56
498.615	82.56
498.832	97.56
499.049	74.56
499.267	84.56
499.484	87.56
499.701	69.56
499.918	77.56
500.135	73.56
500.352	74.56
500.569	89.56
500.786	79.56
501.003	84.56
501.22	73.56
501.437	85.56
501.654	77.56
501.871	75.56
502.088	64.56
502.305	78.56
502.522	69.56
502.739	76.56
502.956	77.56
503.172	104.56
503.389	86.56
503.606	75.56
503.823	83.56
504.04	84.56
504.256	84.56
504.473	69.56
504.69	81.56
504.907	100.56
505.123	76.56
505.34	73.56
505.557	73.56
505.773	90.56
505.99	85.56
506.207	83.56
506.423	73.56
506.64	72.56
506.856	91.56
507.073	82.56
507.289	73.56
507.506	82.56
507.722	85.56
507.939	81.56
508.155	74.56
508.372	85.56
508.588	76.56
508.805	91.56
509.021	65.56
509.238	69.56
509.454	72.56
509.67	89.56
509.887	82.56
510.103	88.56
510.319	86.56
510.536	136.56
510.752	212.56
510.968	115.56
511.184	89.56
511.401	77.56
511.617	79.56
511.833	84.56
512.049	85.56
512.265	74.56
512.481	84.56
512.698	75.56
512.914	88.56
513.13	82.56
513.346	66.56
513.562	74.56
513.778	77.56
513.994	83.56
514.21	78.56
514.426	96.56
514.642	85.56
514.858	83.56
515.074	86.56
515.29	139.56
515.506	200.56
515.721	108.56
515.937	74.56
516.153	66.56
516.369	88.56
516.585	91.56
516.801	82.56
517.016	78.56
517.232	90.56
517.448	67.56
517.664	85.56
517.879	92.56
518.095	87.56
518.311	88.56
518.527	73.56
518.742	85.56
518.958	89.56
519.173	89.56
519.389	81.56
519.605	72.56
519.82	85.56
