Data from Penny_1_HRD10591_00010.txt Node
Date: Wed Nov 05 15:33:23 EST 2025
User: Yrep
Spectrometer: HR+D1059
Trigger mode: 1
Integration Time (sec): 1.000000E-1
Scans to average: 1
Electric dark correction enabled: true
Nonlinearity correction enabled: false
Boxcar width: 0
XAxis mode: Wavelengths
Number of Pixels in Spectrum: 2048
>>>>>Begin Spectral Data<<<<<
223.165	-12.56
223.4	-12.56
223.635	-12.56
223.869	-17.56
224.104	-21.56
224.338	-16.56
224.573	-22.56
224.808	-10.56
225.042	-3.56
225.277	-14.56
225.511	9.44
225.746	5.44
225.98	9.44
226.215	16.44
226.449	10.44
226.683	6.44
226.918	21.44
227.152	40.44
227.387	24.44
227.621	25.44
227.856	35.44
228.09	48.44
228.324	33.44
228.559	47.44
228.793	43.44
229.027	59.44
229.262	61.44
229.496	61.44
229.73	63.44
229.964	65.44
230.199	87.44
230.433	80.44
230.667	78.44
230.901	95.44
231.136	87.44
231.37	83.44
231.604	86.44
231.838	70.44
232.072	90.44
232.306	76.44
232.541	68.44
232.775	81.44
233.009	75.44
233.243	81.44
233.477	81.44
233.711	67.44
233.945	87.44
234.179	84.44
234.413	90.44
234.647	92.44
234.881	74.44
235.115	81.44
235.349	69.44
235.583	76.44
235.817	77.44
236.051	75.44
236.285	60.44
236.519	75.44
236.753	69.44
236.987	51.44
237.221	64.44
237.455	81.44
237.689	65.44
237.922	80.44
238.156	77.44
238.39	85.44
238.624	65.44
238.858	62.44
239.091	78.44
239.325	58.44
239.559	69.44
239.793	68.44
240.027	74.44
240.26	74.44
240.494	88.44
240.728	77.44
240.961	81.44
241.195	71.44
241.429	88.44
241.662	86.44
241.896	80.44
242.13	73.44
242.363	75.44
242.597	78.44
242.83	77.44
243.064	70.44
243.298	71.44
243.531	81.44
243.765	69.44
243.998	71.44
244.232	83.44
244.465	75.44
244.699	68.44
244.932	90.44
245.166	81.44
245.399	78.44
245.633	74.44
245.866	71.44
246.099	74.44
246.333	75.44
246.566	83.44
246.8	69.44
247.033	72.44
247.266	56.44
247.5	62.44
247.733	79.44
247.966	84.44
248.2	63.44
248.433	76.44
248.666	84.44
248.899	70.44
249.133	73.44
249.366	87.44
249.599	84.44
249.832	78.44
250.066	78.44
250.299	84.44
250.532	64.44
250.765	70.44
250.998	78.44
251.231	69.44
251.465	65.44
251.698	79.44
251.931	90.44
252.164	74.44
252.397	79.44
252.63	75.44
252.863	73.44
253.096	81.44
253.329	81.44
253.562	70.44
253.795	75.44
254.028	86.44
254.261	63.44
254.494	81.44
254.727	79.44
254.96	71.44
255.193	70.44
255.426	62.44
255.659	82.44
255.892	76.44
256.124	72.44
256.357	78.44
256.59	82.44
256.823	81.44
257.056	70.44
257.289	71.44
257.521	82.44
257.754	91.44
257.987	55.44
258.22	77.44
258.452	79.44
258.685	68.44
258.918	75.44
259.151	80.44
259.383	73.44
259.616	77.44
259.849	70.44
260.081	76.44
260.314	69.44
260.547	82.44
260.779	77.44
261.012	87.44
261.244	77.44
261.477	72.44
261.71	81.44
261.942	83.44
262.175	81.44
262.407	83.44
262.64	86.44
262.872	73.44
263.105	72.44
263.337	74.44
263.57	74.44
263.802	74.44
264.035	71.44
264.267	69.44
264.499	77.44
264.732	89.44
264.964	75.44
265.197	77.44
265.429	78.44
265.661	73.44
265.894	71.44
266.126	85.44
266.358	74.44
266.591	86.44
266.823	88.44
267.055	74.44
267.287	71.44
267.52	86.44
267.752	77.44
267.984	79.44
268.216	80.44
268.448	93.44
268.681	83.44
268.913	81.44
269.145	69.44
269.377	85.44
269.609	78.44
269.841	74.44
270.073	94.44
270.306	77.44
270.538	70.44
270.77	79.44
271.002	84.44
271.234	74.44
271.466	77.44
271.698	80.44
271.93	68.44
272.162	81.44
272.394	79.44
272.626	81.44
272.858	78.44
273.09	81.44
273.322	75.44
273.553	81.44
273.785	85.44
274.017	82.44
274.249	77.44
274.481	76.44
274.713	81.44
274.945	94.44
275.176	76.44
275.408	92.44
275.64	81.44
275.872	77.44
276.104	63.44
276.335	89.44
276.567	57.44
276.799	84.44
277.031	81.44
277.262	84.44
277.494	90.44
277.726	73.44
277.957	81.44
278.189	97.44
278.421	72.44
278.652	91.44
278.884	86.44
279.115	76.44
279.347	75.44
279.579	87.44
279.81	85.44
280.042	84.44
280.273	78.44
280.505	71.44
280.736	83.44
280.968	75.44
281.199	76.44
281.431	75.44
281.662	85.44
281.894	95.44
282.125	91.44
282.356	83.44
282.588	83.44
282.819	86.44
283.051	64.44
283.282	77.44
283.513	76.44
283.745	82.44
283.976	87.44
284.207	79.44
284.439	76.44
284.67	75.44
284.901	77.44
285.132	76.44
285.364	75.44
285.595	81.44
285.826	76.44
286.057	83.44
286.288	86.44
286.52	75.44
286.751	73.44
286.982	84.44
287.213	92.44
287.444	89.44
287.675	88.44
287.906	91.44
288.138	87.44
288.369	60.44
288.6	61.44
288.831	82.44
289.062	93.44
289.293	77.44
289.524	85.44
289.755	90.44
289.986	65.44
290.217	81.44
290.448	82.44
290.679	68.44
290.91	79.44
291.141	77.44
291.371	73.44
291.602	74.44
291.833	79.44
292.064	81.44
292.295	87.44
292.526	69.44
292.757	79.44
292.987	73.44
293.218	79.44
293.449	97.44
293.68	81.44
293.91	89.44
294.141	76.44
294.372	85.44
294.603	79.44
294.833	69.44
295.064	83.44
295.295	86.44
295.525	79.44
295.756	91.44
295.987	84.44
296.217	74.44
296.448	73.44
296.679	91.44
296.909	75.44
297.14	84.44
297.37	61.44
297.601	73.44
297.831	70.44
298.062	81.44
298.292	83.44
298.523	74.44
298.753	81.44
298.984	71.44
299.214	73.44
299.445	73.44
299.675	81.44
299.905	75.44
300.136	80.44
300.366	76.44
300.597	73.44
300.827	77.44
301.057	72.44
301.288	90.44
301.518	80.44
301.748	81.44
301.979	95.44
302.209	95.44
302.439	81.44
302.669	85.44
302.9	93.44
303.13	91.44
303.36	75.44
303.59	80.44
303.82	75.44
304.051	81.44
304.281	83.44
304.511	83.44
304.741	84.44
304.971	78.44
305.201	61.44
305.431	79.44
305.661	73.44
305.891	87.44
306.121	70.44
306.352	80.44
306.582	93.44
306.812	96.44
307.042	75.44
307.272	91.44
307.502	88.44
307.731	76.44
307.961	75.44
308.191	81.44
308.421	65.44
308.651	97.44
308.881	87.44
309.111	90.44
309.341	91.44
309.571	83.44
309.8	77.44
310.03	70.44
310.26	87.44
310.49	97.44
310.72	83.44
310.949	97.44
311.179	83.44
311.409	85.44
311.639	79.44
311.868	62.44
312.098	81.44
312.328	90.44
312.557	96.44
312.787	84.44
313.017	81.44
313.246	77.44
313.476	83.44
313.706	73.44
313.935	69.44
314.165	86.44
314.394	79.44
314.624	83.44
314.853	91.44
315.083	90.44
315.312	81.44
315.542	83.44
315.771	68.44
316.001	76.44
316.23	83.44
316.46	67.44
316.689	75.44
316.919	81.44
317.148	93.44
317.377	92.44
317.607	77.44
317.836	78.44
318.065	81.44
318.295	94.44
318.524	85.44
318.753	81.44
318.983	89.44
319.212	88.44
319.441	89.44
319.67	87.44
319.9	85.44
320.129	75.44
320.358	73.44
320.587	88.44
320.816	74.44
321.046	89.44
321.275	89.44
321.504	74.44
321.733	93.44
321.962	88.44
322.191	79.44
322.42	84.44
322.649	71.44
322.878	80.44
323.108	83.44
323.337	84.44
323.566	79.44
323.795	87.44
324.024	87.44
324.253	90.44
324.482	111.44
324.71	137.44
324.939	164.44
325.168	100.44
325.397	93.44
325.626	88.44
325.855	81.44
326.084	86.44
326.313	75.44
326.542	81.44
326.77	82.44
326.999	92.44
327.228	106.44
327.457	121.44
327.686	109.44
327.914	87.44
328.143	98.44
328.372	84.44
328.6	86.44
328.829	83.44
329.058	94.44
329.287	79.44
329.515	73.44
329.744	84.44
329.972	85.44
330.201	102.44
330.43	101.44
330.658	98.44
330.887	101.44
331.115	82.44
331.344	82.44
331.572	87.44
331.801	72.44
332.03	87.44
332.258	79.44
332.486	74.44
332.715	90.44
332.943	81.44
333.172	93.44
333.4	83.44
333.629	90.44
333.857	87.44
334.085	87.44
334.314	109.44
334.542	115.44
334.771	99.44
334.999	88.44
335.227	81.44
335.455	87.44
335.684	92.44
335.912	93.44
336.14	87.44
336.369	79.44
336.597	75.44
336.825	90.44
337.053	84.44
337.281	71.44
337.51	81.44
337.738	85.44
337.966	65.44
338.194	79.44
338.422	83.44
338.65	76.44
338.878	82.44
339.106	73.44
339.334	92.44
339.562	73.44
339.79	86.44
340.018	81.44
340.246	88.44
340.474	76.44
340.702	89.44
340.93	85.44
341.158	71.44
341.386	79.44
341.614	78.44
341.842	95.44
342.07	84.44
342.298	83.44
342.526	89.44
342.754	83.44
342.981	79.44
343.209	72.44
343.437	81.44
343.665	83.44
343.893	78.44
344.12	84.44
344.348	78.44
344.576	73.44
344.804	89.44
345.031	69.44
345.259	86.44
345.487	79.44
345.714	83.44
345.942	74.44
346.17	77.44
346.397	77.44
346.625	78.44
346.853	87.44
347.08	85.44
347.308	79.44
347.535	60.44
347.763	91.44
347.99	79.44
348.218	83.44
348.445	92.44
348.673	74.44
348.9	86.44
349.128	83.44
349.355	84.44
349.583	74.44
349.81	72.44
350.037	62.44
350.265	80.44
350.492	82.44
350.72	80.44
350.947	83.44
351.174	92.44
351.402	77.44
351.629	80.44
351.856	81.44
352.083	93.44
352.311	87.44
352.538	79.44
352.765	90.44
352.992	93.44
353.22	85.44
353.447	84.44
353.674	85.44
353.901	73.44
354.128	80.44
354.355	73.44
354.583	86.44
354.81	91.44
355.037	82.44
355.264	85.44
355.491	74.44
355.718	67.44
355.945	81.44
356.172	79.44
356.399	78.44
356.626	81.44
356.853	77.44
357.08	86.44
357.307	91.44
357.534	77.44
357.761	82.44
357.988	97.44
358.215	72.44
358.441	81.44
358.668	94.44
358.895	94.44
359.122	81.44
359.349	79.44
359.576	63.44
359.802	83.44
360.029	82.44
360.256	97.44
360.483	80.44
360.709	66.44
360.936	97.44
361.163	72.44
361.39	75.44
361.616	68.44
361.843	85.44
362.07	90.44
362.296	91.44
362.523	59.44
362.749	85.44
362.976	69.44
363.203	97.44
363.429	80.44
363.656	71.44
363.882	80.44
364.109	65.44
364.335	95.44
364.562	81.44
364.788	89.44
365.015	84.44
365.241	91.44
365.468	86.44
365.694	81.44
365.92	89.44
366.147	84.44
366.373	65.44
366.599	95.44
366.826	82.44
367.052	87.44
367.278	77.44
367.505	97.44
367.731	73.44
367.957	79.44
368.184	79.44
368.41	84.44
368.636	89.44
368.862	83.44
369.089	91.44
369.315	79.44
369.541	83.44
369.767	90.44
369.993	86.44
370.219	86.44
370.445	72.44
370.672	92.44
370.898	78.44
371.124	83.44
371.35	84.44
371.576	69.44
371.802	69.44
372.028	86.44
372.254	88.44
372.48	72.44
372.706	76.44
372.932	75.44
373.158	89.44
373.384	85.44
373.61	88.44
373.835	74.44
374.061	79.44
374.287	85.44
374.513	80.44
374.739	89.44
374.965	78.44
375.191	91.44
375.416	81.44
375.642	70.44
375.868	88.44
376.094	76.44
376.319	75.44
376.545	86.44
376.771	79.44
376.997	85.44
377.222	83.44
377.448	92.44
377.674	87.44
377.899	58.44
378.125	81.44
378.35	100.44
378.576	85.44
378.802	83.44
379.027	89.44
379.253	78.44
379.478	67.44
379.704	77.44
379.929	79.44
380.155	60.44
380.38	78.44
380.606	83.44
380.831	79.44
381.057	94.44
381.282	75.44
381.507	83.44
381.733	83.44
381.958	75.44
382.184	73.44
382.409	75.44
382.634	87.44
382.86	96.44
383.085	79.44
383.31	86.44
383.535	81.44
383.761	82.44
383.986	65.44
384.211	71.44
384.436	77.44
384.662	90.44
384.887	83.44
385.112	76.44
385.337	76.44
385.562	82.44
385.787	64.44
386.013	74.44
386.238	83.44
386.463	80.44
386.688	88.44
386.913	87.44
387.138	86.44
387.363	89.44
387.588	97.44
387.813	71.44
388.038	79.44
388.263	86.44
388.488	87.44
388.713	81.44
388.938	82.44
389.163	81.44
389.387	58.44
389.612	84.44
389.837	73.44
390.062	80.44
390.287	63.44
390.512	91.44
390.736	66.44
390.961	81.44
391.186	69.44
391.411	66.44
391.636	76.44
391.86	62.44
392.085	86.44
392.31	77.44
392.534	82.44
392.759	69.44
392.984	73.44
393.208	76.44
393.433	75.44
393.658	91.44
393.882	65.44
394.107	93.44
394.331	82.44
394.556	75.44
394.78	79.44
395.005	86.44
395.229	69.44
395.454	81.44
395.678	77.44
395.903	78.44
396.127	80.44
396.352	77.44
396.576	82.44
396.801	90.44
397.025	83.44
397.249	89.44
397.474	93.44
397.698	79.44
397.922	81.44
398.147	72.44
398.371	65.44
398.595	61.44
398.82	77.44
399.044	79.44
399.268	83.44
399.492	88.44
399.717	75.44
399.941	90.44
400.165	85.44
400.389	81.44
400.613	80.44
400.837	66.44
401.062	86.44
401.286	63.44
401.51	76.44
401.734	79.44
401.958	83.44
402.182	90.44
402.406	90.44
402.63	73.44
402.854	77.44
403.078	80.44
403.302	81.44
403.526	69.44
403.75	83.44
403.974	79.44
404.198	90.44
404.422	87.44
404.645	80.44
404.869	80.44
405.093	82.44
405.317	76.44
405.541	70.44
405.765	77.44
405.988	69.44
406.212	82.44
406.436	83.44
406.66	79.44
406.883	93.44
407.107	94.44
407.331	92.44
407.555	89.44
407.778	98.44
408.002	77.44
408.226	75.44
408.449	84.44
408.673	83.44
408.896	83.44
409.12	81.44
409.344	82.44
409.567	74.44
409.791	81.44
410.014	94.44
410.238	83.44
410.461	82.44
410.685	59.44
410.908	82.44
411.132	65.44
411.355	83.44
411.578	74.44
411.802	70.44
412.025	82.44
412.249	68.44
412.472	79.44
412.695	66.44
412.919	71.44
413.142	77.44
413.365	74.44
413.589	74.44
413.812	77.44
414.035	78.44
414.258	75.44
414.482	75.44
414.705	85.44
414.928	75.44
415.151	75.44
415.374	84.44
415.597	73.44
415.821	83.44
416.044	79.44
416.267	74.44
416.49	70.44
416.713	79.44
416.936	73.44
417.159	69.44
417.382	73.44
417.605	85.44
417.828	87.44
418.051	72.44
418.274	67.44
418.497	71.44
418.72	67.44
418.943	82.44
419.166	90.44
419.389	93.44
419.611	71.44
419.834	91.44
420.057	73.44
420.28	79.44
420.503	79.44
420.726	72.44
420.948	73.44
421.171	71.44
421.394	81.44
421.617	83.44
421.839	86.44
422.062	81.44
422.285	76.44
422.507	74.44
422.73	74.44
422.953	82.44
423.175	68.44
423.398	91.44
423.621	84.44
423.843	89.44
424.066	81.44
424.288	60.44
424.511	74.44
424.733	78.44
424.956	82.44
425.178	75.44
425.401	77.44
425.623	92.44
425.846	83.44
426.068	90.44
426.291	72.44
426.513	73.44
426.735	82.44
426.958	76.44
427.18	82.44
427.402	82.44
427.625	86.44
427.847	72.44
428.069	86.44
428.292	75.44
428.514	75.44
428.736	76.44
428.958	82.44
429.181	79.44
429.403	62.44
429.625	76.44
429.847	85.44
430.069	83.44
430.292	97.44
430.514	79.44
430.736	80.44
430.958	75.44
431.18	64.44
431.402	72.44
431.624	74.44
431.846	69.44
432.068	70.44
432.29	62.44
432.512	85.44
432.734	85.44
432.956	87.44
433.178	73.44
433.4	74.44
433.622	93.44
433.844	85.44
434.066	83.44
434.287	89.44
434.509	69.44
434.731	74.44
434.953	73.44
435.175	74.44
435.397	86.44
435.618	79.44
435.84	79.44
436.062	67.44
436.284	75.44
436.505	71.44
436.727	80.44
436.949	77.44
437.17	79.44
437.392	73.44
437.614	79.44
437.835	62.44
438.057	82.44
438.278	77.44
438.5	86.44
438.721	79.44
438.943	73.44
439.165	88.44
439.386	74.44
439.608	90.44
439.829	87.44
440.05	65.44
440.272	67.44
440.493	79.44
440.715	94.44
440.936	82.44
441.158	91.44
441.379	102.44
441.6	87.44
441.822	73.44
442.043	72.44
442.264	77.44
442.486	65.44
442.707	77.44
442.928	71.44
443.149	73.44
443.371	83.44
443.592	79.44
443.813	81.44
444.034	71.44
444.255	98.44
444.476	77.44
444.698	89.44
444.919	80.44
445.14	163.44
445.361	109.44
445.582	88.44
445.803	84.44
446.024	95.44
446.245	87.44
446.466	79.44
446.687	74.44
446.908	83.44
447.129	89.44
447.35	89.44
447.571	74.44
447.792	82.44
448.013	68.44
448.234	73.44
448.455	79.44
448.675	77.44
448.896	94.44
449.117	79.44
449.338	84.44
449.559	75.44
449.779	84.44
450	85.44
450.221	78.44
450.442	73.44
450.662	78.44
450.883	73.44
451.104	81.44
451.324	81.44
451.545	86.44
451.766	83.44
451.986	69.44
452.207	76.44
452.428	87.44
452.648	73.44
452.869	93.44
453.089	75.44
453.31	72.44
453.53	76.44
453.751	82.44
453.971	83.44
454.192	79.44
454.412	87.44
454.633	83.44
454.853	89.44
455.073	72.44
455.294	80.44
455.514	73.44
455.734	73.44
455.955	72.44
456.175	71.44
456.395	73.44
456.616	80.44
456.836	81.44
457.056	72.44
457.276	73.44
457.497	77.44
457.717	84.44
457.937	74.44
458.157	70.44
458.377	93.44
458.598	85.44
458.818	85.44
459.038	80.44
459.258	82.44
459.478	83.44
459.698	80.44
459.918	85.44
460.138	73.44
460.358	86.44
460.578	91.44
460.798	90.44
461.018	78.44
461.238	72.44
461.458	79.44
461.678	76.44
461.898	76.44
462.118	87.44
462.338	66.44
462.558	81.44
462.777	81.44
462.997	57.44
463.217	75.44
463.437	74.44
463.657	80.44
463.876	98.44
464.096	80.44
464.316	81.44
464.536	81.44
464.755	90.44
464.975	73.44
465.195	88.44
465.414	70.44
465.634	85.44
465.854	73.44
466.073	86.44
466.293	91.44
466.512	76.44
466.732	84.44
466.951	93.44
467.171	73.44
467.391	77.44
467.61	94.44
467.829	84.44
468.049	87.44
468.268	100.44
468.488	74.44
468.707	73.44
468.927	69.44
469.146	82.44
469.365	69.44
469.585	87.44
469.804	77.44
470.023	60.44
470.243	74.44
470.462	77.44
470.681	87.44
470.901	70.44
471.12	67.44
471.339	82.44
471.558	78.44
471.777	92.44
471.997	89.44
472.216	145.44
472.435	158.44
472.654	89.44
472.873	90.44
473.092	86.44
473.311	91.44
473.53	83.44
473.749	95.44
473.968	83.44
474.187	66.44
474.406	77.44
474.625	77.44
474.844	75.44
475.063	88.44
475.282	72.44
475.501	83.44
475.72	89.44
475.939	78.44
476.158	87.44
476.377	81.44
476.596	73.44
476.814	82.44
477.033	85.44
477.252	89.44
477.471	87.44
477.69	81.44
477.908	74.44
478.127	75.44
478.346	96.44
478.564	87.44
478.783	74.44
479.002	85.44
479.22	81.44
479.439	83.44
479.658	81.44
479.876	95.44
480.095	82.44
480.313	68.44
480.532	89.44
480.751	74.44
480.969	121.44
481.188	196.44
481.406	134.44
481.624	93.44
481.843	75.44
482.061	79.44
482.28	91.44
482.498	75.44
482.717	80.44
482.935	72.44
483.153	76.44
483.372	77.44
483.59	92.44
483.808	74.44
484.027	80.44
484.245	91.44
484.463	76.44
484.681	84.44
484.9	71.44
485.118	81.44
485.336	66.44
485.554	77.44
485.772	65.44
485.99	79.44
486.209	88.44
486.427	69.44
486.645	82.44
486.863	85.44
487.081	91.44
487.299	83.44
487.517	97.44
487.735	80.44
487.953	83.44
488.171	82.44
488.389	74.44
488.607	80.44
488.825	97.44
489.043	73.44
489.261	88.44
489.479	83.44
489.696	80.44
489.914	73.44
490.132	74.44
490.35	76.44
490.568	82.44
490.786	85.44
491.003	69.44
491.221	81.44
491.439	96.44
491.657	78.44
491.874	76.44
492.092	73.44
492.31	84.44
492.527	96.44
492.745	88.44
492.963	76.44
493.18	89.44
493.398	94.44
493.615	78.44
493.833	81.44
494.05	75.44
494.268	78.44
494.485	72.44
494.703	82.44
494.92	78.44
495.138	65.44
495.355	85.44
495.573	76.44
495.79	81.44
496.008	94.44
496.225	68.44
496.442	82.44
496.66	85.44
496.877	73.44
497.094	83.44
497.312	88.44
497.529	76.44
497.746	90.44
497.963	85.44
498.181	80.44
498.398	71.44
498.615	88.44
498.832	72.44
499.049	74.44
499.267	97.44
499.484	67.44
499.701	67.44
499.918	74.44
500.135	84.44
500.352	77.44
500.569	81.44
500.786	84.44
501.003	80.44
501.22	72.44
501.437	79.44
501.654	99.44
501.871	86.44
502.088	99.44
502.305	87.44
502.522	81.44
502.739	77.44
502.956	87.44
503.172	75.44
503.389	71.44
503.606	88.44
503.823	79.44
504.04	89.44
504.256	90.44
504.473	86.44
504.69	81.44
504.907	86.44
505.123	86.44
505.34	79.44
505.557	85.44
505.773	87.44
505.99	92.44
506.207	95.44
506.423	93.44
506.64	73.44
506.856	83.44
507.073	79.44
507.289	85.44
507.506	81.44
507.722	92.44
507.939	90.44
508.155	89.44
508.372	79.44
508.588	73.44
508.805	80.44
509.021	91.44
509.238	73.44
509.454	85.44
509.67	69.44
509.887	88.44
510.103	82.44
510.319	85.44
510.536	115.44
510.752	185.44
510.968	103.44
511.184	88.44
511.401	88.44
511.617	80.44
511.833	78.44
512.049	92.44
512.265	83.44
512.481	71.44
512.698	86.44
512.914	73.44
513.13	87.44
513.346	75.44
513.562	97.44
513.778	93.44
513.994	73.44
514.21	101.44
514.426	79.44
514.642	100.44
514.858	70.44
515.074	101.44
515.29	139.44
515.506	193.44
515.721	100.44
515.937	87.44
516.153	88.44
516.369	78.44
516.585	78.44
516.801	76.44
517.016	87.44
517.232	82.44
517.448	87.44
517.664	81.44
517.879	91.44
518.095	98.44
518.311	81.44
518.527	81.44
518.742	87.44
518.958	86.44
519.173	76.44
519.389	81.44
519.605	79.44
519.82	84.44
