Data from Penny_1_HRD10591_00007.txt Node
Date: Wed Nov 05 15:33:22 EST 2025
User: Yrep
Spectrometer: HR+D1059
Trigger mode: 1
Integration Time (sec): 1.000000E-1
Scans to average: 1
Electric dark correction enabled: true
Nonlinearity correction enabled: false
Boxcar width: 0
XAxis mode: Wavelengths
Number of Pixels in Spectrum: 2048
>>>>>Begin Spectral Data<<<<<
223.165	-15.62
223.4	-15.62
223.635	-15.62
223.869	-5.62
224.104	-17.62
224.338	-13.62
224.573	-27.62
224.808	-20.62
225.042	0.38
225.277	-7.62
225.511	3.38
225.746	14.38
225.98	7.38
226.215	5.38
226.449	11.38
226.683	15.38
226.918	19.38
227.152	31.38
227.387	29.38
227.621	37.38
227.856	43.38
228.09	44.38
228.324	50.38
228.559	54.38
228.793	56.38
229.027	54.38
229.262	58.38
229.496	77.38
229.73	60.38
229.964	78.38
230.199	61.38
230.433	76.38
230.667	72.38
230.901	88.38
231.136	83.38
231.37	75.38
231.604	86.38
231.838	74.38
232.072	77.38
232.306	74.38
232.541	74.38
232.775	67.38
233.009	75.38
233.243	77.38
233.477	84.38
233.711	95.38
233.945	72.38
234.179	81.38
234.413	75.38
234.647	73.38
234.881	67.38
235.115	70.38
235.349	76.38
235.583	67.38
235.817	82.38
236.051	71.38
236.285	79.38
236.519	75.38
236.753	71.38
236.987	76.38
237.221	79.38
237.455	71.38
237.689	72.38
237.922	79.38
238.156	84.38
238.39	79.38
238.624	66.38
238.858	76.38
239.091	66.38
239.325	72.38
239.559	66.38
239.793	70.38
240.027	81.38
240.26	74.38
240.494	89.38
240.728	80.38
240.961	83.38
241.195	65.38
241.429	62.38
241.662	70.38
241.896	76.38
242.13	74.38
242.363	65.38
242.597	75.38
242.83	67.38
243.064	56.38
243.298	68.38
243.531	63.38
243.765	72.38
243.998	73.38
244.232	80.38
244.465	65.38
244.699	90.38
244.932	82.38
245.166	70.38
245.399	83.38
245.633	86.38
245.866	77.38
246.099	69.38
246.333	67.38
246.566	81.38
246.8	77.38
247.033	60.38
247.266	74.38
247.5	68.38
247.733	71.38
247.966	70.38
248.2	77.38
248.433	80.38
248.666	79.38
248.899	67.38
249.133	81.38
249.366	90.38
249.599	87.38
249.832	61.38
250.066	78.38
250.299	74.38
250.532	76.38
250.765	67.38
250.998	70.38
251.231	70.38
251.465	76.38
251.698	80.38
251.931	83.38
252.164	83.38
252.397	66.38
252.63	80.38
252.863	86.38
253.096	79.38
253.329	80.38
253.562	66.38
253.795	85.38
254.028	74.38
254.261	84.38
254.494	68.38
254.727	77.38
254.96	82.38
255.193	71.38
255.426	84.38
255.659	94.38
255.892	68.38
256.124	85.38
256.357	80.38
256.59	78.38
256.823	87.38
257.056	82.38
257.289	82.38
257.521	68.38
257.754	74.38
257.987	73.38
258.22	78.38
258.452	82.38
258.685	69.38
258.918	80.38
259.151	62.38
259.383	88.38
259.616	82.38
259.849	69.38
260.081	75.38
260.314	82.38
260.547	69.38
260.779	85.38
261.012	78.38
261.244	83.38
261.477	74.38
261.71	76.38
261.942	71.38
262.175	78.38
262.407	68.38
262.64	75.38
262.872	83.38
263.105	77.38
263.337	90.38
263.57	88.38
263.802	88.38
264.035	76.38
264.267	91.38
264.499	83.38
264.732	95.38
264.964	81.38
265.197	70.38
265.429	86.38
265.661	75.38
265.894	79.38
266.126	82.38
266.358	78.38
266.591	62.38
266.823	69.38
267.055	85.38
267.287	90.38
267.52	89.38
267.752	97.38
267.984	84.38
268.216	86.38
268.448	67.38
268.681	85.38
268.913	81.38
269.145	73.38
269.377	79.38
269.609	77.38
269.841	86.38
270.073	86.38
270.306	84.38
270.538	71.38
270.77	76.38
271.002	73.38
271.234	86.38
271.466	80.38
271.698	76.38
271.93	86.38
272.162	78.38
272.394	95.38
272.626	73.38
272.858	75.38
273.09	72.38
273.322	86.38
273.553	66.38
273.785	76.38
274.017	76.38
274.249	85.38
274.481	68.38
274.713	74.38
274.945	80.38
275.176	84.38
275.408	70.38
275.64	82.38
275.872	76.38
276.104	84.38
276.335	78.38
276.567	92.38
276.799	90.38
277.031	95.38
277.262	90.38
277.494	82.38
277.726	80.38
277.957	80.38
278.189	79.38
278.421	90.38
278.652	75.38
278.884	83.38
279.115	78.38
279.347	78.38
279.579	70.38
279.81	83.38
280.042	82.38
280.273	83.38
280.505	86.38
280.736	71.38
280.968	84.38
281.199	86.38
281.431	94.38
281.662	79.38
281.894	83.38
282.125	75.38
282.356	88.38
282.588	98.38
282.819	82.38
283.051	71.38
283.282	86.38
283.513	94.38
283.745	90.38
283.976	81.38
284.207	86.38
284.439	84.38
284.67	82.38
284.901	85.38
285.132	71.38
285.364	82.38
285.595	86.38
285.826	89.38
286.057	86.38
286.288	86.38
286.52	74.38
286.751	98.38
286.982	94.38
287.213	83.38
287.444	78.38
287.675	77.38
287.906	80.38
288.138	85.38
288.369	92.38
288.6	82.38
288.831	74.38
289.062	91.38
289.293	80.38
289.524	74.38
289.755	80.38
289.986	75.38
290.217	90.38
290.448	72.38
290.679	72.38
290.91	97.38
291.141	100.38
291.371	74.38
291.602	102.38
291.833	78.38
292.064	70.38
292.295	84.38
292.526	83.38
292.757	95.38
292.987	89.38
293.218	87.38
293.449	84.38
293.68	80.38
293.91	82.38
294.141	76.38
294.372	70.38
294.603	83.38
294.833	85.38
295.064	81.38
295.295	77.38
295.525	78.38
295.756	91.38
295.987	88.38
296.217	80.38
296.448	104.38
296.679	87.38
296.909	84.38
297.14	86.38
297.37	88.38
297.601	89.38
297.831	80.38
298.062	85.38
298.292	84.38
298.523	80.38
298.753	84.38
298.984	74.38
299.214	92.38
299.445	76.38
299.675	80.38
299.905	92.38
300.136	89.38
300.366	79.38
300.597	100.38
300.827	95.38
301.057	86.38
301.288	90.38
301.518	82.38
301.748	76.38
301.979	95.38
302.209	64.38
302.439	82.38
302.669	74.38
302.9	81.38
303.13	81.38
303.36	89.38
303.59	90.38
303.82	108.38
304.051	91.38
304.281	96.38
304.511	72.38
304.741	75.38
304.971	90.38
305.201	84.38
305.431	81.38
305.661	78.38
305.891	87.38
306.121	90.38
306.352	80.38
306.582	75.38
306.812	88.38
307.042	68.38
307.272	87.38
307.502	98.38
307.731	95.38
307.961	92.38
308.191	92.38
308.421	84.38
308.651	85.38
308.881	85.38
309.111	85.38
309.341	84.38
309.571	86.38
309.8	89.38
310.03	82.38
310.26	96.38
310.49	86.38
310.72	79.38
310.949	79.38
311.179	84.38
311.409	81.38
311.639	75.38
311.868	73.38
312.098	90.38
312.328	84.38
312.557	83.38
312.787	92.38
313.017	84.38
313.246	89.38
313.476	86.38
313.706	96.38
313.935	88.38
314.165	78.38
314.394	85.38
314.624	77.38
314.853	88.38
315.083	88.38
315.312	81.38
315.542	79.38
315.771	83.38
316.001	74.38
316.23	90.38
316.46	71.38
316.689	94.38
316.919	78.38
317.148	92.38
317.377	75.38
317.607	78.38
317.836	89.38
318.065	77.38
318.295	80.38
318.524	84.38
318.753	78.38
318.983	86.38
319.212	80.38
319.441	87.38
319.67	84.38
319.9	87.38
320.129	83.38
320.358	65.38
320.587	86.38
320.816	74.38
321.046	86.38
321.275	81.38
321.504	85.38
321.733	85.38
321.962	87.38
322.191	87.38
322.42	91.38
322.649	92.38
322.878	87.38
323.108	69.38
323.337	97.38
323.566	83.38
323.795	88.38
324.024	88.38
324.253	83.38
324.482	113.38
324.71	144.38
324.939	153.38
325.168	100.38
325.397	81.38
325.626	83.38
325.855	87.38
326.084	81.38
326.313	93.38
326.542	76.38
326.77	92.38
326.999	98.38
327.228	112.38
327.457	131.38
327.686	119.38
327.914	95.38
328.143	98.38
328.372	95.38
328.6	82.38
328.829	90.38
329.058	94.38
329.287	80.38
329.515	80.38
329.744	94.38
329.972	108.38
330.201	120.38
330.43	118.38
330.658	111.38
330.887	83.38
331.115	76.38
331.344	80.38
331.572	87.38
331.801	82.38
332.03	90.38
332.258	90.38
332.486	86.38
332.715	89.38
332.943	96.38
333.172	84.38
333.4	88.38
333.629	77.38
333.857	96.38
334.085	90.38
334.314	106.38
334.542	123.38
334.771	108.38
334.999	89.38
335.227	86.38
335.455	87.38
335.684	87.38
335.912	86.38
336.14	80.38
336.369	76.38
336.597	77.38
336.825	80.38
337.053	97.38
337.281	90.38
337.51	92.38
337.738	90.38
337.966	80.38
338.194	71.38
338.422	74.38
338.65	66.38
338.878	92.38
339.106	73.38
339.334	86.38
339.562	74.38
339.79	81.38
340.018	75.38
340.246	78.38
340.474	82.38
340.702	98.38
340.93	93.38
341.158	90.38
341.386	88.38
341.614	80.38
341.842	84.38
342.07	81.38
342.298	83.38
342.526	84.38
342.754	86.38
342.981	74.38
343.209	59.38
343.437	75.38
343.665	86.38
343.893	83.38
344.12	82.38
344.348	70.38
344.576	88.38
344.804	79.38
345.031	74.38
345.259	64.38
345.487	75.38
345.714	89.38
345.942	79.38
346.17	70.38
346.397	81.38
346.625	77.38
346.853	74.38
347.08	96.38
347.308	97.38
347.535	89.38
347.763	91.38
347.99	78.38
348.218	83.38
348.445	78.38
348.673	84.38
348.9	66.38
349.128	82.38
349.355	98.38
349.583	89.38
349.81	79.38
350.037	79.38
350.265	75.38
350.492	81.38
350.72	69.38
350.947	84.38
351.174	89.38
351.402	90.38
351.629	79.38
351.856	83.38
352.083	74.38
352.311	72.38
352.538	86.38
352.765	78.38
352.992	90.38
353.22	75.38
353.447	88.38
353.674	91.38
353.901	86.38
354.128	84.38
354.355	72.38
354.583	92.38
354.81	82.38
355.037	74.38
355.264	86.38
355.491	80.38
355.718	72.38
355.945	85.38
356.172	83.38
356.399	64.38
356.626	85.38
356.853	75.38
357.08	97.38
357.307	87.38
357.534	78.38
357.761	94.38
357.988	97.38
358.215	90.38
358.441	90.38
358.668	80.38
358.895	102.38
359.122	76.38
359.349	80.38
359.576	79.38
359.802	94.38
360.029	76.38
360.256	87.38
360.483	81.38
360.709	72.38
360.936	103.38
361.163	90.38
361.39	74.38
361.616	71.38
361.843	89.38
362.07	77.38
362.296	90.38
362.523	79.38
362.749	88.38
362.976	86.38
363.203	70.38
363.429	86.38
363.656	87.38
363.882	70.38
364.109	74.38
364.335	85.38
364.562	82.38
364.788	82.38
365.015	91.38
365.241	79.38
365.468	98.38
365.694	90.38
365.92	80.38
366.147	77.38
366.373	78.38
366.599	82.38
366.826	82.38
367.052	88.38
367.278	79.38
367.505	76.38
367.731	95.38
367.957	66.38
368.184	89.38
368.41	76.38
368.636	86.38
368.862	88.38
369.089	71.38
369.315	73.38
369.541	96.38
369.767	96.38
369.993	94.38
370.219	83.38
370.445	88.38
370.672	78.38
370.898	80.38
371.124	78.38
371.35	72.38
371.576	74.38
371.802	74.38
372.028	82.38
372.254	83.38
372.48	77.38
372.706	76.38
372.932	89.38
373.158	72.38
373.384	72.38
373.61	85.38
373.835	83.38
374.061	85.38
374.287	79.38
374.513	75.38
374.739	77.38
374.965	81.38
375.191	66.38
375.416	76.38
375.642	92.38
375.868	76.38
376.094	102.38
376.319	85.38
376.545	92.38
376.771	81.38
376.997	80.38
377.222	67.38
377.448	76.38
377.674	79.38
377.899	82.38
378.125	90.38
378.35	82.38
378.576	76.38
378.802	66.38
379.027	84.38
379.253	75.38
379.478	76.38
379.704	90.38
379.929	67.38
380.155	73.38
380.38	87.38
380.606	79.38
380.831	87.38
381.057	86.38
381.282	77.38
381.507	79.38
381.733	83.38
381.958	87.38
382.184	96.38
382.409	88.38
382.634	81.38
382.86	87.38
383.085	75.38
383.31	73.38
383.535	80.38
383.761	96.38
383.986	72.38
384.211	81.38
384.436	87.38
384.662	70.38
384.887	83.38
385.112	70.38
385.337	81.38
385.562	72.38
385.787	68.38
386.013	73.38
386.238	83.38
386.463	89.38
386.688	77.38
386.913	73.38
387.138	76.38
387.363	78.38
387.588	82.38
387.813	90.38
388.038	67.38
388.263	70.38
388.488	84.38
388.713	82.38
388.938	84.38
389.163	90.38
389.387	75.38
389.612	87.38
389.837	67.38
390.062	80.38
390.287	80.38
390.512	85.38
390.736	82.38
390.961	87.38
391.186	76.38
391.411	76.38
391.636	89.38
391.86	79.38
392.085	84.38
392.31	78.38
392.534	71.38
392.759	90.38
392.984	72.38
393.208	74.38
393.433	86.38
393.658	84.38
393.882	90.38
394.107	77.38
394.331	87.38
394.556	99.38
394.78	91.38
395.005	76.38
395.229	73.38
395.454	79.38
395.678	82.38
395.903	85.38
396.127	77.38
396.352	82.38
396.576	78.38
396.801	73.38
397.025	67.38
397.249	74.38
397.474	73.38
397.698	68.38
397.922	68.38
398.147	79.38
398.371	86.38
398.595	87.38
398.82	68.38
399.044	90.38
399.268	89.38
399.492	84.38
399.717	87.38
399.941	83.38
400.165	91.38
400.389	85.38
400.613	69.38
400.837	74.38
401.062	82.38
401.286	86.38
401.51	79.38
401.734	83.38
401.958	88.38
402.182	89.38
402.406	79.38
402.63	72.38
402.854	79.38
403.078	87.38
403.302	76.38
403.526	72.38
403.75	71.38
403.974	90.38
404.198	68.38
404.422	82.38
404.645	89.38
404.869	92.38
405.093	78.38
405.317	97.38
405.541	73.38
405.765	90.38
405.988	76.38
406.212	85.38
406.436	97.38
406.66	79.38
406.883	76.38
407.107	82.38
407.331	82.38
407.555	73.38
407.778	88.38
408.002	91.38
408.226	80.38
408.449	82.38
408.673	87.38
408.896	82.38
409.12	64.38
409.344	94.38
409.567	80.38
409.791	84.38
410.014	83.38
410.238	86.38
410.461	79.38
410.685	83.38
410.908	64.38
411.132	75.38
411.355	69.38
411.578	86.38
411.802	79.38
412.025	75.38
412.249	77.38
412.472	75.38
412.695	76.38
412.919	78.38
413.142	80.38
413.365	79.38
413.589	74.38
413.812	68.38
414.035	74.38
414.258	73.38
414.482	87.38
414.705	82.38
414.928	84.38
415.151	84.38
415.374	72.38
415.597	80.38
415.821	91.38
416.044	91.38
416.267	77.38
416.49	93.38
416.713	72.38
416.936	95.38
417.159	83.38
417.382	75.38
417.605	71.38
417.828	80.38
418.051	79.38
418.274	81.38
418.497	90.38
418.72	81.38
418.943	83.38
419.166	86.38
419.389	88.38
419.611	85.38
419.834	78.38
420.057	74.38
420.28	77.38
420.503	88.38
420.726	91.38
420.948	75.38
421.171	75.38
421.394	84.38
421.617	83.38
421.839	81.38
422.062	73.38
422.285	66.38
422.507	83.38
422.73	94.38
422.953	88.38
423.175	85.38
423.398	80.38
423.621	84.38
423.843	79.38
424.066	81.38
424.288	74.38
424.511	82.38
424.733	93.38
424.956	76.38
425.178	90.38
425.401	82.38
425.623	76.38
425.846	80.38
426.068	70.38
426.291	89.38
426.513	88.38
426.735	84.38
426.958	89.38
427.18	85.38
427.402	93.38
427.625	91.38
427.847	80.38
428.069	74.38
428.292	94.38
428.514	77.38
428.736	83.38
428.958	80.38
429.181	82.38
429.403	83.38
429.625	91.38
429.847	76.38
430.069	74.38
430.292	82.38
430.514	86.38
430.736	82.38
430.958	80.38
431.18	84.38
431.402	81.38
431.624	86.38
431.846	87.38
432.068	86.38
432.29	84.38
432.512	79.38
432.734	77.38
432.956	87.38
433.178	86.38
433.4	87.38
433.622	77.38
433.844	86.38
434.066	77.38
434.287	84.38
434.509	101.38
434.731	80.38
434.953	76.38
435.175	90.38
435.397	82.38
435.618	82.38
435.84	81.38
436.062	79.38
436.284	64.38
436.505	84.38
436.727	79.38
436.949	69.38
437.17	78.38
437.392	82.38
437.614	83.38
437.835	74.38
438.057	79.38
438.278	83.38
438.5	88.38
438.721	81.38
438.943	91.38
439.165	77.38
439.386	84.38
439.608	84.38
439.829	72.38
440.05	69.38
440.272	82.38
440.493	68.38
440.715	87.38
440.936	76.38
441.158	87.38
441.379	79.38
441.6	78.38
441.822	92.38
442.043	84.38
442.264	81.38
442.486	76.38
442.707	93.38
442.928	74.38
443.149	69.38
443.371	85.38
443.592	73.38
443.813	85.38
444.034	82.38
444.255	75.38
444.476	83.38
444.698	86.38
444.919	86.38
445.14	169.38
445.361	113.38
445.582	83.38
445.803	84.38
446.024	85.38
446.245	82.38
446.466	76.38
446.687	82.38
446.908	77.38
447.129	77.38
447.35	74.38
447.571	74.38
447.792	80.38
448.013	77.38
448.234	83.38
448.455	90.38
448.675	85.38
448.896	87.38
449.117	86.38
449.338	78.38
449.559	87.38
449.779	83.38
450	91.38
450.221	76.38
450.442	76.38
450.662	89.38
450.883	92.38
451.104	88.38
451.324	79.38
451.545	91.38
451.766	76.38
451.986	73.38
452.207	78.38
452.428	84.38
452.648	88.38
452.869	78.38
453.089	90.38
453.31	92.38
453.53	89.38
453.751	81.38
453.971	87.38
454.192	72.38
454.412	91.38
454.633	66.38
454.853	94.38
455.073	70.38
455.294	80.38
455.514	89.38
455.734	94.38
455.955	88.38
456.175	77.38
456.395	74.38
456.616	77.38
456.836	79.38
457.056	85.38
457.276	76.38
457.497	72.38
457.717	96.38
457.937	87.38
458.157	83.38
458.377	91.38
458.598	83.38
458.818	96.38
459.038	92.38
459.258	75.38
459.478	78.38
459.698	86.38
459.918	72.38
460.138	84.38
460.358	85.38
460.578	82.38
460.798	83.38
461.018	80.38
461.238	82.38
461.458	72.38
461.678	87.38
461.898	78.38
462.118	84.38
462.338	86.38
462.558	85.38
462.777	76.38
462.997	86.38
463.217	101.38
463.437	79.38
463.657	75.38
463.876	94.38
464.096	77.38
464.316	83.38
464.536	89.38
464.755	92.38
464.975	70.38
465.195	95.38
465.414	78.38
465.634	81.38
465.854	81.38
466.073	90.38
466.293	83.38
466.512	83.38
466.732	90.38
466.951	92.38
467.171	84.38
467.391	90.38
467.61	84.38
467.829	74.38
468.049	94.38
468.268	105.38
468.488	80.38
468.707	78.38
468.927	81.38
469.146	73.38
469.365	95.38
469.585	85.38
469.804	87.38
470.023	98.38
470.243	78.38
470.462	76.38
470.681	78.38
470.901	90.38
471.12	74.38
471.339	74.38
471.558	96.38
471.777	89.38
471.997	88.38
472.216	115.38
472.435	134.38
472.654	80.38
472.873	71.38
473.092	78.38
473.311	75.38
473.53	75.38
473.749	83.38
473.968	100.38
474.187	90.38
474.406	83.38
474.625	81.38
474.844	90.38
475.063	83.38
475.282	86.38
475.501	83.38
475.72	95.38
475.939	78.38
476.158	85.38
476.377	79.38
476.596	80.38
476.814	76.38
477.033	86.38
477.252	72.38
477.471	85.38
477.69	88.38
477.908	76.38
478.127	86.38
478.346	107.38
478.564	76.38
478.783	90.38
479.002	82.38
479.22	76.38
479.439	88.38
479.658	87.38
479.876	93.38
480.095	71.38
480.313	64.38
480.532	80.38
480.751	87.38
480.969	133.38
481.188	198.38
481.406	130.38
481.624	90.38
481.843	84.38
482.061	79.38
482.28	72.38
482.498	80.38
482.717	71.38
482.935	80.38
483.153	82.38
483.372	86.38
483.59	88.38
483.808	77.38
484.027	93.38
484.245	83.38
484.463	93.38
484.681	85.38
484.9	81.38
485.118	89.38
485.336	83.38
485.554	96.38
485.772	95.38
485.99	86.38
486.209	75.38
486.427	70.38
486.645	84.38
486.863	87.38
487.081	86.38
487.299	82.38
487.517	74.38
487.735	92.38
487.953	71.38
488.171	82.38
488.389	79.38
488.607	75.38
488.825	79.38
489.043	90.38
489.261	92.38
489.479	82.38
489.696	92.38
489.914	78.38
490.132	89.38
490.35	83.38
490.568	79.38
490.786	90.38
491.003	91.38
491.221	74.38
491.439	84.38
491.657	84.38
491.874	84.38
492.092	83.38
492.31	94.38
492.527	83.38
492.745	86.38
492.963	87.38
493.18	77.38
493.398	77.38
493.615	87.38
493.833	75.38
494.05	90.38
494.268	82.38
494.485	78.38
494.703	86.38
494.92	92.38
495.138	68.38
495.355	87.38
495.573	88.38
495.79	73.38
496.008	89.38
496.225	89.38
496.442	80.38
496.66	89.38
496.877	71.38
497.094	84.38
497.312	71.38
497.529	76.38
497.746	70.38
497.963	80.38
498.181	60.38
498.398	86.38
498.615	72.38
498.832	82.38
499.049	73.38
499.267	90.38
499.484	82.38
499.701	81.38
499.918	91.38
500.135	85.38
500.352	70.38
500.569	85.38
500.786	88.38
501.003	96.38
501.22	88.38
501.437	81.38
501.654	80.38
501.871	92.38
502.088	83.38
502.305	88.38
502.522	68.38
502.739	87.38
502.956	84.38
503.172	78.38
503.389	87.38
503.606	94.38
503.823	92.38
504.04	84.38
504.256	71.38
504.473	88.38
504.69	84.38
504.907	94.38
505.123	84.38
505.34	76.38
505.557	75.38
505.773	87.38
505.99	91.38
506.207	75.38
506.423	90.38
506.64	76.38
506.856	86.38
507.073	78.38
507.289	76.38
507.506	81.38
507.722	71.38
507.939	80.38
508.155	83.38
508.372	70.38
508.588	86.38
508.805	81.38
509.021	84.38
509.238	79.38
509.454	79.38
509.67	74.38
509.887	73.38
510.103	99.38
510.319	102.38
510.536	138.38
510.752	216.38
510.968	109.38
511.184	92.38
511.401	73.38
511.617	75.38
511.833	77.38
512.049	82.38
512.265	91.38
512.481	90.38
512.698	88.38
512.914	95.38
513.13	85.38
513.346	73.38
513.562	85.38
513.778	86.38
513.994	75.38
514.21	82.38
514.426	86.38
514.642	89.38
514.858	91.38
515.074	78.38
515.29	123.38
515.506	202.38
515.721	130.38
515.937	103.38
516.153	83.38
516.369	80.38
516.585	72.38
516.801	86.38
517.016	81.38
517.232	78.38
517.448	80.38
517.664	87.38
517.879	73.38
518.095	73.38
518.311	81.38
518.527	76.38
518.742	80.38
518.958	94.38
519.173	87.38
519.389	83.38
519.605	80.38
519.82	81.38
