Data from Penny_1_HRD10591_00001.txt Node
Date: Wed Nov 05 15:33:19 EST 2025
User: Yrep
Spectrometer: HR+D1059
Trigger mode: 1
Integration Time (sec): 1.000000E-1
Scans to average: 1
Electric dark correction enabled: true
Nonlinearity correction enabled: false
Boxcar width: 0
XAxis mode: Wavelengths
Number of Pixels in Spectrum: 2048
>>>>>Begin Spectral Data<<<<<
223.165	-11.94
223.4	-11.94
223.635	-11.94
223.869	-11.94
224.104	-15.94
224.338	-8.94
224.573	-14.94
224.808	-28.94
225.042	-12.94
225.277	-6.94
225.511	1.06
225.746	11.06
225.98	-1.94
226.215	11.06
226.449	28.06
226.683	19.06
226.918	25.06
227.152	19.06
227.387	36.06
227.621	46.06
227.856	41.06
228.09	48.06
228.324	52.06
228.559	58.06
228.793	53.06
229.027	58.06
229.262	75.06
229.496	80.06
229.73	70.06
229.964	61.06
230.199	72.06
230.433	70.06
230.667	79.06
230.901	69.06
231.136	74.06
231.37	78.06
231.604	87.06
231.838	82.06
232.072	72.06
232.306	81.06
232.541	79.06
232.775	85.06
233.009	94.06
233.243	78.06
233.477	67.06
233.711	66.06
233.945	75.06
234.179	78.06
234.413	70.06
234.647	77.06
234.881	75.06
235.115	94.06
235.349	72.06
235.583	80.06
235.817	73.06
236.051	68.06
236.285	79.06
236.519	62.06
236.753	84.06
236.987	78.06
237.221	72.06
237.455	81.06
237.689	76.06
237.922	92.06
238.156	71.06
238.39	70.06
238.624	74.06
238.858	74.06
239.091	67.06
239.325	82.06
239.559	71.06
239.793	74.06
240.027	72.06
240.26	74.06
240.494	86.06
240.728	70.06
240.961	75.06
241.195	82.06
241.429	68.06
241.662	65.06
241.896	67.06
242.13	65.06
242.363	76.06
242.597	80.06
242.83	70.06
243.064	74.06
243.298	77.06
243.531	75.06
243.765	85.06
243.998	83.06
244.232	82.06
244.465	87.06
244.699	81.06
244.932	70.06
245.166	74.06
245.399	76.06
245.633	72.06
245.866	82.06
246.099	79.06
246.333	83.06
246.566	68.06
246.8	62.06
247.033	64.06
247.266	64.06
247.5	65.06
247.733	73.06
247.966	77.06
248.2	69.06
248.433	67.06
248.666	79.06
248.899	93.06
249.133	57.06
249.366	77.06
249.599	75.06
249.832	84.06
250.066	96.06
250.299	87.06
250.532	84.06
250.765	89.06
250.998	85.06
251.231	70.06
251.465	83.06
251.698	82.06
251.931	77.06
252.164	84.06
252.397	79.06
252.63	75.06
252.863	70.06
253.096	78.06
253.329	78.06
253.562	80.06
253.795	80.06
254.028	70.06
254.261	77.06
254.494	72.06
254.727	70.06
254.96	93.06
255.193	84.06
255.426	86.06
255.659	84.06
255.892	70.06
256.124	82.06
256.357	80.06
256.59	75.06
256.823	83.06
257.056	72.06
257.289	69.06
257.521	72.06
257.754	74.06
257.987	83.06
258.22	76.06
258.452	70.06
258.685	88.06
258.918	86.06
259.151	71.06
259.383	94.06
259.616	82.06
259.849	74.06
260.081	81.06
260.314	75.06
260.547	87.06
260.779	75.06
261.012	84.06
261.244	72.06
261.477	70.06
261.71	76.06
261.942	81.06
262.175	82.06
262.407	97.06
262.64	78.06
262.872	82.06
263.105	82.06
263.337	82.06
263.57	70.06
263.802	64.06
264.035	89.06
264.267	69.06
264.499	84.06
264.732	71.06
264.964	75.06
265.197	68.06
265.429	68.06
265.661	78.06
265.894	68.06
266.126	84.06
266.358	76.06
266.591	83.06
266.823	89.06
267.055	89.06
267.287	83.06
267.52	87.06
267.752	75.06
267.984	79.06
268.216	72.06
268.448	82.06
268.681	80.06
268.913	71.06
269.145	87.06
269.377	95.06
269.609	88.06
269.841	79.06
270.073	85.06
270.306	85.06
270.538	83.06
270.77	88.06
271.002	78.06
271.234	74.06
271.466	94.06
271.698	83.06
271.93	78.06
272.162	69.06
272.394	82.06
272.626	76.06
272.858	83.06
273.09	84.06
273.322	67.06
273.553	90.06
273.785	91.06
274.017	84.06
274.249	85.06
274.481	74.06
274.713	94.06
274.945	82.06
275.176	98.06
275.408	70.06
275.64	85.06
275.872	99.06
276.104	82.06
276.335	83.06
276.567	84.06
276.799	83.06
277.031	76.06
277.262	80.06
277.494	81.06
277.726	82.06
277.957	93.06
278.189	81.06
278.421	75.06
278.652	90.06
278.884	73.06
279.115	64.06
279.347	96.06
279.579	88.06
279.81	83.06
280.042	87.06
280.273	88.06
280.505	88.06
280.736	87.06
280.968	90.06
281.199	80.06
281.431	80.06
281.662	100.06
281.894	89.06
282.125	83.06
282.356	66.06
282.588	88.06
282.819	96.06
283.051	83.06
283.282	93.06
283.513	85.06
283.745	89.06
283.976	90.06
284.207	89.06
284.439	82.06
284.67	80.06
284.901	75.06
285.132	82.06
285.364	70.06
285.595	75.06
285.826	99.06
286.057	95.06
286.288	96.06
286.52	77.06
286.751	79.06
286.982	78.06
287.213	76.06
287.444	89.06
287.675	77.06
287.906	91.06
288.138	85.06
288.369	89.06
288.6	80.06
288.831	91.06
289.062	90.06
289.293	85.06
289.524	79.06
289.755	82.06
289.986	74.06
290.217	82.06
290.448	72.06
290.679	88.06
290.91	83.06
291.141	85.06
291.371	72.06
291.602	74.06
291.833	85.06
292.064	68.06
292.295	70.06
292.526	84.06
292.757	81.06
292.987	72.06
293.218	93.06
293.449	85.06
293.68	86.06
293.91	81.06
294.141	82.06
294.372	84.06
294.603	78.06
294.833	78.06
295.064	70.06
295.295	79.06
295.525	87.06
295.756	95.06
295.987	93.06
296.217	84.06
296.448	88.06
296.679	89.06
296.909	80.06
297.14	86.06
297.37	71.06
297.601	77.06
297.831	86.06
298.062	85.06
298.292	72.06
298.523	70.06
298.753	91.06
298.984	92.06
299.214	73.06
299.445	75.06
299.675	84.06
299.905	81.06
300.136	62.06
300.366	72.06
300.597	88.06
300.827	82.06
301.057	86.06
301.288	81.06
301.518	65.06
301.748	64.06
301.979	97.06
302.209	94.06
302.439	66.06
302.669	89.06
302.9	96.06
303.13	81.06
303.36	82.06
303.59	95.06
303.82	95.06
304.051	76.06
304.281	82.06
304.511	74.06
304.741	81.06
304.971	90.06
305.201	80.06
305.431	76.06
305.661	92.06
305.891	83.06
306.121	63.06
306.352	99.06
306.582	96.06
306.812	79.06
307.042	83.06
307.272	92.06
307.502	87.06
307.731	83.06
307.961	81.06
308.191	65.06
308.421	72.06
308.651	74.06
308.881	87.06
309.111	82.06
309.341	86.06
309.571	87.06
309.8	88.06
310.03	94.06
310.26	86.06
310.49	79.06
310.72	84.06
310.949	84.06
311.179	94.06
311.409	77.06
311.639	71.06
311.868	77.06
312.098	96.06
312.328	78.06
312.557	94.06
312.787	94.06
313.017	94.06
313.246	87.06
313.476	90.06
313.706	67.06
313.935	88.06
314.165	71.06
314.394	97.06
314.624	76.06
314.853	83.06
315.083	94.06
315.312	86.06
315.542	79.06
315.771	80.06
316.001	84.06
316.23	93.06
316.46	77.06
316.689	86.06
316.919	87.06
317.148	79.06
317.377	95.06
317.607	83.06
317.836	90.06
318.065	82.06
318.295	81.06
318.524	72.06
318.753	78.06
318.983	71.06
319.212	87.06
319.441	88.06
319.67	74.06
319.9	90.06
320.129	79.06
320.358	88.06
320.587	85.06
320.816	89.06
321.046	91.06
321.275	79.06
321.504	92.06
321.733	74.06
321.962	89.06
322.191	96.06
322.42	71.06
322.649	92.06
322.878	87.06
323.108	90.06
323.337	83.06
323.566	89.06
323.795	80.06
324.024	94.06
324.253	110.06
324.482	125.06
324.71	168.06
324.939	154.06
325.168	93.06
325.397	86.06
325.626	84.06
325.855	76.06
326.084	72.06
326.313	91.06
326.542	75.06
326.77	103.06
326.999	88.06
327.228	104.06
327.457	131.06
327.686	118.06
327.914	81.06
328.143	91.06
328.372	91.06
328.6	97.06
328.829	80.06
329.058	82.06
329.287	98.06
329.515	87.06
329.744	97.06
329.972	91.06
330.201	106.06
330.43	115.06
330.658	90.06
330.887	100.06
331.115	82.06
331.344	91.06
331.572	83.06
331.801	71.06
332.03	83.06
332.258	86.06
332.486	74.06
332.715	84.06
332.943	75.06
333.172	85.06
333.4	78.06
333.629	94.06
333.857	95.06
334.085	107.06
334.314	111.06
334.542	146.06
334.771	141.06
334.999	88.06
335.227	78.06
335.455	69.06
335.684	96.06
335.912	82.06
336.14	76.06
336.369	75.06
336.597	74.06
336.825	86.06
337.053	86.06
337.281	74.06
337.51	70.06
337.738	76.06
337.966	71.06
338.194	98.06
338.422	88.06
338.65	75.06
338.878	86.06
339.106	80.06
339.334	86.06
339.562	94.06
339.79	92.06
340.018	89.06
340.246	73.06
340.474	73.06
340.702	73.06
340.93	83.06
341.158	90.06
341.386	92.06
341.614	73.06
341.842	93.06
342.07	82.06
342.298	87.06
342.526	91.06
342.754	75.06
342.981	75.06
343.209	81.06
343.437	91.06
343.665	85.06
343.893	86.06
344.12	86.06
344.348	68.06
344.576	80.06
344.804	78.06
345.031	79.06
345.259	70.06
345.487	82.06
345.714	79.06
345.942	82.06
346.17	88.06
346.397	76.06
346.625	83.06
346.853	89.06
347.08	70.06
347.308	66.06
347.535	82.06
347.763	86.06
347.99	85.06
348.218	77.06
348.445	86.06
348.673	75.06
348.9	77.06
349.128	88.06
349.355	88.06
349.583	71.06
349.81	71.06
350.037	82.06
350.265	88.06
350.492	65.06
350.72	78.06
350.947	78.06
351.174	81.06
351.402	88.06
351.629	73.06
351.856	86.06
352.083	80.06
352.311	86.06
352.538	90.06
352.765	89.06
352.992	97.06
353.22	91.06
353.447	76.06
353.674	76.06
353.901	67.06
354.128	84.06
354.355	85.06
354.583	91.06
354.81	83.06
355.037	90.06
355.264	87.06
355.491	76.06
355.718	71.06
355.945	80.06
356.172	92.06
356.399	84.06
356.626	75.06
356.853	97.06
357.08	74.06
357.307	94.06
357.534	90.06
357.761	71.06
357.988	87.06
358.215	80.06
358.441	91.06
358.668	80.06
358.895	80.06
359.122	83.06
359.349	88.06
359.576	98.06
359.802	74.06
360.029	81.06
360.256	82.06
360.483	89.06
360.709	88.06
360.936	80.06
361.163	89.06
361.39	86.06
361.616	82.06
361.843	71.06
362.07	83.06
362.296	71.06
362.523	81.06
362.749	76.06
362.976	88.06
363.203	85.06
363.429	79.06
363.656	92.06
363.882	68.06
364.109	76.06
364.335	86.06
364.562	88.06
364.788	85.06
365.015	85.06
365.241	71.06
365.468	82.06
365.694	86.06
365.92	86.06
366.147	79.06
366.373	72.06
366.599	64.06
366.826	89.06
367.052	80.06
367.278	72.06
367.505	87.06
367.731	83.06
367.957	80.06
368.184	73.06
368.41	84.06
368.636	82.06
368.862	87.06
369.089	76.06
369.315	104.06
369.541	94.06
369.767	90.06
369.993	83.06
370.219	84.06
370.445	79.06
370.672	93.06
370.898	81.06
371.124	88.06
371.35	79.06
371.576	80.06
371.802	90.06
372.028	65.06
372.254	86.06
372.48	75.06
372.706	75.06
372.932	89.06
373.158	73.06
373.384	87.06
373.61	72.06
373.835	81.06
374.061	81.06
374.287	81.06
374.513	82.06
374.739	73.06
374.965	75.06
375.191	76.06
375.416	78.06
375.642	77.06
375.868	81.06
376.094	84.06
376.319	74.06
376.545	82.06
376.771	78.06
376.997	88.06
377.222	79.06
377.448	87.06
377.674	90.06
377.899	68.06
378.125	72.06
378.35	80.06
378.576	64.06
378.802	84.06
379.027	84.06
379.253	98.06
379.478	74.06
379.704	77.06
379.929	75.06
380.155	77.06
380.38	81.06
380.606	84.06
380.831	66.06
381.057	78.06
381.282	81.06
381.507	76.06
381.733	72.06
381.958	81.06
382.184	78.06
382.409	72.06
382.634	82.06
382.86	79.06
383.085	68.06
383.31	79.06
383.535	82.06
383.761	74.06
383.986	78.06
384.211	88.06
384.436	77.06
384.662	66.06
384.887	74.06
385.112	72.06
385.337	82.06
385.562	69.06
385.787	79.06
386.013	82.06
386.238	77.06
386.463	88.06
386.688	90.06
386.913	81.06
387.138	77.06
387.363	73.06
387.588	78.06
387.813	91.06
388.038	76.06
388.263	89.06
388.488	84.06
388.713	81.06
388.938	80.06
389.163	79.06
389.387	75.06
389.612	74.06
389.837	85.06
390.062	91.06
390.287	76.06
390.512	94.06
390.736	70.06
390.961	92.06
391.186	77.06
391.411	68.06
391.636	70.06
391.86	84.06
392.085	81.06
392.31	78.06
392.534	95.06
392.759	76.06
392.984	94.06
393.208	82.06
393.433	77.06
393.658	75.06
393.882	73.06
394.107	84.06
394.331	82.06
394.556	82.06
394.78	75.06
395.005	86.06
395.229	74.06
395.454	79.06
395.678	75.06
395.903	89.06
396.127	62.06
396.352	83.06
396.576	68.06
396.801	82.06
397.025	75.06
397.249	82.06
397.474	83.06
397.698	83.06
397.922	90.06
398.147	77.06
398.371	93.06
398.595	84.06
398.82	89.06
399.044	86.06
399.268	77.06
399.492	90.06
399.717	90.06
399.941	69.06
400.165	97.06
400.389	74.06
400.613	85.06
400.837	85.06
401.062	77.06
401.286	85.06
401.51	91.06
401.734	84.06
401.958	86.06
402.182	79.06
402.406	72.06
402.63	84.06
402.854	78.06
403.078	57.06
403.302	87.06
403.526	74.06
403.75	80.06
403.974	75.06
404.198	96.06
404.422	84.06
404.645	92.06
404.869	76.06
405.093	90.06
405.317	81.06
405.541	89.06
405.765	74.06
405.988	83.06
406.212	81.06
406.436	74.06
406.66	85.06
406.883	78.06
407.107	80.06
407.331	70.06
407.555	82.06
407.778	86.06
408.002	81.06
408.226	78.06
408.449	75.06
408.673	80.06
408.896	66.06
409.12	75.06
409.344	70.06
409.567	74.06
409.791	90.06
410.014	84.06
410.238	82.06
410.461	87.06
410.685	86.06
410.908	76.06
411.132	82.06
411.355	76.06
411.578	91.06
411.802	86.06
412.025	78.06
412.249	93.06
412.472	79.06
412.695	84.06
412.919	57.06
413.142	71.06
413.365	86.06
413.589	75.06
413.812	89.06
414.035	98.06
414.258	66.06
414.482	88.06
414.705	86.06
414.928	90.06
415.151	71.06
415.374	72.06
415.597	80.06
415.821	82.06
416.044	78.06
416.267	86.06
416.49	82.06
416.713	80.06
416.936	76.06
417.159	82.06
417.382	84.06
417.605	94.06
417.828	83.06
418.051	83.06
418.274	79.06
418.497	83.06
418.72	94.06
418.943	72.06
419.166	82.06
419.389	89.06
419.611	74.06
419.834	96.06
420.057	84.06
420.28	59.06
420.503	74.06
420.726	81.06
420.948	70.06
421.171	72.06
421.394	77.06
421.617	72.06
421.839	86.06
422.062	88.06
422.285	96.06
422.507	82.06
422.73	88.06
422.953	80.06
423.175	77.06
423.398	88.06
423.621	77.06
423.843	77.06
424.066	71.06
424.288	84.06
424.511	98.06
424.733	87.06
424.956	72.06
425.178	80.06
425.401	78.06
425.623	71.06
425.846	68.06
426.068	100.06
426.291	79.06
426.513	82.06
426.735	83.06
426.958	79.06
427.18	88.06
427.402	80.06
427.625	76.06
427.847	88.06
428.069	83.06
428.292	89.06
428.514	78.06
428.736	85.06
428.958	81.06
429.181	90.06
429.403	80.06
429.625	72.06
429.847	92.06
430.069	80.06
430.292	80.06
430.514	70.06
430.736	82.06
430.958	81.06
431.18	76.06
431.402	73.06
431.624	75.06
431.846	75.06
432.068	90.06
432.29	66.06
432.512	90.06
432.734	70.06
432.956	86.06
433.178	90.06
433.4	76.06
433.622	78.06
433.844	74.06
434.066	76.06
434.287	92.06
434.509	83.06
434.731	82.06
434.953	82.06
435.175	73.06
435.397	87.06
435.618	70.06
435.84	83.06
436.062	82.06
436.284	89.06
436.505	74.06
436.727	81.06
436.949	86.06
437.17	84.06
437.392	82.06
437.614	71.06
437.835	77.06
438.057	82.06
438.278	95.06
438.5	90.06
438.721	74.06
438.943	76.06
439.165	79.06
439.386	78.06
439.608	89.06
439.829	92.06
440.05	72.06
440.272	81.06
440.493	84.06
440.715	77.06
440.936	82.06
441.158	72.06
441.379	80.06
441.6	82.06
441.822	80.06
442.043	83.06
442.264	84.06
442.486	89.06
442.707	76.06
442.928	78.06
443.149	78.06
443.371	80.06
443.592	78.06
443.813	79.06
444.034	79.06
444.255	81.06
444.476	73.06
444.698	88.06
444.919	88.06
445.14	169.06
445.361	116.06
445.582	87.06
445.803	85.06
446.024	96.06
446.245	99.06
446.466	83.06
446.687	98.06
446.908	83.06
447.129	80.06
447.35	79.06
447.571	73.06
447.792	88.06
448.013	82.06
448.234	79.06
448.455	79.06
448.675	72.06
448.896	76.06
449.117	81.06
449.338	74.06
449.559	97.06
449.779	71.06
450	87.06
450.221	84.06
450.442	84.06
450.662	87.06
450.883	86.06
451.104	84.06
451.324	82.06
451.545	71.06
451.766	80.06
451.986	74.06
452.207	77.06
452.428	82.06
452.648	74.06
452.869	91.06
453.089	71.06
453.31	76.06
453.53	89.06
453.751	81.06
453.971	96.06
454.192	78.06
454.412	98.06
454.633	80.06
454.853	86.06
455.073	92.06
455.294	94.06
455.514	82.06
455.734	68.06
455.955	86.06
456.175	70.06
456.395	95.06
456.616	83.06
456.836	76.06
457.056	90.06
457.276	84.06
457.497	82.06
457.717	69.06
457.937	89.06
458.157	80.06
458.377	90.06
458.598	92.06
458.818	74.06
459.038	85.06
459.258	80.06
459.478	74.06
459.698	67.06
459.918	75.06
460.138	78.06
460.358	83.06
460.578	89.06
460.798	81.06
461.018	87.06
461.238	70.06
461.458	82.06
461.678	78.06
461.898	80.06
462.118	85.06
462.338	94.06
462.558	87.06
462.777	90.06
462.997	90.06
463.217	84.06
463.437	83.06
463.657	77.06
463.876	81.06
464.096	75.06
464.316	86.06
464.536	71.06
464.755	84.06
464.975	82.06
465.195	81.06
465.414	82.06
465.634	90.06
465.854	77.06
466.073	88.06
466.293	80.06
466.512	82.06
466.732	80.06
466.951	81.06
467.171	83.06
467.391	75.06
467.61	80.06
467.829	90.06
468.049	93.06
468.268	112.06
468.488	76.06
468.707	86.06
468.927	77.06
469.146	72.06
469.365	82.06
469.585	87.06
469.804	76.06
470.023	75.06
470.243	83.06
470.462	86.06
470.681	87.06
470.901	82.06
471.12	86.06
471.339	75.06
471.558	80.06
471.777	80.06
471.997	101.06
472.216	125.06
472.435	147.06
472.654	95.06
472.873	76.06
473.092	76.06
473.311	104.06
473.53	76.06
473.749	78.06
473.968	90.06
474.187	77.06
474.406	88.06
474.625	80.06
474.844	85.06
475.063	85.06
475.282	95.06
475.501	89.06
475.72	88.06
475.939	87.06
476.158	82.06
476.377	76.06
476.596	77.06
476.814	90.06
477.033	82.06
477.252	89.06
477.471	74.06
477.69	73.06
477.908	80.06
478.127	71.06
478.346	93.06
478.564	80.06
478.783	91.06
479.002	73.06
479.22	72.06
479.439	87.06
479.658	89.06
479.876	65.06
480.095	77.06
480.313	96.06
480.532	88.06
480.751	83.06
480.969	122.06
481.188	207.06
481.406	138.06
481.624	78.06
481.843	68.06
482.061	88.06
482.28	95.06
482.498	80.06
482.717	79.06
482.935	79.06
483.153	80.06
483.372	87.06
483.59	96.06
483.808	78.06
484.027	81.06
484.245	82.06
484.463	98.06
484.681	83.06
484.9	68.06
485.118	84.06
485.336	78.06
485.554	80.06
485.772	78.06
485.99	87.06
486.209	89.06
486.427	71.06
486.645	85.06
486.863	86.06
487.081	96.06
487.299	79.06
487.517	86.06
487.735	70.06
487.953	77.06
488.171	85.06
488.389	76.06
488.607	74.06
488.825	77.06
489.043	74.06
489.261	80.06
489.479	87.06
489.696	84.06
489.914	79.06
490.132	86.06
490.35	88.06
490.568	86.06
490.786	71.06
491.003	94.06
491.221	86.06
491.439	87.06
491.657	86.06
491.874	78.06
492.092	82.06
492.31	89.06
492.527	71.06
492.745	64.06
492.963	86.06
493.18	80.06
493.398	75.06
493.615	85.06
493.833	88.06
494.05	81.06
494.268	100.06
494.485	76.06
494.703	90.06
494.92	78.06
495.138	91.06
495.355	78.06
495.573	76.06
495.79	85.06
496.008	74.06
496.225	90.06
496.442	96.06
496.66	82.06
496.877	72.06
497.094	70.06
497.312	69.06
497.529	90.06
497.746	84.06
497.963	80.06
498.181	79.06
498.398	82.06
498.615	79.06
498.832	74.06
499.049	90.06
499.267	87.06
499.484	81.06
499.701	84.06
499.918	97.06
500.135	73.06
500.352	74.06
500.569	75.06
500.786	95.06
501.003	86.06
501.22	71.06
501.437	98.06
501.654	92.06
501.871	92.06
502.088	78.06
502.305	72.06
502.522	72.06
502.739	81.06
502.956	80.06
503.172	99.06
503.389	84.06
503.606	81.06
503.823	76.06
504.04	71.06
504.256	85.06
504.473	88.06
504.69	88.06
504.907	72.06
505.123	82.06
505.34	72.06
505.557	88.06
505.773	91.06
505.99	75.06
506.207	83.06
506.423	75.06
506.64	79.06
506.856	78.06
507.073	84.06
507.289	93.06
507.506	82.06
507.722	68.06
507.939	93.06
508.155	86.06
508.372	80.06
508.588	75.06
508.805	78.06
509.021	80.06
509.238	76.06
509.454	94.06
509.67	79.06
509.887	90.06
510.103	93.06
510.319	88.06
510.536	146.06
510.752	206.06
510.968	110.06
511.184	89.06
511.401	85.06
511.617	93.06
511.833	84.06
512.049	84.06
512.265	87.06
512.481	89.06
512.698	72.06
512.914	78.06
513.13	97.06
513.346	82.06
513.562	79.06
513.778	87.06
513.994	76.06
514.21	86.06
514.426	80.06
514.642	107.06
514.858	88.06
515.074	105.06
515.29	140.06
515.506	201.06
515.721	108.06
515.937	102.06
516.153	88.06
516.369	86.06
516.585	82.06
516.801	87.06
517.016	73.06
517.232	87.06
517.448	68.06
517.664	82.06
517.879	83.06
518.095	87.06
518.311	69.06
518.527	90.06
518.742	86.06
518.958	81.06
519.173	84.06
519.389	82.06
519.605	86.06
519.82	78.06
