Data from Penny_1_HRD10591_00004.txt Node
Date: Wed Nov 05 15:33:20 EST 2025
User: Yrep
Spectrometer: HR+D1059
Trigger mode: 1
Integration Time (sec): 1.000000E-1
Scans to average: 1
Electric dark correction enabled: true
Nonlinearity correction enabled: false
Boxcar width: 0
XAxis mode: Wavelengths
Number of Pixels in Spectrum: 2048
>>>>>Begin Spectral Data<<<<<
223.165	-14.12
223.4	-14.12
223.635	-14.12
223.869	-24.12
224.104	-22.12
224.338	-23.12
224.573	-10.12
224.808	-12.12
225.042	-20.12
225.277	-23.12
225.511	13.88
225.746	21.88
225.98	21.88
226.215	10.88
226.449	13.88
226.683	5.88
226.918	23.88
227.152	36.88
227.387	32.88
227.621	28.88
227.856	40.88
228.09	35.88
228.324	40.88
228.559	39.88
228.793	54.88
229.027	66.88
229.262	55.88
229.496	58.88
229.73	73.88
229.964	67.88
230.199	80.88
230.433	65.88
230.667	61.88
230.901	65.88
231.136	82.88
231.37	81.88
231.604	87.88
231.838	97.88
232.072	90.88
232.306	78.88
232.541	85.88
232.775	66.88
233.009	79.88
233.243	77.88
233.477	70.88
233.711	83.88
233.945	81.88
234.179	78.88
234.413	75.88
234.647	81.88
234.881	67.88
235.115	67.88
235.349	83.88
235.583	65.88
235.817	87.88
236.051	77.88
236.285	81.88
236.519	76.88
236.753	69.88
236.987	87.88
237.221	78.88
237.455	71.88
237.689	85.88
237.922	81.88
238.156	68.88
238.39	78.88
238.624	90.88
238.858	59.88
239.091	78.88
239.325	80.88
239.559	63.88
239.793	80.88
240.027	76.88
240.26	71.88
240.494	88.88
240.728	75.88
240.961	57.88
241.195	67.88
241.429	80.88
241.662	72.88
241.896	67.88
242.13	77.88
242.363	68.88
242.597	74.88
242.83	67.88
243.064	67.88
243.298	73.88
243.531	78.88
243.765	80.88
243.998	82.88
244.232	70.88
244.465	69.88
244.699	83.88
244.932	73.88
245.166	66.88
245.399	78.88
245.633	70.88
245.866	73.88
246.099	84.88
246.333	99.88
246.566	76.88
246.8	79.88
247.033	86.88
247.266	69.88
247.5	72.88
247.733	82.88
247.966	88.88
248.2	75.88
248.433	71.88
248.666	82.88
248.899	74.88
249.133	87.88
249.366	89.88
249.599	79.88
249.832	80.88
250.066	84.88
250.299	76.88
250.532	73.88
250.765	83.88
250.998	69.88
251.231	78.88
251.465	66.88
251.698	69.88
251.931	83.88
252.164	73.88
252.397	85.88
252.63	85.88
252.863	74.88
253.096	77.88
253.329	75.88
253.562	69.88
253.795	71.88
254.028	76.88
254.261	71.88
254.494	74.88
254.727	75.88
254.96	75.88
255.193	71.88
255.426	83.88
255.659	69.88
255.892	76.88
256.124	77.88
256.357	88.88
256.59	82.88
256.823	73.88
257.056	74.88
257.289	75.88
257.521	76.88
257.754	88.88
257.987	75.88
258.22	77.88
258.452	63.88
258.685	81.88
258.918	79.88
259.151	86.88
259.383	74.88
259.616	81.88
259.849	81.88
260.081	94.88
260.314	82.88
260.547	89.88
260.779	67.88
261.012	81.88
261.244	97.88
261.477	81.88
261.71	78.88
261.942	79.88
262.175	61.88
262.407	79.88
262.64	70.88
262.872	62.88
263.105	80.88
263.337	82.88
263.57	81.88
263.802	77.88
264.035	70.88
264.267	101.88
264.499	81.88
264.732	80.88
264.964	79.88
265.197	89.88
265.429	85.88
265.661	91.88
265.894	78.88
266.126	86.88
266.358	82.88
266.591	94.88
266.823	78.88
267.055	68.88
267.287	72.88
267.52	77.88
267.752	67.88
267.984	85.88
268.216	85.88
268.448	84.88
268.681	83.88
268.913	81.88
269.145	84.88
269.377	86.88
269.609	82.88
269.841	91.88
270.073	78.88
270.306	85.88
270.538	87.88
270.77	83.88
271.002	84.88
271.234	80.88
271.466	87.88
271.698	73.88
271.93	78.88
272.162	73.88
272.394	77.88
272.626	98.88
272.858	86.88
273.09	82.88
273.322	85.88
273.553	79.88
273.785	81.88
274.017	91.88
274.249	73.88
274.481	75.88
274.713	66.88
274.945	84.88
275.176	79.88
275.408	80.88
275.64	76.88
275.872	89.88
276.104	78.88
276.335	90.88
276.567	83.88
276.799	92.88
277.031	81.88
277.262	83.88
277.494	98.88
277.726	77.88
277.957	71.88
278.189	86.88
278.421	99.88
278.652	70.88
278.884	89.88
279.115	90.88
279.347	87.88
279.579	74.88
279.81	82.88
280.042	91.88
280.273	77.88
280.505	87.88
280.736	80.88
280.968	75.88
281.199	83.88
281.431	73.88
281.662	85.88
281.894	82.88
282.125	90.88
282.356	97.88
282.588	95.88
282.819	82.88
283.051	79.88
283.282	84.88
283.513	74.88
283.745	78.88
283.976	88.88
284.207	99.88
284.439	74.88
284.67	79.88
284.901	79.88
285.132	81.88
285.364	84.88
285.595	86.88
285.826	83.88
286.057	85.88
286.288	77.88
286.52	79.88
286.751	88.88
286.982	87.88
287.213	90.88
287.444	93.88
287.675	81.88
287.906	76.88
288.138	81.88
288.369	81.88
288.6	72.88
288.831	73.88
289.062	64.88
289.293	92.88
289.524	84.88
289.755	90.88
289.986	74.88
290.217	84.88
290.448	77.88
290.679	80.88
290.91	88.88
291.141	100.88
291.371	91.88
291.602	85.88
291.833	94.88
292.064	88.88
292.295	65.88
292.526	90.88
292.757	91.88
292.987	83.88
293.218	81.88
293.449	68.88
293.68	89.88
293.91	83.88
294.141	87.88
294.372	76.88
294.603	90.88
294.833	76.88
295.064	84.88
295.295	78.88
295.525	92.88
295.756	76.88
295.987	91.88
296.217	81.88
296.448	81.88
296.679	79.88
296.909	81.88
297.14	83.88
297.37	89.88
297.601	83.88
297.831	85.88
298.062	81.88
298.292	87.88
298.523	82.88
298.753	79.88
298.984	89.88
299.214	73.88
299.445	86.88
299.675	84.88
299.905	96.88
300.136	97.88
300.366	84.88
300.597	88.88
300.827	84.88
301.057	74.88
301.288	79.88
301.518	87.88
301.748	77.88
301.979	97.88
302.209	86.88
302.439	89.88
302.669	65.88
302.9	75.88
303.13	74.88
303.36	97.88
303.59	77.88
303.82	88.88
304.051	73.88
304.281	86.88
304.511	97.88
304.741	82.88
304.971	86.88
305.201	86.88
305.431	79.88
305.661	91.88
305.891	90.88
306.121	76.88
306.352	87.88
306.582	78.88
306.812	70.88
307.042	70.88
307.272	83.88
307.502	95.88
307.731	79.88
307.961	82.88
308.191	75.88
308.421	85.88
308.651	86.88
308.881	86.88
309.111	83.88
309.341	81.88
309.571	78.88
309.8	77.88
310.03	84.88
310.26	85.88
310.49	76.88
310.72	94.88
310.949	78.88
311.179	66.88
311.409	84.88
311.639	88.88
311.868	95.88
312.098	84.88
312.328	93.88
312.557	79.88
312.787	79.88
313.017	74.88
313.246	83.88
313.476	75.88
313.706	84.88
313.935	95.88
314.165	74.88
314.394	82.88
314.624	85.88
314.853	72.88
315.083	63.88
315.312	82.88
315.542	78.88
315.771	87.88
316.001	81.88
316.23	88.88
316.46	69.88
316.689	53.88
316.919	81.88
317.148	73.88
317.377	77.88
317.607	78.88
317.836	74.88
318.065	87.88
318.295	82.88
318.524	82.88
318.753	88.88
318.983	69.88
319.212	89.88
319.441	96.88
319.67	92.88
319.9	87.88
320.129	84.88
320.358	95.88
320.587	75.88
320.816	89.88
321.046	94.88
321.275	95.88
321.504	89.88
321.733	84.88
321.962	82.88
322.191	84.88
322.42	81.88
322.649	90.88
322.878	99.88
323.108	93.88
323.337	102.88
323.566	81.88
323.795	98.88
324.024	87.88
324.253	105.88
324.482	105.88
324.71	129.88
324.939	145.88
325.168	105.88
325.397	89.88
325.626	80.88
325.855	86.88
326.084	81.88
326.313	71.88
326.542	85.88
326.77	68.88
326.999	102.88
327.228	99.88
327.457	131.88
327.686	117.88
327.914	96.88
328.143	101.88
328.372	96.88
328.6	82.88
328.829	86.88
329.058	91.88
329.287	94.88
329.515	96.88
329.744	89.88
329.972	89.88
330.201	117.88
330.43	100.88
330.658	95.88
330.887	97.88
331.115	96.88
331.344	83.88
331.572	81.88
331.801	73.88
332.03	70.88
332.258	92.88
332.486	77.88
332.715	102.88
332.943	84.88
333.172	79.88
333.4	76.88
333.629	91.88
333.857	107.88
334.085	95.88
334.314	111.88
334.542	115.88
334.771	104.88
334.999	103.88
335.227	87.88
335.455	82.88
335.684	81.88
335.912	87.88
336.14	93.88
336.369	78.88
336.597	85.88
336.825	63.88
337.053	95.88
337.281	79.88
337.51	81.88
337.738	73.88
337.966	86.88
338.194	78.88
338.422	84.88
338.65	89.88
338.878	86.88
339.106	98.88
339.334	89.88
339.562	63.88
339.79	79.88
340.018	72.88
340.246	65.88
340.474	79.88
340.702	71.88
340.93	82.88
341.158	80.88
341.386	66.88
341.614	73.88
341.842	93.88
342.07	92.88
342.298	81.88
342.526	75.88
342.754	67.88
342.981	85.88
343.209	88.88
343.437	86.88
343.665	78.88
343.893	80.88
344.12	95.88
344.348	82.88
344.576	78.88
344.804	97.88
345.031	88.88
345.259	86.88
345.487	69.88
345.714	96.88
345.942	81.88
346.17	81.88
346.397	84.88
346.625	55.88
346.853	91.88
347.08	77.88
347.308	76.88
347.535	79.88
347.763	89.88
347.99	88.88
348.218	84.88
348.445	72.88
348.673	74.88
348.9	79.88
349.128	79.88
349.355	73.88
349.583	85.88
349.81	75.88
350.037	64.88
350.265	84.88
350.492	73.88
350.72	96.88
350.947	89.88
351.174	74.88
351.402	87.88
351.629	80.88
351.856	94.88
352.083	74.88
352.311	78.88
352.538	78.88
352.765	88.88
352.992	84.88
353.22	78.88
353.447	87.88
353.674	84.88
353.901	81.88
354.128	75.88
354.355	79.88
354.583	67.88
354.81	79.88
355.037	83.88
355.264	94.88
355.491	78.88
355.718	76.88
355.945	80.88
356.172	73.88
356.399	74.88
356.626	70.88
356.853	72.88
357.08	83.88
357.307	80.88
357.534	102.88
357.761	89.88
357.988	86.88
358.215	86.88
358.441	80.88
358.668	59.88
358.895	69.88
359.122	76.88
359.349	90.88
359.576	93.88
359.802	95.88
360.029	72.88
360.256	80.88
360.483	87.88
360.709	87.88
360.936	96.88
361.163	69.88
361.39	71.88
361.616	87.88
361.843	83.88
362.07	85.88
362.296	87.88
362.523	94.88
362.749	83.88
362.976	85.88
363.203	97.88
363.429	91.88
363.656	94.88
363.882	77.88
364.109	89.88
364.335	78.88
364.562	69.88
364.788	83.88
365.015	73.88
365.241	71.88
365.468	83.88
365.694	97.88
365.92	93.88
366.147	73.88
366.373	67.88
366.599	90.88
366.826	75.88
367.052	85.88
367.278	85.88
367.505	87.88
367.731	83.88
367.957	71.88
368.184	97.88
368.41	89.88
368.636	72.88
368.862	76.88
369.089	84.88
369.315	82.88
369.541	87.88
369.767	72.88
369.993	81.88
370.219	90.88
370.445	78.88
370.672	81.88
370.898	67.88
371.124	97.88
371.35	92.88
371.576	77.88
371.802	95.88
372.028	75.88
372.254	81.88
372.48	85.88
372.706	73.88
372.932	82.88
373.158	91.88
373.384	87.88
373.61	75.88
373.835	73.88
374.061	74.88
374.287	80.88
374.513	86.88
374.739	80.88
374.965	85.88
375.191	71.88
375.416	70.88
375.642	85.88
375.868	89.88
376.094	77.88
376.319	75.88
376.545	75.88
376.771	88.88
376.997	76.88
377.222	76.88
377.448	77.88
377.674	89.88
377.899	81.88
378.125	86.88
378.35	86.88
378.576	78.88
378.802	105.88
379.027	88.88
379.253	76.88
379.478	78.88
379.704	81.88
379.929	69.88
380.155	92.88
380.38	82.88
380.606	79.88
380.831	89.88
381.057	82.88
381.282	85.88
381.507	73.88
381.733	84.88
381.958	73.88
382.184	85.88
382.409	97.88
382.634	92.88
382.86	87.88
383.085	68.88
383.31	89.88
383.535	77.88
383.761	78.88
383.986	80.88
384.211	84.88
384.436	82.88
384.662	86.88
384.887	80.88
385.112	81.88
385.337	81.88
385.562	74.88
385.787	75.88
386.013	77.88
386.238	90.88
386.463	83.88
386.688	87.88
386.913	77.88
387.138	74.88
387.363	72.88
387.588	73.88
387.813	76.88
388.038	91.88
388.263	94.88
388.488	83.88
388.713	77.88
388.938	73.88
389.163	79.88
389.387	79.88
389.612	75.88
389.837	75.88
390.062	82.88
390.287	67.88
390.512	76.88
390.736	81.88
390.961	72.88
391.186	69.88
391.411	75.88
391.636	81.88
391.86	75.88
392.085	90.88
392.31	84.88
392.534	86.88
392.759	80.88
392.984	69.88
393.208	82.88
393.433	85.88
393.658	78.88
393.882	86.88
394.107	67.88
394.331	68.88
394.556	74.88
394.78	75.88
395.005	78.88
395.229	75.88
395.454	83.88
395.678	83.88
395.903	79.88
396.127	81.88
396.352	78.88
396.576	80.88
396.801	59.88
397.025	77.88
397.249	76.88
397.474	87.88
397.698	76.88
397.922	77.88
398.147	81.88
398.371	78.88
398.595	75.88
398.82	91.88
399.044	87.88
399.268	65.88
399.492	95.88
399.717	76.88
399.941	79.88
400.165	75.88
400.389	72.88
400.613	76.88
400.837	73.88
401.062	93.88
401.286	66.88
401.51	81.88
401.734	63.88
401.958	75.88
402.182	85.88
402.406	79.88
402.63	81.88
402.854	81.88
403.078	75.88
403.302	75.88
403.526	76.88
403.75	79.88
403.974	68.88
404.198	102.88
404.422	80.88
404.645	73.88
404.869	79.88
405.093	83.88
405.317	71.88
405.541	78.88
405.765	73.88
405.988	79.88
406.212	87.88
406.436	90.88
406.66	69.88
406.883	91.88
407.107	68.88
407.331	94.88
407.555	95.88
407.778	82.88
408.002	77.88
408.226	73.88
408.449	80.88
408.673	81.88
408.896	69.88
409.12	79.88
409.344	77.88
409.567	65.88
409.791	70.88
410.014	86.88
410.238	71.88
410.461	78.88
410.685	79.88
410.908	65.88
411.132	73.88
411.355	72.88
411.578	80.88
411.802	75.88
412.025	67.88
412.249	85.88
412.472	79.88
412.695	81.88
412.919	67.88
413.142	90.88
413.365	78.88
413.589	73.88
413.812	85.88
414.035	70.88
414.258	75.88
414.482	76.88
414.705	68.88
414.928	84.88
415.151	60.88
415.374	71.88
415.597	63.88
415.821	66.88
416.044	81.88
416.267	81.88
416.49	82.88
416.713	79.88
416.936	81.88
417.159	86.88
417.382	69.88
417.605	74.88
417.828	93.88
418.051	84.88
418.274	81.88
418.497	87.88
418.72	74.88
418.943	75.88
419.166	84.88
419.389	76.88
419.611	86.88
419.834	89.88
420.057	81.88
420.28	80.88
420.503	63.88
420.726	83.88
420.948	75.88
421.171	81.88
421.394	86.88
421.617	81.88
421.839	69.88
422.062	85.88
422.285	77.88
422.507	80.88
422.73	79.88
422.953	88.88
423.175	91.88
423.398	84.88
423.621	80.88
423.843	89.88
424.066	82.88
424.288	79.88
424.511	81.88
424.733	87.88
424.956	83.88
425.178	91.88
425.401	70.88
425.623	89.88
425.846	84.88
426.068	68.88
426.291	74.88
426.513	79.88
426.735	89.88
426.958	75.88
427.18	85.88
427.402	88.88
427.625	93.88
427.847	92.88
428.069	90.88
428.292	71.88
428.514	73.88
428.736	77.88
428.958	78.88
429.181	77.88
429.403	76.88
429.625	70.88
429.847	78.88
430.069	82.88
430.292	72.88
430.514	68.88
430.736	73.88
430.958	85.88
431.18	74.88
431.402	73.88
431.624	85.88
431.846	81.88
432.068	73.88
432.29	73.88
432.512	82.88
432.734	69.88
432.956	88.88
433.178	91.88
433.4	75.88
433.622	77.88
433.844	85.88
434.066	85.88
434.287	81.88
434.509	83.88
434.731	77.88
434.953	85.88
435.175	85.88
435.397	71.88
435.618	74.88
435.84	79.88
436.062	70.88
436.284	58.88
436.505	78.88
436.727	81.88
436.949	80.88
437.17	74.88
437.392	74.88
437.614	65.88
437.835	81.88
438.057	74.88
438.278	85.88
438.5	83.88
438.721	90.88
438.943	94.88
439.165	81.88
439.386	85.88
439.608	68.88
439.829	93.88
440.05	76.88
440.272	60.88
440.493	72.88
440.715	87.88
440.936	70.88
441.158	75.88
441.379	71.88
441.6	81.88
441.822	74.88
442.043	85.88
442.264	82.88
442.486	85.88
442.707	77.88
442.928	81.88
443.149	75.88
443.371	72.88
443.592	88.88
443.813	97.88
444.034	91.88
444.255	83.88
444.476	77.88
444.698	67.88
444.919	84.88
445.14	150.88
445.361	104.88
445.582	87.88
445.803	81.88
446.024	82.88
446.245	89.88
446.466	88.88
446.687	85.88
446.908	85.88
447.129	85.88
447.35	86.88
447.571	91.88
447.792	95.88
448.013	81.88
448.234	89.88
448.455	72.88
448.675	76.88
448.896	78.88
449.117	84.88
449.338	97.88
449.559	81.88
449.779	62.88
450	77.88
450.221	73.88
450.442	75.88
450.662	73.88
450.883	78.88
451.104	86.88
451.324	89.88
451.545	66.88
451.766	77.88
451.986	75.88
452.207	88.88
452.428	73.88
452.648	73.88
452.869	79.88
453.089	93.88
453.31	77.88
453.53	69.88
453.751	91.88
453.971	73.88
454.192	61.88
454.412	76.88
454.633	85.88
454.853	88.88
455.073	84.88
455.294	71.88
455.514	69.88
455.734	82.88
455.955	81.88
456.175	65.88
456.395	78.88
456.616	68.88
456.836	81.88
457.056	80.88
457.276	78.88
457.497	71.88
457.717	90.88
457.937	82.88
458.157	75.88
458.377	78.88
458.598	74.88
458.818	74.88
459.038	73.88
459.258	86.88
459.478	71.88
459.698	91.88
459.918	78.88
460.138	71.88
460.358	67.88
460.578	67.88
460.798	74.88
461.018	87.88
461.238	81.88
461.458	83.88
461.678	93.88
461.898	74.88
462.118	77.88
462.338	77.88
462.558	82.88
462.777	79.88
462.997	76.88
463.217	84.88
463.437	92.88
463.657	75.88
463.876	77.88
464.096	79.88
464.316	66.88
464.536	79.88
464.755	87.88
464.975	97.88
465.195	81.88
465.414	68.88
465.634	78.88
465.854	77.88
466.073	74.88
466.293	83.88
466.512	75.88
466.732	86.88
466.951	87.88
467.171	77.88
467.391	74.88
467.61	81.88
467.829	98.88
468.049	103.88
468.268	96.88
468.488	71.88
468.707	79.88
468.927	67.88
469.146	94.88
469.365	101.88
469.585	75.88
469.804	87.88
470.023	76.88
470.243	82.88
470.462	85.88
470.681	96.88
470.901	102.88
471.12	83.88
471.339	91.88
471.558	94.88
471.777	88.88
471.997	92.88
472.216	116.88
472.435	135.88
472.654	87.88
472.873	73.88
473.092	71.88
473.311	71.88
473.53	86.88
473.749	81.88
473.968	73.88
474.187	72.88
474.406	73.88
474.625	68.88
474.844	90.88
475.063	84.88
475.282	90.88
475.501	80.88
475.72	82.88
475.939	84.88
476.158	86.88
476.377	79.88
476.596	75.88
476.814	87.88
477.033	69.88
477.252	87.88
477.471	73.88
477.69	81.88
477.908	85.88
478.127	79.88
478.346	77.88
478.564	81.88
478.783	76.88
479.002	85.88
479.22	80.88
479.439	91.88
479.658	81.88
479.876	79.88
480.095	73.88
480.313	64.88
480.532	89.88
480.751	75.88
480.969	112.88
481.188	180.88
481.406	144.88
481.624	77.88
481.843	78.88
482.061	87.88
482.28	81.88
482.498	73.88
482.717	87.88
482.935	85.88
483.153	87.88
483.372	89.88
483.59	72.88
483.808	67.88
484.027	76.88
484.245	81.88
484.463	81.88
484.681	87.88
484.9	78.88
485.118	74.88
485.336	85.88
485.554	84.88
485.772	87.88
485.99	88.88
486.209	67.88
486.427	76.88
486.645	86.88
486.863	94.88
487.081	79.88
487.299	92.88
487.517	90.88
487.735	81.88
487.953	80.88
488.171	81.88
488.389	75.88
488.607	71.88
488.825	68.88
489.043	85.88
489.261	101.88
489.479	70.88
489.696	68.88
489.914	83.88
490.132	79.88
490.35	81.88
490.568	70.88
490.786	83.88
491.003	82.88
491.221	76.88
491.439	97.88
491.657	94.88
491.874	76.88
492.092	75.88
492.31	87.88
492.527	86.88
492.745	62.88
492.963	83.88
493.18	95.88
493.398	72.88
493.615	76.88
493.833	83.88
494.05	88.88
494.268	69.88
494.485	75.88
494.703	86.88
494.92	80.88
495.138	79.88
495.355	82.88
495.573	81.88
495.79	71.88
496.008	91.88
496.225	88.88
496.442	80.88
496.66	87.88
496.877	72.88
497.094	87.88
497.312	79.88
497.529	79.88
497.746	88.88
497.963	68.88
498.181	82.88
498.398	76.88
498.615	72.88
498.832	97.88
499.049	90.88
499.267	87.88
499.484	83.88
499.701	84.88
499.918	79.88
500.135	81.88
500.352	91.88
500.569	79.88
500.786	79.88
501.003	98.88
501.22	74.88
501.437	78.88
501.654	77.88
501.871	85.88
502.088	88.88
502.305	81.88
502.522	82.88
502.739	78.88
502.956	89.88
503.172	87.88
503.389	75.88
503.606	87.88
503.823	72.88
504.04	80.88
504.256	92.88
504.473	83.88
504.69	83.88
504.907	86.88
505.123	72.88
505.34	77.88
505.557	83.88
505.773	88.88
505.99	83.88
506.207	73.88
506.423	75.88
506.64	78.88
506.856	79.88
507.073	75.88
507.289	93.88
507.506	96.88
507.722	79.88
507.939	76.88
508.155	81.88
508.372	86.88
508.588	84.88
508.805	86.88
509.021	83.88
509.238	91.88
509.454	93.88
509.67	75.88
509.887	77.88
510.103	104.88
510.319	95.88
510.536	109.88
510.752	187.88
510.968	111.88
511.184	95.88
511.401	82.88
511.617	84.88
511.833	74.88
512.049	99.88
512.265	87.88
512.481	103.88
512.698	88.88
512.914	88.88
513.13	83.88
513.346	78.88
513.562	81.88
513.778	78.88
513.994	81.88
514.21	95.88
514.426	93.88
514.642	93.88
514.858	78.88
515.074	89.88
515.29	127.88
515.506	168.88
515.721	107.88
515.937	91.88
516.153	64.88
516.369	82.88
516.585	80.88
516.801	69.88
517.016	89.88
517.232	82.88
517.448	74.88
517.664	80.88
517.879	72.88
518.095	83.88
518.311	74.88
518.527	75.88
518.742	75.88
518.958	81.88
519.173	91.88
519.389	91.88
519.605	81.88
