Data from Penny_1_HRD10591_00013.txt Node
Date: Wed Nov 05 15:33:25 EST 2025
User: Yrep
Spectrometer: HR+D1059
Trigger mode: 1
Integration Time (sec): 1.000000E-1
Scans to average: 1
Electric dark correction enabled: true
Nonlinearity correction enabled: false
Boxcar width: 0
XAxis mode: Wavelengths
Number of Pixels in Spectrum: 2048
>>>>>Begin Spectral Data<<<<<
223.165	-12.12
223.4	-12.12
223.635	-12.12
223.869	-0.12
224.104	-13.12
224.338	-17.12
224.573	-17.12
224.808	-13.12
225.042	-4.12
225.277	-21.12
225.511	-14.12
225.746	4.88
225.98	7.88
226.215	18.88
226.449	15.88
226.683	-3.12
226.918	23.88
227.152	43.88
227.387	31.88
227.621	38.88
227.856	40.88
228.09	42.88
228.324	54.88
228.559	57.88
228.793	65.88
229.027	73.88
229.262	72.88
229.496	57.88
229.73	64.88
229.964	81.88
230.199	75.88
230.433	83.88
230.667	90.88
230.901	79.88
231.136	90.88
231.37	80.88
231.604	72.88
231.838	85.88
232.072	78.88
232.306	93.88
232.541	71.88
232.775	74.88
233.009	90.88
233.243	83.88
233.477	85.88
233.711	80.88
233.945	89.88
234.179	67.88
234.413	80.88
234.647	86.88
234.881	89.88
235.115	85.88
235.349	82.88
235.583	99.88
235.817	83.88
236.051	84.88
236.285	78.88
236.519	79.88
236.753	77.88
236.987	66.88
237.221	81.88
237.455	101.88
237.689	78.88
237.922	73.88
238.156	69.88
238.39	80.88
238.624	69.88
238.858	61.88
239.091	83.88
239.325	75.88
239.559	91.88
239.793	71.88
240.027	69.88
240.26	84.88
240.494	85.88
240.728	80.88
240.961	66.88
241.195	93.88
241.429	74.88
241.662	72.88
241.896	81.88
242.13	69.88
242.363	97.88
242.597	87.88
242.83	69.88
243.064	83.88
243.298	72.88
243.531	71.88
243.765	86.88
243.998	87.88
244.232	93.88
244.465	78.88
244.699	59.88
244.932	85.88
245.166	85.88
245.399	86.88
245.633	78.88
245.866	75.88
246.099	81.88
246.333	80.88
246.566	90.88
246.8	91.88
247.033	73.88
247.266	60.88
247.5	56.88
247.733	76.88
247.966	62.88
248.2	78.88
248.433	76.88
248.666	74.88
248.899	73.88
249.133	85.88
249.366	74.88
249.599	78.88
249.832	78.88
250.066	73.88
250.299	82.88
250.532	91.88
250.765	87.88
250.998	77.88
251.231	87.88
251.465	74.88
251.698	65.88
251.931	83.88
252.164	80.88
252.397	85.88
252.63	85.88
252.863	93.88
253.096	67.88
253.329	79.88
253.562	85.88
253.795	73.88
254.028	82.88
254.261	86.88
254.494	71.88
254.727	70.88
254.96	87.88
255.193	97.88
255.426	73.88
255.659	77.88
255.892	75.88
256.124	69.88
256.357	69.88
256.59	88.88
256.823	85.88
257.056	73.88
257.289	65.88
257.521	76.88
257.754	78.88
257.987	78.88
258.22	86.88
258.452	85.88
258.685	95.88
258.918	91.88
259.151	86.88
259.383	85.88
259.616	75.88
259.849	75.88
260.081	77.88
260.314	79.88
260.547	74.88
260.779	67.88
261.012	85.88
261.244	89.88
261.477	89.88
261.71	86.88
261.942	71.88
262.175	88.88
262.407	85.88
262.64	75.88
262.872	72.88
263.105	83.88
263.337	81.88
263.57	76.88
263.802	87.88
264.035	93.88
264.267	84.88
264.499	86.88
264.732	86.88
264.964	85.88
265.197	87.88
265.429	76.88
265.661	89.88
265.894	93.88
266.126	98.88
266.358	93.88
266.591	87.88
266.823	87.88
267.055	74.88
267.287	81.88
267.52	73.88
267.752	90.88
267.984	82.88
268.216	79.88
268.448	84.88
268.681	76.88
268.913	83.88
269.145	84.88
269.377	86.88
269.609	80.88
269.841	80.88
270.073	78.88
270.306	81.88
270.538	85.88
270.77	88.88
271.002	89.88
271.234	74.88
271.466	93.88
271.698	85.88
271.93	77.88
272.162	84.88
272.394	81.88
272.626	86.88
272.858	93.88
273.09	85.88
273.322	81.88
273.553	83.88
273.785	84.88
274.017	81.88
274.249	92.88
274.481	88.88
274.713	86.88
274.945	87.88
275.176	82.88
275.408	79.88
275.64	70.88
275.872	85.88
276.104	78.88
276.335	76.88
276.567	82.88
276.799	93.88
277.031	97.88
277.262	91.88
277.494	79.88
277.726	90.88
277.957	85.88
278.189	85.88
278.421	84.88
278.652	95.88
278.884	78.88
279.115	84.88
279.347	84.88
279.579	90.88
279.81	93.88
280.042	79.88
280.273	85.88
280.505	87.88
280.736	62.88
280.968	69.88
281.199	89.88
281.431	85.88
281.662	94.88
281.894	85.88
282.125	90.88
282.356	89.88
282.588	93.88
282.819	80.88
283.051	65.88
283.282	85.88
283.513	68.88
283.745	77.88
283.976	99.88
284.207	76.88
284.439	80.88
284.67	74.88
284.901	85.88
285.132	76.88
285.364	77.88
285.595	75.88
285.826	80.88
286.057	71.88
286.288	80.88
286.52	85.88
286.751	82.88
286.982	75.88
287.213	85.88
287.444	100.88
287.675	91.88
287.906	90.88
288.138	79.88
288.369	86.88
288.6	75.88
288.831	81.88
289.062	81.88
289.293	90.88
289.524	85.88
289.755	77.88
289.986	77.88
290.217	89.88
290.448	87.88
290.679	84.88
290.91	96.88
291.141	93.88
291.371	85.88
291.602	93.88
291.833	73.88
292.064	85.88
292.295	81.88
292.526	78.88
292.757	80.88
292.987	83.88
293.218	85.88
293.449	78.88
293.68	93.88
293.91	81.88
294.141	101.88
294.372	92.88
294.603	83.88
294.833	99.88
295.064	87.88
295.295	79.88
295.525	80.88
295.756	101.88
295.987	98.88
296.217	99.88
296.448	87.88
296.679	85.88
296.909	104.88
297.14	80.88
297.37	78.88
297.601	73.88
297.831	92.88
298.062	83.88
298.292	90.88
298.523	69.88
298.753	89.88
298.984	83.88
299.214	85.88
299.445	85.88
299.675	99.88
299.905	103.88
300.136	87.88
300.366	73.88
300.597	86.88
300.827	98.88
301.057	84.88
301.288	90.88
301.518	72.88
301.748	79.88
301.979	98.88
302.209	75.88
302.439	90.88
302.669	94.88
302.9	87.88
303.13	102.88
303.36	94.88
303.59	83.88
303.82	83.88
304.051	82.88
304.281	101.88
304.511	91.88
304.741	101.88
304.971	97.88
305.201	89.88
305.431	95.88
305.661	79.88
305.891	80.88
306.121	81.88
306.352	76.88
306.582	76.88
306.812	90.88
307.042	75.88
307.272	91.88
307.502	84.88
307.731	97.88
307.961	87.88
308.191	105.88
308.421	73.88
308.651	79.88
308.881	88.88
309.111	74.88
309.341	75.88
309.571	82.88
309.8	77.88
310.03	85.88
310.26	93.88
310.49	96.88
310.72	78.88
310.949	84.88
311.179	93.88
311.409	72.88
311.639	92.88
311.868	85.88
312.098	83.88
312.328	74.88
312.557	74.88
312.787	78.88
313.017	94.88
313.246	87.88
313.476	107.88
313.706	75.88
313.935	74.88
314.165	92.88
314.394	86.88
314.624	93.88
314.853	85.88
315.083	87.88
315.312	90.88
315.542	93.88
315.771	78.88
316.001	78.88
316.23	93.88
316.46	85.88
316.689	73.88
316.919	79.88
317.148	73.88
317.377	84.88
317.607	87.88
317.836	87.88
318.065	76.88
318.295	89.88
318.524	84.88
318.753	91.88
318.983	83.88
319.212	83.88
319.441	75.88
319.67	98.88
319.9	66.88
320.129	77.88
320.358	85.88
320.587	83.88
320.816	83.88
321.046	92.88
321.275	90.88
321.504	94.88
321.733	85.88
321.962	74.88
322.191	71.88
322.42	86.88
322.649	78.88
322.878	85.88
323.108	86.88
323.337	88.88
323.566	78.88
323.795	89.88
324.024	95.88
324.253	90.88
324.482	107.88
324.71	127.88
324.939	135.88
325.168	100.88
325.397	85.88
325.626	94.88
325.855	95.88
326.084	91.88
326.313	95.88
326.542	88.88
326.77	92.88
326.999	121.88
327.228	109.88
327.457	119.88
327.686	98.88
327.914	99.88
328.143	98.88
328.372	94.88
328.6	86.88
328.829	97.88
329.058	90.88
329.287	89.88
329.515	83.88
329.744	86.88
329.972	102.88
330.201	104.88
330.43	105.88
330.658	88.88
330.887	94.88
331.115	87.88
331.344	89.88
331.572	91.88
331.801	91.88
332.03	99.88
332.258	87.88
332.486	88.88
332.715	88.88
332.943	90.88
333.172	84.88
333.4	92.88
333.629	98.88
333.857	89.88
334.085	100.88
334.314	117.88
334.542	128.88
334.771	95.88
334.999	96.88
335.227	92.88
335.455	76.88
335.684	90.88
335.912	79.88
336.14	105.88
336.369	91.88
336.597	91.88
336.825	78.88
337.053	93.88
337.281	86.88
337.51	85.88
337.738	84.88
337.966	79.88
338.194	85.88
338.422	83.88
338.65	71.88
338.878	85.88
339.106	92.88
339.334	98.88
339.562	84.88
339.79	101.88
340.018	85.88
340.246	101.88
340.474	90.88
340.702	87.88
340.93	111.88
341.158	79.88
341.386	76.88
341.614	98.88
341.842	99.88
342.07	90.88
342.298	80.88
342.526	85.88
342.754	94.88
342.981	71.88
343.209	77.88
343.437	107.88
343.665	82.88
343.893	69.88
344.12	91.88
344.348	98.88
344.576	82.88
344.804	78.88
345.031	97.88
345.259	77.88
345.487	96.88
345.714	90.88
345.942	98.88
346.17	75.88
346.397	74.88
346.625	87.88
346.853	77.88
347.08	85.88
347.308	80.88
347.535	79.88
347.763	93.88
347.99	75.88
348.218	83.88
348.445	86.88
348.673	92.88
348.9	93.88
349.128	95.88
349.355	84.88
349.583	93.88
349.81	88.88
350.037	94.88
350.265	85.88
350.492	83.88
350.72	72.88
350.947	83.88
351.174	89.88
351.402	86.88
351.629	87.88
351.856	70.88
352.083	84.88
352.311	96.88
352.538	91.88
352.765	83.88
352.992	87.88
353.22	87.88
353.447	82.88
353.674	69.88
353.901	95.88
354.128	93.88
354.355	79.88
354.583	75.88
354.81	82.88
355.037	85.88
355.264	82.88
355.491	74.88
355.718	95.88
355.945	91.88
356.172	95.88
356.399	78.88
356.626	99.88
356.853	85.88
357.08	76.88
357.307	75.88
357.534	78.88
357.761	79.88
357.988	85.88
358.215	94.88
358.441	101.88
358.668	80.88
358.895	92.88
359.122	91.88
359.349	73.88
359.576	83.88
359.802	88.88
360.029	93.88
360.256	87.88
360.483	87.88
360.709	84.88
360.936	101.88
361.163	83.88
361.39	99.88
361.616	88.88
361.843	77.88
362.07	81.88
362.296	89.88
362.523	72.88
362.749	91.88
362.976	76.88
363.203	100.88
363.429	92.88
363.656	88.88
363.882	78.88
364.109	86.88
364.335	82.88
364.562	94.88
364.788	77.88
365.015	86.88
365.241	87.88
365.468	83.88
365.694	71.88
365.92	84.88
366.147	79.88
366.373	74.88
366.599	97.88
366.826	86.88
367.052	84.88
367.278	91.88
367.505	93.88
367.731	85.88
367.957	89.88
368.184	86.88
368.41	85.88
368.636	92.88
368.862	100.88
369.089	87.88
369.315	88.88
369.541	81.88
369.767	77.88
369.993	78.88
370.219	87.88
370.445	91.88
370.672	87.88
370.898	96.88
371.124	85.88
371.35	88.88
371.576	84.88
371.802	82.88
372.028	86.88
372.254	73.88
372.48	83.88
372.706	79.88
372.932	76.88
373.158	70.88
373.384	89.88
373.61	96.88
373.835	87.88
374.061	95.88
374.287	71.88
374.513	90.88
374.739	77.88
374.965	88.88
375.191	100.88
375.416	85.88
375.642	78.88
375.868	95.88
376.094	86.88
376.319	69.88
376.545	83.88
376.771	79.88
376.997	73.88
377.222	86.88
377.448	76.88
377.674	79.88
377.899	87.88
378.125	83.88
378.35	88.88
378.576	67.88
378.802	81.88
379.027	70.88
379.253	75.88
379.478	83.88
379.704	90.88
379.929	87.88
380.155	88.88
380.38	94.88
380.606	87.88
380.831	89.88
381.057	98.88
381.282	93.88
381.507	92.88
381.733	90.88
381.958	77.88
382.184	88.88
382.409	79.88
382.634	87.88
382.86	83.88
383.085	77.88
383.31	85.88
383.535	89.88
383.761	72.88
383.986	86.88
384.211	85.88
384.436	69.88
384.662	81.88
384.887	82.88
385.112	81.88
385.337	86.88
385.562	78.88
385.787	85.88
386.013	87.88
386.238	86.88
386.463	68.88
386.688	86.88
386.913	85.88
387.138	89.88
387.363	84.88
387.588	92.88
387.813	77.88
388.038	96.88
388.263	88.88
388.488	85.88
388.713	89.88
388.938	70.88
389.163	79.88
389.387	88.88
389.612	88.88
389.837	73.88
390.062	79.88
390.287	85.88
390.512	83.88
390.736	93.88
390.961	73.88
391.186	77.88
391.411	66.88
391.636	86.88
391.86	87.88
392.085	74.88
392.31	89.88
392.534	80.88
392.759	94.88
392.984	89.88
393.208	90.88
393.433	89.88
393.658	96.88
393.882	90.88
394.107	87.88
394.331	78.88
394.556	72.88
394.78	75.88
395.005	83.88
395.229	95.88
395.454	71.88
395.678	85.88
395.903	86.88
396.127	102.88
396.352	72.88
396.576	47.88
396.801	91.88
397.025	92.88
397.249	88.88
397.474	93.88
397.698	83.88
397.922	93.88
398.147	90.88
398.371	92.88
398.595	84.88
398.82	88.88
399.044	64.88
399.268	74.88
399.492	74.88
399.717	78.88
399.941	71.88
400.165	92.88
400.389	80.88
400.613	71.88
400.837	85.88
401.062	91.88
401.286	85.88
401.51	86.88
401.734	87.88
401.958	88.88
402.182	76.88
402.406	90.88
402.63	93.88
402.854	77.88
403.078	99.88
403.302	70.88
403.526	91.88
403.75	77.88
403.974	86.88
404.198	80.88
404.422	82.88
404.645	68.88
404.869	78.88
405.093	80.88
405.317	80.88
405.541	83.88
405.765	90.88
405.988	77.88
406.212	99.88
406.436	99.88
406.66	93.88
406.883	77.88
407.107	75.88
407.331	79.88
407.555	84.88
407.778	79.88
408.002	81.88
408.226	89.88
408.449	82.88
408.673	70.88
408.896	89.88
409.12	87.88
409.344	91.88
409.567	79.88
409.791	99.88
410.014	68.88
410.238	63.88
410.461	93.88
410.685	83.88
410.908	93.88
411.132	86.88
411.355	86.88
411.578	82.88
411.802	94.88
412.025	95.88
412.249	83.88
412.472	84.88
412.695	80.88
412.919	83.88
413.142	66.88
413.365	90.88
413.589	85.88
413.812	88.88
414.035	80.88
414.258	85.88
414.482	81.88
414.705	76.88
414.928	84.88
415.151	87.88
415.374	83.88
415.597	87.88
415.821	77.88
416.044	79.88
416.267	86.88
416.49	69.88
416.713	88.88
416.936	75.88
417.159	79.88
417.382	87.88
417.605	82.88
417.828	84.88
418.051	69.88
418.274	97.88
418.497	70.88
418.72	84.88
418.943	85.88
419.166	96.88
419.389	85.88
419.611	95.88
419.834	72.88
420.057	78.88
420.28	84.88
420.503	90.88
420.726	80.88
420.948	93.88
421.171	91.88
421.394	77.88
421.617	90.88
421.839	78.88
422.062	78.88
422.285	75.88
422.507	95.88
422.73	79.88
422.953	91.88
423.175	80.88
423.398	77.88
423.621	81.88
423.843	78.88
424.066	74.88
424.288	89.88
424.511	83.88
424.733	80.88
424.956	78.88
425.178	81.88
425.401	96.88
425.623	89.88
425.846	79.88
426.068	81.88
426.291	69.88
426.513	83.88
426.735	85.88
426.958	91.88
427.18	94.88
427.402	75.88
427.625	83.88
427.847	80.88
428.069	91.88
428.292	85.88
428.514	89.88
428.736	79.88
428.958	81.88
429.181	87.88
429.403	86.88
429.625	85.88
429.847	85.88
430.069	85.88
430.292	90.88
430.514	72.88
430.736	87.88
430.958	83.88
431.18	77.88
431.402	81.88
431.624	89.88
431.846	86.88
432.068	78.88
432.29	86.88
432.512	95.88
432.734	91.88
432.956	92.88
433.178	77.88
433.4	73.88
433.622	77.88
433.844	84.88
434.066	91.88
434.287	92.88
434.509	81.88
434.731	78.88
434.953	81.88
435.175	83.88
435.397	87.88
435.618	78.88
435.84	83.88
436.062	93.88
436.284	74.88
436.505	76.88
436.727	79.88
436.949	71.88
437.17	84.88
437.392	85.88
437.614	81.88
437.835	94.88
438.057	87.88
438.278	87.88
438.5	94.88
438.721	86.88
438.943	89.88
439.165	86.88
439.386	82.88
439.608	89.88
439.829	106.88
440.05	88.88
440.272	82.88
440.493	91.88
440.715	104.88
440.936	87.88
441.158	76.88
441.379	89.88
441.6	73.88
441.822	91.88
442.043	93.88
442.264	92.88
442.486	79.88
442.707	79.88
442.928	92.88
443.149	65.88
443.371	89.88
443.592	82.88
443.813	92.88
444.034	96.88
444.255	83.88
444.476	69.88
444.698	85.88
444.919	79.88
445.14	153.88
445.361	129.88
445.582	92.88
445.803	79.88
446.024	79.88
446.245	92.88
446.466	83.88
446.687	79.88
446.908	90.88
447.129	77.88
447.35	81.88
447.571	97.88
447.792	77.88
448.013	97.88
448.234	78.88
448.455	80.88
448.675	83.88
448.896	90.88
449.117	86.88
449.338	97.88
449.559	65.88
449.779	77.88
450	79.88
450.221	92.88
450.442	85.88
450.662	80.88
450.883	92.88
451.104	89.88
451.324	88.88
451.545	88.88
451.766	73.88
451.986	92.88
452.207	88.88
452.428	70.88
452.648	84.88
452.869	75.88
453.089	82.88
453.31	81.88
453.53	80.88
453.751	85.88
453.971	88.88
454.192	91.88
454.412	87.88
454.633	85.88
454.853	95.88
455.073	76.88
455.294	90.88
455.514	94.88
455.734	92.88
455.955	86.88
456.175	87.88
456.395	75.88
456.616	82.88
456.836	93.88
457.056	66.88
457.276	81.88
457.497	74.88
457.717	91.88
457.937	84.88
458.157	86.88
458.377	86.88
458.598	73.88
458.818	103.88
459.038	68.88
459.258	66.88
459.478	79.88
459.698	78.88
459.918	94.88
460.138	92.88
460.358	82.88
460.578	93.88
460.798	85.88
461.018	72.88
461.238	75.88
461.458	85.88
461.678	89.88
461.898	76.88
462.118	74.88
462.338	78.88
462.558	95.88
462.777	83.88
462.997	86.88
463.217	81.88
463.437	72.88
463.657	77.88
463.876	94.88
464.096	76.88
464.316	68.88
464.536	86.88
464.755	94.88
464.975	75.88
465.195	81.88
465.414	88.88
465.634	79.88
465.854	79.88
466.073	92.88
466.293	93.88
466.512	87.88
466.732	83.88
466.951	80.88
467.171	80.88
467.391	82.88
467.61	84.88
467.829	90.88
468.049	96.88
468.268	102.88
468.488	89.88
468.707	97.88
468.927	81.88
469.146	87.88
469.365	86.88
469.585	85.88
469.804	93.88
470.023	94.88
470.243	91.88
470.462	85.88
470.681	87.88
470.901	71.88
471.12	99.88
471.339	88.88
471.558	84.88
471.777	83.88
471.997	101.88
472.216	108.88
472.435	134.88
472.654	79.88
472.873	67.88
473.092	90.88
473.311	88.88
473.53	86.88
473.749	96.88
473.968	101.88
474.187	83.88
474.406	95.88
474.625	93.88
474.844	91.88
475.063	88.88
475.282	93.88
475.501	80.88
475.72	85.88
475.939	88.88
476.158	75.88
476.377	84.88
476.596	78.88
476.814	96.88
477.033	83.88
477.252	78.88
477.471	89.88
477.69	82.88
477.908	97.88
478.127	89.88
478.346	84.88
478.564	85.88
478.783	72.88
479.002	79.88
479.22	86.88
479.439	90.88
479.658	74.88
479.876	85.88
480.095	75.88
480.313	95.88
480.532	85.88
480.751	90.88
480.969	130.88
481.188	193.88
481.406	148.88
481.624	89.88
481.843	76.88
482.061	85.88
482.28	94.88
482.498	89.88
482.717	82.88
482.935	91.88
483.153	87.88
483.372	92.88
483.59	106.88
483.808	82.88
484.027	86.88
484.245	85.88
484.463	78.88
484.681	95.88
484.9	83.88
485.118	98.88
485.336	83.88
485.554	66.88
485.772	101.88
485.99	87.88
486.209	85.88
486.427	82.88
486.645	95.88
486.863	95.88
487.081	77.88
487.299	91.88
487.517	83.88
487.735	93.88
487.953	77.88
488.171	91.88
488.389	91.88
488.607	77.88
488.825	92.88
489.043	79.88
489.261	89.88
489.479	85.88
489.696	83.88
489.914	78.88
490.132	96.88
490.35	85.88
490.568	90.88
490.786	87.88
491.003	84.88
491.221	80.88
491.439	91.88
491.657	94.88
491.874	97.88
492.092	84.88
492.31	95.88
492.527	89.88
492.745	77.88
492.963	78.88
493.18	90.88
493.398	90.88
493.615	92.88
493.833	106.88
494.05	93.88
494.268	83.88
494.485	86.88
494.703	90.88
494.92	86.88
495.138	84.88
495.355	99.88
495.573	93.88
495.79	89.88
496.008	89.88
496.225	88.88
496.442	82.88
496.66	85.88
496.877	94.88
497.094	87.88
497.312	89.88
497.529	83.88
497.746	76.88
497.963	80.88
498.181	83.88
498.398	90.88
498.615	87.88
498.832	89.88
499.049	80.88
499.267	89.88
499.484	88.88
499.701	87.88
499.918	90.88
500.135	76.88
500.352	88.88
500.569	87.88
500.786	80.88
501.003	85.88
501.22	83.88
501.437	90.88
501.654	86.88
501.871	94.88
502.088	81.88
502.305	95.88
502.522	75.88
502.739	76.88
502.956	88.88
503.172	80.88
503.389	80.88
503.606	91.88
503.823	81.88
504.04	84.88
504.256	87.88
504.473	86.88
504.69	79.88
504.907	89.88
505.123	81.88
505.34	77.88
505.557	83.88
505.773	107.88
505.99	82.88
506.207	66.88
506.423	83.88
506.64	85.88
506.856	96.88
507.073	97.88
507.289	88.88
507.506	89.88
507.722	87.88
507.939	97.88
508.155	90.88
508.372	82.88
508.588	93.88
508.805	87.88
509.021	85.88
509.238	107.88
509.454	83.88
509.67	83.88
509.887	71.88
510.103	78.88
510.319	88.88
510.536	129.88
510.752	184.88
510.968	115.88
511.184	79.88
511.401	85.88
511.617	85.88
511.833	92.88
512.049	87.88
512.265	87.88
512.481	68.88
512.698	85.88
512.914	83.88
513.13	86.88
513.346	87.88
513.562	88.88
513.778	94.88
513.994	77.88
514.21	85.88
514.426	86.88
514.642	76.88
514.858	93.88
515.074	87.88
515.29	133.88
515.506	188.88
515.721	115.88
515.937	93.88
516.153	88.88
516.369	98.88
516.585	83.88
516.801	83.88
517.016	85.88
517.232	87.88
517.448	87.88
517.664	86.88
517.879	85.88
518.095	90.88
518.311	77.88
518.527	91.88
518.742	96.88
518.958	85.88
519.173	73.88
519.389	83.88
