Data from Penny_1_HRD10591_00012.txt Node
Date: Wed Nov 05 15:33:24 EST 2025
User: Yrep
Spectrometer: HR+D1059
Trigger mode: 1
Integration Time (sec): 1.000000E-1
Scans to average: 1
Electric dark correction enabled: true
Nonlinearity correction enabled: false
Boxcar width: 0
XAxis mode: Wavelengths
Number of Pixels in Spectrum: 2048
>>>>>Begin Spectral Data<<<<<
223.165	-13.81
223.4	-13.81
223.635	-13.81
223.869	-14.81
224.104	-13.81
224.338	-9.81
224.573	-3.81
224.808	-17.81
225.042	-22.81
225.277	-15.81
225.511	-5.81
225.746	5.19
225.98	8.19
226.215	0.19
226.449	7.19
226.683	27.19
226.918	42.19
227.152	28.19
227.387	25.19
227.621	43.19
227.856	43.19
228.09	52.19
228.324	64.19
228.559	53.19
228.793	50.19
229.027	66.19
229.262	65.19
229.496	64.19
229.73	87.19
229.964	68.19
230.199	66.19
230.433	67.19
230.667	82.19
230.901	84.19
231.136	77.19
231.37	94.19
231.604	66.19
231.838	71.19
232.072	69.19
232.306	77.19
232.541	82.19
232.775	75.19
233.009	68.19
233.243	93.19
233.477	92.19
233.711	79.19
233.945	74.19
234.179	78.19
234.413	99.19
234.647	87.19
234.881	93.19
235.115	71.19
235.349	92.19
235.583	76.19
235.817	75.19
236.051	89.19
236.285	64.19
236.519	80.19
236.753	72.19
236.987	81.19
237.221	81.19
237.455	67.19
237.689	78.19
237.922	63.19
238.156	84.19
238.39	79.19
238.624	69.19
238.858	82.19
239.091	77.19
239.325	76.19
239.559	90.19
239.793	74.19
240.027	76.19
240.26	71.19
240.494	68.19
240.728	65.19
240.961	79.19
241.195	86.19
241.429	83.19
241.662	72.19
241.896	79.19
242.13	80.19
242.363	76.19
242.597	76.19
242.83	67.19
243.064	77.19
243.298	68.19
243.531	66.19
243.765	68.19
243.998	76.19
244.232	89.19
244.465	89.19
244.699	78.19
244.932	60.19
245.166	65.19
245.399	88.19
245.633	86.19
245.866	75.19
246.099	79.19
246.333	88.19
246.566	90.19
246.8	83.19
247.033	84.19
247.266	80.19
247.5	73.19
247.733	79.19
247.966	78.19
248.2	78.19
248.433	77.19
248.666	90.19
248.899	91.19
249.133	68.19
249.366	93.19
249.599	84.19
249.832	93.19
250.066	83.19
250.299	82.19
250.532	92.19
250.765	78.19
250.998	82.19
251.231	80.19
251.465	76.19
251.698	80.19
251.931	80.19
252.164	78.19
252.397	75.19
252.63	87.19
252.863	72.19
253.096	75.19
253.329	83.19
253.562	85.19
253.795	77.19
254.028	81.19
254.261	84.19
254.494	85.19
254.727	92.19
254.96	80.19
255.193	89.19
255.426	85.19
255.659	78.19
255.892	91.19
256.124	68.19
256.357	94.19
256.59	78.19
256.823	71.19
257.056	93.19
257.289	89.19
257.521	78.19
257.754	73.19
257.987	89.19
258.22	70.19
258.452	76.19
258.685	85.19
258.918	73.19
259.151	80.19
259.383	89.19
259.616	94.19
259.849	84.19
260.081	76.19
260.314	83.19
260.547	92.19
260.779	83.19
261.012	81.19
261.244	85.19
261.477	86.19
261.71	75.19
261.942	73.19
262.175	82.19
262.407	79.19
262.64	93.19
262.872	83.19
263.105	69.19
263.337	82.19
263.57	79.19
263.802	80.19
264.035	87.19
264.267	65.19
264.499	85.19
264.732	79.19
264.964	89.19
265.197	78.19
265.429	75.19
265.661	78.19
265.894	75.19
266.126	73.19
266.358	89.19
266.591	88.19
266.823	88.19
267.055	76.19
267.287	77.19
267.52	83.19
267.752	82.19
267.984	84.19
268.216	80.19
268.448	86.19
268.681	89.19
268.913	84.19
269.145	79.19
269.377	90.19
269.609	74.19
269.841	94.19
270.073	87.19
270.306	89.19
270.538	87.19
270.77	79.19
271.002	88.19
271.234	92.19
271.466	73.19
271.698	70.19
271.93	91.19
272.162	73.19
272.394	86.19
272.626	87.19
272.858	92.19
273.09	82.19
273.322	76.19
273.553	74.19
273.785	84.19
274.017	93.19
274.249	81.19
274.481	98.19
274.713	74.19
274.945	85.19
275.176	94.19
275.408	76.19
275.64	84.19
275.872	86.19
276.104	81.19
276.335	85.19
276.567	89.19
276.799	70.19
277.031	99.19
277.262	75.19
277.494	85.19
277.726	88.19
277.957	80.19
278.189	87.19
278.421	79.19
278.652	72.19
278.884	79.19
279.115	85.19
279.347	82.19
279.579	83.19
279.81	86.19
280.042	78.19
280.273	77.19
280.505	68.19
280.736	96.19
280.968	84.19
281.199	90.19
281.431	75.19
281.662	84.19
281.894	82.19
282.125	84.19
282.356	91.19
282.588	81.19
282.819	84.19
283.051	85.19
283.282	83.19
283.513	86.19
283.745	61.19
283.976	88.19
284.207	84.19
284.439	97.19
284.67	86.19
284.901	82.19
285.132	84.19
285.364	89.19
285.595	78.19
285.826	91.19
286.057	81.19
286.288	82.19
286.52	94.19
286.751	86.19
286.982	87.19
287.213	77.19
287.444	78.19
287.675	90.19
287.906	80.19
288.138	84.19
288.369	73.19
288.6	92.19
288.831	78.19
289.062	84.19
289.293	78.19
289.524	83.19
289.755	93.19
289.986	90.19
290.217	89.19
290.448	98.19
290.679	92.19
290.91	87.19
291.141	80.19
291.371	90.19
291.602	90.19
291.833	74.19
292.064	88.19
292.295	87.19
292.526	64.19
292.757	78.19
292.987	82.19
293.218	78.19
293.449	83.19
293.68	94.19
293.91	73.19
294.141	77.19
294.372	74.19
294.603	69.19
294.833	88.19
295.064	87.19
295.295	86.19
295.525	92.19
295.756	95.19
295.987	87.19
296.217	83.19
296.448	72.19
296.679	93.19
296.909	60.19
297.14	90.19
297.37	94.19
297.601	80.19
297.831	88.19
298.062	91.19
298.292	95.19
298.523	92.19
298.753	82.19
298.984	79.19
299.214	89.19
299.445	97.19
299.675	91.19
299.905	76.19
300.136	72.19
300.366	82.19
300.597	102.19
300.827	78.19
301.057	81.19
301.288	78.19
301.518	92.19
301.748	97.19
301.979	91.19
302.209	73.19
302.439	92.19
302.669	74.19
302.9	77.19
303.13	89.19
303.36	75.19
303.59	66.19
303.82	82.19
304.051	98.19
304.281	86.19
304.511	83.19
304.741	79.19
304.971	80.19
305.201	78.19
305.431	83.19
305.661	86.19
305.891	82.19
306.121	97.19
306.352	97.19
306.582	88.19
306.812	84.19
307.042	68.19
307.272	96.19
307.502	87.19
307.731	71.19
307.961	80.19
308.191	80.19
308.421	86.19
308.651	77.19
308.881	104.19
309.111	77.19
309.341	90.19
309.571	78.19
309.8	69.19
310.03	89.19
310.26	85.19
310.49	85.19
310.72	83.19
310.949	79.19
311.179	89.19
311.409	65.19
311.639	94.19
311.868	85.19
312.098	90.19
312.328	78.19
312.557	93.19
312.787	85.19
313.017	93.19
313.246	96.19
313.476	78.19
313.706	76.19
313.935	79.19
314.165	84.19
314.394	77.19
314.624	74.19
314.853	76.19
315.083	87.19
315.312	86.19
315.542	84.19
315.771	89.19
316.001	94.19
316.23	85.19
316.46	75.19
316.689	84.19
316.919	78.19
317.148	74.19
317.377	89.19
317.607	91.19
317.836	92.19
318.065	75.19
318.295	91.19
318.524	92.19
318.753	83.19
318.983	84.19
319.212	87.19
319.441	90.19
319.67	83.19
319.9	78.19
320.129	90.19
320.358	76.19
320.587	78.19
320.816	76.19
321.046	98.19
321.275	96.19
321.504	74.19
321.733	94.19
321.962	84.19
322.191	95.19
322.42	81.19
322.649	81.19
322.878	86.19
323.108	93.19
323.337	92.19
323.566	89.19
323.795	85.19
324.024	85.19
324.253	85.19
324.482	102.19
324.71	126.19
324.939	124.19
325.168	106.19
325.397	87.19
325.626	78.19
325.855	95.19
326.084	95.19
326.313	99.19
326.542	89.19
326.77	82.19
326.999	91.19
327.228	90.19
327.457	132.19
327.686	100.19
327.914	99.19
328.143	106.19
328.372	86.19
328.6	92.19
328.829	80.19
329.058	75.19
329.287	83.19
329.515	94.19
329.744	100.19
329.972	109.19
330.201	106.19
330.43	111.19
330.658	87.19
330.887	84.19
331.115	90.19
331.344	88.19
331.572	85.19
331.801	86.19
332.03	83.19
332.258	87.19
332.486	88.19
332.715	102.19
332.943	94.19
333.172	70.19
333.4	78.19
333.629	77.19
333.857	92.19
334.085	102.19
334.314	110.19
334.542	117.19
334.771	125.19
334.999	87.19
335.227	73.19
335.455	88.19
335.684	88.19
335.912	77.19
336.14	96.19
336.369	81.19
336.597	79.19
336.825	81.19
337.053	67.19
337.281	77.19
337.51	83.19
337.738	90.19
337.966	84.19
338.194	82.19
338.422	100.19
338.65	90.19
338.878	79.19
339.106	94.19
339.334	90.19
339.562	78.19
339.79	74.19
340.018	74.19
340.246	95.19
340.474	88.19
340.702	76.19
340.93	71.19
341.158	94.19
341.386	76.19
341.614	86.19
341.842	76.19
342.07	109.19
342.298	92.19
342.526	70.19
342.754	84.19
342.981	88.19
343.209	84.19
343.437	106.19
343.665	95.19
343.893	76.19
344.12	82.19
344.348	97.19
344.576	105.19
344.804	81.19
345.031	89.19
345.259	86.19
345.487	89.19
345.714	68.19
345.942	84.19
346.17	82.19
346.397	96.19
346.625	88.19
346.853	91.19
347.08	86.19
347.308	84.19
347.535	78.19
347.763	84.19
347.99	92.19
348.218	96.19
348.445	87.19
348.673	90.19
348.9	96.19
349.128	97.19
349.355	82.19
349.583	76.19
349.81	89.19
350.037	89.19
350.265	78.19
350.492	96.19
350.72	78.19
350.947	71.19
351.174	93.19
351.402	89.19
351.629	86.19
351.856	74.19
352.083	79.19
352.311	78.19
352.538	84.19
352.765	109.19
352.992	101.19
353.22	98.19
353.447	79.19
353.674	84.19
353.901	93.19
354.128	99.19
354.355	76.19
354.583	84.19
354.81	87.19
355.037	83.19
355.264	89.19
355.491	74.19
355.718	76.19
355.945	87.19
356.172	72.19
356.399	70.19
356.626	96.19
356.853	76.19
357.08	92.19
357.307	92.19
357.534	63.19
357.761	96.19
357.988	86.19
358.215	88.19
358.441	88.19
358.668	73.19
358.895	95.19
359.122	77.19
359.349	79.19
359.576	84.19
359.802	92.19
360.029	85.19
360.256	82.19
360.483	86.19
360.709	85.19
360.936	88.19
361.163	74.19
361.39	99.19
361.616	93.19
361.843	86.19
362.07	86.19
362.296	95.19
362.523	86.19
362.749	82.19
362.976	86.19
363.203	83.19
363.429	76.19
363.656	74.19
363.882	88.19
364.109	79.19
364.335	86.19
364.562	93.19
364.788	92.19
365.015	87.19
365.241	85.19
365.468	85.19
365.694	72.19
365.92	90.19
366.147	75.19
366.373	98.19
366.599	84.19
366.826	88.19
367.052	78.19
367.278	96.19
367.505	88.19
367.731	94.19
367.957	79.19
368.184	85.19
368.41	76.19
368.636	90.19
368.862	84.19
369.089	80.19
369.315	88.19
369.541	87.19
369.767	88.19
369.993	100.19
370.219	90.19
370.445	84.19
370.672	82.19
370.898	79.19
371.124	69.19
371.35	82.19
371.576	78.19
371.802	87.19
372.028	75.19
372.254	78.19
372.48	81.19
372.706	76.19
372.932	82.19
373.158	89.19
373.384	97.19
373.61	78.19
373.835	72.19
374.061	84.19
374.287	81.19
374.513	91.19
374.739	90.19
374.965	86.19
375.191	85.19
375.416	102.19
375.642	86.19
375.868	91.19
376.094	90.19
376.319	79.19
376.545	67.19
376.771	64.19
376.997	68.19
377.222	81.19
377.448	76.19
377.674	76.19
377.899	93.19
378.125	97.19
378.35	88.19
378.576	82.19
378.802	94.19
379.027	92.19
379.253	81.19
379.478	96.19
379.704	86.19
379.929	80.19
380.155	84.19
380.38	84.19
380.606	82.19
380.831	89.19
381.057	102.19
381.282	82.19
381.507	78.19
381.733	80.19
381.958	92.19
382.184	87.19
382.409	80.19
382.634	85.19
382.86	71.19
383.085	88.19
383.31	81.19
383.535	81.19
383.761	85.19
383.986	81.19
384.211	74.19
384.436	90.19
384.662	92.19
384.887	85.19
385.112	84.19
385.337	89.19
385.562	84.19
385.787	78.19
386.013	77.19
386.238	77.19
386.463	94.19
386.688	97.19
386.913	96.19
387.138	76.19
387.363	74.19
387.588	82.19
387.813	79.19
388.038	77.19
388.263	82.19
388.488	90.19
388.713	81.19
388.938	82.19
389.163	81.19
389.387	80.19
389.612	74.19
389.837	80.19
390.062	88.19
390.287	83.19
390.512	89.19
390.736	69.19
390.961	87.19
391.186	78.19
391.411	72.19
391.636	76.19
391.86	96.19
392.085	69.19
392.31	88.19
392.534	74.19
392.759	76.19
392.984	86.19
393.208	70.19
393.433	82.19
393.658	89.19
393.882	85.19
394.107	80.19
394.331	82.19
394.556	86.19
394.78	78.19
395.005	71.19
395.229	69.19
395.454	89.19
395.678	82.19
395.903	86.19
396.127	78.19
396.352	69.19
396.576	62.19
396.801	81.19
397.025	86.19
397.249	66.19
397.474	83.19
397.698	81.19
397.922	73.19
398.147	87.19
398.371	83.19
398.595	87.19
398.82	83.19
399.044	80.19
399.268	93.19
399.492	73.19
399.717	68.19
399.941	52.19
400.165	82.19
400.389	93.19
400.613	83.19
400.837	88.19
401.062	78.19
401.286	82.19
401.51	90.19
401.734	90.19
401.958	89.19
402.182	82.19
402.406	73.19
402.63	73.19
402.854	75.19
403.078	78.19
403.302	86.19
403.526	89.19
403.75	83.19
403.974	83.19
404.198	87.19
404.422	77.19
404.645	82.19
404.869	101.19
405.093	78.19
405.317	82.19
405.541	86.19
405.765	94.19
405.988	102.19
406.212	94.19
406.436	90.19
406.66	97.19
406.883	77.19
407.107	75.19
407.331	87.19
407.555	96.19
407.778	72.19
408.002	90.19
408.226	92.19
408.449	78.19
408.673	85.19
408.896	82.19
409.12	67.19
409.344	86.19
409.567	79.19
409.791	81.19
410.014	84.19
410.238	76.19
410.461	78.19
410.685	86.19
410.908	82.19
411.132	83.19
411.355	88.19
411.578	96.19
411.802	78.19
412.025	92.19
412.249	80.19
412.472	84.19
412.695	72.19
412.919	78.19
413.142	77.19
413.365	81.19
413.589	89.19
413.812	78.19
414.035	90.19
414.258	78.19
414.482	67.19
414.705	80.19
414.928	77.19
415.151	78.19
415.374	85.19
415.597	82.19
415.821	87.19
416.044	78.19
416.267	86.19
416.49	86.19
416.713	71.19
416.936	80.19
417.159	92.19
417.382	90.19
417.605	75.19
417.828	92.19
418.051	77.19
418.274	82.19
418.497	86.19
418.72	80.19
418.943	89.19
419.166	74.19
419.389	84.19
419.611	82.19
419.834	73.19
420.057	85.19
420.28	77.19
420.503	64.19
420.726	70.19
420.948	73.19
421.171	73.19
421.394	81.19
421.617	84.19
421.839	76.19
422.062	88.19
422.285	76.19
422.507	90.19
422.73	82.19
422.953	76.19
423.175	64.19
423.398	94.19
423.621	96.19
423.843	85.19
424.066	68.19
424.288	87.19
424.511	91.19
424.733	91.19
424.956	77.19
425.178	82.19
425.401	93.19
425.623	90.19
425.846	76.19
426.068	79.19
426.291	84.19
426.513	86.19
426.735	83.19
426.958	70.19
427.18	75.19
427.402	79.19
427.625	92.19
427.847	91.19
428.069	76.19
428.292	82.19
428.514	75.19
428.736	84.19
428.958	71.19
429.181	82.19
429.403	80.19
429.625	70.19
429.847	80.19
430.069	83.19
430.292	87.19
430.514	67.19
430.736	68.19
430.958	84.19
431.18	83.19
431.402	91.19
431.624	88.19
431.846	89.19
432.068	80.19
432.29	81.19
432.512	95.19
432.734	76.19
432.956	87.19
433.178	86.19
433.4	76.19
433.622	86.19
433.844	74.19
434.066	82.19
434.287	77.19
434.509	62.19
434.731	96.19
434.953	85.19
435.175	82.19
435.397	86.19
435.618	91.19
435.84	84.19
436.062	87.19
436.284	92.19
436.505	82.19
436.727	83.19
436.949	86.19
437.17	89.19
437.392	82.19
437.614	88.19
437.835	84.19
438.057	81.19
438.278	86.19
438.5	79.19
438.721	86.19
438.943	86.19
439.165	81.19
439.386	81.19
439.608	70.19
439.829	80.19
440.05	92.19
440.272	93.19
440.493	86.19
440.715	89.19
440.936	92.19
441.158	75.19
441.379	76.19
441.6	84.19
441.822	83.19
442.043	88.19
442.264	92.19
442.486	78.19
442.707	68.19
442.928	90.19
443.149	86.19
443.371	77.19
443.592	88.19
443.813	86.19
444.034	94.19
444.255	84.19
444.476	80.19
444.698	84.19
444.919	88.19
445.14	174.19
445.361	139.19
445.582	75.19
445.803	83.19
446.024	87.19
446.245	96.19
446.466	87.19
446.687	86.19
446.908	79.19
447.129	86.19
447.35	93.19
447.571	84.19
447.792	66.19
448.013	77.19
448.234	99.19
448.455	67.19
448.675	77.19
448.896	86.19
449.117	66.19
449.338	75.19
449.559	92.19
449.779	82.19
450	75.19
450.221	76.19
450.442	78.19
450.662	90.19
450.883	85.19
451.104	79.19
451.324	82.19
451.545	84.19
451.766	89.19
451.986	92.19
452.207	84.19
452.428	85.19
452.648	87.19
452.869	87.19
453.089	74.19
453.31	91.19
453.53	90.19
453.751	86.19
453.971	86.19
454.192	78.19
454.412	89.19
454.633	78.19
454.853	88.19
455.073	80.19
455.294	87.19
455.514	93.19
455.734	73.19
455.955	89.19
456.175	82.19
456.395	85.19
456.616	76.19
456.836	87.19
457.056	72.19
457.276	78.19
457.497	82.19
457.717	84.19
457.937	78.19
458.157	88.19
458.377	75.19
458.598	77.19
458.818	83.19
459.038	76.19
459.258	85.19
459.478	75.19
459.698	76.19
459.918	89.19
460.138	78.19
460.358	78.19
460.578	105.19
460.798	84.19
461.018	74.19
461.238	78.19
461.458	92.19
461.678	72.19
461.898	79.19
462.118	81.19
462.338	74.19
462.558	96.19
462.777	80.19
462.997	85.19
463.217	92.19
463.437	80.19
463.657	65.19
463.876	75.19
464.096	85.19
464.316	67.19
464.536	94.19
464.755	78.19
464.975	72.19
465.195	79.19
465.414	94.19
465.634	75.19
465.854	82.19
466.073	76.19
466.293	85.19
466.512	82.19
466.732	78.19
466.951	77.19
467.171	82.19
467.391	88.19
467.61	92.19
467.829	88.19
468.049	107.19
468.268	98.19
468.488	87.19
468.707	82.19
468.927	85.19
469.146	92.19
469.365	85.19
469.585	92.19
469.804	94.19
470.023	80.19
470.243	96.19
470.462	84.19
470.681	90.19
470.901	66.19
471.12	70.19
471.339	82.19
471.558	79.19
471.777	79.19
471.997	103.19
472.216	124.19
472.435	130.19
472.654	85.19
472.873	93.19
473.092	90.19
473.311	91.19
473.53	70.19
473.749	79.19
473.968	91.19
474.187	93.19
474.406	87.19
474.625	93.19
474.844	78.19
475.063	80.19
475.282	78.19
475.501	82.19
475.72	90.19
475.939	76.19
476.158	81.19
476.377	84.19
476.596	75.19
476.814	98.19
477.033	83.19
477.252	86.19
477.471	100.19
477.69	86.19
477.908	88.19
478.127	87.19
478.346	87.19
478.564	82.19
478.783	79.19
479.002	81.19
479.22	84.19
479.439	72.19
479.658	90.19
479.876	89.19
480.095	82.19
480.313	86.19
480.532	84.19
480.751	82.19
480.969	131.19
481.188	204.19
481.406	142.19
481.624	96.19
481.843	100.19
482.061	98.19
482.28	92.19
482.498	82.19
482.717	70.19
482.935	76.19
483.153	85.19
483.372	77.19
483.59	75.19
483.808	81.19
484.027	74.19
484.245	91.19
484.463	78.19
484.681	86.19
484.9	75.19
485.118	89.19
485.336	94.19
485.554	78.19
485.772	86.19
485.99	92.19
486.209	91.19
486.427	85.19
486.645	79.19
486.863	84.19
487.081	81.19
487.299	90.19
487.517	90.19
487.735	94.19
487.953	84.19
488.171	77.19
488.389	81.19
488.607	67.19
488.825	76.19
489.043	79.19
489.261	74.19
489.479	96.19
489.696	97.19
489.914	92.19
490.132	82.19
490.35	86.19
490.568	77.19
490.786	75.19
491.003	86.19
491.221	86.19
491.439	89.19
491.657	84.19
491.874	80.19
492.092	84.19
492.31	100.19
492.527	86.19
492.745	80.19
492.963	90.19
493.18	84.19
493.398	81.19
493.615	75.19
493.833	86.19
494.05	88.19
494.268	100.19
494.485	84.19
494.703	84.19
494.92	93.19
495.138	75.19
495.355	84.19
495.573	90.19
495.79	84.19
496.008	93.19
496.225	95.19
496.442	100.19
496.66	94.19
496.877	69.19
497.094	93.19
497.312	88.19
497.529	74.19
497.746	76.19
497.963	74.19
498.181	68.19
498.398	90.19
498.615	99.19
498.832	78.19
499.049	86.19
499.267	96.19
499.484	84.19
499.701	83.19
499.918	86.19
500.135	83.19
500.352	75.19
500.569	96.19
500.786	71.19
501.003	68.19
501.22	87.19
501.437	89.19
501.654	81.19
501.871	81.19
502.088	71.19
502.305	89.19
502.522	98.19
502.739	87.19
502.956	82.19
503.172	89.19
503.389	85.19
503.606	90.19
503.823	98.19
504.04	75.19
504.256	97.19
504.473	70.19
504.69	64.19
504.907	82.19
505.123	92.19
505.34	81.19
505.557	86.19
505.773	89.19
505.99	84.19
506.207	81.19
506.423	93.19
506.64	84.19
506.856	69.19
507.073	81.19
507.289	84.19
507.506	82.19
507.722	87.19
507.939	84.19
508.155	108.19
508.372	79.19
508.588	71.19
508.805	94.19
509.021	88.19
509.238	78.19
509.454	76.19
509.67	88.19
509.887	77.19
510.103	102.19
510.319	83.19
510.536	126.19
510.752	200.19
510.968	101.19
511.184	82.19
511.401	82.19
511.617	82.19
511.833	86.19
512.049	85.19
512.265	84.19
512.481	87.19
512.698	73.19
512.914	75.19
513.13	84.19
513.346	74.19
513.562	104.19
513.778	84.19
513.994	90.19
514.21	93.19
514.426	86.19
514.642	84.19
514.858	93.19
515.074	89.19
515.29	118.19
515.506	193.19
515.721	115.19
515.937	90.19
516.153	92.19
516.369	86.19
516.585	90.19
516.801	94.19
517.016	83.19
517.232	86.19
517.448	84.19
517.664	81.19
517.879	96.19
518.095	88.19
518.311	79.19
518.527	98.19
518.742	85.19
518.958	96.19
519.173	84.19
519.389	78.19
519.605	80.19
