Data from Penny_1_HRD10591_00011.txt Node
Date: Wed Nov 05 15:33:24 EST 2025
User: Yrep
Spectrometer: HR+D1059
Trigger mode: 1
Integration Time (sec): 1.000000E-1
Scans to average: 1
Electric dark correction enabled: true
Nonlinearity correction enabled: false
Boxcar width: 0
XAxis mode: Wavelengths
Number of Pixels in Spectrum: 2048
>>>>>Begin Spectral Data<<<<<
223.165	-17.75
223.4	-17.75
223.635	-17.75
223.869	-31.75
224.104	-10.75
224.338	-11.75
224.573	-19.75
224.808	-19.75
225.042	-5.75
225.277	-7.75
225.511	-0.75
225.746	12.25
225.98	15.25
226.215	13.25
226.449	7.25
226.683	22.25
226.918	31.25
227.152	24.25
227.387	41.25
227.621	28.25
227.856	39.25
228.09	46.25
228.324	56.25
228.559	44.25
228.793	55.25
229.027	67.25
229.262	74.25
229.496	73.25
229.73	69.25
229.964	68.25
230.199	63.25
230.433	76.25
230.667	87.25
230.901	83.25
231.136	80.25
231.37	75.25
231.604	68.25
231.838	73.25
232.072	68.25
232.306	84.25
232.541	81.25
232.775	80.25
233.009	82.25
233.243	78.25
233.477	77.25
233.711	58.25
233.945	79.25
234.179	78.25
234.413	86.25
234.647	86.25
234.881	67.25
235.115	86.25
235.349	66.25
235.583	75.25
235.817	89.25
236.051	74.25
236.285	82.25
236.519	75.25
236.753	88.25
236.987	82.25
237.221	72.25
237.455	81.25
237.689	68.25
237.922	76.25
238.156	79.25
238.39	76.25
238.624	70.25
238.858	59.25
239.091	62.25
239.325	86.25
239.559	93.25
239.793	71.25
240.027	82.25
240.26	68.25
240.494	70.25
240.728	72.25
240.961	74.25
241.195	84.25
241.429	77.25
241.662	83.25
241.896	75.25
242.13	75.25
242.363	90.25
242.597	84.25
242.83	75.25
243.064	66.25
243.298	74.25
243.531	77.25
243.765	73.25
243.998	73.25
244.232	84.25
244.465	58.25
244.699	74.25
244.932	76.25
245.166	76.25
245.399	86.25
245.633	82.25
245.866	76.25
246.099	83.25
246.333	75.25
246.566	80.25
246.8	77.25
247.033	81.25
247.266	64.25
247.5	77.25
247.733	78.25
247.966	79.25
248.2	92.25
248.433	59.25
248.666	66.25
248.899	68.25
249.133	71.25
249.366	72.25
249.599	72.25
249.832	69.25
250.066	76.25
250.299	91.25
250.532	84.25
250.765	74.25
250.998	82.25
251.231	79.25
251.465	75.25
251.698	88.25
251.931	82.25
252.164	90.25
252.397	80.25
252.63	69.25
252.863	76.25
253.096	82.25
253.329	77.25
253.562	81.25
253.795	90.25
254.028	69.25
254.261	65.25
254.494	69.25
254.727	86.25
254.96	70.25
255.193	72.25
255.426	92.25
255.659	97.25
255.892	82.25
256.124	71.25
256.357	73.25
256.59	80.25
256.823	82.25
257.056	85.25
257.289	63.25
257.521	77.25
257.754	82.25
257.987	73.25
258.22	83.25
258.452	78.25
258.685	81.25
258.918	82.25
259.151	69.25
259.383	82.25
259.616	88.25
259.849	80.25
260.081	93.25
260.314	90.25
260.547	64.25
260.779	89.25
261.012	89.25
261.244	87.25
261.477	81.25
261.71	86.25
261.942	80.25
262.175	84.25
262.407	79.25
262.64	73.25
262.872	97.25
263.105	83.25
263.337	74.25
263.57	82.25
263.802	71.25
264.035	73.25
264.267	94.25
264.499	83.25
264.732	79.25
264.964	91.25
265.197	83.25
265.429	69.25
265.661	91.25
265.894	68.25
266.126	82.25
266.358	80.25
266.591	86.25
266.823	95.25
267.055	80.25
267.287	76.25
267.52	80.25
267.752	89.25
267.984	88.25
268.216	72.25
268.448	74.25
268.681	79.25
268.913	91.25
269.145	66.25
269.377	74.25
269.609	73.25
269.841	82.25
270.073	84.25
270.306	84.25
270.538	90.25
270.77	101.25
271.002	76.25
271.234	80.25
271.466	73.25
271.698	95.25
271.93	82.25
272.162	93.25
272.394	74.25
272.626	85.25
272.858	85.25
273.09	98.25
273.322	69.25
273.553	84.25
273.785	86.25
274.017	86.25
274.249	84.25
274.481	87.25
274.713	75.25
274.945	90.25
275.176	83.25
275.408	84.25
275.64	78.25
275.872	85.25
276.104	82.25
276.335	88.25
276.567	85.25
276.799	96.25
277.031	82.25
277.262	74.25
277.494	87.25
277.726	80.25
277.957	71.25
278.189	87.25
278.421	78.25
278.652	94.25
278.884	93.25
279.115	103.25
279.347	90.25
279.579	85.25
279.81	89.25
280.042	73.25
280.273	83.25
280.505	82.25
280.736	68.25
280.968	83.25
281.199	83.25
281.431	90.25
281.662	82.25
281.894	103.25
282.125	94.25
282.356	88.25
282.588	90.25
282.819	85.25
283.051	70.25
283.282	71.25
283.513	85.25
283.745	78.25
283.976	87.25
284.207	86.25
284.439	78.25
284.67	79.25
284.901	93.25
285.132	75.25
285.364	86.25
285.595	82.25
285.826	91.25
286.057	84.25
286.288	73.25
286.52	74.25
286.751	76.25
286.982	74.25
287.213	76.25
287.444	85.25
287.675	65.25
287.906	76.25
288.138	78.25
288.369	87.25
288.6	76.25
288.831	90.25
289.062	101.25
289.293	91.25
289.524	79.25
289.755	75.25
289.986	74.25
290.217	72.25
290.448	96.25
290.679	74.25
290.91	82.25
291.141	77.25
291.371	88.25
291.602	58.25
291.833	73.25
292.064	70.25
292.295	83.25
292.526	74.25
292.757	82.25
292.987	68.25
293.218	73.25
293.449	82.25
293.68	82.25
293.91	91.25
294.141	99.25
294.372	75.25
294.603	83.25
294.833	73.25
295.064	78.25
295.295	92.25
295.525	91.25
295.756	84.25
295.987	82.25
296.217	74.25
296.448	84.25
296.679	88.25
296.909	83.25
297.14	67.25
297.37	96.25
297.601	87.25
297.831	91.25
298.062	80.25
298.292	91.25
298.523	86.25
298.753	83.25
298.984	78.25
299.214	76.25
299.445	76.25
299.675	80.25
299.905	66.25
300.136	84.25
300.366	70.25
300.597	82.25
300.827	78.25
301.057	79.25
301.288	71.25
301.518	77.25
301.748	84.25
301.979	104.25
302.209	86.25
302.439	87.25
302.669	94.25
302.9	80.25
303.13	68.25
303.36	99.25
303.59	84.25
303.82	82.25
304.051	81.25
304.281	95.25
304.511	78.25
304.741	91.25
304.971	87.25
305.201	84.25
305.431	66.25
305.661	85.25
305.891	93.25
306.121	91.25
306.352	76.25
306.582	80.25
306.812	75.25
307.042	86.25
307.272	89.25
307.502	96.25
307.731	82.25
307.961	82.25
308.191	81.25
308.421	87.25
308.651	78.25
308.881	87.25
309.111	88.25
309.341	86.25
309.571	63.25
309.8	84.25
310.03	82.25
310.26	87.25
310.49	105.25
310.72	86.25
310.949	75.25
311.179	92.25
311.409	95.25
311.639	94.25
311.868	79.25
312.098	90.25
312.328	85.25
312.557	82.25
312.787	87.25
313.017	94.25
313.246	81.25
313.476	83.25
313.706	89.25
313.935	86.25
314.165	84.25
314.394	84.25
314.624	86.25
314.853	70.25
315.083	86.25
315.312	85.25
315.542	91.25
315.771	75.25
316.001	86.25
316.23	80.25
316.46	73.25
316.689	69.25
316.919	75.25
317.148	81.25
317.377	92.25
317.607	76.25
317.836	93.25
318.065	75.25
318.295	82.25
318.524	88.25
318.753	98.25
318.983	92.25
319.212	88.25
319.441	76.25
319.67	91.25
319.9	84.25
320.129	76.25
320.358	70.25
320.587	81.25
320.816	82.25
321.046	77.25
321.275	86.25
321.504	85.25
321.733	75.25
321.962	83.25
322.191	74.25
322.42	88.25
322.649	87.25
322.878	86.25
323.108	76.25
323.337	84.25
323.566	90.25
323.795	83.25
324.024	82.25
324.253	104.25
324.482	119.25
324.71	142.25
324.939	134.25
325.168	114.25
325.397	98.25
325.626	92.25
325.855	74.25
326.084	82.25
326.313	79.25
326.542	75.25
326.77	81.25
326.999	106.25
327.228	96.25
327.457	131.25
327.686	94.25
327.914	110.25
328.143	101.25
328.372	82.25
328.6	84.25
328.829	89.25
329.058	79.25
329.287	90.25
329.515	93.25
329.744	88.25
329.972	105.25
330.201	104.25
330.43	117.25
330.658	90.25
330.887	97.25
331.115	90.25
331.344	78.25
331.572	67.25
331.801	86.25
332.03	66.25
332.258	69.25
332.486	87.25
332.715	65.25
332.943	78.25
333.172	80.25
333.4	99.25
333.629	84.25
333.857	73.25
334.085	85.25
334.314	103.25
334.542	128.25
334.771	120.25
334.999	100.25
335.227	94.25
335.455	81.25
335.684	84.25
335.912	91.25
336.14	82.25
336.369	83.25
336.597	72.25
336.825	65.25
337.053	73.25
337.281	90.25
337.51	87.25
337.738	87.25
337.966	89.25
338.194	77.25
338.422	82.25
338.65	75.25
338.878	76.25
339.106	78.25
339.334	80.25
339.562	79.25
339.79	76.25
340.018	82.25
340.246	85.25
340.474	85.25
340.702	77.25
340.93	71.25
341.158	80.25
341.386	81.25
341.614	80.25
341.842	91.25
342.07	97.25
342.298	89.25
342.526	84.25
342.754	85.25
342.981	75.25
343.209	86.25
343.437	98.25
343.665	75.25
343.893	86.25
344.12	71.25
344.348	86.25
344.576	84.25
344.804	98.25
345.031	75.25
345.259	73.25
345.487	69.25
345.714	79.25
345.942	75.25
346.17	82.25
346.397	66.25
346.625	85.25
346.853	72.25
347.08	76.25
347.308	85.25
347.535	71.25
347.763	83.25
347.99	95.25
348.218	96.25
348.445	74.25
348.673	73.25
348.9	89.25
349.128	80.25
349.355	89.25
349.583	78.25
349.81	77.25
350.037	92.25
350.265	94.25
350.492	82.25
350.72	75.25
350.947	88.25
351.174	78.25
351.402	76.25
351.629	88.25
351.856	78.25
352.083	79.25
352.311	85.25
352.538	76.25
352.765	67.25
352.992	81.25
353.22	87.25
353.447	73.25
353.674	85.25
353.901	94.25
354.128	89.25
354.355	81.25
354.583	84.25
354.81	80.25
355.037	79.25
355.264	73.25
355.491	80.25
355.718	75.25
355.945	100.25
356.172	78.25
356.399	84.25
356.626	86.25
356.853	66.25
357.08	62.25
357.307	90.25
357.534	87.25
357.761	87.25
357.988	95.25
358.215	88.25
358.441	86.25
358.668	71.25
358.895	81.25
359.122	92.25
359.349	76.25
359.576	83.25
359.802	70.25
360.029	92.25
360.256	87.25
360.483	81.25
360.709	84.25
360.936	91.25
361.163	82.25
361.39	101.25
361.616	83.25
361.843	76.25
362.07	87.25
362.296	67.25
362.523	91.25
362.749	76.25
362.976	80.25
363.203	90.25
363.429	74.25
363.656	68.25
363.882	75.25
364.109	78.25
364.335	70.25
364.562	87.25
364.788	79.25
365.015	98.25
365.241	74.25
365.468	85.25
365.694	75.25
365.92	74.25
366.147	78.25
366.373	88.25
366.599	83.25
366.826	86.25
367.052	67.25
367.278	87.25
367.505	78.25
367.731	86.25
367.957	66.25
368.184	80.25
368.41	88.25
368.636	84.25
368.862	81.25
369.089	97.25
369.315	86.25
369.541	82.25
369.767	90.25
369.993	73.25
370.219	74.25
370.445	85.25
370.672	73.25
370.898	84.25
371.124	78.25
371.35	71.25
371.576	78.25
371.802	83.25
372.028	84.25
372.254	77.25
372.48	77.25
372.706	80.25
372.932	77.25
373.158	91.25
373.384	75.25
373.61	81.25
373.835	76.25
374.061	68.25
374.287	94.25
374.513	84.25
374.739	82.25
374.965	77.25
375.191	92.25
375.416	77.25
375.642	80.25
375.868	91.25
376.094	77.25
376.319	72.25
376.545	82.25
376.771	86.25
376.997	80.25
377.222	75.25
377.448	80.25
377.674	74.25
377.899	79.25
378.125	88.25
378.35	100.25
378.576	62.25
378.802	74.25
379.027	83.25
379.253	79.25
379.478	77.25
379.704	82.25
379.929	81.25
380.155	73.25
380.38	93.25
380.606	86.25
380.831	70.25
381.057	73.25
381.282	86.25
381.507	64.25
381.733	98.25
381.958	77.25
382.184	92.25
382.409	74.25
382.634	84.25
382.86	77.25
383.085	77.25
383.31	79.25
383.535	87.25
383.761	73.25
383.986	88.25
384.211	69.25
384.436	82.25
384.662	84.25
384.887	70.25
385.112	72.25
385.337	79.25
385.562	90.25
385.787	77.25
386.013	79.25
386.238	86.25
386.463	94.25
386.688	88.25
386.913	73.25
387.138	75.25
387.363	80.25
387.588	72.25
387.813	77.25
388.038	77.25
388.263	64.25
388.488	85.25
388.713	80.25
388.938	81.25
389.163	76.25
389.387	76.25
389.612	79.25
389.837	78.25
390.062	75.25
390.287	71.25
390.512	87.25
390.736	77.25
390.961	74.25
391.186	90.25
391.411	84.25
391.636	77.25
391.86	83.25
392.085	80.25
392.31	70.25
392.534	76.25
392.759	75.25
392.984	72.25
393.208	77.25
393.433	86.25
393.658	80.25
393.882	95.25
394.107	78.25
394.331	85.25
394.556	92.25
394.78	66.25
395.005	90.25
395.229	78.25
395.454	80.25
395.678	86.25
395.903	70.25
396.127	74.25
396.352	76.25
396.576	85.25
396.801	64.25
397.025	79.25
397.249	66.25
397.474	93.25
397.698	82.25
397.922	80.25
398.147	84.25
398.371	93.25
398.595	94.25
398.82	90.25
399.044	81.25
399.268	81.25
399.492	71.25
399.717	88.25
399.941	79.25
400.165	88.25
400.389	79.25
400.613	86.25
400.837	73.25
401.062	74.25
401.286	75.25
401.51	83.25
401.734	73.25
401.958	82.25
402.182	76.25
402.406	84.25
402.63	77.25
402.854	86.25
403.078	85.25
403.302	89.25
403.526	77.25
403.75	89.25
403.974	77.25
404.198	86.25
404.422	68.25
404.645	78.25
404.869	72.25
405.093	76.25
405.317	81.25
405.541	81.25
405.765	85.25
405.988	82.25
406.212	100.25
406.436	97.25
406.66	82.25
406.883	87.25
407.107	95.25
407.331	72.25
407.555	83.25
407.778	74.25
408.002	76.25
408.226	73.25
408.449	82.25
408.673	86.25
408.896	74.25
409.12	80.25
409.344	68.25
409.567	79.25
409.791	89.25
410.014	85.25
410.238	80.25
410.461	70.25
410.685	84.25
410.908	80.25
411.132	81.25
411.355	73.25
411.578	82.25
411.802	74.25
412.025	80.25
412.249	72.25
412.472	83.25
412.695	86.25
412.919	82.25
413.142	81.25
413.365	81.25
413.589	75.25
413.812	82.25
414.035	78.25
414.258	76.25
414.482	69.25
414.705	69.25
414.928	83.25
415.151	67.25
415.374	75.25
415.597	81.25
415.821	78.25
416.044	76.25
416.267	91.25
416.49	82.25
416.713	75.25
416.936	74.25
417.159	56.25
417.382	83.25
417.605	79.25
417.828	82.25
418.051	85.25
418.274	86.25
418.497	79.25
418.72	83.25
418.943	95.25
419.166	83.25
419.389	73.25
419.611	89.25
419.834	75.25
420.057	85.25
420.28	80.25
420.503	80.25
420.726	88.25
420.948	81.25
421.171	88.25
421.394	76.25
421.617	85.25
421.839	80.25
422.062	82.25
422.285	78.25
422.507	65.25
422.73	75.25
422.953	79.25
423.175	78.25
423.398	89.25
423.621	75.25
423.843	84.25
424.066	85.25
424.288	65.25
424.511	82.25
424.733	75.25
424.956	67.25
425.178	88.25
425.401	93.25
425.623	84.25
425.846	82.25
426.068	93.25
426.291	66.25
426.513	85.25
426.735	81.25
426.958	78.25
427.18	62.25
427.402	77.25
427.625	90.25
427.847	90.25
428.069	87.25
428.292	86.25
428.514	71.25
428.736	79.25
428.958	55.25
429.181	75.25
429.403	75.25
429.625	72.25
429.847	83.25
430.069	99.25
430.292	84.25
430.514	67.25
430.736	87.25
430.958	81.25
431.18	74.25
431.402	74.25
431.624	81.25
431.846	83.25
432.068	78.25
432.29	74.25
432.512	83.25
432.734	83.25
432.956	81.25
433.178	87.25
433.4	74.25
433.622	74.25
433.844	77.25
434.066	77.25
434.287	100.25
434.509	80.25
434.731	90.25
434.953	77.25
435.175	80.25
435.397	86.25
435.618	83.25
435.84	81.25
436.062	78.25
436.284	72.25
436.505	83.25
436.727	93.25
436.949	72.25
437.17	72.25
437.392	71.25
437.614	88.25
437.835	95.25
438.057	88.25
438.278	71.25
438.5	96.25
438.721	94.25
438.943	68.25
439.165	69.25
439.386	80.25
439.608	85.25
439.829	93.25
440.05	78.25
440.272	83.25
440.493	83.25
440.715	86.25
440.936	92.25
441.158	70.25
441.379	76.25
441.6	69.25
441.822	77.25
442.043	69.25
442.264	83.25
442.486	99.25
442.707	76.25
442.928	86.25
443.149	86.25
443.371	85.25
443.592	88.25
443.813	87.25
444.034	92.25
444.255	76.25
444.476	75.25
444.698	81.25
444.919	88.25
445.14	163.25
445.361	122.25
445.582	80.25
445.803	94.25
446.024	98.25
446.245	87.25
446.466	70.25
446.687	76.25
446.908	71.25
447.129	85.25
447.35	80.25
447.571	74.25
447.792	90.25
448.013	89.25
448.234	79.25
448.455	76.25
448.675	74.25
448.896	92.25
449.117	103.25
449.338	79.25
449.559	80.25
449.779	85.25
450	70.25
450.221	81.25
450.442	64.25
450.662	73.25
450.883	94.25
451.104	86.25
451.324	77.25
451.545	79.25
451.766	91.25
451.986	79.25
452.207	63.25
452.428	87.25
452.648	82.25
452.869	72.25
453.089	68.25
453.31	83.25
453.53	81.25
453.751	89.25
453.971	75.25
454.192	79.25
454.412	82.25
454.633	76.25
454.853	68.25
455.073	85.25
455.294	82.25
455.514	91.25
455.734	79.25
455.955	82.25
456.175	88.25
456.395	77.25
456.616	70.25
456.836	92.25
457.056	86.25
457.276	75.25
457.497	75.25
457.717	76.25
457.937	79.25
458.157	80.25
458.377	91.25
458.598	88.25
458.818	90.25
459.038	84.25
459.258	73.25
459.478	83.25
459.698	79.25
459.918	73.25
460.138	87.25
460.358	68.25
460.578	87.25
460.798	85.25
461.018	88.25
461.238	83.25
461.458	76.25
461.678	72.25
461.898	82.25
462.118	80.25
462.338	72.25
462.558	82.25
462.777	77.25
462.997	82.25
463.217	77.25
463.437	68.25
463.657	71.25
463.876	73.25
464.096	72.25
464.316	87.25
464.536	70.25
464.755	94.25
464.975	92.25
465.195	88.25
465.414	102.25
465.634	80.25
465.854	78.25
466.073	82.25
466.293	71.25
466.512	78.25
466.732	82.25
466.951	74.25
467.171	78.25
467.391	71.25
467.61	98.25
467.829	80.25
468.049	80.25
468.268	96.25
468.488	75.25
468.707	87.25
468.927	77.25
469.146	91.25
469.365	75.25
469.585	78.25
469.804	81.25
470.023	69.25
470.243	74.25
470.462	82.25
470.681	85.25
470.901	81.25
471.12	91.25
471.339	87.25
471.558	80.25
471.777	82.25
471.997	91.25
472.216	120.25
472.435	140.25
472.654	99.25
472.873	96.25
473.092	87.25
473.311	85.25
473.53	87.25
473.749	90.25
473.968	84.25
474.187	98.25
474.406	82.25
474.625	76.25
474.844	82.25
475.063	69.25
475.282	78.25
475.501	72.25
475.72	81.25
475.939	83.25
476.158	83.25
476.377	86.25
476.596	86.25
476.814	90.25
477.033	87.25
477.252	88.25
477.471	90.25
477.69	88.25
477.908	80.25
478.127	80.25
478.346	98.25
478.564	93.25
478.783	94.25
479.002	88.25
479.22	86.25
479.439	99.25
479.658	91.25
479.876	82.25
480.095	83.25
480.313	88.25
480.532	94.25
480.751	90.25
480.969	114.25
481.188	198.25
481.406	146.25
481.624	89.25
481.843	82.25
482.061	84.25
482.28	84.25
482.498	71.25
482.717	81.25
482.935	76.25
483.153	80.25
483.372	91.25
483.59	92.25
483.808	66.25
484.027	97.25
484.245	80.25
484.463	70.25
484.681	89.25
484.9	77.25
485.118	80.25
485.336	83.25
485.554	96.25
485.772	79.25
485.99	90.25
486.209	81.25
486.427	77.25
486.645	59.25
486.863	77.25
487.081	77.25
487.299	84.25
487.517	80.25
487.735	87.25
487.953	95.25
488.171	88.25
488.389	77.25
488.607	90.25
488.825	73.25
489.043	87.25
489.261	88.25
489.479	73.25
489.696	83.25
489.914	76.25
490.132	84.25
490.35	88.25
490.568	90.25
490.786	79.25
491.003	86.25
491.221	78.25
491.439	83.25
491.657	87.25
491.874	88.25
492.092	76.25
492.31	94.25
492.527	79.25
492.745	74.25
492.963	100.25
493.18	80.25
493.398	81.25
493.615	95.25
493.833	71.25
494.05	86.25
494.268	94.25
494.485	77.25
494.703	73.25
494.92	88.25
495.138	92.25
495.355	89.25
495.573	90.25
495.79	82.25
496.008	84.25
496.225	85.25
496.442	79.25
496.66	81.25
496.877	72.25
497.094	82.25
497.312	86.25
497.529	73.25
497.746	77.25
497.963	90.25
498.181	73.25
498.398	88.25
498.615	87.25
498.832	74.25
499.049	78.25
499.267	89.25
499.484	86.25
499.701	82.25
499.918	94.25
500.135	74.25
500.352	82.25
500.569	79.25
500.786	99.25
501.003	80.25
501.22	96.25
501.437	74.25
501.654	74.25
501.871	86.25
502.088	88.25
502.305	85.25
502.522	78.25
502.739	88.25
502.956	84.25
503.172	59.25
503.389	86.25
503.606	71.25
503.823	79.25
504.04	86.25
504.256	88.25
504.473	74.25
504.69	82.25
504.907	70.25
505.123	80.25
505.34	80.25
505.557	90.25
505.773	92.25
505.99	83.25
506.207	88.25
506.423	90.25
506.64	82.25
506.856	86.25
507.073	97.25
507.289	74.25
507.506	72.25
507.722	88.25
507.939	86.25
508.155	85.25
508.372	87.25
508.588	90.25
508.805	94.25
509.021	87.25
509.238	104.25
509.454	99.25
509.67	84.25
509.887	76.25
510.103	85.25
510.319	95.25
510.536	156.25
510.752	214.25
510.968	117.25
511.184	83.25
511.401	83.25
511.617	81.25
511.833	90.25
512.049	74.25
512.265	85.25
512.481	91.25
512.698	72.25
512.914	85.25
513.13	76.25
513.346	90.25
513.562	73.25
513.778	92.25
513.994	88.25
514.21	89.25
514.426	82.25
514.642	93.25
514.858	82.25
515.074	95.25
515.29	119.25
515.506	203.25
515.721	118.25
515.937	77.25
516.153	79.25
516.369	86.25
516.585	80.25
516.801	89.25
517.016	70.25
517.232	78.25
517.448	75.25
517.664	74.25
517.879	89.25
518.095	88.25
518.311	78.25
518.527	91.25
518.742	76.25
518.958	95.25
519.173	81.25
519.389	70.25
519.605	82.25
