Data from Penny_1_HRD10591_00020.txt Node
Date: Wed Nov 05 15:33:28 EST 2025
User: Yrep
Spectrometer: HR+D1059
Trigger mode: 1
Integration Time (sec): 1.000000E-1
Scans to average: 1
Electric dark correction enabled: true
Nonlinearity correction enabled: false
Boxcar width: 0
XAxis mode: Wavelengths
Number of Pixels in Spectrum: 2048
>>>>>Begin Spectral Data<<<<<
223.165	-11.12
223.4	-11.12
223.635	-11.12
223.869	-27.12
224.104	-22.12
224.338	-10.12
224.573	-13.12
224.808	-2.12
225.042	-16.12
225.277	-1.12
225.511	-3.12
225.746	-13.12
225.98	15.88
226.215	11.88
226.449	11.88
226.683	23.88
226.918	31.88
227.152	23.88
227.387	49.88
227.621	50.88
227.856	42.88
228.09	36.88
228.324	46.88
228.559	66.88
228.793	70.88
229.027	62.88
229.262	54.88
229.496	62.88
229.73	86.88
229.964	82.88
230.199	72.88
230.433	88.88
230.667	71.88
230.901	74.88
231.136	77.88
231.37	78.88
231.604	72.88
231.838	96.88
232.072	85.88
232.306	77.88
232.541	81.88
232.775	78.88
233.009	67.88
233.243	88.88
233.477	75.88
233.711	90.88
233.945	78.88
234.179	82.88
234.413	87.88
234.647	81.88
234.881	75.88
235.115	82.88
235.349	80.88
235.583	85.88
235.817	76.88
236.051	71.88
236.285	74.88
236.519	76.88
236.753	73.88
236.987	85.88
237.221	75.88
237.455	76.88
237.689	75.88
237.922	71.88
238.156	67.88
238.39	73.88
238.624	74.88
238.858	93.88
239.091	76.88
239.325	86.88
239.559	82.88
239.793	88.88
240.027	86.88
240.26	92.88
240.494	77.88
240.728	73.88
240.961	92.88
241.195	77.88
241.429	59.88
241.662	71.88
241.896	79.88
242.13	67.88
242.363	78.88
242.597	80.88
242.83	72.88
243.064	77.88
243.298	76.88
243.531	80.88
243.765	83.88
243.998	68.88
244.232	84.88
244.465	76.88
244.699	72.88
244.932	76.88
245.166	86.88
245.399	87.88
245.633	89.88
245.866	79.88
246.099	66.88
246.333	73.88
246.566	76.88
246.8	72.88
247.033	75.88
247.266	61.88
247.5	75.88
247.733	74.88
247.966	72.88
248.2	65.88
248.433	73.88
248.666	78.88
248.899	73.88
249.133	83.88
249.366	95.88
249.599	84.88
249.832	91.88
250.066	76.88
250.299	87.88
250.532	72.88
250.765	84.88
250.998	70.88
251.231	83.88
251.465	68.88
251.698	74.88
251.931	85.88
252.164	89.88
252.397	78.88
252.63	83.88
252.863	74.88
253.096	83.88
253.329	89.88
253.562	65.88
253.795	83.88
254.028	80.88
254.261	67.88
254.494	71.88
254.727	86.88
254.96	86.88
255.193	78.88
255.426	75.88
255.659	81.88
255.892	87.88
256.124	84.88
256.357	79.88
256.59	81.88
256.823	77.88
257.056	85.88
257.289	84.88
257.521	83.88
257.754	83.88
257.987	74.88
258.22	92.88
258.452	85.88
258.685	79.88
258.918	84.88
259.151	69.88
259.383	85.88
259.616	83.88
259.849	80.88
260.081	85.88
260.314	70.88
260.547	70.88
260.779	79.88
261.012	76.88
261.244	77.88
261.477	85.88
261.71	83.88
261.942	74.88
262.175	93.88
262.407	79.88
262.64	75.88
262.872	91.88
263.105	77.88
263.337	77.88
263.57	78.88
263.802	79.88
264.035	81.88
264.267	72.88
264.499	73.88
264.732	88.88
264.964	83.88
265.197	69.88
265.429	83.88
265.661	84.88
265.894	76.88
266.126	78.88
266.358	77.88
266.591	99.88
266.823	72.88
267.055	74.88
267.287	82.88
267.52	85.88
267.752	82.88
267.984	85.88
268.216	70.88
268.448	75.88
268.681	81.88
268.913	84.88
269.145	86.88
269.377	74.88
269.609	85.88
269.841	72.88
270.073	86.88
270.306	76.88
270.538	86.88
270.77	89.88
271.002	84.88
271.234	81.88
271.466	83.88
271.698	87.88
271.93	74.88
272.162	88.88
272.394	67.88
272.626	87.88
272.858	78.88
273.09	86.88
273.322	83.88
273.553	83.88
273.785	68.88
274.017	91.88
274.249	79.88
274.481	76.88
274.713	78.88
274.945	84.88
275.176	86.88
275.408	70.88
275.64	80.88
275.872	89.88
276.104	75.88
276.335	73.88
276.567	70.88
276.799	82.88
277.031	87.88
277.262	85.88
277.494	75.88
277.726	93.88
277.957	77.88
278.189	85.88
278.421	85.88
278.652	82.88
278.884	87.88
279.115	93.88
279.347	86.88
279.579	93.88
279.81	75.88
280.042	80.88
280.273	80.88
280.505	77.88
280.736	93.88
280.968	87.88
281.199	90.88
281.431	85.88
281.662	74.88
281.894	93.88
282.125	83.88
282.356	74.88
282.588	98.88
282.819	69.88
283.051	76.88
283.282	84.88
283.513	90.88
283.745	78.88
283.976	79.88
284.207	83.88
284.439	85.88
284.67	79.88
284.901	79.88
285.132	75.88
285.364	97.88
285.595	91.88
285.826	85.88
286.057	77.88
286.288	52.88
286.52	86.88
286.751	72.88
286.982	83.88
287.213	77.88
287.444	80.88
287.675	73.88
287.906	80.88
288.138	94.88
288.369	76.88
288.6	84.88
288.831	95.88
289.062	88.88
289.293	69.88
289.524	91.88
289.755	82.88
289.986	77.88
290.217	77.88
290.448	82.88
290.679	89.88
290.91	85.88
291.141	80.88
291.371	86.88
291.602	83.88
291.833	89.88
292.064	95.88
292.295	96.88
292.526	81.88
292.757	90.88
292.987	83.88
293.218	85.88
293.449	80.88
293.68	92.88
293.91	78.88
294.141	94.88
294.372	73.88
294.603	68.88
294.833	92.88
295.064	86.88
295.295	94.88
295.525	78.88
295.756	87.88
295.987	92.88
296.217	78.88
296.448	83.88
296.679	82.88
296.909	76.88
297.14	93.88
297.37	88.88
297.601	75.88
297.831	81.88
298.062	83.88
298.292	77.88
298.523	75.88
298.753	82.88
298.984	98.88
299.214	77.88
299.445	79.88
299.675	83.88
299.905	94.88
300.136	75.88
300.366	79.88
300.597	86.88
300.827	87.88
301.057	81.88
301.288	79.88
301.518	80.88
301.748	89.88
301.979	103.88
302.209	87.88
302.439	66.88
302.669	89.88
302.9	90.88
303.13	75.88
303.36	70.88
303.59	85.88
303.82	83.88
304.051	92.88
304.281	71.88
304.511	86.88
304.741	78.88
304.971	95.88
305.201	86.88
305.431	78.88
305.661	78.88
305.891	85.88
306.121	87.88
306.352	97.88
306.582	101.88
306.812	84.88
307.042	75.88
307.272	83.88
307.502	87.88
307.731	83.88
307.961	81.88
308.191	85.88
308.421	83.88
308.651	85.88
308.881	73.88
309.111	63.88
309.341	77.88
309.571	94.88
309.8	82.88
310.03	94.88
310.26	86.88
310.49	102.88
310.72	100.88
310.949	89.88
311.179	77.88
311.409	90.88
311.639	83.88
311.868	85.88
312.098	83.88
312.328	81.88
312.557	86.88
312.787	80.88
313.017	78.88
313.246	96.88
313.476	92.88
313.706	92.88
313.935	82.88
314.165	86.88
314.394	78.88
314.624	79.88
314.853	89.88
315.083	84.88
315.312	75.88
315.542	100.88
315.771	89.88
316.001	81.88
316.23	88.88
316.46	79.88
316.689	85.88
316.919	81.88
317.148	85.88
317.377	83.88
317.607	84.88
317.836	99.88
318.065	76.88
318.295	73.88
318.524	97.88
318.753	90.88
318.983	84.88
319.212	85.88
319.441	90.88
319.67	84.88
319.9	76.88
320.129	85.88
320.358	105.88
320.587	83.88
320.816	79.88
321.046	79.88
321.275	97.88
321.504	91.88
321.733	81.88
321.962	72.88
322.191	85.88
322.42	79.88
322.649	76.88
322.878	84.88
323.108	89.88
323.337	85.88
323.566	76.88
323.795	92.88
324.024	94.88
324.253	92.88
324.482	122.88
324.71	147.88
324.939	154.88
325.168	115.88
325.397	92.88
325.626	83.88
325.855	89.88
326.084	77.88
326.313	83.88
326.542	82.88
326.77	95.88
326.999	98.88
327.228	126.88
327.457	126.88
327.686	113.88
327.914	99.88
328.143	117.88
328.372	99.88
328.6	94.88
328.829	82.88
329.058	87.88
329.287	73.88
329.515	89.88
329.744	93.88
329.972	107.88
330.201	113.88
330.43	119.88
330.658	103.88
330.887	99.88
331.115	89.88
331.344	87.88
331.572	82.88
331.801	75.88
332.03	84.88
332.258	96.88
332.486	81.88
332.715	73.88
332.943	81.88
333.172	83.88
333.4	76.88
333.629	90.88
333.857	90.88
334.085	101.88
334.314	108.88
334.542	119.88
334.771	118.88
334.999	88.88
335.227	85.88
335.455	78.88
335.684	92.88
335.912	82.88
336.14	101.88
336.369	89.88
336.597	94.88
336.825	76.88
337.053	82.88
337.281	83.88
337.51	90.88
337.738	86.88
337.966	94.88
338.194	86.88
338.422	76.88
338.65	75.88
338.878	77.88
339.106	99.88
339.334	84.88
339.562	78.88
339.79	73.88
340.018	85.88
340.246	78.88
340.474	76.88
340.702	92.88
340.93	75.88
341.158	93.88
341.386	97.88
341.614	79.88
341.842	81.88
342.07	72.88
342.298	82.88
342.526	71.88
342.754	82.88
342.981	85.88
343.209	80.88
343.437	85.88
343.665	76.88
343.893	93.88
344.12	97.88
344.348	89.88
344.576	75.88
344.804	89.88
345.031	90.88
345.259	86.88
345.487	88.88
345.714	83.88
345.942	86.88
346.17	89.88
346.397	88.88
346.625	79.88
346.853	86.88
347.08	76.88
347.308	83.88
347.535	85.88
347.763	80.88
347.99	94.88
348.218	72.88
348.445	87.88
348.673	85.88
348.9	84.88
349.128	85.88
349.355	87.88
349.583	90.88
349.81	92.88
350.037	77.88
350.265	83.88
350.492	95.88
350.72	83.88
350.947	76.88
351.174	68.88
351.402	88.88
351.629	83.88
351.856	92.88
352.083	85.88
352.311	91.88
352.538	95.88
352.765	85.88
352.992	93.88
353.22	97.88
353.447	84.88
353.674	93.88
353.901	86.88
354.128	89.88
354.355	83.88
354.583	90.88
354.81	73.88
355.037	87.88
355.264	69.88
355.491	89.88
355.718	84.88
355.945	84.88
356.172	94.88
356.399	86.88
356.626	83.88
356.853	94.88
357.08	79.88
357.307	78.88
357.534	85.88
357.761	99.88
357.988	86.88
358.215	86.88
358.441	87.88
358.668	90.88
358.895	90.88
359.122	75.88
359.349	78.88
359.576	85.88
359.802	97.88
360.029	76.88
360.256	98.88
360.483	87.88
360.709	78.88
360.936	85.88
361.163	86.88
361.39	91.88
361.616	87.88
361.843	88.88
362.07	82.88
362.296	70.88
362.523	88.88
362.749	84.88
362.976	78.88
363.203	85.88
363.429	84.88
363.656	91.88
363.882	80.88
364.109	93.88
364.335	87.88
364.562	76.88
364.788	97.88
365.015	94.88
365.241	85.88
365.468	94.88
365.694	87.88
365.92	87.88
366.147	80.88
366.373	73.88
366.599	95.88
366.826	85.88
367.052	93.88
367.278	82.88
367.505	68.88
367.731	85.88
367.957	87.88
368.184	87.88
368.41	94.88
368.636	85.88
368.862	83.88
369.089	73.88
369.315	91.88
369.541	83.88
369.767	81.88
369.993	82.88
370.219	92.88
370.445	88.88
370.672	82.88
370.898	83.88
371.124	79.88
371.35	78.88
371.576	81.88
371.802	86.88
372.028	81.88
372.254	80.88
372.48	83.88
372.706	88.88
372.932	76.88
373.158	96.88
373.384	85.88
373.61	85.88
373.835	83.88
374.061	87.88
374.287	79.88
374.513	90.88
374.739	83.88
374.965	89.88
375.191	84.88
375.416	77.88
375.642	82.88
375.868	87.88
376.094	78.88
376.319	82.88
376.545	76.88
376.771	75.88
376.997	105.88
377.222	77.88
377.448	80.88
377.674	93.88
377.899	90.88
378.125	79.88
378.35	96.88
378.576	73.88
378.802	83.88
379.027	87.88
379.253	85.88
379.478	84.88
379.704	71.88
379.929	71.88
380.155	71.88
380.38	79.88
380.606	88.88
380.831	67.88
381.057	92.88
381.282	63.88
381.507	88.88
381.733	92.88
381.958	83.88
382.184	78.88
382.409	83.88
382.634	83.88
382.86	84.88
383.085	73.88
383.31	77.88
383.535	85.88
383.761	94.88
383.986	77.88
384.211	89.88
384.436	80.88
384.662	85.88
384.887	85.88
385.112	70.88
385.337	80.88
385.562	75.88
385.787	73.88
386.013	82.88
386.238	83.88
386.463	85.88
386.688	94.88
386.913	87.88
387.138	74.88
387.363	85.88
387.588	91.88
387.813	79.88
388.038	73.88
388.263	70.88
388.488	94.88
388.713	80.88
388.938	87.88
389.163	85.88
389.387	76.88
389.612	77.88
389.837	76.88
390.062	87.88
390.287	83.88
390.512	75.88
390.736	85.88
390.961	89.88
391.186	87.88
391.411	79.88
391.636	88.88
391.86	53.88
392.085	71.88
392.31	80.88
392.534	74.88
392.759	87.88
392.984	94.88
393.208	94.88
393.433	89.88
393.658	94.88
393.882	69.88
394.107	81.88
394.331	69.88
394.556	61.88
394.78	87.88
395.005	61.88
395.229	78.88
395.454	90.88
395.678	77.88
395.903	85.88
396.127	84.88
396.352	80.88
396.576	75.88
396.801	69.88
397.025	87.88
397.249	89.88
397.474	77.88
397.698	75.88
397.922	64.88
398.147	78.88
398.371	91.88
398.595	77.88
398.82	85.88
399.044	87.88
399.268	88.88
399.492	77.88
399.717	86.88
399.941	73.88
400.165	82.88
400.389	89.88
400.613	76.88
400.837	86.88
401.062	91.88
401.286	78.88
401.51	92.88
401.734	85.88
401.958	69.88
402.182	86.88
402.406	91.88
402.63	85.88
402.854	80.88
403.078	83.88
403.302	70.88
403.526	84.88
403.75	92.88
403.974	95.88
404.198	76.88
404.422	85.88
404.645	79.88
404.869	89.88
405.093	84.88
405.317	87.88
405.541	90.88
405.765	96.88
405.988	96.88
406.212	90.88
406.436	87.88
406.66	78.88
406.883	85.88
407.107	84.88
407.331	74.88
407.555	84.88
407.778	79.88
408.002	85.88
408.226	94.88
408.449	99.88
408.673	70.88
408.896	80.88
409.12	92.88
409.344	82.88
409.567	90.88
409.791	85.88
410.014	63.88
410.238	70.88
410.461	83.88
410.685	77.88
410.908	90.88
411.132	79.88
411.355	90.88
411.578	82.88
411.802	86.88
412.025	76.88
412.249	82.88
412.472	79.88
412.695	86.88
412.919	83.88
413.142	83.88
413.365	106.88
413.589	90.88
413.812	75.88
414.035	75.88
414.258	71.88
414.482	77.88
414.705	85.88
414.928	90.88
415.151	92.88
415.374	95.88
415.597	77.88
415.821	84.88
416.044	87.88
416.267	76.88
416.49	81.88
416.713	81.88
416.936	95.88
417.159	79.88
417.382	85.88
417.605	72.88
417.828	80.88
418.051	85.88
418.274	79.88
418.497	78.88
418.72	69.88
418.943	79.88
419.166	84.88
419.389	76.88
419.611	89.88
419.834	72.88
420.057	89.88
420.28	77.88
420.503	99.88
420.726	89.88
420.948	91.88
421.171	80.88
421.394	83.88
421.617	86.88
421.839	70.88
422.062	83.88
422.285	82.88
422.507	95.88
422.73	73.88
422.953	73.88
423.175	89.88
423.398	85.88
423.621	81.88
423.843	87.88
424.066	84.88
424.288	84.88
424.511	97.88
424.733	75.88
424.956	80.88
425.178	74.88
425.401	88.88
425.623	75.88
425.846	67.88
426.068	87.88
426.291	89.88
426.513	70.88
426.735	83.88
426.958	82.88
427.18	88.88
427.402	85.88
427.625	91.88
427.847	82.88
428.069	87.88
428.292	78.88
428.514	89.88
428.736	75.88
428.958	86.88
429.181	75.88
429.403	92.88
429.625	64.88
429.847	75.88
430.069	92.88
430.292	77.88
430.514	65.88
430.736	72.88
430.958	69.88
431.18	50.88
431.402	77.88
431.624	95.88
431.846	84.88
432.068	89.88
432.29	94.88
432.512	65.88
432.734	83.88
432.956	85.88
433.178	68.88
433.4	88.88
433.622	94.88
433.844	83.88
434.066	88.88
434.287	77.88
434.509	78.88
434.731	70.88
434.953	78.88
435.175	80.88
435.397	83.88
435.618	80.88
435.84	87.88
436.062	83.88
436.284	80.88
436.505	83.88
436.727	84.88
436.949	89.88
437.17	74.88
437.392	77.88
437.614	80.88
437.835	86.88
438.057	79.88
438.278	81.88
438.5	76.88
438.721	87.88
438.943	73.88
439.165	77.88
439.386	77.88
439.608	76.88
439.829	89.88
440.05	95.88
440.272	94.88
440.493	81.88
440.715	85.88
440.936	62.88
441.158	80.88
441.379	84.88
441.6	78.88
441.822	76.88
442.043	64.88
442.264	89.88
442.486	80.88
442.707	97.88
442.928	77.88
443.149	83.88
443.371	81.88
443.592	88.88
443.813	79.88
444.034	93.88
444.255	82.88
444.476	77.88
444.698	75.88
444.919	81.88
445.14	152.88
445.361	120.88
445.582	93.88
445.803	86.88
446.024	93.88
446.245	84.88
446.466	84.88
446.687	88.88
446.908	91.88
447.129	76.88
447.35	72.88
447.571	86.88
447.792	79.88
448.013	81.88
448.234	92.88
448.455	80.88
448.675	71.88
448.896	89.88
449.117	90.88
449.338	82.88
449.559	83.88
449.779	83.88
450	82.88
450.221	86.88
450.442	77.88
450.662	74.88
450.883	78.88
451.104	85.88
451.324	90.88
451.545	80.88
451.766	75.88
451.986	89.88
452.207	85.88
452.428	78.88
452.648	87.88
452.869	70.88
453.089	76.88
453.31	84.88
453.53	69.88
453.751	75.88
453.971	74.88
454.192	69.88
454.412	82.88
454.633	83.88
454.853	84.88
455.073	89.88
455.294	83.88
455.514	71.88
455.734	77.88
455.955	77.88
456.175	98.88
456.395	87.88
456.616	70.88
456.836	86.88
457.056	74.88
457.276	77.88
457.497	80.88
457.717	83.88
457.937	84.88
458.157	85.88
458.377	84.88
458.598	84.88
458.818	78.88
459.038	67.88
459.258	79.88
459.478	86.88
459.698	78.88
459.918	90.88
460.138	81.88
460.358	83.88
460.578	70.88
460.798	73.88
461.018	94.88
461.238	76.88
461.458	85.88
461.678	71.88
461.898	83.88
462.118	87.88
462.338	87.88
462.558	89.88
462.777	79.88
462.997	88.88
463.217	88.88
463.437	88.88
463.657	82.88
463.876	76.88
464.096	92.88
464.316	81.88
464.536	74.88
464.755	77.88
464.975	90.88
465.195	90.88
465.414	77.88
465.634	75.88
465.854	64.88
466.073	77.88
466.293	71.88
466.512	89.88
466.732	81.88
466.951	93.88
467.171	84.88
467.391	100.88
467.61	80.88
467.829	85.88
468.049	100.88
468.268	115.88
468.488	93.88
468.707	87.88
468.927	76.88
469.146	97.88
469.365	67.88
469.585	84.88
469.804	85.88
470.023	84.88
470.243	68.88
470.462	73.88
470.681	77.88
470.901	94.88
471.12	85.88
471.339	89.88
471.558	67.88
471.777	77.88
471.997	88.88
472.216	130.88
472.435	155.88
472.654	84.88
472.873	90.88
473.092	83.88
473.311	83.88
473.53	91.88
473.749	81.88
473.968	81.88
474.187	80.88
474.406	78.88
474.625	78.88
474.844	89.88
475.063	85.88
475.282	86.88
475.501	76.88
475.72	95.88
475.939	97.88
476.158	84.88
476.377	82.88
476.596	75.88
476.814	77.88
477.033	76.88
477.252	77.88
477.471	76.88
477.69	78.88
477.908	83.88
478.127	85.88
478.346	90.88
478.564	86.88
478.783	83.88
479.002	83.88
479.22	86.88
479.439	87.88
479.658	97.88
479.876	96.88
480.095	75.88
480.313	69.88
480.532	77.88
480.751	85.88
480.969	122.88
481.188	191.88
481.406	128.88
481.624	79.88
481.843	86.88
482.061	77.88
482.28	73.88
482.498	79.88
482.717	71.88
482.935	78.88
483.153	87.88
483.372	75.88
483.59	88.88
483.808	76.88
484.027	74.88
484.245	72.88
484.463	82.88
484.681	83.88
484.9	82.88
485.118	92.88
485.336	55.88
485.554	103.88
485.772	85.88
485.99	83.88
486.209	74.88
486.427	87.88
486.645	89.88
486.863	96.88
487.081	77.88
487.299	83.88
487.517	86.88
487.735	54.88
487.953	86.88
488.171	83.88
488.389	73.88
488.607	82.88
488.825	83.88
489.043	78.88
489.261	80.88
489.479	75.88
489.696	94.88
489.914	81.88
490.132	80.88
490.35	78.88
490.568	85.88
490.786	71.88
491.003	81.88
491.221	75.88
491.439	85.88
491.657	86.88
491.874	92.88
492.092	83.88
492.31	89.88
492.527	87.88
492.745	88.88
492.963	94.88
493.18	85.88
493.398	83.88
493.615	69.88
493.833	79.88
494.05	83.88
494.268	77.88
494.485	79.88
494.703	89.88
494.92	79.88
495.138	84.88
495.355	93.88
495.573	79.88
495.79	95.88
496.008	87.88
496.225	79.88
496.442	93.88
496.66	105.88
496.877	92.88
497.094	95.88
497.312	80.88
497.529	74.88
497.746	91.88
497.963	76.88
498.181	79.88
498.398	84.88
498.615	67.88
498.832	75.88
499.049	75.88
499.267	87.88
499.484	81.88
499.701	93.88
499.918	81.88
500.135	76.88
500.352	87.88
500.569	78.88
500.786	72.88
501.003	75.88
501.22	90.88
501.437	73.88
501.654	85.88
501.871	91.88
502.088	72.88
502.305	95.88
502.522	90.88
502.739	69.88
502.956	87.88
503.172	92.88
503.389	74.88
503.606	89.88
503.823	79.88
504.04	76.88
504.256	84.88
504.473	91.88
504.69	93.88
504.907	92.88
505.123	88.88
505.34	77.88
505.557	83.88
505.773	83.88
505.99	88.88
506.207	106.88
506.423	70.88
506.64	84.88
506.856	90.88
507.073	91.88
507.289	102.88
507.506	82.88
507.722	89.88
507.939	79.88
508.155	77.88
508.372	83.88
508.588	65.88
508.805	73.88
509.021	93.88
509.238	79.88
509.454	79.88
509.67	73.88
509.887	73.88
510.103	87.88
510.319	82.88
510.536	122.88
510.752	202.88
510.968	113.88
511.184	87.88
511.401	78.88
511.617	89.88
511.833	75.88
512.049	85.88
512.265	92.88
512.481	87.88
512.698	78.88
512.914	81.88
513.13	78.88
513.346	91.88
513.562	83.88
513.778	81.88
513.994	77.88
514.21	82.88
514.426	83.88
514.642	75.88
514.858	89.88
515.074	93.88
515.29	129.88
515.506	179.88
515.721	108.88
515.937	91.88
516.153	85.88
516.369	83.88
516.585	81.88
516.801	84.88
517.016	78.88
517.232	77.88
517.448	85.88
517.664	80.88
517.879	85.88
518.095	83.88
518.311	87.88
518.527	80.88
518.742	89.88
518.958	89.88
519.173	90.88
519.389	85.88
519.605	86.88
