Data from Penny_1_HRD10591_00006.txt Node
Date: Wed Nov 05 15:33:21 EST 2025
User: Yrep
Spectrometer: HR+D1059
Trigger mode: 1
Integration Time (sec): 1.000000E-1
Scans to average: 1
Electric dark correction enabled: true
Nonlinearity correction enabled: false
Boxcar width: 0
XAxis mode: Wavelengths
Number of Pixels in Spectrum: 2048
>>>>>Begin Spectral Data<<<<<
223.165	-13.25
223.4	-13.25
223.635	-13.25
223.869	-25.25
224.104	-20.25
224.338	-20.25
224.573	-12.25
224.808	-5.25
225.042	-4.25
225.277	-3.25
225.511	3.75
225.746	9.75
225.98	6.75
226.215	-11.25
226.449	12.75
226.683	23.75
226.918	24.75
227.152	33.75
227.387	36.75
227.621	30.75
227.856	37.75
228.09	50.75
228.324	45.75
228.559	44.75
228.793	64.75
229.027	51.75
229.262	68.75
229.496	58.75
229.73	53.75
229.964	72.75
230.199	76.75
230.433	73.75
230.667	83.75
230.901	72.75
231.136	63.75
231.37	81.75
231.604	76.75
231.838	86.75
232.072	78.75
232.306	93.75
232.541	84.75
232.775	86.75
233.009	86.75
233.243	83.75
233.477	82.75
233.711	85.75
233.945	73.75
234.179	77.75
234.413	84.75
234.647	84.75
234.881	78.75
235.115	70.75
235.349	80.75
235.583	84.75
235.817	76.75
236.051	72.75
236.285	75.75
236.519	82.75
236.753	74.75
236.987	92.75
237.221	76.75
237.455	68.75
237.689	68.75
237.922	74.75
238.156	75.75
238.39	68.75
238.624	68.75
238.858	77.75
239.091	74.75
239.325	76.75
239.559	88.75
239.793	74.75
240.027	86.75
240.26	70.75
240.494	80.75
240.728	87.75
240.961	75.75
241.195	76.75
241.429	87.75
241.662	84.75
241.896	72.75
242.13	77.75
242.363	69.75
242.597	84.75
242.83	62.75
243.064	82.75
243.298	95.75
243.531	77.75
243.765	75.75
243.998	93.75
244.232	87.75
244.465	82.75
244.699	82.75
244.932	77.75
245.166	82.75
245.399	88.75
245.633	86.75
245.866	69.75
246.099	71.75
246.333	78.75
246.566	69.75
246.8	90.75
247.033	78.75
247.266	82.75
247.5	91.75
247.733	78.75
247.966	82.75
248.2	78.75
248.433	81.75
248.666	74.75
248.899	78.75
249.133	93.75
249.366	92.75
249.599	81.75
249.832	69.75
250.066	86.75
250.299	78.75
250.532	79.75
250.765	70.75
250.998	86.75
251.231	86.75
251.465	92.75
251.698	80.75
251.931	81.75
252.164	81.75
252.397	84.75
252.63	88.75
252.863	80.75
253.096	82.75
253.329	82.75
253.562	70.75
253.795	77.75
254.028	85.75
254.261	65.75
254.494	78.75
254.727	78.75
254.96	78.75
255.193	83.75
255.426	72.75
255.659	72.75
255.892	85.75
256.124	69.75
256.357	70.75
256.59	86.75
256.823	84.75
257.056	78.75
257.289	76.75
257.521	82.75
257.754	79.75
257.987	65.75
258.22	74.75
258.452	71.75
258.685	76.75
258.918	79.75
259.151	83.75
259.383	81.75
259.616	70.75
259.849	88.75
260.081	92.75
260.314	74.75
260.547	90.75
260.779	83.75
261.012	82.75
261.244	90.75
261.477	93.75
261.71	78.75
261.942	82.75
262.175	89.75
262.407	87.75
262.64	88.75
262.872	80.75
263.105	87.75
263.337	68.75
263.57	81.75
263.802	78.75
264.035	76.75
264.267	83.75
264.499	91.75
264.732	74.75
264.964	96.75
265.197	84.75
265.429	81.75
265.661	104.75
265.894	74.75
266.126	76.75
266.358	87.75
266.591	92.75
266.823	75.75
267.055	89.75
267.287	78.75
267.52	76.75
267.752	86.75
267.984	87.75
268.216	85.75
268.448	83.75
268.681	82.75
268.913	76.75
269.145	85.75
269.377	81.75
269.609	83.75
269.841	73.75
270.073	77.75
270.306	74.75
270.538	58.75
270.77	81.75
271.002	86.75
271.234	87.75
271.466	85.75
271.698	80.75
271.93	64.75
272.162	86.75
272.394	98.75
272.626	88.75
272.858	77.75
273.09	78.75
273.322	85.75
273.553	92.75
273.785	84.75
274.017	77.75
274.249	87.75
274.481	88.75
274.713	89.75
274.945	90.75
275.176	88.75
275.408	85.75
275.64	82.75
275.872	92.75
276.104	81.75
276.335	83.75
276.567	75.75
276.799	101.75
277.031	96.75
277.262	85.75
277.494	94.75
277.726	88.75
277.957	87.75
278.189	90.75
278.421	86.75
278.652	94.75
278.884	73.75
279.115	80.75
279.347	73.75
279.579	84.75
279.81	83.75
280.042	65.75
280.273	81.75
280.505	75.75
280.736	84.75
280.968	76.75
281.199	77.75
281.431	75.75
281.662	89.75
281.894	79.75
282.125	71.75
282.356	84.75
282.588	76.75
282.819	84.75
283.051	98.75
283.282	85.75
283.513	82.75
283.745	84.75
283.976	81.75
284.207	95.75
284.439	80.75
284.67	88.75
284.901	84.75
285.132	89.75
285.364	79.75
285.595	73.75
285.826	88.75
286.057	70.75
286.288	76.75
286.52	86.75
286.751	82.75
286.982	89.75
287.213	76.75
287.444	97.75
287.675	89.75
287.906	83.75
288.138	76.75
288.369	102.75
288.6	76.75
288.831	84.75
289.062	82.75
289.293	95.75
289.524	81.75
289.755	87.75
289.986	83.75
290.217	79.75
290.448	87.75
290.679	91.75
290.91	90.75
291.141	70.75
291.371	74.75
291.602	83.75
291.833	79.75
292.064	94.75
292.295	84.75
292.526	87.75
292.757	86.75
292.987	85.75
293.218	90.75
293.449	87.75
293.68	97.75
293.91	92.75
294.141	88.75
294.372	96.75
294.603	92.75
294.833	91.75
295.064	87.75
295.295	99.75
295.525	88.75
295.756	93.75
295.987	86.75
296.217	77.75
296.448	92.75
296.679	89.75
296.909	78.75
297.14	83.75
297.37	81.75
297.601	78.75
297.831	76.75
298.062	98.75
298.292	76.75
298.523	86.75
298.753	80.75
298.984	87.75
299.214	85.75
299.445	72.75
299.675	72.75
299.905	82.75
300.136	74.75
300.366	73.75
300.597	76.75
300.827	92.75
301.057	87.75
301.288	88.75
301.518	86.75
301.748	94.75
301.979	86.75
302.209	97.75
302.439	84.75
302.669	76.75
302.9	73.75
303.13	84.75
303.36	84.75
303.59	83.75
303.82	87.75
304.051	81.75
304.281	85.75
304.511	84.75
304.741	77.75
304.971	77.75
305.201	77.75
305.431	84.75
305.661	84.75
305.891	96.75
306.121	78.75
306.352	75.75
306.582	74.75
306.812	88.75
307.042	94.75
307.272	75.75
307.502	74.75
307.731	79.75
307.961	94.75
308.191	93.75
308.421	84.75
308.651	104.75
308.881	84.75
309.111	84.75
309.341	90.75
309.571	86.75
309.8	81.75
310.03	73.75
310.26	81.75
310.49	97.75
310.72	79.75
310.949	87.75
311.179	95.75
311.409	74.75
311.639	75.75
311.868	75.75
312.098	83.75
312.328	85.75
312.557	92.75
312.787	76.75
313.017	74.75
313.246	94.75
313.476	74.75
313.706	87.75
313.935	101.75
314.165	80.75
314.394	89.75
314.624	80.75
314.853	83.75
315.083	98.75
315.312	92.75
315.542	93.75
315.771	76.75
316.001	98.75
316.23	87.75
316.46	87.75
316.689	87.75
316.919	77.75
317.148	82.75
317.377	96.75
317.607	82.75
317.836	91.75
318.065	88.75
318.295	83.75
318.524	93.75
318.753	92.75
318.983	82.75
319.212	96.75
319.441	104.75
319.67	77.75
319.9	79.75
320.129	94.75
320.358	92.75
320.587	82.75
320.816	74.75
321.046	80.75
321.275	74.75
321.504	86.75
321.733	90.75
321.962	84.75
322.191	84.75
322.42	69.75
322.649	81.75
322.878	101.75
323.108	99.75
323.337	91.75
323.566	96.75
323.795	90.75
324.024	87.75
324.253	96.75
324.482	116.75
324.71	156.75
324.939	150.75
325.168	113.75
325.397	93.75
325.626	87.75
325.855	88.75
326.084	84.75
326.313	80.75
326.542	80.75
326.77	101.75
326.999	109.75
327.228	115.75
327.457	140.75
327.686	130.75
327.914	102.75
328.143	84.75
328.372	96.75
328.6	100.75
328.829	88.75
329.058	88.75
329.287	85.75
329.515	82.75
329.744	96.75
329.972	100.75
330.201	105.75
330.43	116.75
330.658	98.75
330.887	88.75
331.115	80.75
331.344	85.75
331.572	78.75
331.801	92.75
332.03	80.75
332.258	81.75
332.486	78.75
332.715	92.75
332.943	82.75
333.172	96.75
333.4	86.75
333.629	87.75
333.857	91.75
334.085	97.75
334.314	123.75
334.542	128.75
334.771	112.75
334.999	104.75
335.227	82.75
335.455	86.75
335.684	89.75
335.912	92.75
336.14	81.75
336.369	89.75
336.597	87.75
336.825	84.75
337.053	88.75
337.281	86.75
337.51	86.75
337.738	80.75
337.966	72.75
338.194	101.75
338.422	95.75
338.65	88.75
338.878	85.75
339.106	87.75
339.334	95.75
339.562	82.75
339.79	74.75
340.018	94.75
340.246	76.75
340.474	80.75
340.702	82.75
340.93	92.75
341.158	70.75
341.386	93.75
341.614	78.75
341.842	74.75
342.07	81.75
342.298	80.75
342.526	87.75
342.754	82.75
342.981	93.75
343.209	84.75
343.437	95.75
343.665	87.75
343.893	105.75
344.12	95.75
344.348	86.75
344.576	72.75
344.804	73.75
345.031	92.75
345.259	74.75
345.487	92.75
345.714	84.75
345.942	94.75
346.17	82.75
346.397	84.75
346.625	77.75
346.853	88.75
347.08	72.75
347.308	76.75
347.535	90.75
347.763	88.75
347.99	94.75
348.218	95.75
348.445	76.75
348.673	82.75
348.9	73.75
349.128	86.75
349.355	78.75
349.583	77.75
349.81	78.75
350.037	91.75
350.265	90.75
350.492	85.75
350.72	78.75
350.947	86.75
351.174	95.75
351.402	89.75
351.629	85.75
351.856	78.75
352.083	90.75
352.311	88.75
352.538	92.75
352.765	81.75
352.992	91.75
353.22	80.75
353.447	104.75
353.674	81.75
353.901	93.75
354.128	77.75
354.355	82.75
354.583	82.75
354.81	100.75
355.037	82.75
355.264	92.75
355.491	72.75
355.718	74.75
355.945	80.75
356.172	79.75
356.399	85.75
356.626	85.75
356.853	87.75
357.08	84.75
357.307	87.75
357.534	79.75
357.761	95.75
357.988	74.75
358.215	96.75
358.441	82.75
358.668	104.75
358.895	71.75
359.122	84.75
359.349	91.75
359.576	80.75
359.802	86.75
360.029	101.75
360.256	79.75
360.483	87.75
360.709	83.75
360.936	89.75
361.163	96.75
361.39	90.75
361.616	101.75
361.843	92.75
362.07	86.75
362.296	76.75
362.523	81.75
362.749	89.75
362.976	88.75
363.203	82.75
363.429	77.75
363.656	84.75
363.882	88.75
364.109	83.75
364.335	82.75
364.562	75.75
364.788	84.75
365.015	79.75
365.241	90.75
365.468	89.75
365.694	93.75
365.92	100.75
366.147	92.75
366.373	76.75
366.599	95.75
366.826	76.75
367.052	83.75
367.278	94.75
367.505	65.75
367.731	81.75
367.957	86.75
368.184	88.75
368.41	72.75
368.636	87.75
368.862	84.75
369.089	90.75
369.315	73.75
369.541	90.75
369.767	83.75
369.993	96.75
370.219	92.75
370.445	85.75
370.672	96.75
370.898	88.75
371.124	70.75
371.35	78.75
371.576	85.75
371.802	84.75
372.028	90.75
372.254	93.75
372.48	90.75
372.706	76.75
372.932	78.75
373.158	86.75
373.384	92.75
373.61	92.75
373.835	92.75
374.061	82.75
374.287	78.75
374.513	87.75
374.739	85.75
374.965	76.75
375.191	78.75
375.416	89.75
375.642	80.75
375.868	76.75
376.094	95.75
376.319	79.75
376.545	74.75
376.771	87.75
376.997	65.75
377.222	75.75
377.448	89.75
377.674	72.75
377.899	68.75
378.125	72.75
378.35	96.75
378.576	78.75
378.802	78.75
379.027	82.75
379.253	81.75
379.478	86.75
379.704	76.75
379.929	76.75
380.155	85.75
380.38	75.75
380.606	82.75
380.831	90.75
381.057	88.75
381.282	73.75
381.507	88.75
381.733	82.75
381.958	97.75
382.184	85.75
382.409	97.75
382.634	82.75
382.86	84.75
383.085	85.75
383.31	68.75
383.535	79.75
383.761	75.75
383.986	97.75
384.211	74.75
384.436	76.75
384.662	84.75
384.887	88.75
385.112	70.75
385.337	75.75
385.562	76.75
385.787	84.75
386.013	88.75
386.238	75.75
386.463	77.75
386.688	75.75
386.913	83.75
387.138	68.75
387.363	101.75
387.588	75.75
387.813	87.75
388.038	82.75
388.263	74.75
388.488	78.75
388.713	75.75
388.938	80.75
389.163	70.75
389.387	72.75
389.612	83.75
389.837	89.75
390.062	90.75
390.287	98.75
390.512	77.75
390.736	80.75
390.961	90.75
391.186	82.75
391.411	91.75
391.636	92.75
391.86	89.75
392.085	88.75
392.31	86.75
392.534	71.75
392.759	88.75
392.984	72.75
393.208	84.75
393.433	84.75
393.658	92.75
393.882	91.75
394.107	94.75
394.331	87.75
394.556	76.75
394.78	80.75
395.005	79.75
395.229	82.75
395.454	85.75
395.678	79.75
395.903	92.75
396.127	93.75
396.352	85.75
396.576	93.75
396.801	84.75
397.025	78.75
397.249	76.75
397.474	84.75
397.698	89.75
397.922	78.75
398.147	92.75
398.371	76.75
398.595	68.75
398.82	82.75
399.044	90.75
399.268	83.75
399.492	102.75
399.717	91.75
399.941	71.75
400.165	88.75
400.389	79.75
400.613	83.75
400.837	88.75
401.062	82.75
401.286	71.75
401.51	94.75
401.734	97.75
401.958	77.75
402.182	73.75
402.406	70.75
402.63	88.75
402.854	75.75
403.078	84.75
403.302	73.75
403.526	85.75
403.75	85.75
403.974	79.75
404.198	84.75
404.422	92.75
404.645	85.75
404.869	86.75
405.093	89.75
405.317	90.75
405.541	101.75
405.765	84.75
405.988	83.75
406.212	91.75
406.436	88.75
406.66	75.75
406.883	84.75
407.107	73.75
407.331	77.75
407.555	78.75
407.778	69.75
408.002	77.75
408.226	77.75
408.449	70.75
408.673	80.75
408.896	82.75
409.12	76.75
409.344	104.75
409.567	76.75
409.791	79.75
410.014	77.75
410.238	84.75
410.461	85.75
410.685	83.75
410.908	72.75
411.132	85.75
411.355	78.75
411.578	87.75
411.802	87.75
412.025	91.75
412.249	72.75
412.472	74.75
412.695	80.75
412.919	71.75
413.142	79.75
413.365	78.75
413.589	89.75
413.812	71.75
414.035	93.75
414.258	90.75
414.482	76.75
414.705	80.75
414.928	88.75
415.151	91.75
415.374	81.75
415.597	89.75
415.821	90.75
416.044	80.75
416.267	92.75
416.49	82.75
416.713	83.75
416.936	78.75
417.159	86.75
417.382	74.75
417.605	75.75
417.828	92.75
418.051	91.75
418.274	86.75
418.497	89.75
418.72	96.75
418.943	81.75
419.166	97.75
419.389	81.75
419.611	74.75
419.834	82.75
420.057	84.75
420.28	81.75
420.503	81.75
420.726	91.75
420.948	76.75
421.171	84.75
421.394	86.75
421.617	77.75
421.839	76.75
422.062	87.75
422.285	82.75
422.507	84.75
422.73	84.75
422.953	85.75
423.175	89.75
423.398	82.75
423.621	79.75
423.843	82.75
424.066	98.75
424.288	92.75
424.511	85.75
424.733	86.75
424.956	70.75
425.178	80.75
425.401	75.75
425.623	96.75
425.846	76.75
426.068	84.75
426.291	94.75
426.513	76.75
426.735	91.75
426.958	97.75
427.18	66.75
427.402	99.75
427.625	82.75
427.847	87.75
428.069	78.75
428.292	79.75
428.514	89.75
428.736	91.75
428.958	79.75
429.181	87.75
429.403	72.75
429.625	73.75
429.847	95.75
430.069	88.75
430.292	78.75
430.514	88.75
430.736	94.75
430.958	96.75
431.18	69.75
431.402	88.75
431.624	90.75
431.846	78.75
432.068	83.75
432.29	84.75
432.512	93.75
432.734	87.75
432.956	76.75
433.178	90.75
433.4	85.75
433.622	84.75
433.844	104.75
434.066	84.75
434.287	82.75
434.509	87.75
434.731	93.75
434.953	83.75
435.175	78.75
435.397	76.75
435.618	88.75
435.84	90.75
436.062	91.75
436.284	87.75
436.505	91.75
436.727	89.75
436.949	78.75
437.17	101.75
437.392	87.75
437.614	86.75
437.835	98.75
438.057	96.75
438.278	90.75
438.5	78.75
438.721	87.75
438.943	81.75
439.165	87.75
439.386	85.75
439.608	91.75
439.829	76.75
440.05	88.75
440.272	90.75
440.493	78.75
440.715	88.75
440.936	80.75
441.158	86.75
441.379	80.75
441.6	88.75
441.822	84.75
442.043	94.75
442.264	94.75
442.486	68.75
442.707	66.75
442.928	85.75
443.149	76.75
443.371	92.75
443.592	84.75
443.813	85.75
444.034	89.75
444.255	82.75
444.476	74.75
444.698	82.75
444.919	73.75
445.14	157.75
445.361	106.75
445.582	95.75
445.803	95.75
446.024	99.75
446.245	70.75
446.466	85.75
446.687	81.75
446.908	88.75
447.129	96.75
447.35	89.75
447.571	84.75
447.792	80.75
448.013	97.75
448.234	89.75
448.455	87.75
448.675	85.75
448.896	84.75
449.117	81.75
449.338	94.75
449.559	81.75
449.779	96.75
450	96.75
450.221	88.75
450.442	91.75
450.662	79.75
450.883	68.75
451.104	102.75
451.324	83.75
451.545	84.75
451.766	84.75
451.986	92.75
452.207	83.75
452.428	92.75
452.648	86.75
452.869	82.75
453.089	82.75
453.31	79.75
453.53	84.75
453.751	79.75
453.971	84.75
454.192	82.75
454.412	81.75
454.633	62.75
454.853	82.75
455.073	82.75
455.294	98.75
455.514	88.75
455.734	74.75
455.955	72.75
456.175	98.75
456.395	93.75
456.616	79.75
456.836	82.75
457.056	86.75
457.276	78.75
457.497	86.75
457.717	80.75
457.937	78.75
458.157	75.75
458.377	92.75
458.598	82.75
458.818	78.75
459.038	93.75
459.258	85.75
459.478	90.75
459.698	93.75
459.918	68.75
460.138	80.75
460.358	82.75
460.578	75.75
460.798	68.75
461.018	94.75
461.238	85.75
461.458	72.75
461.678	81.75
461.898	84.75
462.118	72.75
462.338	90.75
462.558	86.75
462.777	74.75
462.997	89.75
463.217	85.75
463.437	84.75
463.657	79.75
463.876	86.75
464.096	85.75
464.316	96.75
464.536	90.75
464.755	84.75
464.975	96.75
465.195	97.75
465.414	93.75
465.634	106.75
465.854	87.75
466.073	81.75
466.293	96.75
466.512	84.75
466.732	88.75
466.951	85.75
467.171	78.75
467.391	101.75
467.61	90.75
467.829	76.75
468.049	102.75
468.268	101.75
468.488	86.75
468.707	71.75
468.927	77.75
469.146	76.75
469.365	85.75
469.585	70.75
469.804	81.75
470.023	81.75
470.243	85.75
470.462	85.75
470.681	88.75
470.901	86.75
471.12	70.75
471.339	65.75
471.558	89.75
471.777	94.75
471.997	88.75
472.216	131.75
472.435	149.75
472.654	97.75
472.873	90.75
473.092	92.75
473.311	87.75
473.53	88.75
473.749	96.75
473.968	83.75
474.187	91.75
474.406	88.75
474.625	92.75
474.844	89.75
475.063	81.75
475.282	82.75
475.501	73.75
475.72	92.75
475.939	84.75
476.158	77.75
476.377	78.75
476.596	79.75
476.814	72.75
477.033	83.75
477.252	88.75
477.471	90.75
477.69	70.75
477.908	90.75
478.127	78.75
478.346	89.75
478.564	70.75
478.783	70.75
479.002	75.75
479.22	88.75
479.439	78.75
479.658	80.75
479.876	82.75
480.095	87.75
480.313	72.75
480.532	91.75
480.751	85.75
480.969	124.75
481.188	192.75
481.406	141.75
481.624	76.75
481.843	86.75
482.061	90.75
482.28	79.75
482.498	78.75
482.717	96.75
482.935	83.75
483.153	99.75
483.372	74.75
483.59	104.75
483.808	83.75
484.027	78.75
484.245	80.75
484.463	77.75
484.681	98.75
484.9	84.75
485.118	94.75
485.336	87.75
485.554	76.75
485.772	101.75
485.99	84.75
486.209	82.75
486.427	100.75
486.645	91.75
486.863	74.75
487.081	75.75
487.299	82.75
487.517	80.75
487.735	92.75
487.953	86.75
488.171	84.75
488.389	85.75
488.607	90.75
488.825	78.75
489.043	92.75
489.261	85.75
489.479	97.75
489.696	99.75
489.914	86.75
490.132	88.75
490.35	88.75
490.568	92.75
490.786	78.75
491.003	97.75
491.221	90.75
491.439	89.75
491.657	88.75
491.874	92.75
492.092	90.75
492.31	87.75
492.527	94.75
492.745	84.75
492.963	93.75
493.18	99.75
493.398	83.75
493.615	82.75
493.833	77.75
494.05	86.75
494.268	81.75
494.485	88.75
494.703	84.75
494.92	80.75
495.138	77.75
495.355	84.75
495.573	93.75
495.79	88.75
496.008	82.75
496.225	68.75
496.442	76.75
496.66	83.75
496.877	72.75
497.094	93.75
497.312	84.75
497.529	80.75
497.746	85.75
497.963	92.75
498.181	84.75
498.398	85.75
498.615	73.75
498.832	70.75
499.049	98.75
499.267	73.75
499.484	90.75
499.701	86.75
499.918	69.75
500.135	88.75
500.352	103.75
500.569	84.75
500.786	92.75
501.003	103.75
501.22	76.75
501.437	85.75
501.654	96.75
501.871	82.75
502.088	82.75
502.305	101.75
502.522	74.75
502.739	93.75
502.956	84.75
503.172	84.75
503.389	82.75
503.606	96.75
503.823	95.75
504.04	94.75
504.256	86.75
504.473	93.75
504.69	86.75
504.907	88.75
505.123	84.75
505.34	92.75
505.557	90.75
505.773	97.75
505.99	90.75
506.207	77.75
506.423	77.75
506.64	86.75
506.856	76.75
507.073	86.75
507.289	90.75
507.506	92.75
507.722	86.75
507.939	84.75
508.155	86.75
508.372	72.75
508.588	105.75
508.805	95.75
509.021	91.75
509.238	91.75
509.454	89.75
509.67	78.75
509.887	94.75
510.103	96.75
510.319	91.75
510.536	135.75
510.752	212.75
510.968	112.75
511.184	93.75
511.401	84.75
511.617	87.75
511.833	78.75
512.049	93.75
512.265	71.75
512.481	93.75
512.698	88.75
512.914	77.75
513.13	83.75
513.346	77.75
513.562	90.75
513.778	96.75
513.994	84.75
514.21	74.75
514.426	84.75
514.642	96.75
514.858	94.75
515.074	82.75
515.29	134.75
515.506	204.75
515.721	114.75
515.937	104.75
516.153	78.75
516.369	79.75
516.585	86.75
516.801	93.75
517.016	88.75
517.232	83.75
517.448	90.75
517.664	99.75
517.879	90.75
518.095	86.75
518.311	84.75
518.527	83.75
518.742	93.75
518.958	86.75
519.173	78.75
519.389	86.75
