Data from KBrHeat2_HRD10591_00005.txt Node
Date: Fri Dec 27 14:54:45 EST 2024
User: Yrep
Spectrometer: HR+D1059
Trigger mode: 1
Integration Time (sec): 1.000000E-1
Scans to average: 1
Electric dark correction enabled: true
Nonlinearity correction enabled: false
Boxcar width: 0
XAxis mode: Wavelengths
Number of Pixels in Spectrum: 2048
>>>>>Begin Spectral Data<<<<<
223.165	-10.5
223.4	-10.5
223.635	-10.5
223.869	-23.5
224.104	-13.5
224.338	-13.5
224.573	-6.5
224.808	-18.5
225.042	-18.5
225.277	-0.5
225.511	-6.5
225.746	6.5
225.98	4.5
226.215	14.5
226.449	1.5
226.683	21.5
226.918	26.5
227.152	36.5
227.387	36.5
227.621	41.5
227.856	53.5
228.09	35.5
228.324	50.5
228.559	57.5
228.793	72.5
229.027	64.5
229.262	62.5
229.496	66.5
229.73	76.5
229.964	69.5
230.199	70.5
230.433	75.5
230.667	82.5
230.901	88.5
231.136	79.5
231.37	73.5
231.604	67.5
231.838	72.5
232.072	82.5
232.306	80.5
232.541	72.5
232.775	78.5
233.009	66.5
233.243	81.5
233.477	92.5
233.711	89.5
233.945	75.5
234.179	74.5
234.413	80.5
234.647	77.5
234.881	78.5
235.115	76.5
235.349	91.5
235.583	97.5
235.817	81.5
236.051	75.5
236.285	78.5
236.519	83.5
236.753	72.5
236.987	72.5
237.221	67.5
237.455	72.5
237.689	66.5
237.922	56.5
238.156	67.5
238.39	63.5
238.624	72.5
238.858	72.5
239.091	71.5
239.325	82.5
239.559	82.5
239.793	59.5
240.027	86.5
240.26	74.5
240.494	94.5
240.728	91.5
240.961	76.5
241.195	84.5
241.429	84.5
241.662	67.5
241.896	63.5
242.13	75.5
242.363	89.5
242.597	85.5
242.83	71.5
243.064	80.5
243.298	68.5
243.531	70.5
243.765	90.5
243.998	73.5
244.232	88.5
244.465	68.5
244.699	83.5
244.932	78.5
245.166	77.5
245.399	76.5
245.633	89.5
245.866	85.5
246.099	76.5
246.333	77.5
246.566	76.5
246.8	73.5
247.033	75.5
247.266	85.5
247.5	88.5
247.733	88.5
247.966	81.5
248.2	91.5
248.433	75.5
248.666	82.5
248.899	66.5
249.133	73.5
249.366	77.5
249.599	81.5
249.832	77.5
250.066	84.5
250.299	93.5
250.532	85.5
250.765	75.5
250.998	72.5
251.231	83.5
251.465	75.5
251.698	82.5
251.931	84.5
252.164	75.5
252.397	80.5
252.63	85.5
252.863	66.5
253.096	61.5
253.329	72.5
253.562	76.5
253.795	87.5
254.028	85.5
254.261	76.5
254.494	69.5
254.727	76.5
254.96	89.5
255.193	83.5
255.426	86.5
255.659	76.5
255.892	81.5
256.124	84.5
256.357	83.5
256.59	83.5
256.823	77.5
257.056	79.5
257.289	91.5
257.521	100.5
257.754	83.5
257.987	93.5
258.22	87.5
258.452	79.5
258.685	70.5
258.918	73.5
259.151	78.5
259.383	80.5
259.616	78.5
259.849	88.5
260.081	78.5
260.314	92.5
260.547	77.5
260.779	82.5
261.012	86.5
261.244	77.5
261.477	74.5
261.71	78.5
261.942	76.5
262.175	89.5
262.407	89.5
262.64	79.5
262.872	72.5
263.105	91.5
263.337	90.5
263.57	87.5
263.802	77.5
264.035	78.5
264.267	78.5
264.499	86.5
264.732	85.5
264.964	88.5
265.197	84.5
265.429	88.5
265.661	86.5
265.894	91.5
266.126	76.5
266.358	76.5
266.591	86.5
266.823	82.5
267.055	70.5
267.287	84.5
267.52	82.5
267.752	93.5
267.984	93.5
268.216	84.5
268.448	91.5
268.681	84.5
268.913	88.5
269.145	82.5
269.377	84.5
269.609	65.5
269.841	86.5
270.073	89.5
270.306	78.5
270.538	87.5
270.77	77.5
271.002	82.5
271.234	76.5
271.466	82.5
271.698	90.5
271.93	78.5
272.162	80.5
272.394	92.5
272.626	87.5
272.858	78.5
273.09	90.5
273.322	77.5
273.553	82.5
273.785	78.5
274.017	91.5
274.249	91.5
274.481	90.5
274.713	79.5
274.945	93.5
275.176	77.5
275.408	99.5
275.64	86.5
275.872	88.5
276.104	98.5
276.335	93.5
276.567	91.5
276.799	86.5
277.031	90.5
277.262	93.5
277.494	89.5
277.726	95.5
277.957	101.5
278.189	81.5
278.421	72.5
278.652	86.5
278.884	93.5
279.115	87.5
279.347	84.5
279.579	82.5
279.81	76.5
280.042	89.5
280.273	75.5
280.505	91.5
280.736	98.5
280.968	76.5
281.199	79.5
281.431	103.5
281.662	82.5
281.894	86.5
282.125	77.5
282.356	80.5
282.588	85.5
282.819	89.5
283.051	69.5
283.282	89.5
283.513	76.5
283.745	79.5
283.976	85.5
284.207	87.5
284.439	93.5
284.67	96.5
284.901	82.5
285.132	81.5
285.364	89.5
285.595	98.5
285.826	97.5
286.057	106.5
286.288	87.5
286.52	88.5
286.751	83.5
286.982	80.5
287.213	87.5
287.444	89.5
287.675	75.5
287.906	86.5
288.138	98.5
288.369	82.5
288.6	87.5
288.831	80.5
289.062	101.5
289.293	79.5
289.524	83.5
289.755	82.5
289.986	75.5
290.217	71.5
290.448	75.5
290.679	78.5
290.91	79.5
291.141	89.5
291.371	88.5
291.602	70.5
291.833	88.5
292.064	76.5
292.295	73.5
292.526	88.5
292.757	79.5
292.987	94.5
293.218	87.5
293.449	96.5
293.68	78.5
293.91	76.5
294.141	91.5
294.372	90.5
294.603	87.5
294.833	100.5
295.064	100.5
295.295	84.5
295.525	88.5
295.756	93.5
295.987	89.5
296.217	85.5
296.448	87.5
296.679	83.5
296.909	79.5
297.14	103.5
297.37	84.5
297.601	84.5
297.831	90.5
298.062	95.5
298.292	87.5
298.523	87.5
298.753	78.5
298.984	82.5
299.214	85.5
299.445	82.5
299.675	92.5
299.905	73.5
300.136	91.5
300.366	76.5
300.597	89.5
300.827	84.5
301.057	80.5
301.288	77.5
301.518	76.5
301.748	77.5
301.979	103.5
302.209	88.5
302.439	81.5
302.669	80.5
302.9	83.5
303.13	85.5
303.36	85.5
303.59	89.5
303.82	86.5
304.051	83.5
304.281	91.5
304.511	91.5
304.741	89.5
304.971	96.5
305.201	106.5
305.431	82.5
305.661	76.5
305.891	86.5
306.121	98.5
306.352	80.5
306.582	87.5
306.812	87.5
307.042	83.5
307.272	100.5
307.502	83.5
307.731	82.5
307.961	107.5
308.191	87.5
308.421	98.5
308.651	86.5
308.881	87.5
309.111	88.5
309.341	73.5
309.571	77.5
309.8	86.5
310.03	81.5
310.26	76.5
310.49	99.5
310.72	91.5
310.949	94.5
311.179	79.5
311.409	94.5
311.639	79.5
311.868	89.5
312.098	81.5
312.328	98.5
312.557	77.5
312.787	62.5
313.017	100.5
313.246	93.5
313.476	86.5
313.706	86.5
313.935	86.5
314.165	88.5
314.394	93.5
314.624	85.5
314.853	89.5
315.083	92.5
315.312	94.5
315.542	83.5
315.771	91.5
316.001	85.5
316.23	90.5
316.46	87.5
316.689	77.5
316.919	87.5
317.148	93.5
317.377	87.5
317.607	76.5
317.836	82.5
318.065	85.5
318.295	85.5
318.524	84.5
318.753	90.5
318.983	70.5
319.212	75.5
319.441	83.5
319.67	92.5
319.9	99.5
320.129	95.5
320.358	82.5
320.587	87.5
320.816	82.5
321.046	87.5
321.275	77.5
321.504	91.5
321.733	74.5
321.962	98.5
322.191	82.5
322.42	80.5
322.649	94.5
322.878	70.5
323.108	80.5
323.337	88.5
323.566	79.5
323.795	96.5
324.024	92.5
324.253	85.5
324.482	88.5
324.71	91.5
324.939	89.5
325.168	99.5
325.397	85.5
325.626	98.5
325.855	95.5
326.084	91.5
326.313	81.5
326.542	84.5
326.77	86.5
326.999	79.5
327.228	91.5
327.457	89.5
327.686	88.5
327.914	87.5
328.143	86.5
328.372	96.5
328.6	85.5
328.829	81.5
329.058	100.5
329.287	70.5
329.515	80.5
329.744	83.5
329.972	88.5
330.201	86.5
330.43	106.5
330.658	102.5
330.887	89.5
331.115	88.5
331.344	85.5
331.572	82.5
331.801	93.5
332.03	78.5
332.258	93.5
332.486	91.5
332.715	79.5
332.943	77.5
333.172	84.5
333.4	93.5
333.629	79.5
333.857	88.5
334.085	86.5
334.314	92.5
334.542	84.5
334.771	105.5
334.999	79.5
335.227	102.5
335.455	87.5
335.684	83.5
335.912	83.5
336.14	84.5
336.369	74.5
336.597	87.5
336.825	73.5
337.053	87.5
337.281	90.5
337.51	79.5
337.738	92.5
337.966	82.5
338.194	75.5
338.422	90.5
338.65	81.5
338.878	77.5
339.106	93.5
339.334	93.5
339.562	83.5
339.79	81.5
340.018	92.5
340.246	71.5
340.474	91.5
340.702	69.5
340.93	87.5
341.158	84.5
341.386	86.5
341.614	98.5
341.842	68.5
342.07	83.5
342.298	92.5
342.526	89.5
342.754	92.5
342.981	87.5
343.209	76.5
343.437	106.5
343.665	75.5
343.893	88.5
344.12	91.5
344.348	106.5
344.576	89.5
344.804	111.5
345.031	100.5
345.259	91.5
345.487	85.5
345.714	89.5
345.942	95.5
346.17	78.5
346.397	82.5
346.625	95.5
346.853	89.5
347.08	92.5
347.308	83.5
347.535	90.5
347.763	85.5
347.99	83.5
348.218	90.5
348.445	75.5
348.673	82.5
348.9	92.5
349.128	87.5
349.355	82.5
349.583	87.5
349.81	83.5
350.037	84.5
350.265	93.5
350.492	88.5
350.72	98.5
350.947	88.5
351.174	102.5
351.402	82.5
351.629	92.5
351.856	95.5
352.083	85.5
352.311	79.5
352.538	77.5
352.765	95.5
352.992	102.5
353.22	75.5
353.447	90.5
353.674	86.5
353.901	76.5
354.128	91.5
354.355	83.5
354.583	79.5
354.81	92.5
355.037	87.5
355.264	84.5
355.491	90.5
355.718	97.5
355.945	104.5
356.172	94.5
356.399	94.5
356.626	79.5
356.853	62.5
357.08	74.5
357.307	94.5
357.534	88.5
357.761	101.5
357.988	98.5
358.215	86.5
358.441	74.5
358.668	84.5
358.895	78.5
359.122	85.5
359.349	78.5
359.576	91.5
359.802	86.5
360.029	87.5
360.256	91.5
360.483	81.5
360.709	71.5
360.936	97.5
361.163	77.5
361.39	101.5
361.616	83.5
361.843	83.5
362.07	102.5
362.296	99.5
362.523	101.5
362.749	87.5
362.976	88.5
363.203	105.5
363.429	103.5
363.656	100.5
363.882	87.5
364.109	89.5
364.335	104.5
364.562	69.5
364.788	84.5
365.015	78.5
365.241	92.5
365.468	104.5
365.694	88.5
365.92	84.5
366.147	85.5
366.373	68.5
366.599	95.5
366.826	93.5
367.052	83.5
367.278	91.5
367.505	86.5
367.731	98.5
367.957	88.5
368.184	88.5
368.41	92.5
368.636	65.5
368.862	78.5
369.089	75.5
369.315	78.5
369.541	91.5
369.767	89.5
369.993	79.5
370.219	83.5
370.445	69.5
370.672	82.5
370.898	104.5
371.124	90.5
371.35	93.5
371.576	81.5
371.802	87.5
372.028	86.5
372.254	92.5
372.48	89.5
372.706	77.5
372.932	87.5
373.158	93.5
373.384	86.5
373.61	94.5
373.835	90.5
374.061	76.5
374.287	90.5
374.513	90.5
374.739	84.5
374.965	78.5
375.191	89.5
375.416	100.5
375.642	87.5
375.868	72.5
376.094	74.5
376.319	76.5
376.545	96.5
376.771	88.5
376.997	78.5
377.222	86.5
377.448	82.5
377.674	88.5
377.899	87.5
378.125	86.5
378.35	84.5
378.576	74.5
378.802	86.5
379.027	80.5
379.253	86.5
379.478	82.5
379.704	91.5
379.929	102.5
380.155	94.5
380.38	88.5
380.606	86.5
380.831	92.5
381.057	94.5
381.282	88.5
381.507	87.5
381.733	92.5
381.958	96.5
382.184	89.5
382.409	92.5
382.634	83.5
382.86	85.5
383.085	93.5
383.31	101.5
383.535	114.5
383.761	93.5
383.986	94.5
384.211	92.5
384.436	87.5
384.662	83.5
384.887	83.5
385.112	85.5
385.337	85.5
385.562	79.5
385.787	91.5
386.013	81.5
386.238	86.5
386.463	97.5
386.688	86.5
386.913	75.5
387.138	91.5
387.363	84.5
387.588	92.5
387.813	99.5
388.038	96.5
388.263	103.5
388.488	74.5
388.713	89.5
388.938	83.5
389.163	78.5
389.387	96.5
389.612	88.5
389.837	103.5
390.062	84.5
390.287	102.5
390.512	87.5
390.736	77.5
390.961	84.5
391.186	82.5
391.411	88.5
391.636	86.5
391.86	85.5
392.085	87.5
392.31	80.5
392.534	95.5
392.759	103.5
392.984	93.5
393.208	95.5
393.433	81.5
393.658	74.5
393.882	85.5
394.107	86.5
394.331	88.5
394.556	79.5
394.78	97.5
395.005	84.5
395.229	84.5
395.454	88.5
395.678	85.5
395.903	88.5
396.127	88.5
396.352	82.5
396.576	93.5
396.801	86.5
397.025	83.5
397.249	82.5
397.474	101.5
397.698	98.5
397.922	93.5
398.147	80.5
398.371	80.5
398.595	84.5
398.82	93.5
399.044	77.5
399.268	85.5
399.492	92.5
399.717	102.5
399.941	90.5
400.165	84.5
400.389	83.5
400.613	107.5
400.837	90.5
401.062	77.5
401.286	86.5
401.51	87.5
401.734	80.5
401.958	86.5
402.182	83.5
402.406	82.5
402.63	87.5
402.854	91.5
403.078	77.5
403.302	87.5
403.526	92.5
403.75	97.5
403.974	118.5
404.198	135.5
404.422	194.5
404.645	248.5
404.869	207.5
405.093	148.5
405.317	134.5
405.541	99.5
405.765	92.5
405.988	92.5
406.212	106.5
406.436	82.5
406.66	101.5
406.883	81.5
407.107	94.5
407.331	87.5
407.555	94.5
407.778	80.5
408.002	84.5
408.226	89.5
408.449	89.5
408.673	87.5
408.896	87.5
409.12	80.5
409.344	90.5
409.567	85.5
409.791	71.5
410.014	81.5
410.238	88.5
410.461	92.5
410.685	82.5
410.908	72.5
411.132	93.5
411.355	84.5
411.578	92.5
411.802	84.5
412.025	100.5
412.249	81.5
412.472	83.5
412.695	100.5
412.919	80.5
413.142	98.5
413.365	81.5
413.589	96.5
413.812	86.5
414.035	102.5
414.258	95.5
414.482	92.5
414.705	88.5
414.928	87.5
415.151	92.5
415.374	98.5
415.597	74.5
415.821	90.5
416.044	75.5
416.267	93.5
416.49	85.5
416.713	92.5
416.936	91.5
417.159	86.5
417.382	83.5
417.605	86.5
417.828	82.5
418.051	79.5
418.274	101.5
418.497	97.5
418.72	89.5
418.943	101.5
419.166	82.5
419.389	88.5
419.611	100.5
419.834	79.5
420.057	90.5
420.28	90.5
420.503	83.5
420.726	88.5
420.948	90.5
421.171	89.5
421.394	98.5
421.617	91.5
421.839	90.5
422.062	94.5
422.285	83.5
422.507	94.5
422.73	88.5
422.953	94.5
423.175	92.5
423.398	87.5
423.621	103.5
423.843	91.5
424.066	94.5
424.288	79.5
424.511	104.5
424.733	90.5
424.956	86.5
425.178	92.5
425.401	82.5
425.623	92.5
425.846	80.5
426.068	89.5
426.291	86.5
426.513	94.5
426.735	80.5
426.958	75.5
427.18	75.5
427.402	85.5
427.625	84.5
427.847	101.5
428.069	90.5
428.292	83.5
428.514	91.5
428.736	89.5
428.958	66.5
429.181	87.5
429.403	77.5
429.625	83.5
429.847	99.5
430.069	86.5
430.292	91.5
430.514	100.5
430.736	88.5
430.958	95.5
431.18	91.5
431.402	96.5
431.624	102.5
431.846	104.5
432.068	92.5
432.29	90.5
432.512	93.5
432.734	86.5
432.956	79.5
433.178	88.5
433.4	100.5
433.622	84.5
433.844	96.5
434.066	84.5
434.287	82.5
434.509	95.5
434.731	101.5
434.953	87.5
435.175	98.5
435.397	112.5
435.618	89.5
435.84	74.5
436.062	76.5
436.284	82.5
436.505	93.5
436.727	83.5
436.949	74.5
437.17	83.5
437.392	93.5
437.614	104.5
437.835	91.5
438.057	104.5
438.278	97.5
438.5	88.5
438.721	84.5
438.943	92.5
439.165	87.5
439.386	87.5
439.608	91.5
439.829	77.5
440.05	88.5
440.272	88.5
440.493	86.5
440.715	99.5
440.936	94.5
441.158	80.5
441.379	78.5
441.6	90.5
441.822	84.5
442.043	91.5
442.264	85.5
442.486	83.5
442.707	87.5
442.928	95.5
443.149	107.5
443.371	95.5
443.592	97.5
443.813	85.5
444.034	77.5
444.255	102.5
444.476	83.5
444.698	100.5
444.919	76.5
445.14	140.5
445.361	119.5
445.582	95.5
445.803	86.5
446.024	89.5
446.245	80.5
446.466	80.5
446.687	85.5
446.908	91.5
447.129	81.5
447.35	98.5
447.571	99.5
447.792	82.5
448.013	85.5
448.234	68.5
448.455	94.5
448.675	84.5
448.896	100.5
449.117	94.5
449.338	75.5
449.559	80.5
449.779	88.5
450	93.5
450.221	89.5
450.442	76.5
450.662	99.5
450.883	86.5
451.104	88.5
451.324	82.5
451.545	98.5
451.766	89.5
451.986	89.5
452.207	79.5
452.428	82.5
452.648	85.5
452.869	83.5
453.089	86.5
453.31	86.5
453.53	90.5
453.751	88.5
453.971	97.5
454.192	95.5
454.412	76.5
454.633	92.5
454.853	81.5
455.073	71.5
455.294	100.5
455.514	90.5
455.734	84.5
455.955	76.5
456.175	84.5
456.395	87.5
456.616	86.5
456.836	94.5
457.056	88.5
457.276	87.5
457.497	76.5
457.717	88.5
457.937	77.5
458.157	88.5
458.377	91.5
458.598	99.5
458.818	73.5
459.038	91.5
459.258	86.5
459.478	88.5
459.698	85.5
459.918	88.5
460.138	91.5
460.358	92.5
460.578	95.5
460.798	89.5
461.018	91.5
461.238	87.5
461.458	105.5
461.678	93.5
461.898	96.5
462.118	95.5
462.338	102.5
462.558	114.5
462.777	92.5
462.997	73.5
463.217	86.5
463.437	85.5
463.657	98.5
463.876	91.5
464.096	83.5
464.316	98.5
464.536	99.5
464.755	98.5
464.975	93.5
465.195	88.5
465.414	100.5
465.634	93.5
465.854	100.5
466.073	98.5
466.293	90.5
466.512	94.5
466.732	91.5
466.951	83.5
467.171	97.5
467.391	98.5
467.61	85.5
467.829	89.5
468.049	83.5
468.268	104.5
468.488	105.5
468.707	90.5
468.927	72.5
469.146	78.5
469.365	78.5
469.585	96.5
469.804	82.5
470.023	81.5
470.243	74.5
470.462	84.5
470.681	93.5
470.901	90.5
471.12	104.5
471.339	98.5
471.558	94.5
471.777	95.5
471.997	78.5
472.216	99.5
472.435	106.5
472.654	85.5
472.873	87.5
473.092	79.5
473.311	80.5
473.53	96.5
473.749	102.5
473.968	89.5
474.187	103.5
474.406	109.5
474.625	96.5
474.844	97.5
475.063	87.5
475.282	76.5
475.501	85.5
475.72	91.5
475.939	88.5
476.158	83.5
476.377	95.5
476.596	102.5
476.814	94.5
477.033	93.5
477.252	96.5
477.471	105.5
477.69	89.5
477.908	105.5
478.127	94.5
478.346	83.5
478.564	83.5
478.783	99.5
479.002	88.5
479.22	87.5
479.439	82.5
479.658	92.5
479.876	86.5
480.095	91.5
480.313	87.5
480.532	88.5
480.751	90.5
480.969	90.5
481.188	88.5
481.406	108.5
481.624	98.5
481.843	83.5
482.061	83.5
482.28	95.5
482.498	87.5
482.717	94.5
482.935	98.5
483.153	86.5
483.372	93.5
483.59	83.5
483.808	91.5
484.027	100.5
484.245	90.5
484.463	82.5
484.681	107.5
484.9	95.5
485.118	108.5
485.336	89.5
485.554	91.5
485.772	95.5
485.99	91.5
486.209	99.5
486.427	106.5
486.645	92.5
486.863	91.5
487.081	85.5
487.299	82.5
487.517	85.5
487.735	97.5
487.953	90.5
488.171	96.5
488.389	101.5
488.607	95.5
488.825	89.5
489.043	93.5
489.261	95.5
489.479	93.5
489.696	99.5
489.914	91.5
490.132	80.5
490.35	111.5
490.568	91.5
490.786	100.5
491.003	88.5
491.221	95.5
491.439	98.5
491.657	95.5
491.874	98.5
492.092	92.5
492.31	95.5
492.527	109.5
492.745	99.5
492.963	103.5
493.18	102.5
493.398	103.5
493.615	104.5
493.833	99.5
494.05	104.5
494.268	105.5
494.485	101.5
494.703	112.5
494.92	102.5
495.138	89.5
495.355	108.5
495.573	96.5
495.79	99.5
496.008	102.5
496.225	114.5
496.442	84.5
496.66	90.5
496.877	100.5
497.094	94.5
497.312	106.5
497.529	95.5
497.746	114.5
497.963	92.5
498.181	88.5
498.398	95.5
498.615	91.5
498.832	84.5
499.049	94.5
499.267	92.5
499.484	85.5
499.701	95.5
499.918	104.5
500.135	86.5
500.352	85.5
500.569	85.5
500.786	110.5
501.003	107.5
501.22	83.5
501.437	93.5
501.654	95.5
501.871	102.5
502.088	94.5
502.305	99.5
502.522	92.5
502.739	96.5
502.956	97.5
503.172	103.5
503.389	96.5
503.606	98.5
503.823	99.5
504.04	83.5
504.256	74.5
504.473	96.5
504.69	92.5
504.907	109.5
505.123	106.5
505.34	98.5
505.557	93.5
505.773	98.5
505.99	80.5
506.207	83.5
506.423	76.5
506.64	100.5
506.856	92.5
507.073	90.5
507.289	98.5
507.506	92.5
507.722	94.5
507.939	97.5
508.155	93.5
508.372	82.5
508.588	95.5
508.805	91.5
509.021	92.5
509.238	93.5
509.454	88.5
509.67	110.5
509.887	92.5
510.103	86.5
510.319	95.5
510.536	96.5
510.752	104.5
510.968	86.5
511.184	101.5
511.401	84.5
511.617	86.5
511.833	93.5
512.049	97.5
512.265	92.5
512.481	83.5
512.698	91.5
512.914	80.5
513.13	93.5
513.346	84.5
513.562	86.5
513.778	95.5
513.994	87.5
514.21	100.5
514.426	87.5
514.642	95.5
514.858	87.5
515.074	92.5
515.29	77.5
515.506	93.5
515.721	89.5
515.937	88.5
516.153	79.5
516.369	99.5
516.585	101.5
516.801	78.5
517.016	100.5
517.232	73.5
517.448	74.5
517.664	83.5
517.879	90.5
518.095	98.5
518.311	105.5
518.527	91.5
518.742	97.5
518.958	94.5
519.173	90.5
519.389	79.5
519.605	91.5
519.82	76.5
520.036	95.5
520.251	85.5
520.467	89.5
520.682	85.5
520.898	90.5
521.113	77.5
521.329	92.5
521.544	85.5
521.76	94.5
521.975	100.5
522.19	100.5
522.406	78.5
522.621	91.5
522.836	77.5
523.052	74.5
523.267	84.5
523.482	83.5
523.698	95.5
523.913	93.5
524.128	85.5
524.343	95.5
524.559	94.5
524.774	91.5
524.989	90.5
525.204	94.5
525.419	94.5
525.634	105.5
525.849	102.5
526.064	100.5
526.28	92.5
526.495	102.5
526.71	95.5
526.925	93.5
527.14	90.5
527.355	99.5
527.57	101.5
527.785	89.5
527.999	96.5
528.214	101.5
528.429	83.5
528.644	92.5
528.859	95.5
529.074	90.5
529.289	94.5
529.503	90.5
529.718	98.5
529.933	99.5
530.148	102.5
530.363	82.5
530.577	74.5
530.792	83.5
531.007	101.5
531.221	84.5
531.436	84.5
531.651	83.5
531.865	87.5
532.08	87.5
532.295	98.5
532.509	102.5
532.724	95.5
532.938	95.5
533.153	104.5
533.367	110.5
533.582	95.5
533.796	101.5
534.011	94.5
534.225	116.5
534.44	116.5
534.654	115.5
534.868	98.5
535.083	100.5
535.297	107.5
535.511	93.5
535.726	107.5
535.94	86.5
536.154	100.5
536.369	110.5
536.583	109.5
536.797	115.5
537.011	111.5
537.225	101.5
537.44	95.5
537.654	113.5
537.868	106.5
538.082	108.5
538.296	83.5
