Data from KBrHeat2_HRD10591_00010.txt Node
Date: Fri Dec 27 14:54:50 EST 2024
User: Yrep
Spectrometer: HR+D1059
Trigger mode: 1
Integration Time (sec): 1.000000E-1
Scans to average: 1
Electric dark correction enabled: true
Nonlinearity correction enabled: false
Boxcar width: 0
XAxis mode: Wavelengths
Number of Pixels in Spectrum: 2048
>>>>>Begin Spectral Data<<<<<
223.165	-26.31
223.4	-26.31
223.635	-26.31
223.869	-21.31
224.104	-17.31
224.338	-21.31
224.573	-15.31
224.808	-10.31
225.042	-5.31
225.277	4.69
225.511	-3.31
225.746	10.69
225.98	1.69
226.215	14.69
226.449	15.69
226.683	24.69
226.918	20.69
227.152	27.69
227.387	50.69
227.621	47.69
227.856	55.69
228.09	60.69
228.324	63.69
228.559	59.69
228.793	65.69
229.027	65.69
229.262	68.69
229.496	75.69
229.73	79.69
229.964	90.69
230.199	83.69
230.433	70.69
230.667	75.69
230.901	72.69
231.136	74.69
231.37	80.69
231.604	79.69
231.838	82.69
232.072	89.69
232.306	89.69
232.541	85.69
232.775	97.69
233.009	95.69
233.243	78.69
233.477	80.69
233.711	83.69
233.945	81.69
234.179	70.69
234.413	77.69
234.647	89.69
234.881	87.69
235.115	80.69
235.349	76.69
235.583	64.69
235.817	78.69
236.051	78.69
236.285	73.69
236.519	80.69
236.753	81.69
236.987	84.69
237.221	78.69
237.455	79.69
237.689	81.69
237.922	63.69
238.156	78.69
238.39	63.69
238.624	69.69
238.858	83.69
239.091	81.69
239.325	54.69
239.559	83.69
239.793	80.69
240.027	88.69
240.26	59.69
240.494	95.69
240.728	75.69
240.961	84.69
241.195	93.69
241.429	92.69
241.662	82.69
241.896	86.69
242.13	71.69
242.363	80.69
242.597	91.69
242.83	92.69
243.064	80.69
243.298	72.69
243.531	68.69
243.765	71.69
243.998	75.69
244.232	89.69
244.465	88.69
244.699	73.69
244.932	76.69
245.166	64.69
245.399	78.69
245.633	87.69
245.866	96.69
246.099	77.69
246.333	85.69
246.566	78.69
246.8	82.69
247.033	94.69
247.266	65.69
247.5	85.69
247.733	82.69
247.966	84.69
248.2	77.69
248.433	81.69
248.666	77.69
248.899	77.69
249.133	74.69
249.366	85.69
249.599	92.69
249.832	88.69
250.066	87.69
250.299	63.69
250.532	85.69
250.765	61.69
250.998	81.69
251.231	73.69
251.465	83.69
251.698	79.69
251.931	94.69
252.164	85.69
252.397	78.69
252.63	80.69
252.863	89.69
253.096	86.69
253.329	83.69
253.562	71.69
253.795	88.69
254.028	81.69
254.261	84.69
254.494	77.69
254.727	92.69
254.96	65.69
255.193	74.69
255.426	76.69
255.659	69.69
255.892	94.69
256.124	95.69
256.357	91.69
256.59	93.69
256.823	83.69
257.056	66.69
257.289	84.69
257.521	87.69
257.754	69.69
257.987	79.69
258.22	66.69
258.452	91.69
258.685	96.69
258.918	90.69
259.151	80.69
259.383	72.69
259.616	83.69
259.849	84.69
260.081	82.69
260.314	77.69
260.547	90.69
260.779	78.69
261.012	75.69
261.244	89.69
261.477	88.69
261.71	84.69
261.942	75.69
262.175	74.69
262.407	89.69
262.64	94.69
262.872	93.69
263.105	92.69
263.337	99.69
263.57	81.69
263.802	86.69
264.035	87.69
264.267	84.69
264.499	80.69
264.732	88.69
264.964	80.69
265.197	77.69
265.429	91.69
265.661	84.69
265.894	76.69
266.126	82.69
266.358	81.69
266.591	86.69
266.823	79.69
267.055	75.69
267.287	77.69
267.52	77.69
267.752	87.69
267.984	75.69
268.216	82.69
268.448	91.69
268.681	79.69
268.913	91.69
269.145	85.69
269.377	76.69
269.609	79.69
269.841	87.69
270.073	92.69
270.306	84.69
270.538	79.69
270.77	71.69
271.002	87.69
271.234	80.69
271.466	88.69
271.698	77.69
271.93	71.69
272.162	83.69
272.394	82.69
272.626	76.69
272.858	86.69
273.09	77.69
273.322	76.69
273.553	95.69
273.785	96.69
274.017	83.69
274.249	79.69
274.481	78.69
274.713	63.69
274.945	77.69
275.176	89.69
275.408	78.69
275.64	83.69
275.872	86.69
276.104	77.69
276.335	86.69
276.567	89.69
276.799	74.69
277.031	91.69
277.262	90.69
277.494	91.69
277.726	84.69
277.957	79.69
278.189	83.69
278.421	88.69
278.652	87.69
278.884	83.69
279.115	79.69
279.347	81.69
279.579	87.69
279.81	84.69
280.042	82.69
280.273	102.69
280.505	84.69
280.736	88.69
280.968	87.69
281.199	86.69
281.431	86.69
281.662	92.69
281.894	99.69
282.125	82.69
282.356	84.69
282.588	80.69
282.819	83.69
283.051	78.69
283.282	95.69
283.513	96.69
283.745	90.69
283.976	74.69
284.207	77.69
284.439	89.69
284.67	82.69
284.901	97.69
285.132	79.69
285.364	61.69
285.595	85.69
285.826	88.69
286.057	89.69
286.288	89.69
286.52	90.69
286.751	90.69
286.982	92.69
287.213	78.69
287.444	86.69
287.675	92.69
287.906	104.69
288.138	71.69
288.369	80.69
288.6	94.69
288.831	93.69
289.062	87.69
289.293	79.69
289.524	79.69
289.755	85.69
289.986	70.69
290.217	82.69
290.448	90.69
290.679	86.69
290.91	90.69
291.141	103.69
291.371	93.69
291.602	95.69
291.833	80.69
292.064	81.69
292.295	81.69
292.526	92.69
292.757	93.69
292.987	83.69
293.218	104.69
293.449	88.69
293.68	78.69
293.91	82.69
294.141	94.69
294.372	83.69
294.603	90.69
294.833	95.69
295.064	75.69
295.295	83.69
295.525	90.69
295.756	90.69
295.987	89.69
296.217	80.69
296.448	85.69
296.679	82.69
296.909	74.69
297.14	78.69
297.37	86.69
297.601	84.69
297.831	91.69
298.062	92.69
298.292	90.69
298.523	93.69
298.753	84.69
298.984	88.69
299.214	81.69
299.445	87.69
299.675	79.69
299.905	79.69
300.136	101.69
300.366	90.69
300.597	96.69
300.827	86.69
301.057	83.69
301.288	79.69
301.518	84.69
301.748	81.69
301.979	112.69
302.209	87.69
302.439	88.69
302.669	80.69
302.9	83.69
303.13	87.69
303.36	89.69
303.59	101.69
303.82	79.69
304.051	88.69
304.281	101.69
304.511	82.69
304.741	97.69
304.971	80.69
305.201	89.69
305.431	91.69
305.661	92.69
305.891	80.69
306.121	86.69
306.352	79.69
306.582	93.69
306.812	94.69
307.042	92.69
307.272	91.69
307.502	89.69
307.731	88.69
307.961	81.69
308.191	69.69
308.421	82.69
308.651	92.69
308.881	101.69
309.111	103.69
309.341	90.69
309.571	97.69
309.8	81.69
310.03	97.69
310.26	79.69
310.49	81.69
310.72	92.69
310.949	73.69
311.179	87.69
311.409	96.69
311.639	79.69
311.868	82.69
312.098	83.69
312.328	93.69
312.557	91.69
312.787	84.69
313.017	91.69
313.246	94.69
313.476	70.69
313.706	70.69
313.935	88.69
314.165	86.69
314.394	89.69
314.624	84.69
314.853	89.69
315.083	88.69
315.312	96.69
315.542	87.69
315.771	100.69
316.001	82.69
316.23	83.69
316.46	89.69
316.689	95.69
316.919	87.69
317.148	89.69
317.377	104.69
317.607	90.69
317.836	75.69
318.065	87.69
318.295	94.69
318.524	73.69
318.753	91.69
318.983	87.69
319.212	87.69
319.441	85.69
319.67	81.69
319.9	86.69
320.129	84.69
320.358	90.69
320.587	101.69
320.816	90.69
321.046	75.69
321.275	93.69
321.504	89.69
321.733	84.69
321.962	90.69
322.191	99.69
322.42	86.69
322.649	93.69
322.878	86.69
323.108	102.69
323.337	94.69
323.566	74.69
323.795	90.69
324.024	88.69
324.253	64.69
324.482	101.69
324.71	80.69
324.939	87.69
325.168	90.69
325.397	77.69
325.626	90.69
325.855	103.69
326.084	84.69
326.313	80.69
326.542	86.69
326.77	94.69
326.999	84.69
327.228	95.69
327.457	84.69
327.686	90.69
327.914	87.69
328.143	84.69
328.372	102.69
328.6	73.69
328.829	79.69
329.058	73.69
329.287	94.69
329.515	89.69
329.744	85.69
329.972	87.69
330.201	95.69
330.43	85.69
330.658	96.69
330.887	76.69
331.115	87.69
331.344	96.69
331.572	98.69
331.801	85.69
332.03	91.69
332.258	85.69
332.486	86.69
332.715	89.69
332.943	83.69
333.172	91.69
333.4	93.69
333.629	95.69
333.857	95.69
334.085	80.69
334.314	81.69
334.542	85.69
334.771	79.69
334.999	87.69
335.227	90.69
335.455	88.69
335.684	90.69
335.912	86.69
336.14	95.69
336.369	80.69
336.597	73.69
336.825	85.69
337.053	92.69
337.281	96.69
337.51	83.69
337.738	88.69
337.966	77.69
338.194	91.69
338.422	93.69
338.65	95.69
338.878	92.69
339.106	92.69
339.334	89.69
339.562	90.69
339.79	89.69
340.018	104.69
340.246	84.69
340.474	67.69
340.702	90.69
340.93	93.69
341.158	94.69
341.386	80.69
341.614	77.69
341.842	89.69
342.07	92.69
342.298	106.69
342.526	96.69
342.754	80.69
342.981	77.69
343.209	92.69
343.437	107.69
343.665	83.69
343.893	84.69
344.12	97.69
344.348	85.69
344.576	100.69
344.804	96.69
345.031	102.69
345.259	113.69
345.487	91.69
345.714	92.69
345.942	84.69
346.17	94.69
346.397	102.69
346.625	79.69
346.853	101.69
347.08	71.69
347.308	88.69
347.535	84.69
347.763	79.69
347.99	79.69
348.218	79.69
348.445	84.69
348.673	85.69
348.9	107.69
349.128	95.69
349.355	88.69
349.583	92.69
349.81	83.69
350.037	102.69
350.265	91.69
350.492	94.69
350.72	90.69
350.947	77.69
351.174	86.69
351.402	85.69
351.629	86.69
351.856	79.69
352.083	107.69
352.311	85.69
352.538	75.69
352.765	88.69
352.992	111.69
353.22	88.69
353.447	86.69
353.674	80.69
353.901	88.69
354.128	106.69
354.355	102.69
354.583	79.69
354.81	96.69
355.037	87.69
355.264	103.69
355.491	95.69
355.718	89.69
355.945	105.69
356.172	88.69
356.399	81.69
356.626	89.69
356.853	91.69
357.08	86.69
357.307	102.69
357.534	82.69
357.761	85.69
357.988	89.69
358.215	102.69
358.441	85.69
358.668	93.69
358.895	99.69
359.122	72.69
359.349	74.69
359.576	91.69
359.802	90.69
360.029	90.69
360.256	81.69
360.483	93.69
360.709	101.69
360.936	101.69
361.163	86.69
361.39	92.69
361.616	85.69
361.843	93.69
362.07	76.69
362.296	78.69
362.523	96.69
362.749	86.69
362.976	81.69
363.203	100.69
363.429	87.69
363.656	87.69
363.882	81.69
364.109	84.69
364.335	103.69
364.562	106.69
364.788	90.69
365.015	85.69
365.241	86.69
365.468	89.69
365.694	100.69
365.92	80.69
366.147	80.69
366.373	83.69
366.599	76.69
366.826	87.69
367.052	102.69
367.278	96.69
367.505	84.69
367.731	91.69
367.957	92.69
368.184	81.69
368.41	86.69
368.636	83.69
368.862	89.69
369.089	104.69
369.315	97.69
369.541	90.69
369.767	86.69
369.993	75.69
370.219	90.69
370.445	77.69
370.672	88.69
370.898	69.69
371.124	84.69
371.35	98.69
371.576	99.69
371.802	94.69
372.028	85.69
372.254	83.69
372.48	92.69
372.706	90.69
372.932	85.69
373.158	86.69
373.384	96.69
373.61	91.69
373.835	115.69
374.061	77.69
374.287	101.69
374.513	99.69
374.739	85.69
374.965	95.69
375.191	86.69
375.416	87.69
375.642	84.69
375.868	92.69
376.094	78.69
376.319	80.69
376.545	104.69
376.771	79.69
376.997	87.69
377.222	77.69
377.448	90.69
377.674	88.69
377.899	99.69
378.125	99.69
378.35	90.69
378.576	85.69
378.802	82.69
379.027	84.69
379.253	84.69
379.478	91.69
379.704	101.69
379.929	97.69
380.155	86.69
380.38	94.69
380.606	96.69
380.831	91.69
381.057	84.69
381.282	107.69
381.507	84.69
381.733	88.69
381.958	84.69
382.184	85.69
382.409	91.69
382.634	91.69
382.86	77.69
383.085	80.69
383.31	85.69
383.535	115.69
383.761	92.69
383.986	115.69
384.211	102.69
384.436	91.69
384.662	94.69
384.887	99.69
385.112	86.69
385.337	83.69
385.562	91.69
385.787	82.69
386.013	91.69
386.238	87.69
386.463	92.69
386.688	94.69
386.913	84.69
387.138	101.69
387.363	97.69
387.588	90.69
387.813	93.69
388.038	90.69
388.263	83.69
388.488	72.69
388.713	92.69
388.938	94.69
389.163	83.69
389.387	77.69
389.612	76.69
389.837	96.69
390.062	99.69
390.287	84.69
390.512	85.69
390.736	90.69
390.961	83.69
391.186	106.69
391.411	89.69
391.636	99.69
391.86	88.69
392.085	84.69
392.31	84.69
392.534	99.69
392.759	100.69
392.984	79.69
393.208	86.69
393.433	87.69
393.658	93.69
393.882	101.69
394.107	81.69
394.331	95.69
394.556	89.69
394.78	80.69
395.005	93.69
395.229	94.69
395.454	82.69
395.678	101.69
395.903	95.69
396.127	100.69
396.352	92.69
396.576	69.69
396.801	88.69
397.025	96.69
397.249	98.69
397.474	97.69
397.698	97.69
397.922	92.69
398.147	88.69
398.371	85.69
398.595	79.69
398.82	84.69
399.044	95.69
399.268	99.69
399.492	94.69
399.717	81.69
399.941	79.69
400.165	93.69
400.389	83.69
400.613	93.69
400.837	89.69
401.062	92.69
401.286	86.69
401.51	87.69
401.734	86.69
401.958	86.69
402.182	96.69
402.406	89.69
402.63	92.69
402.854	105.69
403.078	84.69
403.302	84.69
403.526	86.69
403.75	107.69
403.974	102.69
404.198	142.69
404.422	193.69
404.645	212.69
404.869	204.69
405.093	141.69
405.317	96.69
405.541	99.69
405.765	80.69
405.988	95.69
406.212	104.69
406.436	91.69
406.66	95.69
406.883	83.69
407.107	75.69
407.331	81.69
407.555	93.69
407.778	99.69
408.002	79.69
408.226	89.69
408.449	75.69
408.673	75.69
408.896	92.69
409.12	92.69
409.344	93.69
409.567	86.69
409.791	96.69
410.014	78.69
410.238	88.69
410.461	80.69
410.685	95.69
410.908	95.69
411.132	73.69
411.355	91.69
411.578	89.69
411.802	80.69
412.025	84.69
412.249	74.69
412.472	90.69
412.695	87.69
412.919	72.69
413.142	75.69
413.365	76.69
413.589	75.69
413.812	77.69
414.035	97.69
414.258	97.69
414.482	102.69
414.705	85.69
414.928	80.69
415.151	100.69
415.374	80.69
415.597	91.69
415.821	86.69
416.044	102.69
416.267	96.69
416.49	80.69
416.713	83.69
416.936	89.69
417.159	85.69
417.382	92.69
417.605	91.69
417.828	96.69
418.051	91.69
418.274	74.69
418.497	75.69
418.72	87.69
418.943	81.69
419.166	103.69
419.389	90.69
419.611	96.69
419.834	90.69
420.057	89.69
420.28	83.69
420.503	81.69
420.726	92.69
420.948	80.69
421.171	90.69
421.394	108.69
421.617	90.69
421.839	85.69
422.062	91.69
422.285	93.69
422.507	110.69
422.73	107.69
422.953	84.69
423.175	77.69
423.398	82.69
423.621	104.69
423.843	99.69
424.066	84.69
424.288	94.69
424.511	96.69
424.733	94.69
424.956	91.69
425.178	89.69
425.401	75.69
425.623	77.69
425.846	97.69
426.068	97.69
426.291	84.69
426.513	90.69
426.735	69.69
426.958	94.69
427.18	96.69
427.402	85.69
427.625	96.69
427.847	72.69
428.069	91.69
428.292	81.69
428.514	86.69
428.736	85.69
428.958	91.69
429.181	89.69
429.403	83.69
429.625	88.69
429.847	73.69
430.069	83.69
430.292	88.69
430.514	89.69
430.736	83.69
430.958	85.69
431.18	90.69
431.402	96.69
431.624	89.69
431.846	108.69
432.068	85.69
432.29	84.69
432.512	86.69
432.734	84.69
432.956	90.69
433.178	89.69
433.4	81.69
433.622	96.69
433.844	96.69
434.066	86.69
434.287	92.69
434.509	86.69
434.731	91.69
434.953	85.69
435.175	66.69
435.397	84.69
435.618	95.69
435.84	87.69
436.062	90.69
436.284	98.69
436.505	81.69
436.727	92.69
436.949	90.69
437.17	91.69
437.392	93.69
437.614	88.69
437.835	94.69
438.057	80.69
438.278	111.69
438.5	90.69
438.721	98.69
438.943	84.69
439.165	92.69
439.386	81.69
439.608	88.69
439.829	83.69
440.05	70.69
440.272	84.69
440.493	100.69
440.715	80.69
440.936	83.69
441.158	86.69
441.379	95.69
441.6	88.69
441.822	88.69
442.043	99.69
442.264	83.69
442.486	86.69
442.707	81.69
442.928	94.69
443.149	89.69
443.371	107.69
443.592	87.69
443.813	86.69
444.034	102.69
444.255	86.69
444.476	78.69
444.698	95.69
444.919	76.69
445.14	128.69
445.361	105.69
445.582	89.69
445.803	93.69
446.024	89.69
446.245	100.69
446.466	91.69
446.687	92.69
446.908	78.69
447.129	85.69
447.35	78.69
447.571	92.69
447.792	80.69
448.013	97.69
448.234	83.69
448.455	81.69
448.675	88.69
448.896	81.69
449.117	96.69
449.338	88.69
449.559	90.69
449.779	88.69
450	91.69
450.221	75.69
450.442	82.69
450.662	88.69
450.883	94.69
451.104	87.69
451.324	97.69
451.545	88.69
451.766	79.69
451.986	88.69
452.207	93.69
452.428	88.69
452.648	94.69
452.869	83.69
453.089	89.69
453.31	81.69
453.53	91.69
453.751	91.69
453.971	74.69
454.192	84.69
454.412	92.69
454.633	82.69
454.853	96.69
455.073	84.69
455.294	96.69
455.514	101.69
455.734	97.69
455.955	89.69
456.175	99.69
456.395	89.69
456.616	73.69
456.836	90.69
457.056	82.69
457.276	81.69
457.497	78.69
457.717	79.69
457.937	96.69
458.157	91.69
458.377	102.69
458.598	81.69
458.818	80.69
459.038	84.69
459.258	81.69
459.478	71.69
459.698	82.69
459.918	76.69
460.138	89.69
460.358	86.69
460.578	88.69
460.798	83.69
461.018	89.69
461.238	91.69
461.458	92.69
461.678	91.69
461.898	83.69
462.118	101.69
462.338	87.69
462.558	76.69
462.777	100.69
462.997	91.69
463.217	94.69
463.437	87.69
463.657	91.69
463.876	81.69
464.096	103.69
464.316	102.69
464.536	82.69
464.755	78.69
464.975	69.69
465.195	102.69
465.414	75.69
465.634	82.69
465.854	83.69
466.073	85.69
466.293	89.69
466.512	80.69
466.732	78.69
466.951	89.69
467.171	102.69
467.391	87.69
467.61	92.69
467.829	92.69
468.049	77.69
468.268	90.69
468.488	76.69
468.707	92.69
468.927	106.69
469.146	88.69
469.365	100.69
469.585	86.69
469.804	89.69
470.023	86.69
470.243	81.69
470.462	92.69
470.681	100.69
470.901	87.69
471.12	93.69
471.339	96.69
471.558	81.69
471.777	77.69
471.997	81.69
472.216	97.69
472.435	89.69
472.654	78.69
472.873	92.69
473.092	89.69
473.311	85.69
473.53	94.69
473.749	87.69
473.968	104.69
474.187	86.69
474.406	80.69
474.625	95.69
474.844	91.69
475.063	81.69
475.282	93.69
475.501	92.69
475.72	105.69
475.939	90.69
476.158	83.69
476.377	96.69
476.596	84.69
476.814	71.69
477.033	71.69
477.252	89.69
477.471	94.69
477.69	94.69
477.908	92.69
478.127	89.69
478.346	97.69
478.564	86.69
478.783	83.69
479.002	92.69
479.22	84.69
479.439	102.69
479.658	97.69
479.876	100.69
480.095	87.69
480.313	97.69
480.532	91.69
480.751	94.69
480.969	78.69
481.188	91.69
481.406	78.69
481.624	94.69
481.843	80.69
482.061	105.69
482.28	109.69
482.498	81.69
482.717	96.69
482.935	100.69
483.153	94.69
483.372	104.69
483.59	98.69
483.808	87.69
484.027	84.69
484.245	91.69
484.463	80.69
484.681	92.69
484.9	95.69
485.118	85.69
485.336	84.69
485.554	95.69
485.772	97.69
485.99	80.69
486.209	95.69
486.427	78.69
486.645	92.69
486.863	96.69
487.081	100.69
487.299	85.69
487.517	95.69
487.735	102.69
487.953	92.69
488.171	105.69
488.389	101.69
488.607	81.69
488.825	95.69
489.043	83.69
489.261	91.69
489.479	81.69
489.696	104.69
489.914	101.69
490.132	90.69
490.35	99.69
490.568	82.69
490.786	92.69
491.003	89.69
491.221	92.69
491.439	83.69
491.657	95.69
491.874	94.69
492.092	101.69
492.31	109.69
492.527	97.69
492.745	100.69
492.963	105.69
493.18	99.69
493.398	91.69
493.615	103.69
493.833	79.69
494.05	91.69
494.268	93.69
494.485	109.69
494.703	108.69
494.92	105.69
495.138	97.69
495.355	109.69
495.573	101.69
495.79	88.69
496.008	105.69
496.225	94.69
496.442	89.69
496.66	103.69
496.877	83.69
497.094	97.69
497.312	103.69
497.529	93.69
497.746	84.69
497.963	94.69
498.181	88.69
498.398	92.69
498.615	75.69
498.832	96.69
499.049	93.69
499.267	93.69
499.484	88.69
499.701	93.69
499.918	90.69
500.135	102.69
500.352	76.69
500.569	91.69
500.786	103.69
501.003	105.69
501.22	97.69
501.437	91.69
501.654	93.69
501.871	99.69
502.088	101.69
502.305	91.69
502.522	93.69
502.739	88.69
502.956	95.69
503.172	89.69
503.389	90.69
503.606	103.69
503.823	97.69
504.04	84.69
504.256	92.69
504.473	96.69
504.69	105.69
504.907	86.69
505.123	86.69
505.34	85.69
505.557	94.69
505.773	98.69
505.99	97.69
506.207	90.69
506.423	94.69
506.64	91.69
506.856	89.69
507.073	97.69
507.289	101.69
507.506	96.69
507.722	105.69
507.939	103.69
508.155	88.69
508.372	101.69
508.588	97.69
508.805	100.69
509.021	104.69
509.238	90.69
509.454	83.69
509.67	88.69
509.887	90.69
510.103	87.69
510.319	90.69
510.536	100.69
510.752	101.69
510.968	87.69
511.184	105.69
511.401	99.69
511.617	93.69
511.833	92.69
512.049	88.69
512.265	92.69
512.481	86.69
512.698	85.69
512.914	93.69
513.13	88.69
513.346	90.69
513.562	101.69
513.778	102.69
513.994	92.69
514.21	88.69
514.426	94.69
514.642	97.69
514.858	103.69
515.074	90.69
515.29	111.69
515.506	84.69
515.721	85.69
515.937	88.69
516.153	87.69
516.369	106.69
516.585	101.69
516.801	104.69
517.016	86.69
517.232	95.69
517.448	86.69
517.664	83.69
517.879	77.69
518.095	77.69
518.311	92.69
