Data from KBrHeat2_HRD10591_00017.txt Node
Date: Fri Dec 27 14:54:57 EST 2024
User: Yrep
Spectrometer: HR+D1059
Trigger mode: 1
Integration Time (sec): 1.000000E-1
Scans to average: 1
Electric dark correction enabled: true
Nonlinearity correction enabled: false
Boxcar width: 0
XAxis mode: Wavelengths
Number of Pixels in Spectrum: 2048
>>>>>Begin Spectral Data<<<<<
223.165	-17.06
223.4	-17.06
223.635	-17.06
223.869	-18.06
224.104	-16.06
224.338	-8.06
224.573	-7.06
224.808	-13.06
225.042	-7.06
225.277	-9.06
225.511	-2.06
225.746	9.94
225.98	4.94
226.215	14.94
226.449	12.94
226.683	24.94
226.918	14.94
227.152	14.94
227.387	23.94
227.621	24.94
227.856	41.94
228.09	49.94
228.324	53.94
228.559	53.94
228.793	47.94
229.027	56.94
229.262	73.94
229.496	68.94
229.73	62.94
229.964	77.94
230.199	67.94
230.433	68.94
230.667	71.94
230.901	70.94
231.136	73.94
231.37	78.94
231.604	75.94
231.838	78.94
232.072	58.94
232.306	80.94
232.541	85.94
232.775	78.94
233.009	78.94
233.243	70.94
233.477	85.94
233.711	70.94
233.945	64.94
234.179	75.94
234.413	67.94
234.647	84.94
234.881	73.94
235.115	69.94
235.349	88.94
235.583	79.94
235.817	81.94
236.051	75.94
236.285	68.94
236.519	75.94
236.753	72.94
236.987	74.94
237.221	72.94
237.455	79.94
237.689	88.94
237.922	65.94
238.156	71.94
238.39	73.94
238.624	65.94
238.858	69.94
239.091	71.94
239.325	75.94
239.559	80.94
239.793	68.94
240.027	75.94
240.26	75.94
240.494	68.94
240.728	65.94
240.961	64.94
241.195	78.94
241.429	81.94
241.662	79.94
241.896	57.94
242.13	73.94
242.363	72.94
242.597	67.94
242.83	68.94
243.064	75.94
243.298	75.94
243.531	72.94
243.765	64.94
243.998	83.94
244.232	62.94
244.465	79.94
244.699	76.94
244.932	75.94
245.166	64.94
245.399	71.94
245.633	77.94
245.866	86.94
246.099	79.94
246.333	83.94
246.566	56.94
246.8	62.94
247.033	72.94
247.266	74.94
247.5	64.94
247.733	78.94
247.966	68.94
248.2	74.94
248.433	82.94
248.666	66.94
248.899	65.94
249.133	83.94
249.366	72.94
249.599	79.94
249.832	65.94
250.066	85.94
250.299	66.94
250.532	79.94
250.765	77.94
250.998	61.94
251.231	85.94
251.465	75.94
251.698	75.94
251.931	56.94
252.164	72.94
252.397	66.94
252.63	83.94
252.863	78.94
253.096	81.94
253.329	84.94
253.562	75.94
253.795	71.94
254.028	79.94
254.261	70.94
254.494	69.94
254.727	75.94
254.96	82.94
255.193	83.94
255.426	72.94
255.659	88.94
255.892	81.94
256.124	81.94
256.357	77.94
256.59	79.94
256.823	73.94
257.056	67.94
257.289	69.94
257.521	71.94
257.754	86.94
257.987	92.94
258.22	77.94
258.452	65.94
258.685	65.94
258.918	66.94
259.151	83.94
259.383	77.94
259.616	70.94
259.849	66.94
260.081	72.94
260.314	79.94
260.547	60.94
260.779	78.94
261.012	64.94
261.244	82.94
261.477	89.94
261.71	87.94
261.942	73.94
262.175	70.94
262.407	78.94
262.64	85.94
262.872	63.94
263.105	75.94
263.337	76.94
263.57	84.94
263.802	81.94
264.035	75.94
264.267	86.94
264.499	78.94
264.732	70.94
264.964	63.94
265.197	69.94
265.429	69.94
265.661	80.94
265.894	61.94
266.126	79.94
266.358	80.94
266.591	71.94
266.823	73.94
267.055	75.94
267.287	76.94
267.52	75.94
267.752	77.94
267.984	91.94
268.216	78.94
268.448	77.94
268.681	85.94
268.913	80.94
269.145	84.94
269.377	85.94
269.609	56.94
269.841	73.94
270.073	65.94
270.306	76.94
270.538	74.94
270.77	81.94
271.002	87.94
271.234	73.94
271.466	76.94
271.698	81.94
271.93	91.94
272.162	71.94
272.394	77.94
272.626	69.94
272.858	81.94
273.09	83.94
273.322	80.94
273.553	86.94
273.785	83.94
274.017	67.94
274.249	75.94
274.481	78.94
274.713	72.94
274.945	95.94
275.176	72.94
275.408	84.94
275.64	84.94
275.872	88.94
276.104	66.94
276.335	68.94
276.567	73.94
276.799	82.94
277.031	69.94
277.262	78.94
277.494	94.94
277.726	78.94
277.957	75.94
278.189	71.94
278.421	76.94
278.652	71.94
278.884	67.94
279.115	66.94
279.347	77.94
279.579	77.94
279.81	77.94
280.042	80.94
280.273	78.94
280.505	72.94
280.736	80.94
280.968	77.94
281.199	68.94
281.431	79.94
281.662	62.94
281.894	83.94
282.125	82.94
282.356	76.94
282.588	80.94
282.819	81.94
283.051	84.94
283.282	74.94
283.513	86.94
283.745	82.94
283.976	85.94
284.207	70.94
284.439	80.94
284.67	87.94
284.901	73.94
285.132	66.94
285.364	78.94
285.595	68.94
285.826	76.94
286.057	82.94
286.288	83.94
286.52	79.94
286.751	87.94
286.982	89.94
287.213	76.94
287.444	94.94
287.675	69.94
287.906	76.94
288.138	80.94
288.369	72.94
288.6	72.94
288.831	70.94
289.062	97.94
289.293	78.94
289.524	83.94
289.755	77.94
289.986	79.94
290.217	67.94
290.448	81.94
290.679	86.94
290.91	94.94
291.141	70.94
291.371	85.94
291.602	86.94
291.833	87.94
292.064	93.94
292.295	65.94
292.526	69.94
292.757	85.94
292.987	83.94
293.218	92.94
293.449	88.94
293.68	79.94
293.91	61.94
294.141	71.94
294.372	78.94
294.603	85.94
294.833	87.94
295.064	67.94
295.295	77.94
295.525	75.94
295.756	88.94
295.987	99.94
296.217	79.94
296.448	72.94
296.679	77.94
296.909	76.94
297.14	79.94
297.37	80.94
297.601	87.94
297.831	75.94
298.062	79.94
298.292	77.94
298.523	83.94
298.753	76.94
298.984	70.94
299.214	80.94
299.445	84.94
299.675	90.94
299.905	91.94
300.136	67.94
300.366	86.94
300.597	81.94
300.827	83.94
301.057	79.94
301.288	83.94
301.518	95.94
301.748	70.94
301.979	93.94
302.209	82.94
302.439	69.94
302.669	76.94
302.9	93.94
303.13	77.94
303.36	97.94
303.59	86.94
303.82	101.94
304.051	93.94
304.281	73.94
304.511	95.94
304.741	75.94
304.971	83.94
305.201	72.94
305.431	85.94
305.661	74.94
305.891	88.94
306.121	101.94
306.352	73.94
306.582	83.94
306.812	79.94
307.042	84.94
307.272	71.94
307.502	86.94
307.731	76.94
307.961	82.94
308.191	79.94
308.421	81.94
308.651	78.94
308.881	89.94
309.111	61.94
309.341	74.94
309.571	76.94
309.8	61.94
310.03	80.94
310.26	91.94
310.49	69.94
310.72	84.94
310.949	76.94
311.179	77.94
311.409	82.94
311.639	77.94
311.868	83.94
312.098	67.94
312.328	67.94
312.557	97.94
312.787	85.94
313.017	88.94
313.246	76.94
313.476	84.94
313.706	82.94
313.935	73.94
314.165	74.94
314.394	86.94
314.624	78.94
314.853	80.94
315.083	79.94
315.312	75.94
315.542	83.94
315.771	79.94
316.001	83.94
316.23	96.94
316.46	91.94
316.689	79.94
316.919	93.94
317.148	72.94
317.377	90.94
317.607	81.94
317.836	83.94
318.065	74.94
318.295	73.94
318.524	77.94
318.753	88.94
318.983	73.94
319.212	84.94
319.441	88.94
319.67	70.94
319.9	69.94
320.129	86.94
320.358	88.94
320.587	76.94
320.816	73.94
321.046	77.94
321.275	80.94
321.504	96.94
321.733	79.94
321.962	83.94
322.191	84.94
322.42	82.94
322.649	81.94
322.878	103.94
323.108	93.94
323.337	93.94
323.566	96.94
323.795	85.94
324.024	73.94
324.253	81.94
324.482	75.94
324.71	82.94
324.939	81.94
325.168	68.94
325.397	89.94
325.626	81.94
325.855	76.94
326.084	80.94
326.313	83.94
326.542	89.94
326.77	75.94
326.999	84.94
327.228	85.94
327.457	73.94
327.686	77.94
327.914	78.94
328.143	88.94
328.372	80.94
328.6	78.94
328.829	60.94
329.058	82.94
329.287	87.94
329.515	66.94
329.744	87.94
329.972	81.94
330.201	87.94
330.43	83.94
330.658	83.94
330.887	95.94
331.115	88.94
331.344	67.94
331.572	79.94
331.801	79.94
332.03	86.94
332.258	85.94
332.486	73.94
332.715	81.94
332.943	78.94
333.172	97.94
333.4	67.94
333.629	82.94
333.857	89.94
334.085	85.94
334.314	80.94
334.542	77.94
334.771	82.94
334.999	79.94
335.227	71.94
335.455	72.94
335.684	86.94
335.912	97.94
336.14	93.94
336.369	74.94
336.597	68.94
336.825	94.94
337.053	82.94
337.281	97.94
337.51	74.94
337.738	87.94
337.966	74.94
338.194	74.94
338.422	86.94
338.65	101.94
338.878	87.94
339.106	79.94
339.334	89.94
339.562	87.94
339.79	89.94
340.018	80.94
340.246	82.94
340.474	77.94
340.702	82.94
340.93	55.94
341.158	82.94
341.386	79.94
341.614	89.94
341.842	79.94
342.07	86.94
342.298	81.94
342.526	81.94
342.754	84.94
342.981	88.94
343.209	72.94
343.437	96.94
343.665	66.94
343.893	77.94
344.12	67.94
344.348	93.94
344.576	86.94
344.804	91.94
345.031	87.94
345.259	83.94
345.487	73.94
345.714	84.94
345.942	87.94
346.17	66.94
346.397	72.94
346.625	78.94
346.853	78.94
347.08	77.94
347.308	89.94
347.535	86.94
347.763	90.94
347.99	95.94
348.218	64.94
348.445	83.94
348.673	77.94
348.9	74.94
349.128	75.94
349.355	73.94
349.583	88.94
349.81	89.94
350.037	71.94
350.265	70.94
350.492	71.94
350.72	60.94
350.947	77.94
351.174	77.94
351.402	75.94
351.629	84.94
351.856	83.94
352.083	90.94
352.311	85.94
352.538	81.94
352.765	53.94
352.992	76.94
353.22	89.94
353.447	72.94
353.674	88.94
353.901	84.94
354.128	71.94
354.355	81.94
354.583	75.94
354.81	75.94
355.037	78.94
355.264	71.94
355.491	71.94
355.718	68.94
355.945	76.94
356.172	88.94
356.399	99.94
356.626	71.94
356.853	78.94
357.08	77.94
357.307	70.94
357.534	70.94
357.761	88.94
357.988	85.94
358.215	70.94
358.441	84.94
358.668	78.94
358.895	69.94
359.122	83.94
359.349	83.94
359.576	82.94
359.802	85.94
360.029	82.94
360.256	85.94
360.483	80.94
360.709	88.94
360.936	88.94
361.163	94.94
361.39	87.94
361.616	82.94
361.843	82.94
362.07	85.94
362.296	84.94
362.523	76.94
362.749	89.94
362.976	92.94
363.203	90.94
363.429	71.94
363.656	78.94
363.882	79.94
364.109	83.94
364.335	94.94
364.562	81.94
364.788	73.94
365.015	80.94
365.241	91.94
365.468	82.94
365.694	88.94
365.92	81.94
366.147	87.94
366.373	75.94
366.599	77.94
366.826	79.94
367.052	71.94
367.278	87.94
367.505	75.94
367.731	104.94
367.957	79.94
368.184	84.94
368.41	91.94
368.636	89.94
368.862	84.94
369.089	73.94
369.315	84.94
369.541	83.94
369.767	83.94
369.993	73.94
370.219	80.94
370.445	75.94
370.672	69.94
370.898	82.94
371.124	75.94
371.35	69.94
371.576	71.94
371.802	71.94
372.028	95.94
372.254	88.94
372.48	83.94
372.706	86.94
372.932	87.94
373.158	89.94
373.384	76.94
373.61	94.94
373.835	84.94
374.061	77.94
374.287	82.94
374.513	77.94
374.739	81.94
374.965	81.94
375.191	79.94
375.416	74.94
375.642	98.94
375.868	84.94
376.094	89.94
376.319	83.94
376.545	74.94
376.771	97.94
376.997	84.94
377.222	89.94
377.448	85.94
377.674	70.94
377.899	87.94
378.125	72.94
378.35	91.94
378.576	79.94
378.802	75.94
379.027	98.94
379.253	83.94
379.478	85.94
379.704	71.94
379.929	80.94
380.155	83.94
380.38	78.94
380.606	78.94
380.831	82.94
381.057	80.94
381.282	80.94
381.507	94.94
381.733	91.94
381.958	70.94
382.184	84.94
382.409	93.94
382.634	81.94
382.86	88.94
383.085	78.94
383.31	79.94
383.535	70.94
383.761	86.94
383.986	87.94
384.211	81.94
384.436	74.94
384.662	72.94
384.887	75.94
385.112	75.94
385.337	80.94
385.562	92.94
385.787	79.94
386.013	83.94
386.238	88.94
386.463	80.94
386.688	95.94
386.913	87.94
387.138	67.94
387.363	91.94
387.588	94.94
387.813	87.94
388.038	95.94
388.263	91.94
388.488	85.94
388.713	73.94
388.938	86.94
389.163	89.94
389.387	71.94
389.612	87.94
389.837	73.94
390.062	82.94
390.287	94.94
390.512	88.94
390.736	87.94
390.961	77.94
391.186	91.94
391.411	81.94
391.636	86.94
391.86	77.94
392.085	95.94
392.31	82.94
392.534	82.94
392.759	99.94
392.984	84.94
393.208	72.94
393.433	83.94
393.658	62.94
393.882	91.94
394.107	83.94
394.331	86.94
394.556	91.94
394.78	76.94
395.005	87.94
395.229	75.94
395.454	85.94
395.678	81.94
395.903	88.94
396.127	87.94
396.352	79.94
396.576	86.94
396.801	93.94
397.025	91.94
397.249	87.94
397.474	78.94
397.698	88.94
397.922	80.94
398.147	100.94
398.371	64.94
398.595	89.94
398.82	78.94
399.044	78.94
399.268	86.94
399.492	86.94
399.717	76.94
399.941	88.94
400.165	79.94
400.389	85.94
400.613	89.94
400.837	78.94
401.062	86.94
401.286	75.94
401.51	89.94
401.734	75.94
401.958	78.94
402.182	75.94
402.406	78.94
402.63	93.94
402.854	99.94
403.078	77.94
403.302	85.94
403.526	88.94
403.75	108.94
403.974	93.94
404.198	123.94
404.422	177.94
404.645	192.94
404.869	165.94
405.093	114.94
405.317	103.94
405.541	105.94
405.765	85.94
405.988	93.94
406.212	91.94
406.436	67.94
406.66	80.94
406.883	81.94
407.107	88.94
407.331	78.94
407.555	83.94
407.778	77.94
408.002	99.94
408.226	91.94
408.449	70.94
408.673	84.94
408.896	84.94
409.12	97.94
409.344	78.94
409.567	79.94
409.791	85.94
410.014	80.94
410.238	92.94
410.461	78.94
410.685	68.94
410.908	89.94
411.132	80.94
411.355	81.94
411.578	80.94
411.802	73.94
412.025	74.94
412.249	79.94
412.472	85.94
412.695	72.94
412.919	84.94
413.142	87.94
413.365	71.94
413.589	86.94
413.812	87.94
414.035	95.94
414.258	84.94
414.482	63.94
414.705	76.94
414.928	97.94
415.151	83.94
415.374	76.94
415.597	71.94
415.821	80.94
416.044	84.94
416.267	80.94
416.49	78.94
416.713	87.94
416.936	90.94
417.159	82.94
417.382	94.94
417.605	81.94
417.828	91.94
418.051	88.94
418.274	78.94
418.497	79.94
418.72	86.94
418.943	78.94
419.166	75.94
419.389	79.94
419.611	88.94
419.834	79.94
420.057	96.94
420.28	89.94
420.503	86.94
420.726	95.94
420.948	91.94
421.171	87.94
421.394	85.94
421.617	82.94
421.839	77.94
422.062	81.94
422.285	77.94
422.507	102.94
422.73	95.94
422.953	88.94
423.175	87.94
423.398	76.94
423.621	94.94
423.843	83.94
424.066	81.94
424.288	88.94
424.511	83.94
424.733	83.94
424.956	83.94
425.178	101.94
425.401	92.94
425.623	86.94
425.846	73.94
426.068	89.94
426.291	86.94
426.513	84.94
426.735	97.94
426.958	102.94
427.18	83.94
427.402	86.94
427.625	76.94
427.847	71.94
428.069	77.94
428.292	72.94
428.514	79.94
428.736	72.94
428.958	91.94
429.181	85.94
429.403	69.94
429.625	76.94
429.847	73.94
430.069	91.94
430.292	86.94
430.514	77.94
430.736	87.94
430.958	82.94
431.18	74.94
431.402	75.94
431.624	81.94
431.846	85.94
432.068	94.94
432.29	79.94
432.512	88.94
432.734	76.94
432.956	74.94
433.178	100.94
433.4	78.94
433.622	71.94
433.844	85.94
434.066	73.94
434.287	88.94
434.509	81.94
434.731	69.94
434.953	84.94
435.175	94.94
435.397	81.94
435.618	87.94
435.84	92.94
436.062	80.94
436.284	76.94
436.505	87.94
436.727	89.94
436.949	80.94
437.17	95.94
437.392	93.94
437.614	75.94
437.835	86.94
438.057	76.94
438.278	80.94
438.5	78.94
438.721	107.94
438.943	84.94
439.165	85.94
439.386	89.94
439.608	83.94
439.829	81.94
440.05	88.94
440.272	71.94
440.493	86.94
440.715	91.94
440.936	85.94
441.158	88.94
441.379	76.94
441.6	77.94
441.822	85.94
442.043	85.94
442.264	91.94
442.486	69.94
442.707	96.94
442.928	99.94
443.149	98.94
443.371	92.94
443.592	77.94
443.813	71.94
444.034	100.94
444.255	95.94
444.476	67.94
444.698	83.94
444.919	83.94
445.14	137.94
445.361	119.94
445.582	89.94
445.803	93.94
446.024	81.94
446.245	82.94
446.466	71.94
446.687	87.94
446.908	85.94
447.129	95.94
447.35	89.94
447.571	84.94
447.792	72.94
448.013	81.94
448.234	83.94
448.455	83.94
448.675	87.94
448.896	82.94
449.117	103.94
449.338	79.94
449.559	88.94
449.779	76.94
450	87.94
450.221	69.94
450.442	78.94
450.662	77.94
450.883	70.94
451.104	91.94
451.324	82.94
451.545	90.94
451.766	79.94
451.986	86.94
452.207	87.94
452.428	89.94
452.648	82.94
452.869	82.94
453.089	85.94
453.31	76.94
453.53	91.94
453.751	99.94
453.971	79.94
454.192	91.94
454.412	87.94
454.633	88.94
454.853	90.94
455.073	95.94
455.294	85.94
455.514	91.94
455.734	67.94
455.955	82.94
456.175	78.94
456.395	84.94
456.616	86.94
456.836	88.94
457.056	78.94
457.276	86.94
457.497	85.94
457.717	79.94
457.937	75.94
458.157	89.94
458.377	65.94
458.598	73.94
458.818	70.94
459.038	68.94
459.258	72.94
459.478	80.94
459.698	94.94
459.918	71.94
460.138	80.94
460.358	92.94
460.578	79.94
460.798	87.94
461.018	81.94
461.238	93.94
461.458	82.94
461.678	79.94
461.898	84.94
462.118	91.94
462.338	102.94
462.558	75.94
462.777	88.94
462.997	77.94
463.217	80.94
463.437	81.94
463.657	84.94
463.876	71.94
464.096	93.94
464.316	75.94
464.536	80.94
464.755	87.94
464.975	83.94
465.195	84.94
465.414	72.94
465.634	73.94
465.854	71.94
466.073	79.94
466.293	81.94
466.512	84.94
466.732	75.94
466.951	75.94
467.171	85.94
467.391	95.94
467.61	74.94
467.829	83.94
468.049	88.94
468.268	95.94
468.488	82.94
468.707	86.94
468.927	75.94
469.146	86.94
469.365	85.94
469.585	81.94
469.804	88.94
470.023	97.94
470.243	86.94
470.462	98.94
470.681	78.94
470.901	75.94
471.12	84.94
471.339	85.94
471.558	72.94
471.777	84.94
471.997	70.94
472.216	79.94
472.435	93.94
472.654	76.94
472.873	67.94
473.092	81.94
473.311	87.94
473.53	81.94
473.749	80.94
473.968	79.94
474.187	80.94
474.406	72.94
474.625	79.94
474.844	96.94
475.063	80.94
475.282	76.94
475.501	73.94
475.72	87.94
475.939	77.94
476.158	75.94
476.377	72.94
476.596	85.94
476.814	105.94
477.033	93.94
477.252	92.94
477.471	83.94
477.69	84.94
477.908	92.94
478.127	85.94
478.346	81.94
478.564	99.94
478.783	81.94
479.002	71.94
479.22	82.94
479.439	102.94
479.658	76.94
479.876	93.94
480.095	88.94
480.313	71.94
480.532	86.94
480.751	88.94
480.969	89.94
481.188	88.94
481.406	91.94
481.624	66.94
481.843	82.94
482.061	91.94
482.28	83.94
482.498	68.94
482.717	105.94
482.935	83.94
483.153	97.94
483.372	83.94
483.59	93.94
483.808	91.94
484.027	74.94
484.245	71.94
484.463	82.94
484.681	86.94
484.9	91.94
485.118	84.94
485.336	93.94
485.554	84.94
485.772	88.94
485.99	80.94
486.209	81.94
486.427	71.94
486.645	85.94
486.863	86.94
487.081	91.94
487.299	103.94
487.517	88.94
487.735	81.94
487.953	92.94
488.171	80.94
488.389	87.94
488.607	84.94
488.825	85.94
489.043	86.94
489.261	101.94
489.479	95.94
489.696	80.94
489.914	95.94
490.132	88.94
490.35	91.94
490.568	95.94
490.786	100.94
491.003	84.94
491.221	82.94
491.439	97.94
491.657	91.94
491.874	91.94
492.092	83.94
492.31	91.94
492.527	98.94
492.745	99.94
492.963	93.94
493.18	83.94
493.398	110.94
493.615	76.94
493.833	83.94
494.05	86.94
494.268	93.94
494.485	94.94
494.703	95.94
494.92	78.94
495.138	85.94
495.355	87.94
495.573	88.94
495.79	91.94
496.008	95.94
496.225	94.94
496.442	103.94
496.66	96.94
496.877	88.94
497.094	87.94
497.312	79.94
497.529	87.94
497.746	94.94
497.963	86.94
498.181	85.94
498.398	80.94
498.615	93.94
498.832	91.94
499.049	78.94
499.267	93.94
499.484	80.94
499.701	95.94
499.918	98.94
500.135	77.94
500.352	103.94
500.569	103.94
500.786	87.94
501.003	77.94
501.22	85.94
501.437	81.94
501.654	85.94
501.871	91.94
502.088	77.94
502.305	70.94
502.522	75.94
502.739	94.94
502.956	100.94
503.172	94.94
503.389	87.94
503.606	84.94
503.823	76.94
504.04	99.94
504.256	103.94
504.473	71.94
504.69	85.94
504.907	86.94
505.123	94.94
505.34	95.94
505.557	97.94
505.773	84.94
505.99	80.94
506.207	83.94
506.423	103.94
506.64	86.94
506.856	98.94
507.073	90.94
507.289	93.94
507.506	100.94
507.722	77.94
507.939	82.94
508.155	82.94
508.372	87.94
508.588	84.94
508.805	99.94
509.021	98.94
509.238	109.94
509.454	91.94
509.67	79.94
509.887	92.94
510.103	85.94
510.319	82.94
510.536	92.94
510.752	81.94
510.968	94.94
511.184	91.94
511.401	80.94
511.617	75.94
511.833	83.94
512.049	79.94
512.265	76.94
512.481	102.94
512.698	88.94
512.914	87.94
513.13	99.94
513.346	87.94
513.562	89.94
513.778	87.94
513.994	82.94
514.21	82.94
514.426	95.94
514.642	78.94
514.858	95.94
515.074	93.94
515.29	85.94
515.506	88.94
515.721	87.94
515.937	78.94
516.153	78.94
516.369	87.94
516.585	75.94
516.801	91.94
517.016	79.94
517.232	70.94
517.448	77.94
517.664	84.94
517.879	77.94
518.095	93.94
518.311	81.94
518.527	87.94
518.742	82.94
518.958	87.94
519.173	81.94
519.389	77.94
519.605	73.94
519.82	95.94
