Data from KBrHeat2_HRD10591_00006.txt Node
Date: Fri Dec 27 14:54:46 EST 2024
User: Yrep
Spectrometer: HR+D1059
Trigger mode: 1
Integration Time (sec): 1.000000E-1
Scans to average: 1
Electric dark correction enabled: true
Nonlinearity correction enabled: false
Boxcar width: 0
XAxis mode: Wavelengths
Number of Pixels in Spectrum: 2048
>>>>>Begin Spectral Data<<<<<
223.165	-39.56
223.4	-39.56
223.635	-39.56
223.869	-22.56
224.104	-20.56
224.338	-20.56
224.573	-7.56
224.808	-20.56
225.042	1.44
225.277	-5.56
225.511	3.44
225.746	6.44
225.98	13.44
226.215	7.44
226.449	5.44
226.683	24.44
226.918	43.44
227.152	31.44
227.387	43.44
227.621	29.44
227.856	46.44
228.09	43.44
228.324	51.44
228.559	66.44
228.793	62.44
229.027	53.44
229.262	69.44
229.496	72.44
229.73	70.44
229.964	72.44
230.199	68.44
230.433	69.44
230.667	86.44
230.901	82.44
231.136	80.44
231.37	65.44
231.604	72.44
231.838	54.44
232.072	71.44
232.306	67.44
232.541	87.44
232.775	86.44
233.009	83.44
233.243	69.44
233.477	68.44
233.711	70.44
233.945	85.44
234.179	88.44
234.413	65.44
234.647	70.44
234.881	81.44
235.115	72.44
235.349	67.44
235.583	86.44
235.817	64.44
236.051	90.44
236.285	82.44
236.519	71.44
236.753	73.44
236.987	66.44
237.221	76.44
237.455	77.44
237.689	72.44
237.922	71.44
238.156	51.44
238.39	69.44
238.624	69.44
238.858	72.44
239.091	63.44
239.325	77.44
239.559	77.44
239.793	80.44
240.027	83.44
240.26	92.44
240.494	68.44
240.728	64.44
240.961	73.44
241.195	63.44
241.429	65.44
241.662	64.44
241.896	70.44
242.13	69.44
242.363	77.44
242.597	75.44
242.83	57.44
243.064	62.44
243.298	63.44
243.531	69.44
243.765	59.44
243.998	71.44
244.232	71.44
244.465	83.44
244.699	69.44
244.932	77.44
245.166	77.44
245.399	75.44
245.633	68.44
245.866	63.44
246.099	74.44
246.333	68.44
246.566	63.44
246.8	71.44
247.033	70.44
247.266	65.44
247.5	79.44
247.733	73.44
247.966	83.44
248.2	82.44
248.433	73.44
248.666	82.44
248.899	77.44
249.133	78.44
249.366	73.44
249.599	66.44
249.832	75.44
250.066	85.44
250.299	65.44
250.532	75.44
250.765	82.44
250.998	77.44
251.231	74.44
251.465	65.44
251.698	69.44
251.931	66.44
252.164	73.44
252.397	70.44
252.63	72.44
252.863	83.44
253.096	79.44
253.329	75.44
253.562	80.44
253.795	80.44
254.028	81.44
254.261	72.44
254.494	71.44
254.727	80.44
254.96	73.44
255.193	77.44
255.426	64.44
255.659	83.44
255.892	79.44
256.124	80.44
256.357	61.44
256.59	75.44
256.823	73.44
257.056	79.44
257.289	73.44
257.521	87.44
257.754	69.44
257.987	85.44
258.22	67.44
258.452	84.44
258.685	101.44
258.918	78.44
259.151	79.44
259.383	79.44
259.616	76.44
259.849	99.44
260.081	79.44
260.314	64.44
260.547	82.44
260.779	77.44
261.012	86.44
261.244	76.44
261.477	89.44
261.71	83.44
261.942	70.44
262.175	78.44
262.407	64.44
262.64	65.44
262.872	70.44
263.105	59.44
263.337	84.44
263.57	63.44
263.802	72.44
264.035	59.44
264.267	61.44
264.499	78.44
264.732	80.44
264.964	87.44
265.197	83.44
265.429	79.44
265.661	79.44
265.894	70.44
266.126	77.44
266.358	67.44
266.591	84.44
266.823	80.44
267.055	81.44
267.287	75.44
267.52	57.44
267.752	75.44
267.984	84.44
268.216	70.44
268.448	76.44
268.681	72.44
268.913	86.44
269.145	88.44
269.377	86.44
269.609	56.44
269.841	94.44
270.073	80.44
270.306	76.44
270.538	74.44
270.77	83.44
271.002	89.44
271.234	85.44
271.466	74.44
271.698	81.44
271.93	88.44
272.162	77.44
272.394	86.44
272.626	71.44
272.858	67.44
273.09	93.44
273.322	101.44
273.553	80.44
273.785	89.44
274.017	85.44
274.249	79.44
274.481	69.44
274.713	76.44
274.945	72.44
275.176	79.44
275.408	77.44
275.64	81.44
275.872	82.44
276.104	86.44
276.335	90.44
276.567	73.44
276.799	63.44
277.031	91.44
277.262	69.44
277.494	84.44
277.726	78.44
277.957	79.44
278.189	76.44
278.421	80.44
278.652	90.44
278.884	84.44
279.115	75.44
279.347	83.44
279.579	83.44
279.81	75.44
280.042	72.44
280.273	71.44
280.505	75.44
280.736	79.44
280.968	76.44
281.199	86.44
281.431	68.44
281.662	76.44
281.894	80.44
282.125	75.44
282.356	75.44
282.588	93.44
282.819	86.44
283.051	77.44
283.282	71.44
283.513	89.44
283.745	85.44
283.976	70.44
284.207	76.44
284.439	93.44
284.67	82.44
284.901	85.44
285.132	84.44
285.364	67.44
285.595	73.44
285.826	77.44
286.057	79.44
286.288	79.44
286.52	88.44
286.751	84.44
286.982	87.44
287.213	79.44
287.444	73.44
287.675	78.44
287.906	79.44
288.138	77.44
288.369	76.44
288.6	83.44
288.831	75.44
289.062	92.44
289.293	88.44
289.524	76.44
289.755	69.44
289.986	76.44
290.217	67.44
290.448	77.44
290.679	92.44
290.91	81.44
291.141	84.44
291.371	88.44
291.602	67.44
291.833	84.44
292.064	81.44
292.295	78.44
292.526	69.44
292.757	82.44
292.987	82.44
293.218	80.44
293.449	81.44
293.68	85.44
293.91	86.44
294.141	91.44
294.372	77.44
294.603	73.44
294.833	76.44
295.064	83.44
295.295	85.44
295.525	83.44
295.756	80.44
295.987	69.44
296.217	71.44
296.448	75.44
296.679	87.44
296.909	78.44
297.14	87.44
297.37	98.44
297.601	81.44
297.831	80.44
298.062	88.44
298.292	99.44
298.523	79.44
298.753	79.44
298.984	72.44
299.214	81.44
299.445	72.44
299.675	87.44
299.905	91.44
300.136	75.44
300.366	68.44
300.597	75.44
300.827	85.44
301.057	69.44
301.288	66.44
301.518	76.44
301.748	72.44
301.979	81.44
302.209	93.44
302.439	85.44
302.669	86.44
302.9	87.44
303.13	75.44
303.36	89.44
303.59	84.44
303.82	79.44
304.051	82.44
304.281	84.44
304.511	99.44
304.741	74.44
304.971	71.44
305.201	83.44
305.431	83.44
305.661	90.44
305.891	93.44
306.121	87.44
306.352	87.44
306.582	92.44
306.812	82.44
307.042	86.44
307.272	96.44
307.502	76.44
307.731	79.44
307.961	90.44
308.191	71.44
308.421	68.44
308.651	83.44
308.881	68.44
309.111	65.44
309.341	87.44
309.571	92.44
309.8	93.44
310.03	84.44
310.26	76.44
310.49	80.44
310.72	84.44
310.949	85.44
311.179	105.44
311.409	75.44
311.639	88.44
311.868	93.44
312.098	71.44
312.328	81.44
312.557	100.44
312.787	84.44
313.017	63.44
313.246	73.44
313.476	78.44
313.706	69.44
313.935	87.44
314.165	76.44
314.394	72.44
314.624	82.44
314.853	96.44
315.083	88.44
315.312	85.44
315.542	86.44
315.771	78.44
316.001	80.44
316.23	82.44
316.46	99.44
316.689	79.44
316.919	82.44
317.148	76.44
317.377	89.44
317.607	97.44
317.836	87.44
318.065	84.44
318.295	78.44
318.524	71.44
318.753	88.44
318.983	91.44
319.212	103.44
319.441	92.44
319.67	104.44
319.9	97.44
320.129	88.44
320.358	97.44
320.587	65.44
320.816	75.44
321.046	70.44
321.275	86.44
321.504	87.44
321.733	94.44
321.962	97.44
322.191	91.44
322.42	81.44
322.649	74.44
322.878	92.44
323.108	83.44
323.337	77.44
323.566	68.44
323.795	92.44
324.024	81.44
324.253	92.44
324.482	91.44
324.71	86.44
324.939	91.44
325.168	73.44
325.397	86.44
325.626	76.44
325.855	80.44
326.084	93.44
326.313	97.44
326.542	76.44
326.77	76.44
326.999	72.44
327.228	87.44
327.457	84.44
327.686	87.44
327.914	73.44
328.143	91.44
328.372	82.44
328.6	78.44
328.829	95.44
329.058	81.44
329.287	85.44
329.515	87.44
329.744	103.44
329.972	81.44
330.201	97.44
330.43	77.44
330.658	85.44
330.887	78.44
331.115	79.44
331.344	84.44
331.572	104.44
331.801	93.44
332.03	81.44
332.258	93.44
332.486	78.44
332.715	96.44
332.943	78.44
333.172	83.44
333.4	85.44
333.629	73.44
333.857	76.44
334.085	91.44
334.314	73.44
334.542	101.44
334.771	80.44
334.999	85.44
335.227	87.44
335.455	87.44
335.684	68.44
335.912	75.44
336.14	74.44
336.369	80.44
336.597	88.44
336.825	88.44
337.053	85.44
337.281	73.44
337.51	78.44
337.738	91.44
337.966	100.44
338.194	82.44
338.422	87.44
338.65	87.44
338.878	99.44
339.106	79.44
339.334	94.44
339.562	93.44
339.79	75.44
340.018	86.44
340.246	64.44
340.474	83.44
340.702	64.44
340.93	75.44
341.158	82.44
341.386	85.44
341.614	80.44
341.842	82.44
342.07	95.44
342.298	87.44
342.526	75.44
342.754	83.44
342.981	75.44
343.209	105.44
343.437	109.44
343.665	79.44
343.893	64.44
344.12	84.44
344.348	73.44
344.576	80.44
344.804	97.44
345.031	95.44
345.259	84.44
345.487	95.44
345.714	69.44
345.942	76.44
346.17	79.44
346.397	97.44
346.625	75.44
346.853	72.44
347.08	87.44
347.308	87.44
347.535	94.44
347.763	82.44
347.99	78.44
348.218	83.44
348.445	83.44
348.673	79.44
348.9	74.44
349.128	71.44
349.355	73.44
349.583	80.44
349.81	69.44
350.037	76.44
350.265	80.44
350.492	82.44
350.72	86.44
350.947	71.44
351.174	85.44
351.402	76.44
351.629	82.44
351.856	76.44
352.083	80.44
352.311	95.44
352.538	75.44
352.765	77.44
352.992	97.44
353.22	75.44
353.447	73.44
353.674	86.44
353.901	68.44
354.128	82.44
354.355	82.44
354.583	63.44
354.81	97.44
355.037	71.44
355.264	85.44
355.491	81.44
355.718	93.44
355.945	85.44
356.172	92.44
356.399	82.44
356.626	74.44
356.853	77.44
357.08	79.44
357.307	72.44
357.534	70.44
357.761	68.44
357.988	85.44
358.215	103.44
358.441	73.44
358.668	84.44
358.895	80.44
359.122	77.44
359.349	71.44
359.576	68.44
359.802	75.44
360.029	85.44
360.256	78.44
360.483	82.44
360.709	74.44
360.936	86.44
361.163	84.44
361.39	83.44
361.616	88.44
361.843	78.44
362.07	83.44
362.296	79.44
362.523	84.44
362.749	79.44
362.976	86.44
363.203	93.44
363.429	75.44
363.656	91.44
363.882	79.44
364.109	84.44
364.335	76.44
364.562	102.44
364.788	91.44
365.015	91.44
365.241	99.44
365.468	85.44
365.694	83.44
365.92	78.44
366.147	86.44
366.373	91.44
366.599	78.44
366.826	84.44
367.052	86.44
367.278	87.44
367.505	80.44
367.731	65.44
367.957	81.44
368.184	70.44
368.41	78.44
368.636	83.44
368.862	92.44
369.089	83.44
369.315	70.44
369.541	95.44
369.767	81.44
369.993	82.44
370.219	73.44
370.445	74.44
370.672	75.44
370.898	75.44
371.124	77.44
371.35	81.44
371.576	74.44
371.802	81.44
372.028	91.44
372.254	76.44
372.48	107.44
372.706	86.44
372.932	95.44
373.158	73.44
373.384	74.44
373.61	88.44
373.835	87.44
374.061	89.44
374.287	80.44
374.513	92.44
374.739	91.44
374.965	89.44
375.191	86.44
375.416	85.44
375.642	104.44
375.868	81.44
376.094	73.44
376.319	71.44
376.545	73.44
376.771	79.44
376.997	79.44
377.222	83.44
377.448	95.44
377.674	79.44
377.899	87.44
378.125	69.44
378.35	83.44
378.576	95.44
378.802	86.44
379.027	89.44
379.253	77.44
379.478	67.44
379.704	82.44
379.929	85.44
380.155	95.44
380.38	77.44
380.606	86.44
380.831	74.44
381.057	76.44
381.282	83.44
381.507	84.44
381.733	89.44
381.958	80.44
382.184	82.44
382.409	80.44
382.634	80.44
382.86	80.44
383.085	77.44
383.31	79.44
383.535	75.44
383.761	85.44
383.986	81.44
384.211	85.44
384.436	79.44
384.662	77.44
384.887	85.44
385.112	66.44
385.337	89.44
385.562	85.44
385.787	79.44
386.013	73.44
386.238	84.44
386.463	88.44
386.688	87.44
386.913	85.44
387.138	88.44
387.363	72.44
387.588	91.44
387.813	71.44
388.038	95.44
388.263	81.44
388.488	78.44
388.713	78.44
388.938	77.44
389.163	73.44
389.387	75.44
389.612	87.44
389.837	88.44
390.062	79.44
390.287	88.44
390.512	75.44
390.736	75.44
390.961	77.44
391.186	71.44
391.411	83.44
391.636	74.44
391.86	75.44
392.085	89.44
392.31	82.44
392.534	78.44
392.759	85.44
392.984	88.44
393.208	95.44
393.433	85.44
393.658	78.44
393.882	92.44
394.107	80.44
394.331	81.44
394.556	87.44
394.78	93.44
395.005	77.44
395.229	83.44
395.454	82.44
395.678	63.44
395.903	88.44
396.127	72.44
396.352	74.44
396.576	86.44
396.801	76.44
397.025	79.44
397.249	96.44
397.474	97.44
397.698	95.44
397.922	86.44
398.147	85.44
398.371	91.44
398.595	79.44
398.82	87.44
399.044	81.44
399.268	71.44
399.492	88.44
399.717	80.44
399.941	89.44
400.165	68.44
400.389	81.44
400.613	81.44
400.837	75.44
401.062	96.44
401.286	87.44
401.51	84.44
401.734	82.44
401.958	57.44
402.182	79.44
402.406	81.44
402.63	83.44
402.854	80.44
403.078	87.44
403.302	78.44
403.526	92.44
403.75	101.44
403.974	101.44
404.198	147.44
404.422	176.44
404.645	214.44
404.869	177.44
405.093	127.44
405.317	104.44
405.541	101.44
405.765	89.44
405.988	75.44
406.212	84.44
406.436	77.44
406.66	103.44
406.883	81.44
407.107	89.44
407.331	86.44
407.555	75.44
407.778	93.44
408.002	76.44
408.226	83.44
408.449	80.44
408.673	84.44
408.896	79.44
409.12	79.44
409.344	73.44
409.567	79.44
409.791	81.44
410.014	100.44
410.238	84.44
410.461	86.44
410.685	84.44
410.908	72.44
411.132	76.44
411.355	71.44
411.578	74.44
411.802	75.44
412.025	70.44
412.249	84.44
412.472	54.44
412.695	86.44
412.919	79.44
413.142	86.44
413.365	91.44
413.589	75.44
413.812	82.44
414.035	88.44
414.258	95.44
414.482	84.44
414.705	72.44
414.928	81.44
415.151	92.44
415.374	84.44
415.597	87.44
415.821	78.44
416.044	86.44
416.267	87.44
416.49	83.44
416.713	89.44
416.936	72.44
417.159	88.44
417.382	83.44
417.605	65.44
417.828	95.44
418.051	85.44
418.274	76.44
418.497	70.44
418.72	87.44
418.943	85.44
419.166	79.44
419.389	73.44
419.611	71.44
419.834	84.44
420.057	71.44
420.28	87.44
420.503	87.44
420.726	95.44
420.948	81.44
421.171	71.44
421.394	72.44
421.617	70.44
421.839	74.44
422.062	71.44
422.285	83.44
422.507	85.44
422.73	80.44
422.953	96.44
423.175	78.44
423.398	83.44
423.621	72.44
423.843	69.44
424.066	78.44
424.288	71.44
424.511	91.44
424.733	84.44
424.956	75.44
425.178	94.44
425.401	89.44
425.623	76.44
425.846	80.44
426.068	78.44
426.291	84.44
426.513	74.44
426.735	91.44
426.958	81.44
427.18	72.44
427.402	81.44
427.625	82.44
427.847	77.44
428.069	77.44
428.292	86.44
428.514	74.44
428.736	76.44
428.958	92.44
429.181	99.44
429.403	70.44
429.625	80.44
429.847	82.44
430.069	100.44
430.292	81.44
430.514	81.44
430.736	100.44
430.958	81.44
431.18	85.44
431.402	95.44
431.624	90.44
431.846	75.44
432.068	71.44
432.29	83.44
432.512	84.44
432.734	93.44
432.956	91.44
433.178	84.44
433.4	75.44
433.622	88.44
433.844	63.44
434.066	85.44
434.287	67.44
434.509	88.44
434.731	85.44
434.953	79.44
435.175	82.44
435.397	79.44
435.618	69.44
435.84	88.44
436.062	92.44
436.284	76.44
436.505	75.44
436.727	76.44
436.949	85.44
437.17	76.44
437.392	83.44
437.614	88.44
437.835	73.44
438.057	70.44
438.278	65.44
438.5	77.44
438.721	80.44
438.943	88.44
439.165	87.44
439.386	69.44
439.608	82.44
439.829	78.44
440.05	84.44
440.272	85.44
440.493	93.44
440.715	75.44
440.936	79.44
441.158	86.44
441.379	89.44
441.6	89.44
441.822	72.44
442.043	83.44
442.264	89.44
442.486	85.44
442.707	82.44
442.928	81.44
443.149	83.44
443.371	95.44
443.592	86.44
443.813	67.44
444.034	82.44
444.255	95.44
444.476	88.44
444.698	70.44
444.919	90.44
445.14	141.44
445.361	105.44
445.582	74.44
445.803	101.44
446.024	81.44
446.245	77.44
446.466	95.44
446.687	76.44
446.908	63.44
447.129	83.44
447.35	79.44
447.571	85.44
447.792	87.44
448.013	94.44
448.234	79.44
448.455	81.44
448.675	70.44
448.896	93.44
449.117	89.44
449.338	75.44
449.559	93.44
449.779	78.44
450	78.44
450.221	71.44
450.442	73.44
450.662	78.44
450.883	89.44
451.104	75.44
451.324	91.44
451.545	81.44
451.766	68.44
451.986	86.44
452.207	88.44
452.428	88.44
452.648	79.44
452.869	76.44
453.089	73.44
453.31	80.44
453.53	70.44
453.751	83.44
453.971	85.44
454.192	86.44
454.412	77.44
454.633	79.44
454.853	78.44
455.073	85.44
455.294	88.44
455.514	89.44
455.734	85.44
455.955	77.44
456.175	65.44
456.395	73.44
456.616	99.44
456.836	90.44
457.056	76.44
457.276	77.44
457.497	79.44
457.717	87.44
457.937	91.44
458.157	86.44
458.377	72.44
458.598	74.44
458.818	76.44
459.038	82.44
459.258	87.44
459.478	60.44
459.698	86.44
459.918	79.44
460.138	91.44
460.358	71.44
460.578	82.44
460.798	66.44
461.018	83.44
461.238	96.44
461.458	91.44
461.678	89.44
461.898	91.44
462.118	76.44
462.338	91.44
462.558	91.44
462.777	88.44
462.997	83.44
463.217	81.44
463.437	70.44
463.657	76.44
463.876	72.44
464.096	86.44
464.316	69.44
464.536	81.44
464.755	82.44
464.975	83.44
465.195	88.44
465.414	83.44
465.634	78.44
465.854	70.44
466.073	87.44
466.293	87.44
466.512	71.44
466.732	96.44
466.951	94.44
467.171	83.44
467.391	88.44
467.61	88.44
467.829	71.44
468.049	91.44
468.268	83.44
468.488	99.44
468.707	76.44
468.927	82.44
469.146	82.44
469.365	97.44
469.585	86.44
469.804	96.44
470.023	91.44
470.243	77.44
470.462	91.44
470.681	101.44
470.901	78.44
471.12	86.44
471.339	79.44
471.558	76.44
471.777	85.44
471.997	88.44
472.216	81.44
472.435	85.44
472.654	93.44
472.873	79.44
473.092	88.44
473.311	83.44
473.53	82.44
473.749	86.44
473.968	93.44
474.187	85.44
474.406	82.44
474.625	84.44
474.844	84.44
475.063	80.44
475.282	92.44
475.501	88.44
475.72	91.44
475.939	75.44
476.158	76.44
476.377	86.44
476.596	91.44
476.814	101.44
477.033	92.44
477.252	87.44
477.471	86.44
477.69	81.44
477.908	102.44
478.127	88.44
478.346	98.44
478.564	83.44
478.783	71.44
479.002	87.44
479.22	88.44
479.439	79.44
479.658	88.44
479.876	91.44
480.095	87.44
480.313	96.44
480.532	91.44
480.751	92.44
480.969	80.44
481.188	80.44
481.406	91.44
481.624	83.44
481.843	91.44
482.061	95.44
482.28	87.44
482.498	79.44
482.717	80.44
482.935	91.44
483.153	101.44
483.372	83.44
483.59	86.44
483.808	94.44
484.027	92.44
484.245	80.44
484.463	83.44
484.681	97.44
484.9	92.44
485.118	84.44
485.336	88.44
485.554	90.44
485.772	83.44
485.99	85.44
486.209	86.44
486.427	91.44
486.645	81.44
486.863	85.44
487.081	85.44
487.299	107.44
487.517	91.44
487.735	96.44
487.953	91.44
488.171	88.44
488.389	93.44
488.607	89.44
488.825	86.44
489.043	85.44
489.261	91.44
489.479	82.44
489.696	93.44
489.914	79.44
490.132	75.44
490.35	77.44
490.568	85.44
490.786	94.44
491.003	82.44
491.221	76.44
491.439	98.44
491.657	83.44
491.874	88.44
492.092	95.44
492.31	93.44
492.527	91.44
492.745	83.44
492.963	89.44
493.18	86.44
493.398	99.44
493.615	91.44
493.833	98.44
494.05	100.44
494.268	84.44
494.485	93.44
494.703	93.44
494.92	98.44
495.138	75.44
495.355	85.44
495.573	84.44
495.79	86.44
496.008	91.44
496.225	94.44
496.442	95.44
496.66	109.44
496.877	94.44
497.094	99.44
497.312	80.44
497.529	91.44
497.746	88.44
497.963	85.44
498.181	83.44
498.398	86.44
498.615	97.44
498.832	87.44
499.049	72.44
499.267	82.44
499.484	88.44
499.701	83.44
499.918	92.44
500.135	90.44
500.352	95.44
500.569	84.44
500.786	84.44
501.003	85.44
501.22	82.44
501.437	93.44
501.654	89.44
501.871	95.44
502.088	80.44
502.305	91.44
502.522	88.44
502.739	91.44
502.956	87.44
503.172	82.44
503.389	90.44
503.606	93.44
503.823	86.44
504.04	78.44
504.256	73.44
504.473	81.44
504.69	82.44
504.907	92.44
505.123	91.44
505.34	87.44
505.557	89.44
505.773	88.44
505.99	84.44
506.207	75.44
506.423	90.44
506.64	96.44
506.856	87.44
507.073	88.44
507.289	83.44
507.506	87.44
507.722	101.44
507.939	88.44
508.155	91.44
508.372	93.44
508.588	87.44
508.805	93.44
509.021	83.44
509.238	107.44
509.454	83.44
509.67	83.44
509.887	74.44
510.103	96.44
510.319	95.44
510.536	92.44
510.752	81.44
510.968	100.44
511.184	101.44
511.401	86.44
511.617	83.44
511.833	85.44
512.049	89.44
512.265	89.44
512.481	100.44
512.698	92.44
512.914	83.44
513.13	69.44
513.346	87.44
513.562	78.44
513.778	85.44
513.994	85.44
514.21	87.44
514.426	81.44
514.642	84.44
514.858	78.44
515.074	89.44
515.29	85.44
515.506	85.44
515.721	91.44
515.937	76.44
516.153	77.44
516.369	95.44
516.585	87.44
516.801	71.44
517.016	94.44
517.232	87.44
517.448	95.44
517.664	83.44
517.879	89.44
518.095	79.44
518.311	77.44
518.527	79.44
518.742	93.44
518.958	80.44
519.173	82.44
519.389	87.44
519.605	75.44
519.82	88.44
