Data from KBrHeat2_HRD10591_00001.txt Node
Date: Fri Dec 27 14:54:41 EST 2024
User: Yrep
Spectrometer: HR+D1059
Trigger mode: 1
Integration Time (sec): 1.000000E-1
Scans to average: 1
Electric dark correction enabled: true
Nonlinearity correction enabled: false
Boxcar width: 0
XAxis mode: Wavelengths
Number of Pixels in Spectrum: 2048
>>>>>Begin Spectral Data<<<<<
223.165	-6.06
223.4	-6.06
223.635	-6.06
223.869	-23.06
224.104	-18.06
224.338	-9.06
224.573	-9.06
224.808	-12.06
225.042	-11.06
225.277	-11.06
225.511	-1.06
225.746	5.94
225.98	5.94
226.215	9.94
226.449	12.94
226.683	11.94
226.918	32.94
227.152	20.94
227.387	31.94
227.621	28.94
227.856	41.94
228.09	44.94
228.324	39.94
228.559	61.94
228.793	66.94
229.027	57.94
229.262	56.94
229.496	58.94
229.73	66.94
229.964	73.94
230.199	52.94
230.433	57.94
230.667	71.94
230.901	73.94
231.136	76.94
231.37	71.94
231.604	70.94
231.838	65.94
232.072	71.94
232.306	73.94
232.541	81.94
232.775	84.94
233.009	82.94
233.243	84.94
233.477	84.94
233.711	79.94
233.945	76.94
234.179	85.94
234.413	61.94
234.647	66.94
234.881	79.94
235.115	66.94
235.349	66.94
235.583	63.94
235.817	73.94
236.051	74.94
236.285	74.94
236.519	62.94
236.753	82.94
236.987	72.94
237.221	72.94
237.455	66.94
237.689	65.94
237.922	74.94
238.156	71.94
238.39	71.94
238.624	67.94
238.858	56.94
239.091	51.94
239.325	72.94
239.559	60.94
239.793	61.94
240.027	75.94
240.26	70.94
240.494	74.94
240.728	66.94
240.961	66.94
241.195	69.94
241.429	73.94
241.662	66.94
241.896	66.94
242.13	72.94
242.363	85.94
242.597	62.94
242.83	82.94
243.064	70.94
243.298	65.94
243.531	56.94
243.765	81.94
243.998	70.94
244.232	65.94
244.465	83.94
244.699	73.94
244.932	80.94
245.166	72.94
245.399	75.94
245.633	68.94
245.866	69.94
246.099	77.94
246.333	74.94
246.566	67.94
246.8	69.94
247.033	73.94
247.266	64.94
247.5	74.94
247.733	74.94
247.966	77.94
248.2	78.94
248.433	74.94
248.666	74.94
248.899	66.94
249.133	84.94
249.366	75.94
249.599	85.94
249.832	74.94
250.066	61.94
250.299	80.94
250.532	79.94
250.765	67.94
250.998	68.94
251.231	69.94
251.465	77.94
251.698	91.94
251.931	85.94
252.164	67.94
252.397	78.94
252.63	66.94
252.863	71.94
253.096	75.94
253.329	86.94
253.562	70.94
253.795	80.94
254.028	77.94
254.261	63.94
254.494	64.94
254.727	69.94
254.96	77.94
255.193	70.94
255.426	73.94
255.659	63.94
255.892	86.94
256.124	80.94
256.357	81.94
256.59	85.94
256.823	75.94
257.056	72.94
257.289	74.94
257.521	79.94
257.754	68.94
257.987	74.94
258.22	94.94
258.452	77.94
258.685	75.94
258.918	88.94
259.151	77.94
259.383	64.94
259.616	64.94
259.849	78.94
260.081	62.94
260.314	79.94
260.547	78.94
260.779	66.94
261.012	78.94
261.244	78.94
261.477	79.94
261.71	74.94
261.942	73.94
262.175	71.94
262.407	58.94
262.64	69.94
262.872	94.94
263.105	81.94
263.337	75.94
263.57	69.94
263.802	84.94
264.035	59.94
264.267	70.94
264.499	81.94
264.732	84.94
264.964	76.94
265.197	85.94
265.429	81.94
265.661	72.94
265.894	74.94
266.126	78.94
266.358	85.94
266.591	74.94
266.823	73.94
267.055	85.94
267.287	77.94
267.52	80.94
267.752	79.94
267.984	93.94
268.216	79.94
268.448	74.94
268.681	72.94
268.913	81.94
269.145	92.94
269.377	90.94
269.609	64.94
269.841	79.94
270.073	80.94
270.306	66.94
270.538	65.94
270.77	66.94
271.002	87.94
271.234	79.94
271.466	78.94
271.698	79.94
271.93	96.94
272.162	98.94
272.394	86.94
272.626	76.94
272.858	88.94
273.09	76.94
273.322	76.94
273.553	82.94
273.785	82.94
274.017	79.94
274.249	76.94
274.481	77.94
274.713	77.94
274.945	80.94
275.176	70.94
275.408	74.94
275.64	87.94
275.872	79.94
276.104	79.94
276.335	78.94
276.567	92.94
276.799	81.94
277.031	73.94
277.262	76.94
277.494	73.94
277.726	89.94
277.957	75.94
278.189	79.94
278.421	81.94
278.652	80.94
278.884	88.94
279.115	83.94
279.347	58.94
279.579	96.94
279.81	73.94
280.042	74.94
280.273	94.94
280.505	91.94
280.736	93.94
280.968	76.94
281.199	81.94
281.431	84.94
281.662	69.94
281.894	68.94
282.125	77.94
282.356	73.94
282.588	80.94
282.819	92.94
283.051	77.94
283.282	92.94
283.513	90.94
283.745	77.94
283.976	72.94
284.207	72.94
284.439	71.94
284.67	80.94
284.901	81.94
285.132	78.94
285.364	93.94
285.595	75.94
285.826	83.94
286.057	89.94
286.288	82.94
286.52	74.94
286.751	82.94
286.982	82.94
287.213	85.94
287.444	74.94
287.675	71.94
287.906	69.94
288.138	82.94
288.369	84.94
288.6	80.94
288.831	74.94
289.062	76.94
289.293	80.94
289.524	88.94
289.755	71.94
289.986	76.94
290.217	79.94
290.448	65.94
290.679	89.94
290.91	101.94
291.141	93.94
291.371	86.94
291.602	76.94
291.833	75.94
292.064	81.94
292.295	83.94
292.526	75.94
292.757	84.94
292.987	82.94
293.218	71.94
293.449	81.94
293.68	75.94
293.91	80.94
294.141	67.94
294.372	98.94
294.603	72.94
294.833	81.94
295.064	88.94
295.295	76.94
295.525	91.94
295.756	82.94
295.987	86.94
296.217	77.94
296.448	81.94
296.679	85.94
296.909	92.94
297.14	72.94
297.37	84.94
297.601	80.94
297.831	80.94
298.062	91.94
298.292	72.94
298.523	79.94
298.753	77.94
298.984	89.94
299.214	88.94
299.445	82.94
299.675	85.94
299.905	84.94
300.136	90.94
300.366	66.94
300.597	72.94
300.827	68.94
301.057	82.94
301.288	86.94
301.518	85.94
301.748	87.94
301.979	113.94
302.209	82.94
302.439	101.94
302.669	86.94
302.9	85.94
303.13	99.94
303.36	96.94
303.59	70.94
303.82	79.94
304.051	74.94
304.281	92.94
304.511	82.94
304.741	90.94
304.971	78.94
305.201	82.94
305.431	84.94
305.661	85.94
305.891	80.94
306.121	79.94
306.352	79.94
306.582	80.94
306.812	85.94
307.042	81.94
307.272	80.94
307.502	73.94
307.731	86.94
307.961	81.94
308.191	72.94
308.421	84.94
308.651	82.94
308.881	68.94
309.111	84.94
309.341	80.94
309.571	69.94
309.8	70.94
310.03	66.94
310.26	95.94
310.49	84.94
310.72	98.94
310.949	76.94
311.179	80.94
311.409	90.94
311.639	73.94
311.868	69.94
312.098	68.94
312.328	76.94
312.557	94.94
312.787	84.94
313.017	80.94
313.246	86.94
313.476	88.94
313.706	97.94
313.935	91.94
314.165	79.94
314.394	84.94
314.624	82.94
314.853	81.94
315.083	70.94
315.312	70.94
315.542	81.94
315.771	79.94
316.001	76.94
316.23	85.94
316.46	85.94
316.689	83.94
316.919	78.94
317.148	90.94
317.377	80.94
317.607	83.94
317.836	71.94
318.065	83.94
318.295	79.94
318.524	79.94
318.753	77.94
318.983	88.94
319.212	76.94
319.441	70.94
319.67	85.94
319.9	78.94
320.129	95.94
320.358	92.94
320.587	92.94
320.816	72.94
321.046	83.94
321.275	76.94
321.504	66.94
321.733	81.94
321.962	84.94
322.191	89.94
322.42	96.94
322.649	87.94
322.878	77.94
323.108	93.94
323.337	76.94
323.566	84.94
323.795	78.94
324.024	73.94
324.253	71.94
324.482	81.94
324.71	72.94
324.939	81.94
325.168	86.94
325.397	82.94
325.626	83.94
325.855	73.94
326.084	73.94
326.313	97.94
326.542	86.94
326.77	76.94
326.999	94.94
327.228	82.94
327.457	92.94
327.686	78.94
327.914	82.94
328.143	87.94
328.372	86.94
328.6	87.94
328.829	82.94
329.058	81.94
329.287	86.94
329.515	70.94
329.744	92.94
329.972	84.94
330.201	102.94
330.43	85.94
330.658	86.94
330.887	74.94
331.115	79.94
331.344	87.94
331.572	85.94
331.801	81.94
332.03	71.94
332.258	80.94
332.486	86.94
332.715	80.94
332.943	80.94
333.172	79.94
333.4	82.94
333.629	80.94
333.857	83.94
334.085	86.94
334.314	89.94
334.542	90.94
334.771	79.94
334.999	82.94
335.227	82.94
335.455	83.94
335.684	81.94
335.912	72.94
336.14	89.94
336.369	74.94
336.597	71.94
336.825	81.94
337.053	86.94
337.281	73.94
337.51	83.94
337.738	83.94
337.966	83.94
338.194	76.94
338.422	87.94
338.65	72.94
338.878	91.94
339.106	83.94
339.334	92.94
339.562	80.94
339.79	89.94
340.018	65.94
340.246	86.94
340.474	85.94
340.702	87.94
340.93	81.94
341.158	85.94
341.386	95.94
341.614	75.94
341.842	77.94
342.07	82.94
342.298	84.94
342.526	55.94
342.754	67.94
342.981	62.94
343.209	88.94
343.437	103.94
343.665	76.94
343.893	69.94
344.12	99.94
344.348	96.94
344.576	81.94
344.804	92.94
345.031	92.94
345.259	75.94
345.487	92.94
345.714	76.94
345.942	81.94
346.17	79.94
346.397	88.94
346.625	84.94
346.853	73.94
347.08	96.94
347.308	76.94
347.535	78.94
347.763	88.94
347.99	83.94
348.218	96.94
348.445	92.94
348.673	69.94
348.9	79.94
349.128	90.94
349.355	72.94
349.583	74.94
349.81	87.94
350.037	76.94
350.265	86.94
350.492	84.94
350.72	94.94
350.947	86.94
351.174	82.94
351.402	96.94
351.629	84.94
351.856	66.94
352.083	78.94
352.311	96.94
352.538	90.94
352.765	76.94
352.992	103.94
353.22	95.94
353.447	84.94
353.674	77.94
353.901	92.94
354.128	84.94
354.355	90.94
354.583	86.94
354.81	87.94
355.037	84.94
355.264	97.94
355.491	84.94
355.718	79.94
355.945	84.94
356.172	79.94
356.399	80.94
356.626	76.94
356.853	89.94
357.08	95.94
357.307	92.94
357.534	82.94
357.761	94.94
357.988	93.94
358.215	89.94
358.441	102.94
358.668	78.94
358.895	66.94
359.122	101.94
359.349	78.94
359.576	76.94
359.802	87.94
360.029	81.94
360.256	79.94
360.483	74.94
360.709	87.94
360.936	92.94
361.163	84.94
361.39	76.94
361.616	74.94
361.843	82.94
362.07	99.94
362.296	84.94
362.523	76.94
362.749	64.94
362.976	82.94
363.203	79.94
363.429	79.94
363.656	98.94
363.882	76.94
364.109	73.94
364.335	111.94
364.562	91.94
364.788	88.94
365.015	92.94
365.241	86.94
365.468	86.94
365.694	94.94
365.92	89.94
366.147	76.94
366.373	85.94
366.599	83.94
366.826	85.94
367.052	74.94
367.278	85.94
367.505	86.94
367.731	96.94
367.957	83.94
368.184	80.94
368.41	97.94
368.636	88.94
368.862	82.94
369.089	79.94
369.315	84.94
369.541	86.94
369.767	96.94
369.993	77.94
370.219	72.94
370.445	67.94
370.672	63.94
370.898	84.94
371.124	97.94
371.35	80.94
371.576	80.94
371.802	89.94
372.028	88.94
372.254	83.94
372.48	75.94
372.706	78.94
372.932	77.94
373.158	94.94
373.384	92.94
373.61	90.94
373.835	83.94
374.061	88.94
374.287	92.94
374.513	88.94
374.739	84.94
374.965	86.94
375.191	77.94
375.416	89.94
375.642	80.94
375.868	84.94
376.094	81.94
376.319	73.94
376.545	76.94
376.771	90.94
376.997	84.94
377.222	69.94
377.448	94.94
377.674	79.94
377.899	88.94
378.125	86.94
378.35	85.94
378.576	75.94
378.802	76.94
379.027	79.94
379.253	79.94
379.478	86.94
379.704	81.94
379.929	80.94
380.155	88.94
380.38	85.94
380.606	79.94
380.831	96.94
381.057	89.94
381.282	84.94
381.507	80.94
381.733	77.94
381.958	98.94
382.184	65.94
382.409	73.94
382.634	88.94
382.86	98.94
383.085	74.94
383.31	84.94
383.535	86.94
383.761	80.94
383.986	70.94
384.211	97.94
384.436	89.94
384.662	99.94
384.887	84.94
385.112	80.94
385.337	95.94
385.562	67.94
385.787	80.94
386.013	92.94
386.238	96.94
386.463	79.94
386.688	88.94
386.913	77.94
387.138	78.94
387.363	73.94
387.588	78.94
387.813	78.94
388.038	78.94
388.263	84.94
388.488	67.94
388.713	81.94
388.938	65.94
389.163	84.94
389.387	85.94
389.612	84.94
389.837	85.94
390.062	85.94
390.287	78.94
390.512	85.94
390.736	77.94
390.961	84.94
391.186	80.94
391.411	78.94
391.636	77.94
391.86	76.94
392.085	92.94
392.31	81.94
392.534	73.94
392.759	92.94
392.984	79.94
393.208	72.94
393.433	77.94
393.658	78.94
393.882	72.94
394.107	79.94
394.331	69.94
394.556	74.94
394.78	74.94
395.005	76.94
395.229	87.94
395.454	86.94
395.678	85.94
395.903	82.94
396.127	87.94
396.352	84.94
396.576	82.94
396.801	78.94
397.025	87.94
397.249	78.94
397.474	89.94
397.698	77.94
397.922	81.94
398.147	77.94
398.371	72.94
398.595	84.94
398.82	91.94
399.044	84.94
399.268	89.94
399.492	79.94
399.717	69.94
399.941	90.94
400.165	78.94
400.389	80.94
400.613	92.94
400.837	77.94
401.062	97.94
401.286	72.94
401.51	78.94
401.734	81.94
401.958	86.94
402.182	90.94
402.406	79.94
402.63	73.94
402.854	86.94
403.078	88.94
403.302	90.94
403.526	97.94
403.75	84.94
403.974	114.94
404.198	130.94
404.422	198.94
404.645	210.94
404.869	184.94
405.093	141.94
405.317	104.94
405.541	93.94
405.765	86.94
405.988	91.94
406.212	81.94
406.436	66.94
406.66	95.94
406.883	95.94
407.107	96.94
407.331	79.94
407.555	73.94
407.778	88.94
408.002	87.94
408.226	81.94
408.449	79.94
408.673	88.94
408.896	88.94
409.12	83.94
409.344	89.94
409.567	75.94
409.791	85.94
410.014	91.94
410.238	96.94
410.461	85.94
410.685	78.94
410.908	85.94
411.132	69.94
411.355	80.94
411.578	88.94
411.802	86.94
412.025	87.94
412.249	88.94
412.472	87.94
412.695	79.94
412.919	80.94
413.142	86.94
413.365	87.94
413.589	74.94
413.812	89.94
414.035	72.94
414.258	80.94
414.482	65.94
414.705	59.94
414.928	102.94
415.151	84.94
415.374	89.94
415.597	86.94
415.821	93.94
416.044	88.94
416.267	83.94
416.49	91.94
416.713	83.94
416.936	76.94
417.159	90.94
417.382	80.94
417.605	85.94
417.828	87.94
418.051	86.94
418.274	92.94
418.497	80.94
418.72	83.94
418.943	72.94
419.166	82.94
419.389	96.94
419.611	74.94
419.834	81.94
420.057	90.94
420.28	79.94
420.503	81.94
420.726	91.94
420.948	71.94
421.171	89.94
421.394	81.94
421.617	82.94
421.839	97.94
422.062	93.94
422.285	82.94
422.507	75.94
422.73	87.94
422.953	87.94
423.175	76.94
423.398	93.94
423.621	82.94
423.843	72.94
424.066	82.94
424.288	85.94
424.511	88.94
424.733	71.94
424.956	89.94
425.178	85.94
425.401	98.94
425.623	85.94
425.846	84.94
426.068	84.94
426.291	71.94
426.513	102.94
426.735	83.94
426.958	76.94
427.18	80.94
427.402	83.94
427.625	80.94
427.847	96.94
428.069	79.94
428.292	82.94
428.514	74.94
428.736	73.94
428.958	93.94
429.181	83.94
429.403	85.94
429.625	70.94
429.847	96.94
430.069	88.94
430.292	104.94
430.514	87.94
430.736	75.94
430.958	69.94
431.18	62.94
431.402	92.94
431.624	70.94
431.846	72.94
432.068	63.94
432.29	69.94
432.512	85.94
432.734	65.94
432.956	87.94
433.178	82.94
433.4	78.94
433.622	85.94
433.844	75.94
434.066	86.94
434.287	81.94
434.509	89.94
434.731	73.94
434.953	67.94
435.175	92.94
435.397	84.94
435.618	82.94
435.84	80.94
436.062	68.94
436.284	77.94
436.505	86.94
436.727	78.94
436.949	72.94
437.17	76.94
437.392	80.94
437.614	67.94
437.835	87.94
438.057	83.94
438.278	79.94
438.5	80.94
438.721	80.94
438.943	79.94
439.165	95.94
439.386	77.94
439.608	94.94
439.829	84.94
440.05	81.94
440.272	81.94
440.493	97.94
440.715	88.94
440.936	79.94
441.158	68.94
441.379	73.94
441.6	83.94
441.822	77.94
442.043	66.94
442.264	68.94
442.486	79.94
442.707	86.94
442.928	86.94
443.149	78.94
443.371	96.94
443.592	84.94
443.813	80.94
444.034	80.94
444.255	81.94
444.476	94.94
444.698	74.94
444.919	68.94
445.14	138.94
445.361	99.94
445.582	94.94
445.803	88.94
446.024	79.94
446.245	88.94
446.466	81.94
446.687	85.94
446.908	77.94
447.129	82.94
447.35	82.94
447.571	81.94
447.792	75.94
448.013	89.94
448.234	70.94
448.455	85.94
448.675	95.94
448.896	81.94
449.117	82.94
449.338	82.94
449.559	86.94
449.779	88.94
450	84.94
450.221	84.94
450.442	83.94
450.662	81.94
450.883	86.94
451.104	85.94
451.324	88.94
451.545	66.94
451.766	88.94
451.986	72.94
452.207	81.94
452.428	92.94
452.648	79.94
452.869	95.94
453.089	104.94
453.31	94.94
453.53	77.94
453.751	84.94
453.971	73.94
454.192	84.94
454.412	83.94
454.633	85.94
454.853	92.94
455.073	95.94
455.294	93.94
455.514	75.94
455.734	88.94
455.955	87.94
456.175	84.94
456.395	93.94
456.616	81.94
456.836	73.94
457.056	88.94
457.276	83.94
457.497	70.94
457.717	79.94
457.937	86.94
458.157	71.94
458.377	73.94
458.598	77.94
458.818	73.94
459.038	74.94
459.258	84.94
459.478	79.94
459.698	93.94
459.918	89.94
460.138	68.94
460.358	76.94
460.578	72.94
460.798	86.94
461.018	83.94
461.238	80.94
461.458	98.94
461.678	82.94
461.898	82.94
462.118	99.94
462.338	94.94
462.558	73.94
462.777	68.94
462.997	82.94
463.217	79.94
463.437	75.94
463.657	84.94
463.876	86.94
464.096	89.94
464.316	75.94
464.536	76.94
464.755	88.94
464.975	93.94
465.195	80.94
465.414	93.94
465.634	88.94
465.854	84.94
466.073	81.94
466.293	90.94
466.512	77.94
466.732	81.94
466.951	90.94
467.171	92.94
467.391	79.94
467.61	68.94
467.829	85.94
468.049	85.94
468.268	73.94
468.488	73.94
468.707	82.94
468.927	87.94
469.146	93.94
469.365	79.94
469.585	73.94
469.804	82.94
470.023	76.94
470.243	90.94
470.462	91.94
470.681	88.94
470.901	91.94
471.12	99.94
471.339	92.94
471.558	93.94
471.777	83.94
471.997	73.94
472.216	82.94
472.435	85.94
472.654	87.94
472.873	94.94
473.092	80.94
473.311	88.94
473.53	96.94
473.749	87.94
473.968	91.94
474.187	81.94
474.406	89.94
474.625	77.94
474.844	95.94
475.063	86.94
475.282	108.94
475.501	87.94
475.72	99.94
475.939	78.94
476.158	81.94
476.377	81.94
476.596	77.94
476.814	74.94
477.033	87.94
477.252	77.94
477.471	89.94
477.69	90.94
477.908	85.94
478.127	80.94
478.346	94.94
478.564	100.94
478.783	99.94
479.002	96.94
479.22	68.94
479.439	90.94
479.658	89.94
479.876	68.94
480.095	80.94
480.313	84.94
480.532	90.94
480.751	94.94
480.969	89.94
481.188	84.94
481.406	88.94
481.624	79.94
481.843	81.94
482.061	100.94
482.28	92.94
482.498	82.94
482.717	89.94
482.935	86.94
483.153	77.94
483.372	90.94
483.59	89.94
483.808	79.94
484.027	84.94
484.245	87.94
484.463	94.94
484.681	94.94
484.9	74.94
485.118	77.94
485.336	88.94
485.554	87.94
485.772	85.94
485.99	83.94
486.209	93.94
486.427	86.94
486.645	84.94
486.863	87.94
487.081	81.94
487.299	88.94
487.517	92.94
487.735	80.94
487.953	98.94
488.171	88.94
488.389	82.94
488.607	84.94
488.825	82.94
489.043	78.94
489.261	79.94
489.479	76.94
489.696	88.94
489.914	100.94
490.132	85.94
490.35	73.94
490.568	83.94
490.786	94.94
491.003	96.94
491.221	84.94
491.439	85.94
491.657	78.94
491.874	100.94
492.092	101.94
492.31	104.94
492.527	89.94
492.745	85.94
492.963	97.94
493.18	89.94
493.398	85.94
493.615	71.94
493.833	87.94
494.05	95.94
494.268	109.94
494.485	100.94
494.703	86.94
494.92	101.94
495.138	84.94
495.355	79.94
495.573	93.94
495.79	90.94
496.008	100.94
496.225	88.94
496.442	90.94
496.66	101.94
496.877	86.94
497.094	91.94
497.312	96.94
497.529	83.94
497.746	92.94
497.963	86.94
498.181	79.94
498.398	75.94
498.615	92.94
498.832	80.94
499.049	93.94
499.267	97.94
499.484	91.94
499.701	86.94
499.918	90.94
500.135	97.94
500.352	102.94
500.569	80.94
500.786	92.94
501.003	94.94
501.22	93.94
501.437	74.94
501.654	87.94
501.871	73.94
502.088	89.94
502.305	85.94
502.522	96.94
502.739	89.94
502.956	82.94
503.172	96.94
503.389	82.94
503.606	85.94
503.823	87.94
504.04	87.94
504.256	93.94
504.473	78.94
504.69	76.94
504.907	78.94
505.123	81.94
505.34	81.94
505.557	89.94
505.773	97.94
505.99	84.94
506.207	70.94
506.423	94.94
506.64	99.94
506.856	84.94
507.073	98.94
507.289	82.94
507.506	89.94
507.722	81.94
507.939	97.94
508.155	80.94
508.372	82.94
508.588	80.94
508.805	79.94
509.021	77.94
509.238	97.94
509.454	84.94
509.67	88.94
509.887	86.94
510.103	82.94
510.319	74.94
510.536	83.94
510.752	89.94
510.968	79.94
511.184	81.94
511.401	93.94
511.617	81.94
511.833	89.94
512.049	92.94
512.265	98.94
512.481	88.94
512.698	78.94
512.914	91.94
513.13	70.94
513.346	88.94
513.562	93.94
513.778	88.94
513.994	66.94
514.21	81.94
514.426	80.94
514.642	75.94
514.858	98.94
515.074	102.94
515.29	88.94
515.506	88.94
515.721	85.94
515.937	94.94
516.153	76.94
516.369	83.94
516.585	85.94
516.801	99.94
517.016	86.94
517.232	82.94
517.448	89.94
517.664	81.94
517.879	88.94
518.095	81.94
518.311	70.94
518.527	81.94
518.742	87.94
518.958	77.94
519.173	92.94
519.389	89.94
519.605	85.94
519.82	88.94
