Data from KBrHeat2_HRD10591_00002.txt Node
Date: Fri Dec 27 14:54:42 EST 2024
User: Yrep
Spectrometer: HR+D1059
Trigger mode: 1
Integration Time (sec): 1.000000E-1
Scans to average: 1
Electric dark correction enabled: true
Nonlinearity correction enabled: false
Boxcar width: 0
XAxis mode: Wavelengths
Number of Pixels in Spectrum: 2048
>>>>>Begin Spectral Data<<<<<
223.165	-7.06
223.4	-7.06
223.635	-7.06
223.869	-12.06
224.104	-19.06
224.338	-16.06
224.573	-36.06
224.808	-11.06
225.042	-5.06
225.277	-3.06
225.511	2.94
225.746	-4.06
225.98	10.94
226.215	18.94
226.449	11.94
226.683	27.94
226.918	17.94
227.152	22.94
227.387	44.94
227.621	40.94
227.856	34.94
228.09	45.94
228.324	45.94
228.559	70.94
228.793	52.94
229.027	69.94
229.262	64.94
229.496	67.94
229.73	70.94
229.964	63.94
230.199	67.94
230.433	85.94
230.667	73.94
230.901	71.94
231.136	70.94
231.37	78.94
231.604	75.94
231.838	87.94
232.072	71.94
232.306	74.94
232.541	88.94
232.775	83.94
233.009	89.94
233.243	80.94
233.477	80.94
233.711	87.94
233.945	73.94
234.179	96.94
234.413	68.94
234.647	72.94
234.881	77.94
235.115	90.94
235.349	84.94
235.583	83.94
235.817	81.94
236.051	71.94
236.285	80.94
236.519	72.94
236.753	78.94
236.987	73.94
237.221	70.94
237.455	84.94
237.689	66.94
237.922	68.94
238.156	84.94
238.39	75.94
238.624	74.94
238.858	70.94
239.091	77.94
239.325	82.94
239.559	76.94
239.793	68.94
240.027	73.94
240.26	73.94
240.494	67.94
240.728	74.94
240.961	77.94
241.195	80.94
241.429	63.94
241.662	73.94
241.896	79.94
242.13	70.94
242.363	61.94
242.597	58.94
242.83	71.94
243.064	82.94
243.298	72.94
243.531	61.94
243.765	77.94
243.998	70.94
244.232	71.94
244.465	79.94
244.699	77.94
244.932	82.94
245.166	86.94
245.399	81.94
245.633	71.94
245.866	84.94
246.099	68.94
246.333	80.94
246.566	92.94
246.8	79.94
247.033	74.94
247.266	89.94
247.5	85.94
247.733	65.94
247.966	89.94
248.2	72.94
248.433	70.94
248.666	74.94
248.899	78.94
249.133	77.94
249.366	80.94
249.599	78.94
249.832	85.94
250.066	84.94
250.299	78.94
250.532	88.94
250.765	66.94
250.998	74.94
251.231	65.94
251.465	77.94
251.698	60.94
251.931	80.94
252.164	76.94
252.397	52.94
252.63	99.94
252.863	85.94
253.096	92.94
253.329	76.94
253.562	102.94
253.795	82.94
254.028	83.94
254.261	65.94
254.494	81.94
254.727	89.94
254.96	92.94
255.193	80.94
255.426	79.94
255.659	98.94
255.892	65.94
256.124	79.94
256.357	79.94
256.59	73.94
256.823	85.94
257.056	65.94
257.289	82.94
257.521	79.94
257.754	61.94
257.987	83.94
258.22	93.94
258.452	76.94
258.685	86.94
258.918	78.94
259.151	63.94
259.383	73.94
259.616	77.94
259.849	88.94
260.081	73.94
260.314	84.94
260.547	86.94
260.779	85.94
261.012	87.94
261.244	73.94
261.477	82.94
261.71	81.94
261.942	83.94
262.175	89.94
262.407	96.94
262.64	80.94
262.872	80.94
263.105	80.94
263.337	71.94
263.57	80.94
263.802	83.94
264.035	80.94
264.267	64.94
264.499	86.94
264.732	83.94
264.964	80.94
265.197	94.94
265.429	77.94
265.661	72.94
265.894	77.94
266.126	79.94
266.358	86.94
266.591	79.94
266.823	80.94
267.055	83.94
267.287	81.94
267.52	74.94
267.752	88.94
267.984	75.94
268.216	76.94
268.448	71.94
268.681	72.94
268.913	91.94
269.145	76.94
269.377	88.94
269.609	89.94
269.841	77.94
270.073	71.94
270.306	88.94
270.538	78.94
270.77	77.94
271.002	75.94
271.234	72.94
271.466	86.94
271.698	88.94
271.93	81.94
272.162	80.94
272.394	92.94
272.626	68.94
272.858	74.94
273.09	77.94
273.322	76.94
273.553	69.94
273.785	90.94
274.017	83.94
274.249	82.94
274.481	78.94
274.713	84.94
274.945	99.94
275.176	78.94
275.408	86.94
275.64	86.94
275.872	89.94
276.104	73.94
276.335	67.94
276.567	74.94
276.799	81.94
277.031	83.94
277.262	73.94
277.494	85.94
277.726	83.94
277.957	81.94
278.189	81.94
278.421	85.94
278.652	77.94
278.884	88.94
279.115	89.94
279.347	80.94
279.579	84.94
279.81	75.94
280.042	74.94
280.273	96.94
280.505	77.94
280.736	89.94
280.968	71.94
281.199	92.94
281.431	81.94
281.662	85.94
281.894	83.94
282.125	89.94
282.356	78.94
282.588	77.94
282.819	82.94
283.051	85.94
283.282	73.94
283.513	84.94
283.745	79.94
283.976	79.94
284.207	80.94
284.439	100.94
284.67	83.94
284.901	83.94
285.132	86.94
285.364	80.94
285.595	92.94
285.826	91.94
286.057	89.94
286.288	84.94
286.52	87.94
286.751	93.94
286.982	93.94
287.213	92.94
287.444	85.94
287.675	94.94
287.906	87.94
288.138	77.94
288.369	79.94
288.6	86.94
288.831	80.94
289.062	94.94
289.293	94.94
289.524	74.94
289.755	80.94
289.986	82.94
290.217	84.94
290.448	89.94
290.679	90.94
290.91	88.94
291.141	91.94
291.371	82.94
291.602	73.94
291.833	77.94
292.064	82.94
292.295	82.94
292.526	76.94
292.757	82.94
292.987	81.94
293.218	84.94
293.449	78.94
293.68	74.94
293.91	85.94
294.141	78.94
294.372	69.94
294.603	91.94
294.833	68.94
295.064	88.94
295.295	84.94
295.525	84.94
295.756	83.94
295.987	89.94
296.217	98.94
296.448	84.94
296.679	104.94
296.909	88.94
297.14	91.94
297.37	83.94
297.601	80.94
297.831	72.94
298.062	92.94
298.292	75.94
298.523	80.94
298.753	81.94
298.984	88.94
299.214	96.94
299.445	90.94
299.675	85.94
299.905	89.94
300.136	87.94
300.366	82.94
300.597	73.94
300.827	89.94
301.057	60.94
301.288	80.94
301.518	108.94
301.748	84.94
301.979	89.94
302.209	82.94
302.439	91.94
302.669	82.94
302.9	92.94
303.13	91.94
303.36	69.94
303.59	99.94
303.82	82.94
304.051	96.94
304.281	78.94
304.511	80.94
304.741	97.94
304.971	87.94
305.201	91.94
305.431	75.94
305.661	83.94
305.891	83.94
306.121	89.94
306.352	79.94
306.582	83.94
306.812	86.94
307.042	87.94
307.272	70.94
307.502	84.94
307.731	75.94
307.961	88.94
308.191	85.94
308.421	93.94
308.651	91.94
308.881	73.94
309.111	78.94
309.341	85.94
309.571	93.94
309.8	69.94
310.03	67.94
310.26	73.94
310.49	81.94
310.72	93.94
310.949	91.94
311.179	94.94
311.409	90.94
311.639	87.94
311.868	80.94
312.098	73.94
312.328	69.94
312.557	77.94
312.787	91.94
313.017	99.94
313.246	86.94
313.476	95.94
313.706	88.94
313.935	89.94
314.165	79.94
314.394	84.94
314.624	84.94
314.853	71.94
315.083	74.94
315.312	92.94
315.542	100.94
315.771	77.94
316.001	77.94
316.23	88.94
316.46	82.94
316.689	70.94
316.919	86.94
317.148	73.94
317.377	97.94
317.607	75.94
317.836	81.94
318.065	77.94
318.295	92.94
318.524	76.94
318.753	100.94
318.983	76.94
319.212	92.94
319.441	88.94
319.67	81.94
319.9	81.94
320.129	80.94
320.358	92.94
320.587	88.94
320.816	81.94
321.046	97.94
321.275	94.94
321.504	92.94
321.733	84.94
321.962	96.94
322.191	74.94
322.42	82.94
322.649	86.94
322.878	86.94
323.108	86.94
323.337	85.94
323.566	86.94
323.795	87.94
324.024	91.94
324.253	90.94
324.482	86.94
324.71	79.94
324.939	93.94
325.168	97.94
325.397	77.94
325.626	105.94
325.855	91.94
326.084	91.94
326.313	96.94
326.542	84.94
326.77	82.94
326.999	92.94
327.228	74.94
327.457	78.94
327.686	93.94
327.914	86.94
328.143	98.94
328.372	88.94
328.6	88.94
328.829	84.94
329.058	82.94
329.287	76.94
329.515	91.94
329.744	96.94
329.972	88.94
330.201	86.94
330.43	81.94
330.658	85.94
330.887	80.94
331.115	73.94
331.344	85.94
331.572	88.94
331.801	73.94
332.03	92.94
332.258	90.94
332.486	81.94
332.715	91.94
332.943	86.94
333.172	82.94
333.4	87.94
333.629	85.94
333.857	77.94
334.085	82.94
334.314	90.94
334.542	87.94
334.771	83.94
334.999	89.94
335.227	77.94
335.455	89.94
335.684	89.94
335.912	90.94
336.14	90.94
336.369	89.94
336.597	92.94
336.825	92.94
337.053	91.94
337.281	88.94
337.51	97.94
337.738	83.94
337.966	92.94
338.194	83.94
338.422	75.94
338.65	87.94
338.878	88.94
339.106	88.94
339.334	85.94
339.562	100.94
339.79	78.94
340.018	85.94
340.246	96.94
340.474	84.94
340.702	74.94
340.93	86.94
341.158	70.94
341.386	82.94
341.614	70.94
341.842	76.94
342.07	79.94
342.298	91.94
342.526	81.94
342.754	90.94
342.981	105.94
343.209	84.94
343.437	100.94
343.665	89.94
343.893	90.94
344.12	107.94
344.348	88.94
344.576	93.94
344.804	108.94
345.031	97.94
345.259	96.94
345.487	98.94
345.714	84.94
345.942	96.94
346.17	87.94
346.397	73.94
346.625	81.94
346.853	93.94
347.08	94.94
347.308	92.94
347.535	96.94
347.763	91.94
347.99	87.94
348.218	95.94
348.445	90.94
348.673	87.94
348.9	77.94
349.128	91.94
349.355	89.94
349.583	66.94
349.81	81.94
350.037	90.94
350.265	91.94
350.492	79.94
350.72	86.94
350.947	90.94
351.174	85.94
351.402	91.94
351.629	73.94
351.856	77.94
352.083	82.94
352.311	92.94
352.538	83.94
352.765	90.94
352.992	93.94
353.22	77.94
353.447	85.94
353.674	90.94
353.901	83.94
354.128	93.94
354.355	90.94
354.583	82.94
354.81	93.94
355.037	88.94
355.264	89.94
355.491	83.94
355.718	80.94
355.945	78.94
356.172	104.94
356.399	86.94
356.626	89.94
356.853	83.94
357.08	84.94
357.307	83.94
357.534	82.94
357.761	84.94
357.988	102.94
358.215	90.94
358.441	93.94
358.668	89.94
358.895	97.94
359.122	85.94
359.349	68.94
359.576	86.94
359.802	75.94
360.029	96.94
360.256	90.94
360.483	90.94
360.709	91.94
360.936	105.94
361.163	84.94
361.39	84.94
361.616	90.94
361.843	65.94
362.07	84.94
362.296	93.94
362.523	90.94
362.749	90.94
362.976	88.94
363.203	101.94
363.429	88.94
363.656	93.94
363.882	88.94
364.109	95.94
364.335	87.94
364.562	85.94
364.788	85.94
365.015	90.94
365.241	87.94
365.468	99.94
365.694	80.94
365.92	99.94
366.147	86.94
366.373	80.94
366.599	91.94
366.826	79.94
367.052	77.94
367.278	75.94
367.505	87.94
367.731	102.94
367.957	89.94
368.184	85.94
368.41	80.94
368.636	75.94
368.862	74.94
369.089	82.94
369.315	85.94
369.541	85.94
369.767	89.94
369.993	91.94
370.219	79.94
370.445	86.94
370.672	79.94
370.898	92.94
371.124	76.94
371.35	88.94
371.576	94.94
371.802	80.94
372.028	88.94
372.254	85.94
372.48	84.94
372.706	81.94
372.932	75.94
373.158	89.94
373.384	96.94
373.61	91.94
373.835	98.94
374.061	92.94
374.287	72.94
374.513	77.94
374.739	85.94
374.965	71.94
375.191	60.94
375.416	93.94
375.642	93.94
375.868	99.94
376.094	75.94
376.319	89.94
376.545	82.94
376.771	76.94
376.997	70.94
377.222	84.94
377.448	88.94
377.674	80.94
377.899	92.94
378.125	89.94
378.35	90.94
378.576	80.94
378.802	80.94
379.027	90.94
379.253	81.94
379.478	105.94
379.704	87.94
379.929	74.94
380.155	93.94
380.38	87.94
380.606	72.94
380.831	81.94
381.057	90.94
381.282	101.94
381.507	96.94
381.733	87.94
381.958	92.94
382.184	84.94
382.409	71.94
382.634	93.94
382.86	86.94
383.085	77.94
383.31	98.94
383.535	82.94
383.761	80.94
383.986	96.94
384.211	86.94
384.436	73.94
384.662	79.94
384.887	83.94
385.112	76.94
385.337	81.94
385.562	99.94
385.787	90.94
386.013	90.94
386.238	69.94
386.463	81.94
386.688	112.94
386.913	83.94
387.138	79.94
387.363	67.94
387.588	78.94
387.813	73.94
388.038	83.94
388.263	84.94
388.488	86.94
388.713	86.94
388.938	82.94
389.163	72.94
389.387	83.94
389.612	78.94
389.837	84.94
390.062	85.94
390.287	96.94
390.512	85.94
390.736	80.94
390.961	78.94
391.186	79.94
391.411	69.94
391.636	84.94
391.86	85.94
392.085	91.94
392.31	78.94
392.534	73.94
392.759	98.94
392.984	80.94
393.208	87.94
393.433	86.94
393.658	73.94
393.882	97.94
394.107	84.94
394.331	92.94
394.556	73.94
394.78	88.94
395.005	98.94
395.229	89.94
395.454	90.94
395.678	85.94
395.903	82.94
396.127	99.94
396.352	80.94
396.576	84.94
396.801	80.94
397.025	87.94
397.249	90.94
397.474	78.94
397.698	90.94
397.922	96.94
398.147	69.94
398.371	75.94
398.595	93.94
398.82	81.94
399.044	82.94
399.268	83.94
399.492	99.94
399.717	97.94
399.941	91.94
400.165	90.94
400.389	84.94
400.613	85.94
400.837	91.94
401.062	85.94
401.286	85.94
401.51	91.94
401.734	82.94
401.958	95.94
402.182	88.94
402.406	89.94
402.63	78.94
402.854	85.94
403.078	88.94
403.302	91.94
403.526	91.94
403.75	93.94
403.974	94.94
404.198	153.94
404.422	216.94
404.645	228.94
404.869	208.94
405.093	146.94
405.317	111.94
405.541	107.94
405.765	104.94
405.988	93.94
406.212	87.94
406.436	83.94
406.66	94.94
406.883	89.94
407.107	76.94
407.331	78.94
407.555	91.94
407.778	80.94
408.002	97.94
408.226	85.94
408.449	77.94
408.673	80.94
408.896	88.94
409.12	91.94
409.344	81.94
409.567	86.94
409.791	86.94
410.014	74.94
410.238	86.94
410.461	89.94
410.685	92.94
410.908	82.94
411.132	80.94
411.355	92.94
411.578	89.94
411.802	99.94
412.025	91.94
412.249	86.94
412.472	86.94
412.695	92.94
412.919	78.94
413.142	87.94
413.365	76.94
413.589	82.94
413.812	94.94
414.035	88.94
414.258	103.94
414.482	107.94
414.705	87.94
414.928	96.94
415.151	86.94
415.374	77.94
415.597	84.94
415.821	84.94
416.044	85.94
416.267	90.94
416.49	93.94
416.713	89.94
416.936	81.94
417.159	86.94
417.382	81.94
417.605	104.94
417.828	86.94
418.051	88.94
418.274	96.94
418.497	92.94
418.72	93.94
418.943	92.94
419.166	100.94
419.389	90.94
419.611	90.94
419.834	77.94
420.057	96.94
420.28	83.94
420.503	77.94
420.726	87.94
420.948	80.94
421.171	101.94
421.394	80.94
421.617	96.94
421.839	80.94
422.062	88.94
422.285	97.94
422.507	82.94
422.73	95.94
422.953	84.94
423.175	108.94
423.398	96.94
423.621	75.94
423.843	79.94
424.066	85.94
424.288	86.94
424.511	83.94
424.733	97.94
424.956	102.94
425.178	83.94
425.401	85.94
425.623	93.94
425.846	84.94
426.068	82.94
426.291	77.94
426.513	83.94
426.735	82.94
426.958	93.94
427.18	91.94
427.402	77.94
427.625	76.94
427.847	87.94
428.069	88.94
428.292	78.94
428.514	84.94
428.736	74.94
428.958	81.94
429.181	84.94
429.403	92.94
429.625	83.94
429.847	93.94
430.069	86.94
430.292	87.94
430.514	85.94
430.736	86.94
430.958	85.94
431.18	72.94
431.402	84.94
431.624	81.94
431.846	83.94
432.068	84.94
432.29	81.94
432.512	97.94
432.734	74.94
432.956	89.94
433.178	91.94
433.4	85.94
433.622	89.94
433.844	89.94
434.066	86.94
434.287	96.94
434.509	84.94
434.731	84.94
434.953	84.94
435.175	81.94
435.397	90.94
435.618	84.94
435.84	76.94
436.062	91.94
436.284	77.94
436.505	80.94
436.727	79.94
436.949	98.94
437.17	92.94
437.392	73.94
437.614	75.94
437.835	80.94
438.057	84.94
438.278	71.94
438.5	82.94
438.721	89.94
438.943	81.94
439.165	92.94
439.386	95.94
439.608	89.94
439.829	90.94
440.05	92.94
440.272	90.94
440.493	87.94
440.715	86.94
440.936	81.94
441.158	85.94
441.379	88.94
441.6	88.94
441.822	93.94
442.043	101.94
442.264	76.94
442.486	106.94
442.707	84.94
442.928	89.94
443.149	75.94
443.371	79.94
443.592	91.94
443.813	95.94
444.034	96.94
444.255	88.94
444.476	90.94
444.698	72.94
444.919	78.94
445.14	128.94
445.361	113.94
445.582	93.94
445.803	97.94
446.024	100.94
446.245	105.94
446.466	93.94
446.687	96.94
446.908	89.94
447.129	79.94
447.35	89.94
447.571	93.94
447.792	72.94
448.013	81.94
448.234	87.94
448.455	93.94
448.675	94.94
448.896	84.94
449.117	78.94
449.338	81.94
449.559	74.94
449.779	87.94
450	98.94
450.221	85.94
450.442	97.94
450.662	92.94
450.883	81.94
451.104	90.94
451.324	79.94
451.545	91.94
451.766	87.94
451.986	74.94
452.207	78.94
452.428	81.94
452.648	94.94
452.869	99.94
453.089	100.94
453.31	91.94
453.53	80.94
453.751	93.94
453.971	74.94
454.192	83.94
454.412	93.94
454.633	89.94
454.853	107.94
455.073	90.94
455.294	73.94
455.514	95.94
455.734	82.94
455.955	100.94
456.175	80.94
456.395	90.94
456.616	85.94
456.836	91.94
457.056	90.94
457.276	78.94
457.497	81.94
457.717	80.94
457.937	74.94
458.157	80.94
458.377	83.94
458.598	92.94
458.818	74.94
459.038	82.94
459.258	91.94
459.478	77.94
459.698	75.94
459.918	89.94
460.138	89.94
460.358	92.94
460.578	94.94
460.798	77.94
461.018	87.94
461.238	86.94
461.458	83.94
461.678	84.94
461.898	72.94
462.118	77.94
462.338	80.94
462.558	90.94
462.777	77.94
462.997	100.94
463.217	83.94
463.437	85.94
463.657	101.94
463.876	89.94
464.096	85.94
464.316	82.94
464.536	88.94
464.755	85.94
464.975	79.94
465.195	82.94
465.414	84.94
465.634	96.94
465.854	88.94
466.073	78.94
466.293	79.94
466.512	75.94
466.732	83.94
466.951	81.94
467.171	79.94
467.391	86.94
467.61	82.94
467.829	92.94
468.049	82.94
468.268	86.94
468.488	91.94
468.707	100.94
468.927	97.94
469.146	80.94
469.365	86.94
469.585	99.94
469.804	107.94
470.023	87.94
470.243	90.94
470.462	89.94
470.681	95.94
470.901	92.94
471.12	86.94
471.339	83.94
471.558	81.94
471.777	88.94
471.997	82.94
472.216	103.94
472.435	89.94
472.654	83.94
472.873	102.94
473.092	100.94
473.311	91.94
473.53	92.94
473.749	97.94
473.968	104.94
474.187	92.94
474.406	86.94
474.625	97.94
474.844	86.94
475.063	83.94
475.282	90.94
475.501	100.94
475.72	88.94
475.939	90.94
476.158	89.94
476.377	97.94
476.596	99.94
476.814	88.94
477.033	82.94
477.252	102.94
477.471	104.94
477.69	88.94
477.908	87.94
478.127	88.94
478.346	97.94
478.564	81.94
478.783	97.94
479.002	91.94
479.22	101.94
479.439	87.94
479.658	80.94
479.876	80.94
480.095	102.94
480.313	94.94
480.532	83.94
480.751	88.94
480.969	102.94
481.188	84.94
481.406	94.94
481.624	93.94
481.843	87.94
482.061	91.94
482.28	91.94
482.498	76.94
482.717	98.94
482.935	98.94
483.153	92.94
483.372	80.94
483.59	100.94
483.808	92.94
484.027	96.94
484.245	89.94
484.463	97.94
484.681	102.94
484.9	89.94
485.118	90.94
485.336	89.94
485.554	107.94
485.772	88.94
485.99	87.94
486.209	81.94
486.427	97.94
486.645	86.94
486.863	109.94
487.081	102.94
487.299	88.94
487.517	94.94
487.735	98.94
487.953	95.94
488.171	96.94
488.389	89.94
488.607	93.94
488.825	76.94
489.043	80.94
489.261	101.94
489.479	94.94
489.696	87.94
489.914	91.94
490.132	86.94
490.35	99.94
490.568	98.94
490.786	104.94
491.003	98.94
491.221	89.94
491.439	99.94
491.657	74.94
491.874	100.94
492.092	90.94
492.31	109.94
492.527	109.94
492.745	83.94
492.963	99.94
493.18	97.94
493.398	96.94
493.615	84.94
493.833	112.94
494.05	97.94
494.268	96.94
494.485	99.94
494.703	104.94
494.92	109.94
495.138	93.94
495.355	84.94
495.573	106.94
495.79	85.94
496.008	102.94
496.225	107.94
496.442	82.94
496.66	98.94
496.877	103.94
497.094	98.94
497.312	104.94
497.529	86.94
497.746	94.94
497.963	96.94
498.181	88.94
498.398	97.94
498.615	102.94
498.832	89.94
499.049	94.94
499.267	90.94
499.484	91.94
499.701	97.94
499.918	90.94
500.135	92.94
500.352	98.94
500.569	86.94
500.786	79.94
501.003	88.94
501.22	81.94
501.437	91.94
501.654	92.94
501.871	97.94
502.088	84.94
502.305	93.94
502.522	93.94
502.739	106.94
502.956	81.94
503.172	89.94
503.389	94.94
503.606	86.94
503.823	102.94
504.04	107.94
504.256	101.94
504.473	91.94
504.69	93.94
504.907	93.94
505.123	94.94
505.34	97.94
505.557	93.94
505.773	93.94
505.99	86.94
506.207	85.94
506.423	92.94
506.64	78.94
506.856	91.94
507.073	113.94
507.289	105.94
507.506	107.94
507.722	107.94
507.939	95.94
508.155	82.94
508.372	86.94
508.588	84.94
508.805	97.94
509.021	97.94
509.238	89.94
509.454	94.94
509.67	91.94
509.887	101.94
510.103	90.94
510.319	99.94
510.536	92.94
510.752	97.94
510.968	82.94
511.184	87.94
511.401	87.94
511.617	94.94
511.833	102.94
512.049	80.94
512.265	101.94
512.481	98.94
512.698	103.94
512.914	107.94
513.13	87.94
513.346	93.94
513.562	90.94
513.778	87.94
513.994	88.94
514.21	92.94
514.426	96.94
514.642	101.94
514.858	92.94
515.074	86.94
515.29	93.94
515.506	93.94
515.721	75.94
515.937	92.94
516.153	83.94
516.369	70.94
516.585	84.94
516.801	96.94
517.016	104.94
517.232	93.94
517.448	92.94
517.664	88.94
517.879	78.94
518.095	85.94
518.311	86.94
518.527	94.94
518.742	87.94
518.958	92.94
