Data from KBrHeat2_HRD10591_00014.txt Node
Date: Fri Dec 27 14:54:54 EST 2024
User: Yrep
Spectrometer: HR+D1059
Trigger mode: 1
Integration Time (sec): 1.000000E-1
Scans to average: 1
Electric dark correction enabled: true
Nonlinearity correction enabled: false
Boxcar width: 0
XAxis mode: Wavelengths
Number of Pixels in Spectrum: 2048
>>>>>Begin Spectral Data<<<<<
223.165	-30.62
223.4	-30.62
223.635	-30.62
223.869	-24.62
224.104	-19.62
224.338	-17.62
224.573	-22.62
224.808	-0.62
225.042	3.38
225.277	-5.62
225.511	-0.62
225.746	3.38
225.98	15.38
226.215	10.38
226.449	11.38
226.683	37.38
226.918	21.38
227.152	19.38
227.387	47.38
227.621	40.38
227.856	33.38
228.09	43.38
228.324	35.38
228.559	53.38
228.793	63.38
229.027	56.38
229.262	68.38
229.496	73.38
229.73	70.38
229.964	92.38
230.199	72.38
230.433	49.38
230.667	76.38
230.901	75.38
231.136	63.38
231.37	92.38
231.604	82.38
231.838	85.38
232.072	80.38
232.306	85.38
232.541	68.38
232.775	81.38
233.009	85.38
233.243	91.38
233.477	73.38
233.711	88.38
233.945	80.38
234.179	85.38
234.413	78.38
234.647	83.38
234.881	84.38
235.115	66.38
235.349	59.38
235.583	73.38
235.817	72.38
236.051	88.38
236.285	77.38
236.519	85.38
236.753	75.38
236.987	71.38
237.221	64.38
237.455	74.38
237.689	79.38
237.922	65.38
238.156	80.38
238.39	70.38
238.624	70.38
238.858	68.38
239.091	76.38
239.325	68.38
239.559	82.38
239.793	85.38
240.027	72.38
240.26	69.38
240.494	73.38
240.728	79.38
240.961	77.38
241.195	70.38
241.429	72.38
241.662	89.38
241.896	77.38
242.13	75.38
242.363	68.38
242.597	65.38
242.83	77.38
243.064	86.38
243.298	75.38
243.531	74.38
243.765	70.38
243.998	87.38
244.232	81.38
244.465	72.38
244.699	82.38
244.932	73.38
245.166	80.38
245.399	79.38
245.633	74.38
245.866	90.38
246.099	82.38
246.333	70.38
246.566	78.38
246.8	88.38
247.033	82.38
247.266	88.38
247.5	82.38
247.733	83.38
247.966	76.38
248.2	80.38
248.433	72.38
248.666	67.38
248.899	81.38
249.133	77.38
249.366	80.38
249.599	82.38
249.832	83.38
250.066	83.38
250.299	71.38
250.532	71.38
250.765	77.38
250.998	73.38
251.231	61.38
251.465	86.38
251.698	76.38
251.931	71.38
252.164	84.38
252.397	88.38
252.63	85.38
252.863	86.38
253.096	88.38
253.329	87.38
253.562	79.38
253.795	90.38
254.028	84.38
254.261	72.38
254.494	79.38
254.727	87.38
254.96	77.38
255.193	84.38
255.426	73.38
255.659	83.38
255.892	81.38
256.124	86.38
256.357	75.38
256.59	66.38
256.823	79.38
257.056	92.38
257.289	80.38
257.521	82.38
257.754	80.38
257.987	78.38
258.22	80.38
258.452	73.38
258.685	80.38
258.918	86.38
259.151	74.38
259.383	72.38
259.616	77.38
259.849	81.38
260.081	68.38
260.314	84.38
260.547	82.38
260.779	89.38
261.012	79.38
261.244	72.38
261.477	73.38
261.71	77.38
261.942	78.38
262.175	85.38
262.407	95.38
262.64	79.38
262.872	84.38
263.105	90.38
263.337	90.38
263.57	87.38
263.802	97.38
264.035	90.38
264.267	71.38
264.499	86.38
264.732	85.38
264.964	75.38
265.197	80.38
265.429	82.38
265.661	75.38
265.894	73.38
266.126	76.38
266.358	93.38
266.591	82.38
266.823	98.38
267.055	85.38
267.287	89.38
267.52	81.38
267.752	89.38
267.984	77.38
268.216	75.38
268.448	93.38
268.681	89.38
268.913	99.38
269.145	83.38
269.377	85.38
269.609	64.38
269.841	79.38
270.073	84.38
270.306	86.38
270.538	65.38
270.77	78.38
271.002	91.38
271.234	81.38
271.466	91.38
271.698	90.38
271.93	72.38
272.162	91.38
272.394	82.38
272.626	87.38
272.858	62.38
273.09	65.38
273.322	75.38
273.553	72.38
273.785	90.38
274.017	87.38
274.249	79.38
274.481	90.38
274.713	82.38
274.945	87.38
275.176	93.38
275.408	84.38
275.64	80.38
275.872	84.38
276.104	77.38
276.335	88.38
276.567	80.38
276.799	83.38
277.031	83.38
277.262	74.38
277.494	86.38
277.726	75.38
277.957	76.38
278.189	76.38
278.421	75.38
278.652	88.38
278.884	86.38
279.115	86.38
279.347	84.38
279.579	99.38
279.81	86.38
280.042	73.38
280.273	81.38
280.505	77.38
280.736	89.38
280.968	92.38
281.199	75.38
281.431	78.38
281.662	82.38
281.894	84.38
282.125	90.38
282.356	81.38
282.588	87.38
282.819	86.38
283.051	89.38
283.282	97.38
283.513	93.38
283.745	85.38
283.976	83.38
284.207	78.38
284.439	86.38
284.67	92.38
284.901	78.38
285.132	79.38
285.364	90.38
285.595	73.38
285.826	68.38
286.057	87.38
286.288	81.38
286.52	77.38
286.751	76.38
286.982	97.38
287.213	97.38
287.444	79.38
287.675	90.38
287.906	88.38
288.138	78.38
288.369	97.38
288.6	82.38
288.831	78.38
289.062	85.38
289.293	75.38
289.524	88.38
289.755	93.38
289.986	86.38
290.217	84.38
290.448	79.38
290.679	71.38
290.91	92.38
291.141	77.38
291.371	93.38
291.602	84.38
291.833	85.38
292.064	73.38
292.295	81.38
292.526	96.38
292.757	77.38
292.987	85.38
293.218	87.38
293.449	77.38
293.68	82.38
293.91	92.38
294.141	95.38
294.372	89.38
294.603	83.38
294.833	85.38
295.064	88.38
295.295	89.38
295.525	87.38
295.756	99.38
295.987	95.38
296.217	95.38
296.448	83.38
296.679	89.38
296.909	88.38
297.14	89.38
297.37	95.38
297.601	79.38
297.831	93.38
298.062	97.38
298.292	79.38
298.523	85.38
298.753	87.38
298.984	93.38
299.214	81.38
299.445	95.38
299.675	79.38
299.905	81.38
300.136	97.38
300.366	76.38
300.597	80.38
300.827	80.38
301.057	84.38
301.288	74.38
301.518	84.38
301.748	83.38
301.979	97.38
302.209	88.38
302.439	80.38
302.669	87.38
302.9	62.38
303.13	78.38
303.36	95.38
303.59	71.38
303.82	82.38
304.051	81.38
304.281	84.38
304.511	85.38
304.741	85.38
304.971	88.38
305.201	81.38
305.431	75.38
305.661	92.38
305.891	83.38
306.121	91.38
306.352	95.38
306.582	91.38
306.812	81.38
307.042	82.38
307.272	96.38
307.502	73.38
307.731	78.38
307.961	83.38
308.191	78.38
308.421	82.38
308.651	83.38
308.881	88.38
309.111	92.38
309.341	85.38
309.571	87.38
309.8	93.38
310.03	92.38
310.26	80.38
310.49	73.38
310.72	71.38
310.949	85.38
311.179	69.38
311.409	86.38
311.639	89.38
311.868	106.38
312.098	92.38
312.328	67.38
312.557	75.38
312.787	92.38
313.017	90.38
313.246	84.38
313.476	85.38
313.706	80.38
313.935	88.38
314.165	95.38
314.394	87.38
314.624	90.38
314.853	86.38
315.083	91.38
315.312	87.38
315.542	92.38
315.771	72.38
316.001	97.38
316.23	87.38
316.46	70.38
316.689	82.38
316.919	96.38
317.148	83.38
317.377	98.38
317.607	83.38
317.836	79.38
318.065	87.38
318.295	88.38
318.524	80.38
318.753	89.38
318.983	81.38
319.212	92.38
319.441	86.38
319.67	84.38
319.9	81.38
320.129	74.38
320.358	85.38
320.587	77.38
320.816	87.38
321.046	89.38
321.275	83.38
321.504	86.38
321.733	87.38
321.962	100.38
322.191	69.38
322.42	106.38
322.649	87.38
322.878	95.38
323.108	79.38
323.337	92.38
323.566	76.38
323.795	87.38
324.024	83.38
324.253	79.38
324.482	80.38
324.71	89.38
324.939	77.38
325.168	77.38
325.397	90.38
325.626	89.38
325.855	90.38
326.084	87.38
326.313	87.38
326.542	89.38
326.77	88.38
326.999	82.38
327.228	84.38
327.457	85.38
327.686	72.38
327.914	81.38
328.143	88.38
328.372	92.38
328.6	83.38
328.829	95.38
329.058	101.38
329.287	84.38
329.515	73.38
329.744	79.38
329.972	88.38
330.201	92.38
330.43	78.38
330.658	69.38
330.887	87.38
331.115	83.38
331.344	77.38
331.572	86.38
331.801	81.38
332.03	77.38
332.258	78.38
332.486	83.38
332.715	91.38
332.943	77.38
333.172	88.38
333.4	94.38
333.629	99.38
333.857	82.38
334.085	100.38
334.314	97.38
334.542	85.38
334.771	92.38
334.999	69.38
335.227	76.38
335.455	84.38
335.684	90.38
335.912	80.38
336.14	91.38
336.369	82.38
336.597	82.38
336.825	91.38
337.053	88.38
337.281	80.38
337.51	89.38
337.738	92.38
337.966	83.38
338.194	91.38
338.422	85.38
338.65	87.38
338.878	88.38
339.106	79.38
339.334	92.38
339.562	83.38
339.79	83.38
340.018	87.38
340.246	81.38
340.474	82.38
340.702	80.38
340.93	91.38
341.158	84.38
341.386	92.38
341.614	99.38
341.842	85.38
342.07	83.38
342.298	90.38
342.526	92.38
342.754	92.38
342.981	84.38
343.209	92.38
343.437	91.38
343.665	95.38
343.893	82.38
344.12	89.38
344.348	76.38
344.576	92.38
344.804	99.38
345.031	90.38
345.259	95.38
345.487	86.38
345.714	71.38
345.942	92.38
346.17	88.38
346.397	89.38
346.625	73.38
346.853	95.38
347.08	82.38
347.308	89.38
347.535	97.38
347.763	81.38
347.99	80.38
348.218	88.38
348.445	83.38
348.673	77.38
348.9	99.38
349.128	91.38
349.355	89.38
349.583	82.38
349.81	81.38
350.037	95.38
350.265	79.38
350.492	86.38
350.72	88.38
350.947	88.38
351.174	95.38
351.402	72.38
351.629	85.38
351.856	88.38
352.083	90.38
352.311	84.38
352.538	96.38
352.765	89.38
352.992	101.38
353.22	77.38
353.447	88.38
353.674	60.38
353.901	84.38
354.128	66.38
354.355	81.38
354.583	81.38
354.81	88.38
355.037	81.38
355.264	92.38
355.491	79.38
355.718	86.38
355.945	86.38
356.172	72.38
356.399	83.38
356.626	67.38
356.853	74.38
357.08	82.38
357.307	88.38
357.534	91.38
357.761	83.38
357.988	81.38
358.215	88.38
358.441	75.38
358.668	75.38
358.895	76.38
359.122	89.38
359.349	83.38
359.576	84.38
359.802	82.38
360.029	90.38
360.256	95.38
360.483	100.38
360.709	90.38
360.936	92.38
361.163	89.38
361.39	84.38
361.616	88.38
361.843	90.38
362.07	81.38
362.296	81.38
362.523	60.38
362.749	66.38
362.976	79.38
363.203	84.38
363.429	74.38
363.656	88.38
363.882	74.38
364.109	92.38
364.335	79.38
364.562	85.38
364.788	83.38
365.015	87.38
365.241	80.38
365.468	92.38
365.694	93.38
365.92	88.38
366.147	92.38
366.373	87.38
366.599	82.38
366.826	73.38
367.052	74.38
367.278	88.38
367.505	90.38
367.731	90.38
367.957	81.38
368.184	76.38
368.41	74.38
368.636	84.38
368.862	91.38
369.089	91.38
369.315	90.38
369.541	79.38
369.767	81.38
369.993	87.38
370.219	95.38
370.445	95.38
370.672	91.38
370.898	98.38
371.124	84.38
371.35	75.38
371.576	92.38
371.802	74.38
372.028	81.38
372.254	76.38
372.48	84.38
372.706	78.38
372.932	81.38
373.158	75.38
373.384	67.38
373.61	86.38
373.835	103.38
374.061	95.38
374.287	87.38
374.513	81.38
374.739	78.38
374.965	83.38
375.191	87.38
375.416	88.38
375.642	85.38
375.868	89.38
376.094	81.38
376.319	87.38
376.545	96.38
376.771	83.38
376.997	81.38
377.222	98.38
377.448	92.38
377.674	90.38
377.899	72.38
378.125	97.38
378.35	98.38
378.576	99.38
378.802	77.38
379.027	78.38
379.253	87.38
379.478	75.38
379.704	80.38
379.929	81.38
380.155	84.38
380.38	81.38
380.606	90.38
380.831	87.38
381.057	84.38
381.282	82.38
381.507	68.38
381.733	88.38
381.958	88.38
382.184	77.38
382.409	90.38
382.634	85.38
382.86	82.38
383.085	88.38
383.31	79.38
383.535	72.38
383.761	90.38
383.986	74.38
384.211	75.38
384.436	73.38
384.662	73.38
384.887	83.38
385.112	81.38
385.337	81.38
385.562	89.38
385.787	74.38
386.013	82.38
386.238	83.38
386.463	77.38
386.688	101.38
386.913	92.38
387.138	84.38
387.363	89.38
387.588	91.38
387.813	80.38
388.038	86.38
388.263	95.38
388.488	73.38
388.713	85.38
388.938	76.38
389.163	74.38
389.387	80.38
389.612	84.38
389.837	84.38
390.062	80.38
390.287	93.38
390.512	86.38
390.736	75.38
390.961	82.38
391.186	92.38
391.411	85.38
391.636	79.38
391.86	97.38
392.085	85.38
392.31	87.38
392.534	73.38
392.759	90.38
392.984	89.38
393.208	76.38
393.433	80.38
393.658	81.38
393.882	91.38
394.107	91.38
394.331	85.38
394.556	63.38
394.78	81.38
395.005	89.38
395.229	89.38
395.454	83.38
395.678	83.38
395.903	83.38
396.127	81.38
396.352	91.38
396.576	89.38
396.801	88.38
397.025	67.38
397.249	86.38
397.474	87.38
397.698	72.38
397.922	86.38
398.147	84.38
398.371	84.38
398.595	73.38
398.82	68.38
399.044	75.38
399.268	87.38
399.492	92.38
399.717	80.38
399.941	76.38
400.165	81.38
400.389	77.38
400.613	80.38
400.837	67.38
401.062	77.38
401.286	77.38
401.51	66.38
401.734	84.38
401.958	99.38
402.182	94.38
402.406	89.38
402.63	89.38
402.854	106.38
403.078	84.38
403.302	93.38
403.526	89.38
403.75	87.38
403.974	100.38
404.198	133.38
404.422	193.38
404.645	188.38
404.869	184.38
405.093	129.38
405.317	89.38
405.541	96.38
405.765	87.38
405.988	99.38
406.212	96.38
406.436	89.38
406.66	83.38
406.883	96.38
407.107	82.38
407.331	74.38
407.555	86.38
407.778	72.38
408.002	91.38
408.226	81.38
408.449	88.38
408.673	96.38
408.896	87.38
409.12	70.38
409.344	89.38
409.567	90.38
409.791	90.38
410.014	87.38
410.238	82.38
410.461	91.38
410.685	86.38
410.908	94.38
411.132	91.38
411.355	79.38
411.578	79.38
411.802	88.38
412.025	92.38
412.249	92.38
412.472	73.38
412.695	95.38
412.919	84.38
413.142	85.38
413.365	86.38
413.589	81.38
413.812	82.38
414.035	97.38
414.258	83.38
414.482	89.38
414.705	81.38
414.928	85.38
415.151	68.38
415.374	79.38
415.597	85.38
415.821	81.38
416.044	92.38
416.267	84.38
416.49	82.38
416.713	66.38
416.936	80.38
417.159	82.38
417.382	90.38
417.605	85.38
417.828	92.38
418.051	96.38
418.274	92.38
418.497	69.38
418.72	84.38
418.943	83.38
419.166	93.38
419.389	94.38
419.611	85.38
419.834	77.38
420.057	88.38
420.28	80.38
420.503	73.38
420.726	79.38
420.948	95.38
421.171	95.38
421.394	82.38
421.617	81.38
421.839	76.38
422.062	85.38
422.285	95.38
422.507	95.38
422.73	112.38
422.953	85.38
423.175	77.38
423.398	86.38
423.621	87.38
423.843	74.38
424.066	88.38
424.288	77.38
424.511	80.38
424.733	96.38
424.956	77.38
425.178	81.38
425.401	76.38
425.623	96.38
425.846	92.38
426.068	89.38
426.291	87.38
426.513	96.38
426.735	84.38
426.958	80.38
427.18	91.38
427.402	78.38
427.625	83.38
427.847	84.38
428.069	73.38
428.292	97.38
428.514	89.38
428.736	85.38
428.958	84.38
429.181	84.38
429.403	84.38
429.625	93.38
429.847	71.38
430.069	90.38
430.292	93.38
430.514	83.38
430.736	74.38
430.958	73.38
431.18	78.38
431.402	79.38
431.624	87.38
431.846	81.38
432.068	81.38
432.29	90.38
432.512	76.38
432.734	86.38
432.956	77.38
433.178	81.38
433.4	96.38
433.622	83.38
433.844	75.38
434.066	74.38
434.287	91.38
434.509	82.38
434.731	84.38
434.953	81.38
435.175	104.38
435.397	92.38
435.618	88.38
435.84	71.38
436.062	74.38
436.284	76.38
436.505	85.38
436.727	72.38
436.949	89.38
437.17	73.38
437.392	91.38
437.614	80.38
437.835	86.38
438.057	81.38
438.278	89.38
438.5	91.38
438.721	83.38
438.943	84.38
439.165	78.38
439.386	88.38
439.608	76.38
439.829	78.38
440.05	84.38
440.272	95.38
440.493	91.38
440.715	90.38
440.936	95.38
441.158	81.38
441.379	88.38
441.6	71.38
441.822	75.38
442.043	79.38
442.264	84.38
442.486	85.38
442.707	86.38
442.928	93.38
443.149	96.38
443.371	81.38
443.592	95.38
443.813	69.38
444.034	75.38
444.255	95.38
444.476	82.38
444.698	73.38
444.919	88.38
445.14	154.38
445.361	111.38
445.582	71.38
445.803	91.38
446.024	91.38
446.245	98.38
446.466	74.38
446.687	82.38
446.908	80.38
447.129	85.38
447.35	84.38
447.571	84.38
447.792	68.38
448.013	90.38
448.234	97.38
448.455	83.38
448.675	89.38
448.896	72.38
449.117	74.38
449.338	82.38
449.559	91.38
449.779	88.38
450	102.38
450.221	71.38
450.442	84.38
450.662	76.38
450.883	86.38
451.104	82.38
451.324	85.38
451.545	91.38
451.766	76.38
451.986	76.38
452.207	81.38
452.428	87.38
452.648	77.38
452.869	90.38
453.089	83.38
453.31	92.38
453.53	92.38
453.751	72.38
453.971	80.38
454.192	69.38
454.412	80.38
454.633	103.38
454.853	80.38
455.073	89.38
455.294	78.38
455.514	97.38
455.734	74.38
455.955	85.38
456.175	79.38
456.395	80.38
456.616	84.38
456.836	97.38
457.056	95.38
457.276	84.38
457.497	81.38
457.717	89.38
457.937	90.38
458.157	77.38
458.377	81.38
458.598	79.38
458.818	79.38
459.038	78.38
459.258	92.38
459.478	75.38
459.698	85.38
459.918	80.38
460.138	91.38
460.358	87.38
460.578	85.38
460.798	90.38
461.018	75.38
461.238	79.38
461.458	83.38
461.678	87.38
461.898	82.38
462.118	83.38
462.338	87.38
462.558	93.38
462.777	92.38
462.997	91.38
463.217	83.38
463.437	86.38
463.657	75.38
463.876	83.38
464.096	83.38
464.316	75.38
464.536	80.38
464.755	101.38
464.975	75.38
465.195	92.38
465.414	99.38
465.634	79.38
465.854	70.38
466.073	88.38
466.293	97.38
466.512	86.38
466.732	85.38
466.951	87.38
467.171	92.38
467.391	80.38
467.61	96.38
467.829	84.38
468.049	83.38
468.268	89.38
468.488	67.38
468.707	88.38
468.927	75.38
469.146	75.38
469.365	102.38
469.585	84.38
469.804	80.38
470.023	98.38
470.243	85.38
470.462	91.38
470.681	81.38
470.901	96.38
471.12	89.38
471.339	82.38
471.558	80.38
471.777	100.38
471.997	107.38
472.216	80.38
472.435	87.38
472.654	72.38
472.873	78.38
473.092	85.38
473.311	83.38
473.53	84.38
473.749	81.38
473.968	94.38
474.187	82.38
474.406	83.38
474.625	88.38
474.844	82.38
475.063	77.38
475.282	83.38
475.501	86.38
475.72	92.38
475.939	89.38
476.158	81.38
476.377	96.38
476.596	82.38
476.814	68.38
477.033	69.38
477.252	100.38
477.471	92.38
477.69	97.38
477.908	81.38
478.127	77.38
478.346	91.38
478.564	72.38
478.783	75.38
479.002	91.38
479.22	85.38
479.439	79.38
479.658	101.38
479.876	77.38
480.095	81.38
480.313	86.38
480.532	87.38
480.751	101.38
480.969	86.38
481.188	92.38
481.406	93.38
481.624	79.38
481.843	74.38
482.061	93.38
482.28	87.38
482.498	96.38
482.717	102.38
482.935	87.38
483.153	81.38
483.372	85.38
483.59	88.38
483.808	83.38
484.027	77.38
484.245	81.38
484.463	90.38
484.681	108.38
484.9	81.38
485.118	80.38
485.336	88.38
485.554	78.38
485.772	77.38
485.99	83.38
486.209	93.38
486.427	86.38
486.645	77.38
486.863	87.38
487.081	75.38
487.299	92.38
487.517	92.38
487.735	103.38
487.953	99.38
488.171	88.38
488.389	94.38
488.607	79.38
488.825	77.38
489.043	89.38
489.261	84.38
489.479	91.38
489.696	87.38
489.914	84.38
490.132	92.38
490.35	78.38
490.568	98.38
490.786	103.38
491.003	82.38
491.221	93.38
491.439	85.38
491.657	99.38
491.874	98.38
492.092	95.38
492.31	85.38
492.527	101.38
492.745	75.38
492.963	112.38
493.18	92.38
493.398	101.38
493.615	93.38
493.833	98.38
494.05	87.38
494.268	105.38
494.485	79.38
494.703	86.38
494.92	101.38
495.138	101.38
495.355	82.38
495.573	90.38
495.79	83.38
496.008	95.38
496.225	95.38
496.442	99.38
496.66	81.38
496.877	91.38
497.094	86.38
497.312	80.38
497.529	98.38
497.746	96.38
497.963	73.38
498.181	65.38
498.398	84.38
498.615	91.38
498.832	89.38
499.049	96.38
499.267	92.38
499.484	87.38
499.701	90.38
499.918	88.38
500.135	87.38
500.352	92.38
500.569	99.38
500.786	95.38
501.003	101.38
501.22	101.38
501.437	92.38
501.654	80.38
501.871	85.38
502.088	92.38
502.305	84.38
502.522	96.38
502.739	87.38
502.956	95.38
503.172	79.38
503.389	81.38
503.606	90.38
503.823	102.38
504.04	109.38
504.256	95.38
504.473	95.38
504.69	81.38
504.907	94.38
505.123	95.38
505.34	83.38
505.557	89.38
505.773	93.38
505.99	80.38
506.207	76.38
506.423	101.38
506.64	83.38
506.856	91.38
507.073	89.38
507.289	83.38
507.506	79.38
507.722	83.38
507.939	86.38
508.155	82.38
508.372	87.38
508.588	103.38
508.805	98.38
509.021	88.38
509.238	84.38
509.454	87.38
509.67	77.38
509.887	75.38
510.103	99.38
510.319	95.38
510.536	90.38
510.752	92.38
510.968	98.38
511.184	91.38
511.401	91.38
511.617	96.38
511.833	86.38
512.049	89.38
512.265	80.38
512.481	84.38
512.698	96.38
512.914	95.38
513.13	105.38
513.346	104.38
513.562	101.38
513.778	92.38
513.994	83.38
514.21	97.38
514.426	101.38
514.642	100.38
514.858	78.38
515.074	97.38
515.29	95.38
515.506	100.38
515.721	81.38
515.937	83.38
516.153	76.38
516.369	78.38
516.585	91.38
516.801	92.38
517.016	80.38
517.232	90.38
517.448	94.38
517.664	77.38
517.879	85.38
518.095	87.38
518.311	90.38
518.527	89.38
518.742	78.38
518.958	81.38
519.173	84.38
519.389	82.38
519.605	94.38
