Data from KBrHeat2_HRD10591_00012.txt Node
Date: Fri Dec 27 14:54:52 EST 2024
User: Yrep
Spectrometer: HR+D1059
Trigger mode: 1
Integration Time (sec): 1.000000E-1
Scans to average: 1
Electric dark correction enabled: true
Nonlinearity correction enabled: false
Boxcar width: 0
XAxis mode: Wavelengths
Number of Pixels in Spectrum: 2048
>>>>>Begin Spectral Data<<<<<
223.165	-29.25
223.4	-29.25
223.635	-29.25
223.869	-33.25
224.104	-27.25
224.338	-12.25
224.573	-9.25
224.808	-1.25
225.042	-2.25
225.277	-6.25
225.511	11.75
225.746	2.75
225.98	-0.25
226.215	21.75
226.449	4.75
226.683	17.75
226.918	24.75
227.152	37.75
227.387	35.75
227.621	45.75
227.856	36.75
228.09	61.75
228.324	45.75
228.559	43.75
228.793	56.75
229.027	49.75
229.262	60.75
229.496	57.75
229.73	75.75
229.964	64.75
230.199	75.75
230.433	56.75
230.667	75.75
230.901	77.75
231.136	76.75
231.37	75.75
231.604	85.75
231.838	81.75
232.072	85.75
232.306	85.75
232.541	78.75
232.775	74.75
233.009	78.75
233.243	84.75
233.477	93.75
233.711	97.75
233.945	61.75
234.179	63.75
234.413	86.75
234.647	77.75
234.881	88.75
235.115	75.75
235.349	76.75
235.583	77.75
235.817	82.75
236.051	70.75
236.285	72.75
236.519	92.75
236.753	69.75
236.987	79.75
237.221	91.75
237.455	81.75
237.689	76.75
237.922	77.75
238.156	74.75
238.39	79.75
238.624	85.75
238.858	78.75
239.091	75.75
239.325	71.75
239.559	74.75
239.793	75.75
240.027	86.75
240.26	74.75
240.494	77.75
240.728	69.75
240.961	71.75
241.195	86.75
241.429	88.75
241.662	67.75
241.896	89.75
242.13	75.75
242.363	67.75
242.597	87.75
242.83	73.75
243.064	77.75
243.298	63.75
243.531	80.75
243.765	73.75
243.998	78.75
244.232	90.75
244.465	76.75
244.699	75.75
244.932	73.75
245.166	79.75
245.399	88.75
245.633	73.75
245.866	73.75
246.099	62.75
246.333	88.75
246.566	66.75
246.8	73.75
247.033	68.75
247.266	61.75
247.5	64.75
247.733	67.75
247.966	67.75
248.2	74.75
248.433	73.75
248.666	72.75
248.899	72.75
249.133	82.75
249.366	89.75
249.599	64.75
249.832	84.75
250.066	73.75
250.299	72.75
250.532	74.75
250.765	74.75
250.998	71.75
251.231	69.75
251.465	78.75
251.698	74.75
251.931	69.75
252.164	90.75
252.397	79.75
252.63	88.75
252.863	58.75
253.096	69.75
253.329	77.75
253.562	80.75
253.795	83.75
254.028	78.75
254.261	78.75
254.494	67.75
254.727	79.75
254.96	71.75
255.193	66.75
255.426	89.75
255.659	79.75
255.892	77.75
256.124	83.75
256.357	71.75
256.59	78.75
256.823	81.75
257.056	79.75
257.289	71.75
257.521	74.75
257.754	92.75
257.987	74.75
258.22	79.75
258.452	71.75
258.685	77.75
258.918	77.75
259.151	83.75
259.383	82.75
259.616	78.75
259.849	79.75
260.081	77.75
260.314	87.75
260.547	74.75
260.779	81.75
261.012	77.75
261.244	78.75
261.477	82.75
261.71	88.75
261.942	82.75
262.175	73.75
262.407	71.75
262.64	72.75
262.872	64.75
263.105	84.75
263.337	80.75
263.57	86.75
263.802	81.75
264.035	77.75
264.267	70.75
264.499	80.75
264.732	74.75
264.964	71.75
265.197	84.75
265.429	97.75
265.661	87.75
265.894	84.75
266.126	75.75
266.358	81.75
266.591	66.75
266.823	76.75
267.055	90.75
267.287	79.75
267.52	78.75
267.752	81.75
267.984	84.75
268.216	86.75
268.448	82.75
268.681	85.75
268.913	87.75
269.145	75.75
269.377	85.75
269.609	81.75
269.841	77.75
270.073	67.75
270.306	85.75
270.538	84.75
270.77	79.75
271.002	87.75
271.234	82.75
271.466	90.75
271.698	94.75
271.93	87.75
272.162	85.75
272.394	83.75
272.626	87.75
272.858	81.75
273.09	87.75
273.322	78.75
273.553	74.75
273.785	79.75
274.017	82.75
274.249	76.75
274.481	82.75
274.713	85.75
274.945	82.75
275.176	76.75
275.408	85.75
275.64	75.75
275.872	91.75
276.104	85.75
276.335	91.75
276.567	88.75
276.799	91.75
277.031	67.75
277.262	73.75
277.494	89.75
277.726	78.75
277.957	84.75
278.189	85.75
278.421	91.75
278.652	83.75
278.884	79.75
279.115	85.75
279.347	87.75
279.579	86.75
279.81	86.75
280.042	72.75
280.273	89.75
280.505	82.75
280.736	85.75
280.968	80.75
281.199	86.75
281.431	76.75
281.662	89.75
281.894	82.75
282.125	77.75
282.356	90.75
282.588	92.75
282.819	98.75
283.051	85.75
283.282	78.75
283.513	82.75
283.745	74.75
283.976	78.75
284.207	83.75
284.439	94.75
284.67	87.75
284.901	85.75
285.132	81.75
285.364	81.75
285.595	79.75
285.826	78.75
286.057	89.75
286.288	86.75
286.52	92.75
286.751	91.75
286.982	84.75
287.213	91.75
287.444	73.75
287.675	100.75
287.906	77.75
288.138	77.75
288.369	81.75
288.6	69.75
288.831	99.75
289.062	98.75
289.293	89.75
289.524	79.75
289.755	83.75
289.986	100.75
290.217	83.75
290.448	79.75
290.679	93.75
290.91	90.75
291.141	83.75
291.371	99.75
291.602	79.75
291.833	95.75
292.064	68.75
292.295	84.75
292.526	91.75
292.757	82.75
292.987	99.75
293.218	95.75
293.449	86.75
293.68	103.75
293.91	87.75
294.141	77.75
294.372	89.75
294.603	74.75
294.833	93.75
295.064	90.75
295.295	78.75
295.525	89.75
295.756	82.75
295.987	84.75
296.217	74.75
296.448	97.75
296.679	68.75
296.909	81.75
297.14	72.75
297.37	75.75
297.601	78.75
297.831	88.75
298.062	84.75
298.292	99.75
298.523	89.75
298.753	79.75
298.984	88.75
299.214	83.75
299.445	91.75
299.675	95.75
299.905	92.75
300.136	82.75
300.366	79.75
300.597	84.75
300.827	87.75
301.057	76.75
301.288	89.75
301.518	93.75
301.748	93.75
301.979	98.75
302.209	71.75
302.439	84.75
302.669	92.75
302.9	78.75
303.13	79.75
303.36	72.75
303.59	85.75
303.82	94.75
304.051	93.75
304.281	74.75
304.511	90.75
304.741	87.75
304.971	78.75
305.201	87.75
305.431	88.75
305.661	83.75
305.891	78.75
306.121	83.75
306.352	82.75
306.582	68.75
306.812	88.75
307.042	74.75
307.272	90.75
307.502	97.75
307.731	83.75
307.961	87.75
308.191	86.75
308.421	91.75
308.651	91.75
308.881	92.75
309.111	91.75
309.341	71.75
309.571	84.75
309.8	81.75
310.03	95.75
310.26	83.75
310.49	75.75
310.72	86.75
310.949	67.75
311.179	93.75
311.409	85.75
311.639	84.75
311.868	92.75
312.098	88.75
312.328	62.75
312.557	79.75
312.787	95.75
313.017	83.75
313.246	86.75
313.476	83.75
313.706	84.75
313.935	83.75
314.165	94.75
314.394	80.75
314.624	101.75
314.853	84.75
315.083	91.75
315.312	98.75
315.542	90.75
315.771	85.75
316.001	72.75
316.23	99.75
316.46	82.75
316.689	90.75
316.919	82.75
317.148	80.75
317.377	79.75
317.607	86.75
317.836	84.75
318.065	85.75
318.295	88.75
318.524	81.75
318.753	85.75
318.983	92.75
319.212	74.75
319.441	81.75
319.67	75.75
319.9	103.75
320.129	84.75
320.358	62.75
320.587	83.75
320.816	86.75
321.046	92.75
321.275	94.75
321.504	87.75
321.733	84.75
321.962	88.75
322.191	78.75
322.42	88.75
322.649	85.75
322.878	86.75
323.108	78.75
323.337	88.75
323.566	82.75
323.795	88.75
324.024	85.75
324.253	75.75
324.482	70.75
324.71	94.75
324.939	86.75
325.168	92.75
325.397	86.75
325.626	89.75
325.855	92.75
326.084	90.75
326.313	94.75
326.542	85.75
326.77	91.75
326.999	90.75
327.228	88.75
327.457	75.75
327.686	72.75
327.914	82.75
328.143	101.75
328.372	87.75
328.6	77.75
328.829	88.75
329.058	78.75
329.287	79.75
329.515	90.75
329.744	62.75
329.972	87.75
330.201	81.75
330.43	77.75
330.658	78.75
330.887	73.75
331.115	76.75
331.344	81.75
331.572	99.75
331.801	86.75
332.03	86.75
332.258	86.75
332.486	80.75
332.715	80.75
332.943	86.75
333.172	87.75
333.4	82.75
333.629	100.75
333.857	87.75
334.085	80.75
334.314	82.75
334.542	77.75
334.771	83.75
334.999	66.75
335.227	81.75
335.455	92.75
335.684	86.75
335.912	94.75
336.14	83.75
336.369	74.75
336.597	81.75
336.825	89.75
337.053	81.75
337.281	93.75
337.51	95.75
337.738	78.75
337.966	79.75
338.194	79.75
338.422	69.75
338.65	85.75
338.878	89.75
339.106	92.75
339.334	87.75
339.562	94.75
339.79	85.75
340.018	77.75
340.246	92.75
340.474	81.75
340.702	73.75
340.93	92.75
341.158	88.75
341.386	83.75
341.614	82.75
341.842	76.75
342.07	99.75
342.298	93.75
342.526	87.75
342.754	84.75
342.981	90.75
343.209	85.75
343.437	110.75
343.665	89.75
343.893	97.75
344.12	89.75
344.348	103.75
344.576	83.75
344.804	108.75
345.031	95.75
345.259	89.75
345.487	83.75
345.714	86.75
345.942	91.75
346.17	86.75
346.397	74.75
346.625	99.75
346.853	91.75
347.08	79.75
347.308	84.75
347.535	85.75
347.763	86.75
347.99	84.75
348.218	91.75
348.445	87.75
348.673	81.75
348.9	91.75
349.128	100.75
349.355	90.75
349.583	85.75
349.81	79.75
350.037	82.75
350.265	91.75
350.492	94.75
350.72	84.75
350.947	74.75
351.174	87.75
351.402	82.75
351.629	106.75
351.856	86.75
352.083	85.75
352.311	93.75
352.538	94.75
352.765	90.75
352.992	98.75
353.22	79.75
353.447	88.75
353.674	72.75
353.901	87.75
354.128	74.75
354.355	87.75
354.583	91.75
354.81	66.75
355.037	86.75
355.264	96.75
355.491	86.75
355.718	99.75
355.945	79.75
356.172	81.75
356.399	91.75
356.626	87.75
356.853	89.75
357.08	86.75
357.307	84.75
357.534	85.75
357.761	86.75
357.988	86.75
358.215	86.75
358.441	95.75
358.668	84.75
358.895	83.75
359.122	77.75
359.349	92.75
359.576	99.75
359.802	89.75
360.029	94.75
360.256	75.75
360.483	96.75
360.709	93.75
360.936	101.75
361.163	83.75
361.39	90.75
361.616	81.75
361.843	83.75
362.07	92.75
362.296	93.75
362.523	100.75
362.749	87.75
362.976	84.75
363.203	93.75
363.429	74.75
363.656	92.75
363.882	85.75
364.109	93.75
364.335	100.75
364.562	98.75
364.788	83.75
365.015	93.75
365.241	81.75
365.468	84.75
365.694	80.75
365.92	87.75
366.147	101.75
366.373	81.75
366.599	81.75
366.826	69.75
367.052	101.75
367.278	94.75
367.505	77.75
367.731	82.75
367.957	88.75
368.184	83.75
368.41	75.75
368.636	86.75
368.862	91.75
369.089	101.75
369.315	88.75
369.541	86.75
369.767	78.75
369.993	87.75
370.219	71.75
370.445	73.75
370.672	91.75
370.898	77.75
371.124	77.75
371.35	81.75
371.576	85.75
371.802	69.75
372.028	81.75
372.254	76.75
372.48	92.75
372.706	89.75
372.932	75.75
373.158	85.75
373.384	90.75
373.61	86.75
373.835	86.75
374.061	82.75
374.287	86.75
374.513	89.75
374.739	91.75
374.965	86.75
375.191	78.75
375.416	68.75
375.642	88.75
375.868	95.75
376.094	88.75
376.319	85.75
376.545	85.75
376.771	89.75
376.997	87.75
377.222	78.75
377.448	99.75
377.674	91.75
377.899	86.75
378.125	99.75
378.35	75.75
378.576	89.75
378.802	78.75
379.027	89.75
379.253	87.75
379.478	80.75
379.704	86.75
379.929	98.75
380.155	77.75
380.38	80.75
380.606	84.75
380.831	86.75
381.057	99.75
381.282	96.75
381.507	86.75
381.733	90.75
381.958	92.75
382.184	79.75
382.409	78.75
382.634	79.75
382.86	94.75
383.085	86.75
383.31	90.75
383.535	98.75
383.761	88.75
383.986	89.75
384.211	81.75
384.436	78.75
384.662	88.75
384.887	90.75
385.112	91.75
385.337	81.75
385.562	64.75
385.787	86.75
386.013	86.75
386.238	83.75
386.463	81.75
386.688	96.75
386.913	86.75
387.138	83.75
387.363	77.75
387.588	93.75
387.813	90.75
388.038	75.75
388.263	86.75
388.488	80.75
388.713	94.75
388.938	87.75
389.163	86.75
389.387	77.75
389.612	89.75
389.837	87.75
390.062	88.75
390.287	103.75
390.512	81.75
390.736	90.75
390.961	78.75
391.186	99.75
391.411	80.75
391.636	92.75
391.86	76.75
392.085	92.75
392.31	85.75
392.534	73.75
392.759	86.75
392.984	85.75
393.208	91.75
393.433	88.75
393.658	87.75
393.882	95.75
394.107	74.75
394.331	98.75
394.556	77.75
394.78	73.75
395.005	83.75
395.229	82.75
395.454	75.75
395.678	74.75
395.903	85.75
396.127	88.75
396.352	76.75
396.576	79.75
396.801	87.75
397.025	98.75
397.249	89.75
397.474	88.75
397.698	85.75
397.922	87.75
398.147	89.75
398.371	94.75
398.595	76.75
398.82	85.75
399.044	86.75
399.268	81.75
399.492	81.75
399.717	84.75
399.941	78.75
400.165	94.75
400.389	88.75
400.613	74.75
400.837	78.75
401.062	82.75
401.286	94.75
401.51	95.75
401.734	71.75
401.958	86.75
402.182	101.75
402.406	91.75
402.63	88.75
402.854	94.75
403.078	92.75
403.302	92.75
403.526	102.75
403.75	86.75
403.974	124.75
404.198	134.75
404.422	180.75
404.645	182.75
404.869	169.75
405.093	126.75
405.317	111.75
405.541	87.75
405.765	105.75
405.988	93.75
406.212	86.75
406.436	95.75
406.66	83.75
406.883	89.75
407.107	84.75
407.331	85.75
407.555	97.75
407.778	83.75
408.002	82.75
408.226	89.75
408.449	94.75
408.673	85.75
408.896	92.75
409.12	78.75
409.344	77.75
409.567	88.75
409.791	94.75
410.014	93.75
410.238	95.75
410.461	89.75
410.685	97.75
410.908	85.75
411.132	88.75
411.355	95.75
411.578	76.75
411.802	85.75
412.025	86.75
412.249	99.75
412.472	75.75
412.695	79.75
412.919	90.75
413.142	93.75
413.365	82.75
413.589	82.75
413.812	72.75
414.035	92.75
414.258	89.75
414.482	92.75
414.705	74.75
414.928	97.75
415.151	101.75
415.374	92.75
415.597	90.75
415.821	86.75
416.044	84.75
416.267	97.75
416.49	96.75
416.713	82.75
416.936	98.75
417.159	79.75
417.382	93.75
417.605	79.75
417.828	92.75
418.051	91.75
418.274	86.75
418.497	89.75
418.72	94.75
418.943	79.75
419.166	85.75
419.389	97.75
419.611	82.75
419.834	84.75
420.057	90.75
420.28	76.75
420.503	90.75
420.726	88.75
420.948	89.75
421.171	73.75
421.394	89.75
421.617	76.75
421.839	86.75
422.062	73.75
422.285	85.75
422.507	84.75
422.73	94.75
422.953	86.75
423.175	95.75
423.398	81.75
423.621	98.75
423.843	100.75
424.066	89.75
424.288	89.75
424.511	83.75
424.733	82.75
424.956	103.75
425.178	84.75
425.401	91.75
425.623	99.75
425.846	83.75
426.068	79.75
426.291	75.75
426.513	75.75
426.735	93.75
426.958	80.75
427.18	87.75
427.402	83.75
427.625	87.75
427.847	98.75
428.069	85.75
428.292	80.75
428.514	76.75
428.736	95.75
428.958	85.75
429.181	79.75
429.403	91.75
429.625	82.75
429.847	83.75
430.069	83.75
430.292	86.75
430.514	83.75
430.736	89.75
430.958	88.75
431.18	86.75
431.402	89.75
431.624	75.75
431.846	84.75
432.068	86.75
432.29	85.75
432.512	70.75
432.734	91.75
432.956	76.75
433.178	92.75
433.4	88.75
433.622	81.75
433.844	83.75
434.066	100.75
434.287	73.75
434.509	84.75
434.731	70.75
434.953	86.75
435.175	93.75
435.397	88.75
435.618	78.75
435.84	89.75
436.062	91.75
436.284	82.75
436.505	96.75
436.727	97.75
436.949	78.75
437.17	93.75
437.392	85.75
437.614	91.75
437.835	83.75
438.057	85.75
438.278	89.75
438.5	91.75
438.721	93.75
438.943	70.75
439.165	100.75
439.386	88.75
439.608	95.75
439.829	90.75
440.05	82.75
440.272	91.75
440.493	94.75
440.715	82.75
440.936	94.75
441.158	89.75
441.379	78.75
441.6	88.75
441.822	89.75
442.043	97.75
442.264	78.75
442.486	90.75
442.707	87.75
442.928	78.75
443.149	90.75
443.371	90.75
443.592	90.75
443.813	74.75
444.034	90.75
444.255	97.75
444.476	96.75
444.698	86.75
444.919	94.75
445.14	127.75
445.361	106.75
445.582	82.75
445.803	88.75
446.024	84.75
446.245	93.75
446.466	83.75
446.687	83.75
446.908	104.75
447.129	100.75
447.35	89.75
447.571	81.75
447.792	85.75
448.013	76.75
448.234	86.75
448.455	92.75
448.675	70.75
448.896	85.75
449.117	85.75
449.338	92.75
449.559	68.75
449.779	80.75
450	99.75
450.221	90.75
450.442	79.75
450.662	90.75
450.883	81.75
451.104	86.75
451.324	80.75
451.545	78.75
451.766	89.75
451.986	75.75
452.207	85.75
452.428	84.75
452.648	103.75
452.869	97.75
453.089	90.75
453.31	84.75
453.53	85.75
453.751	99.75
453.971	90.75
454.192	83.75
454.412	74.75
454.633	86.75
454.853	88.75
455.073	69.75
455.294	78.75
455.514	103.75
455.734	81.75
455.955	111.75
456.175	96.75
456.395	92.75
456.616	81.75
456.836	84.75
457.056	90.75
457.276	71.75
457.497	78.75
457.717	86.75
457.937	83.75
458.157	83.75
458.377	103.75
458.598	76.75
458.818	85.75
459.038	92.75
459.258	74.75
459.478	85.75
459.698	90.75
459.918	81.75
460.138	76.75
460.358	89.75
460.578	79.75
460.798	78.75
461.018	84.75
461.238	74.75
461.458	88.75
461.678	101.75
461.898	93.75
462.118	65.75
462.338	67.75
462.558	96.75
462.777	93.75
462.997	97.75
463.217	87.75
463.437	82.75
463.657	86.75
463.876	90.75
464.096	89.75
464.316	70.75
464.536	78.75
464.755	83.75
464.975	79.75
465.195	88.75
465.414	84.75
465.634	90.75
465.854	89.75
466.073	85.75
466.293	85.75
466.512	73.75
466.732	91.75
466.951	66.75
467.171	80.75
467.391	91.75
467.61	89.75
467.829	88.75
468.049	81.75
468.268	94.75
468.488	88.75
468.707	83.75
468.927	96.75
469.146	80.75
469.365	92.75
469.585	88.75
469.804	82.75
470.023	84.75
470.243	84.75
470.462	97.75
470.681	86.75
470.901	96.75
471.12	85.75
471.339	105.75
471.558	89.75
471.777	96.75
471.997	110.75
472.216	91.75
472.435	102.75
472.654	98.75
472.873	111.75
473.092	86.75
473.311	81.75
473.53	86.75
473.749	89.75
473.968	98.75
474.187	78.75
474.406	76.75
474.625	93.75
474.844	84.75
475.063	93.75
475.282	86.75
475.501	90.75
475.72	97.75
475.939	79.75
476.158	88.75
476.377	100.75
476.596	86.75
476.814	84.75
477.033	84.75
477.252	85.75
477.471	102.75
477.69	97.75
477.908	83.75
478.127	86.75
478.346	86.75
478.564	87.75
478.783	93.75
479.002	82.75
479.22	77.75
479.439	94.75
479.658	92.75
479.876	85.75
480.095	95.75
480.313	99.75
480.532	93.75
480.751	90.75
480.969	89.75
481.188	85.75
481.406	88.75
481.624	101.75
481.843	85.75
482.061	97.75
482.28	85.75
482.498	101.75
482.717	84.75
482.935	94.75
483.153	93.75
483.372	92.75
483.59	103.75
483.808	84.75
484.027	97.75
484.245	83.75
484.463	101.75
484.681	105.75
484.9	91.75
485.118	77.75
485.336	74.75
485.554	86.75
485.772	101.75
485.99	92.75
486.209	87.75
486.427	97.75
486.645	94.75
486.863	102.75
487.081	99.75
487.299	90.75
487.517	81.75
487.735	84.75
487.953	91.75
488.171	111.75
488.389	106.75
488.607	93.75
488.825	91.75
489.043	75.75
489.261	87.75
489.479	75.75
489.696	96.75
489.914	86.75
490.132	91.75
490.35	84.75
490.568	94.75
490.786	76.75
491.003	87.75
491.221	100.75
491.439	97.75
491.657	98.75
491.874	109.75
492.092	101.75
492.31	102.75
492.527	94.75
492.745	83.75
492.963	89.75
493.18	94.75
493.398	90.75
493.615	90.75
493.833	90.75
494.05	81.75
494.268	93.75
494.485	94.75
494.703	94.75
494.92	90.75
495.138	76.75
495.355	86.75
495.573	102.75
495.79	90.75
496.008	98.75
496.225	107.75
496.442	84.75
496.66	98.75
496.877	81.75
497.094	103.75
497.312	103.75
497.529	91.75
497.746	93.75
497.963	91.75
498.181	92.75
498.398	80.75
498.615	90.75
498.832	74.75
499.049	83.75
499.267	90.75
499.484	97.75
499.701	79.75
499.918	91.75
500.135	103.75
500.352	91.75
500.569	94.75
500.786	92.75
501.003	80.75
501.22	102.75
501.437	83.75
501.654	79.75
501.871	85.75
502.088	89.75
502.305	84.75
502.522	86.75
502.739	84.75
502.956	97.75
503.172	100.75
503.389	82.75
503.606	72.75
503.823	93.75
504.04	102.75
504.256	89.75
504.473	90.75
504.69	85.75
504.907	89.75
505.123	72.75
505.34	78.75
505.557	88.75
505.773	95.75
505.99	101.75
506.207	83.75
506.423	92.75
506.64	94.75
506.856	84.75
507.073	99.75
507.289	88.75
507.506	107.75
507.722	96.75
507.939	73.75
508.155	97.75
508.372	78.75
508.588	89.75
508.805	83.75
509.021	98.75
509.238	80.75
509.454	83.75
509.67	95.75
509.887	87.75
510.103	96.75
510.319	103.75
510.536	97.75
510.752	89.75
510.968	105.75
511.184	78.75
511.401	92.75
511.617	91.75
511.833	79.75
512.049	76.75
512.265	99.75
512.481	97.75
512.698	107.75
512.914	104.75
513.13	81.75
513.346	91.75
513.562	82.75
513.778	81.75
513.994	102.75
514.21	81.75
514.426	92.75
514.642	97.75
514.858	96.75
515.074	94.75
515.29	82.75
515.506	82.75
515.721	87.75
515.937	79.75
516.153	83.75
516.369	90.75
516.585	85.75
516.801	89.75
517.016	93.75
517.232	85.75
517.448	90.75
517.664	90.75
517.879	77.75
518.095	91.75
518.311	98.75
518.527	88.75
518.742	85.75
518.958	93.75
519.173	89.75
