Data from KBrHeat2_HRD10591_00004.txt Node
Date: Fri Dec 27 14:54:44 EST 2024
User: Yrep
Spectrometer: HR+D1059
Trigger mode: 1
Integration Time (sec): 1.000000E-1
Scans to average: 1
Electric dark correction enabled: true
Nonlinearity correction enabled: false
Boxcar width: 0
XAxis mode: Wavelengths
Number of Pixels in Spectrum: 2048
>>>>>Begin Spectral Data<<<<<
223.165	3.81
223.4	3.81
223.635	3.81
223.869	-24.19
224.104	-36.19
224.338	-20.19
224.573	-23.19
224.808	-10.19
225.042	-8.19
225.277	4.81
225.511	-6.19
225.746	2.81
225.98	16.81
226.215	-0.19
226.449	25.81
226.683	26.81
226.918	20.81
227.152	26.81
227.387	53.81
227.621	43.81
227.856	53.81
228.09	50.81
228.324	49.81
228.559	50.81
228.793	52.81
229.027	62.81
229.262	63.81
229.496	71.81
229.73	69.81
229.964	72.81
230.199	67.81
230.433	68.81
230.667	70.81
230.901	87.81
231.136	78.81
231.37	73.81
231.604	62.81
231.838	87.81
232.072	93.81
232.306	77.81
232.541	82.81
232.775	79.81
233.009	80.81
233.243	59.81
233.477	85.81
233.711	76.81
233.945	79.81
234.179	72.81
234.413	83.81
234.647	76.81
234.881	82.81
235.115	76.81
235.349	70.81
235.583	71.81
235.817	81.81
236.051	78.81
236.285	79.81
236.519	74.81
236.753	86.81
236.987	74.81
237.221	80.81
237.455	72.81
237.689	77.81
237.922	71.81
238.156	72.81
238.39	71.81
238.624	78.81
238.858	71.81
239.091	66.81
239.325	89.81
239.559	77.81
239.793	75.81
240.027	85.81
240.26	83.81
240.494	73.81
240.728	75.81
240.961	68.81
241.195	83.81
241.429	78.81
241.662	81.81
241.896	75.81
242.13	70.81
242.363	72.81
242.597	75.81
242.83	72.81
243.064	81.81
243.298	77.81
243.531	62.81
243.765	76.81
243.998	75.81
244.232	81.81
244.465	85.81
244.699	78.81
244.932	82.81
245.166	83.81
245.399	72.81
245.633	64.81
245.866	81.81
246.099	77.81
246.333	66.81
246.566	70.81
246.8	75.81
247.033	71.81
247.266	74.81
247.5	72.81
247.733	71.81
247.966	90.81
248.2	79.81
248.433	94.81
248.666	77.81
248.899	73.81
249.133	75.81
249.366	74.81
249.599	82.81
249.832	58.81
250.066	73.81
250.299	89.81
250.532	83.81
250.765	69.81
250.998	77.81
251.231	67.81
251.465	80.81
251.698	68.81
251.931	76.81
252.164	64.81
252.397	75.81
252.63	81.81
252.863	77.81
253.096	82.81
253.329	98.81
253.562	76.81
253.795	96.81
254.028	77.81
254.261	91.81
254.494	79.81
254.727	68.81
254.96	66.81
255.193	88.81
255.426	80.81
255.659	69.81
255.892	81.81
256.124	78.81
256.357	72.81
256.59	81.81
256.823	76.81
257.056	77.81
257.289	77.81
257.521	83.81
257.754	79.81
257.987	75.81
258.22	89.81
258.452	76.81
258.685	75.81
258.918	84.81
259.151	84.81
259.383	91.81
259.616	81.81
259.849	77.81
260.081	73.81
260.314	76.81
260.547	81.81
260.779	65.81
261.012	81.81
261.244	89.81
261.477	73.81
261.71	84.81
261.942	75.81
262.175	87.81
262.407	78.81
262.64	72.81
262.872	74.81
263.105	93.81
263.337	85.81
263.57	78.81
263.802	73.81
264.035	77.81
264.267	85.81
264.499	82.81
264.732	80.81
264.964	70.81
265.197	84.81
265.429	93.81
265.661	84.81
265.894	92.81
266.126	77.81
266.358	81.81
266.591	67.81
266.823	84.81
267.055	76.81
267.287	84.81
267.52	75.81
267.752	85.81
267.984	76.81
268.216	79.81
268.448	77.81
268.681	81.81
268.913	85.81
269.145	80.81
269.377	85.81
269.609	76.81
269.841	74.81
270.073	89.81
270.306	102.81
270.538	88.81
270.77	83.81
271.002	98.81
271.234	95.81
271.466	87.81
271.698	87.81
271.93	80.81
272.162	83.81
272.394	90.81
272.626	77.81
272.858	85.81
273.09	97.81
273.322	80.81
273.553	80.81
273.785	78.81
274.017	86.81
274.249	82.81
274.481	78.81
274.713	77.81
274.945	87.81
275.176	77.81
275.408	77.81
275.64	103.81
275.872	90.81
276.104	92.81
276.335	77.81
276.567	97.81
276.799	87.81
277.031	82.81
277.262	83.81
277.494	83.81
277.726	79.81
277.957	79.81
278.189	73.81
278.421	95.81
278.652	76.81
278.884	84.81
279.115	82.81
279.347	91.81
279.579	86.81
279.81	73.81
280.042	60.81
280.273	73.81
280.505	73.81
280.736	84.81
280.968	89.81
281.199	89.81
281.431	74.81
281.662	89.81
281.894	82.81
282.125	87.81
282.356	100.81
282.588	77.81
282.819	78.81
283.051	72.81
283.282	80.81
283.513	100.81
283.745	85.81
283.976	69.81
284.207	77.81
284.439	84.81
284.67	91.81
284.901	72.81
285.132	78.81
285.364	91.81
285.595	82.81
285.826	84.81
286.057	94.81
286.288	93.81
286.52	80.81
286.751	82.81
286.982	87.81
287.213	98.81
287.444	81.81
287.675	73.81
287.906	84.81
288.138	89.81
288.369	73.81
288.6	101.81
288.831	83.81
289.062	84.81
289.293	84.81
289.524	69.81
289.755	93.81
289.986	88.81
290.217	97.81
290.448	79.81
290.679	85.81
290.91	80.81
291.141	72.81
291.371	89.81
291.602	88.81
291.833	100.81
292.064	71.81
292.295	80.81
292.526	88.81
292.757	85.81
292.987	82.81
293.218	77.81
293.449	92.81
293.68	83.81
293.91	102.81
294.141	97.81
294.372	96.81
294.603	93.81
294.833	79.81
295.064	96.81
295.295	80.81
295.525	90.81
295.756	85.81
295.987	88.81
296.217	97.81
296.448	88.81
296.679	83.81
296.909	98.81
297.14	84.81
297.37	85.81
297.601	71.81
297.831	70.81
298.062	81.81
298.292	74.81
298.523	74.81
298.753	80.81
298.984	85.81
299.214	82.81
299.445	91.81
299.675	75.81
299.905	92.81
300.136	89.81
300.366	90.81
300.597	80.81
300.827	81.81
301.057	90.81
301.288	85.81
301.518	79.81
301.748	75.81
301.979	114.81
302.209	84.81
302.439	71.81
302.669	87.81
302.9	79.81
303.13	89.81
303.36	87.81
303.59	99.81
303.82	77.81
304.051	109.81
304.281	73.81
304.511	91.81
304.741	87.81
304.971	85.81
305.201	82.81
305.431	90.81
305.661	70.81
305.891	96.81
306.121	91.81
306.352	87.81
306.582	74.81
306.812	93.81
307.042	89.81
307.272	91.81
307.502	89.81
307.731	79.81
307.961	85.81
308.191	87.81
308.421	87.81
308.651	84.81
308.881	61.81
309.111	75.81
309.341	90.81
309.571	88.81
309.8	85.81
310.03	75.81
310.26	99.81
310.49	96.81
310.72	79.81
310.949	88.81
311.179	95.81
311.409	83.81
311.639	89.81
311.868	102.81
312.098	72.81
312.328	80.81
312.557	86.81
312.787	92.81
313.017	100.81
313.246	72.81
313.476	77.81
313.706	91.81
313.935	85.81
314.165	93.81
314.394	99.81
314.624	88.81
314.853	86.81
315.083	81.81
315.312	90.81
315.542	70.81
315.771	89.81
316.001	85.81
316.23	77.81
316.46	76.81
316.689	101.81
316.919	83.81
317.148	83.81
317.377	81.81
317.607	77.81
317.836	75.81
318.065	91.81
318.295	88.81
318.524	93.81
318.753	88.81
318.983	72.81
319.212	82.81
319.441	70.81
319.67	85.81
319.9	99.81
320.129	72.81
320.358	98.81
320.587	85.81
320.816	87.81
321.046	91.81
321.275	91.81
321.504	86.81
321.733	77.81
321.962	82.81
322.191	91.81
322.42	96.81
322.649	87.81
322.878	90.81
323.108	93.81
323.337	85.81
323.566	80.81
323.795	88.81
324.024	92.81
324.253	81.81
324.482	96.81
324.71	92.81
324.939	83.81
325.168	82.81
325.397	92.81
325.626	91.81
325.855	70.81
326.084	59.81
326.313	63.81
326.542	78.81
326.77	85.81
326.999	81.81
327.228	89.81
327.457	83.81
327.686	83.81
327.914	83.81
328.143	80.81
328.372	89.81
328.6	81.81
328.829	88.81
329.058	90.81
329.287	89.81
329.515	84.81
329.744	85.81
329.972	93.81
330.201	86.81
330.43	88.81
330.658	98.81
330.887	84.81
331.115	91.81
331.344	83.81
331.572	100.81
331.801	93.81
332.03	81.81
332.258	84.81
332.486	72.81
332.715	85.81
332.943	79.81
333.172	93.81
333.4	80.81
333.629	91.81
333.857	93.81
334.085	75.81
334.314	98.81
334.542	80.81
334.771	77.81
334.999	97.81
335.227	87.81
335.455	78.81
335.684	92.81
335.912	89.81
336.14	96.81
336.369	82.81
336.597	96.81
336.825	89.81
337.053	89.81
337.281	87.81
337.51	88.81
337.738	93.81
337.966	76.81
338.194	80.81
338.422	93.81
338.65	81.81
338.878	96.81
339.106	70.81
339.334	86.81
339.562	82.81
339.79	80.81
340.018	87.81
340.246	85.81
340.474	80.81
340.702	88.81
340.93	89.81
341.158	81.81
341.386	93.81
341.614	81.81
341.842	97.81
342.07	71.81
342.298	78.81
342.526	87.81
342.754	93.81
342.981	90.81
343.209	96.81
343.437	86.81
343.665	87.81
343.893	96.81
344.12	108.81
344.348	81.81
344.576	87.81
344.804	99.81
345.031	94.81
345.259	82.81
345.487	89.81
345.714	92.81
345.942	78.81
346.17	102.81
346.397	87.81
346.625	91.81
346.853	90.81
347.08	73.81
347.308	92.81
347.535	89.81
347.763	92.81
347.99	92.81
348.218	88.81
348.445	88.81
348.673	73.81
348.9	94.81
349.128	87.81
349.355	83.81
349.583	83.81
349.81	69.81
350.037	101.81
350.265	76.81
350.492	89.81
350.72	82.81
350.947	80.81
351.174	90.81
351.402	84.81
351.629	80.81
351.856	99.81
352.083	91.81
352.311	85.81
352.538	81.81
352.765	83.81
352.992	102.81
353.22	87.81
353.447	92.81
353.674	77.81
353.901	79.81
354.128	80.81
354.355	81.81
354.583	90.81
354.81	89.81
355.037	100.81
355.264	86.81
355.491	84.81
355.718	86.81
355.945	89.81
356.172	86.81
356.399	74.81
356.626	94.81
356.853	83.81
357.08	87.81
357.307	97.81
357.534	81.81
357.761	92.81
357.988	95.81
358.215	94.81
358.441	99.81
358.668	81.81
358.895	96.81
359.122	88.81
359.349	83.81
359.576	82.81
359.802	102.81
360.029	91.81
360.256	96.81
360.483	76.81
360.709	79.81
360.936	92.81
361.163	97.81
361.39	96.81
361.616	92.81
361.843	84.81
362.07	94.81
362.296	91.81
362.523	85.81
362.749	81.81
362.976	88.81
363.203	92.81
363.429	83.81
363.656	80.81
363.882	94.81
364.109	96.81
364.335	73.81
364.562	96.81
364.788	88.81
365.015	76.81
365.241	66.81
365.468	76.81
365.694	91.81
365.92	89.81
366.147	72.81
366.373	96.81
366.599	96.81
366.826	81.81
367.052	87.81
367.278	89.81
367.505	85.81
367.731	96.81
367.957	74.81
368.184	84.81
368.41	74.81
368.636	73.81
368.862	99.81
369.089	83.81
369.315	84.81
369.541	91.81
369.767	91.81
369.993	102.81
370.219	91.81
370.445	89.81
370.672	80.81
370.898	73.81
371.124	92.81
371.35	88.81
371.576	85.81
371.802	82.81
372.028	100.81
372.254	86.81
372.48	81.81
372.706	76.81
372.932	97.81
373.158	67.81
373.384	87.81
373.61	73.81
373.835	88.81
374.061	72.81
374.287	81.81
374.513	89.81
374.739	93.81
374.965	101.81
375.191	78.81
375.416	86.81
375.642	76.81
375.868	81.81
376.094	78.81
376.319	80.81
376.545	92.81
376.771	93.81
376.997	94.81
377.222	100.81
377.448	75.81
377.674	85.81
377.899	92.81
378.125	86.81
378.35	86.81
378.576	81.81
378.802	84.81
379.027	86.81
379.253	86.81
379.478	79.81
379.704	97.81
379.929	85.81
380.155	89.81
380.38	70.81
380.606	86.81
380.831	77.81
381.057	88.81
381.282	86.81
381.507	77.81
381.733	85.81
381.958	86.81
382.184	75.81
382.409	81.81
382.634	84.81
382.86	84.81
383.085	84.81
383.31	84.81
383.535	105.81
383.761	98.81
383.986	81.81
384.211	85.81
384.436	83.81
384.662	76.81
384.887	72.81
385.112	70.81
385.337	90.81
385.562	100.81
385.787	78.81
386.013	97.81
386.238	82.81
386.463	84.81
386.688	87.81
386.913	77.81
387.138	80.81
387.363	92.81
387.588	86.81
387.813	86.81
388.038	76.81
388.263	82.81
388.488	81.81
388.713	73.81
388.938	76.81
389.163	89.81
389.387	82.81
389.612	76.81
389.837	82.81
390.062	93.81
390.287	94.81
390.512	72.81
390.736	65.81
390.961	90.81
391.186	99.81
391.411	78.81
391.636	95.81
391.86	82.81
392.085	85.81
392.31	79.81
392.534	86.81
392.759	86.81
392.984	91.81
393.208	77.81
393.433	81.81
393.658	77.81
393.882	82.81
394.107	84.81
394.331	93.81
394.556	96.81
394.78	90.81
395.005	89.81
395.229	78.81
395.454	80.81
395.678	99.81
395.903	84.81
396.127	80.81
396.352	85.81
396.576	79.81
396.801	93.81
397.025	85.81
397.249	98.81
397.474	95.81
397.698	85.81
397.922	84.81
398.147	84.81
398.371	74.81
398.595	89.81
398.82	85.81
399.044	91.81
399.268	97.81
399.492	84.81
399.717	92.81
399.941	93.81
400.165	79.81
400.389	86.81
400.613	87.81
400.837	94.81
401.062	83.81
401.286	88.81
401.51	98.81
401.734	82.81
401.958	94.81
402.182	89.81
402.406	97.81
402.63	82.81
402.854	91.81
403.078	91.81
403.302	93.81
403.526	97.81
403.75	95.81
403.974	104.81
404.198	146.81
404.422	211.81
404.645	233.81
404.869	198.81
405.093	150.81
405.317	110.81
405.541	105.81
405.765	88.81
405.988	100.81
406.212	88.81
406.436	98.81
406.66	84.81
406.883	98.81
407.107	85.81
407.331	71.81
407.555	86.81
407.778	79.81
408.002	89.81
408.226	90.81
408.449	91.81
408.673	82.81
408.896	93.81
409.12	81.81
409.344	77.81
409.567	85.81
409.791	89.81
410.014	89.81
410.238	79.81
410.461	80.81
410.685	85.81
410.908	63.81
411.132	72.81
411.355	85.81
411.578	92.81
411.802	88.81
412.025	83.81
412.249	91.81
412.472	88.81
412.695	95.81
412.919	99.81
413.142	93.81
413.365	93.81
413.589	92.81
413.812	84.81
414.035	96.81
414.258	86.81
414.482	92.81
414.705	87.81
414.928	83.81
415.151	85.81
415.374	92.81
415.597	90.81
415.821	94.81
416.044	83.81
416.267	86.81
416.49	100.81
416.713	87.81
416.936	96.81
417.159	102.81
417.382	90.81
417.605	98.81
417.828	92.81
418.051	72.81
418.274	75.81
418.497	90.81
418.72	76.81
418.943	80.81
419.166	88.81
419.389	86.81
419.611	99.81
419.834	80.81
420.057	87.81
420.28	76.81
420.503	86.81
420.726	78.81
420.948	61.81
421.171	83.81
421.394	89.81
421.617	99.81
421.839	89.81
422.062	83.81
422.285	97.81
422.507	83.81
422.73	100.81
422.953	94.81
423.175	77.81
423.398	92.81
423.621	91.81
423.843	90.81
424.066	85.81
424.288	70.81
424.511	86.81
424.733	75.81
424.956	79.81
425.178	87.81
425.401	78.81
425.623	84.81
425.846	80.81
426.068	85.81
426.291	92.81
426.513	92.81
426.735	97.81
426.958	80.81
427.18	78.81
427.402	86.81
427.625	89.81
427.847	89.81
428.069	83.81
428.292	85.81
428.514	84.81
428.736	83.81
428.958	82.81
429.181	85.81
429.403	88.81
429.625	94.81
429.847	79.81
430.069	90.81
430.292	98.81
430.514	91.81
430.736	88.81
430.958	87.81
431.18	81.81
431.402	85.81
431.624	86.81
431.846	80.81
432.068	88.81
432.29	88.81
432.512	73.81
432.734	92.81
432.956	94.81
433.178	84.81
433.4	79.81
433.622	83.81
433.844	97.81
434.066	82.81
434.287	87.81
434.509	72.81
434.731	100.81
434.953	85.81
435.175	83.81
435.397	82.81
435.618	88.81
435.84	80.81
436.062	76.81
436.284	74.81
436.505	82.81
436.727	100.81
436.949	73.81
437.17	80.81
437.392	78.81
437.614	86.81
437.835	84.81
438.057	88.81
438.278	76.81
438.5	86.81
438.721	89.81
438.943	85.81
439.165	81.81
439.386	79.81
439.608	87.81
439.829	89.81
440.05	91.81
440.272	79.81
440.493	92.81
440.715	69.81
440.936	81.81
441.158	82.81
441.379	90.81
441.6	84.81
441.822	99.81
442.043	86.81
442.264	74.81
442.486	81.81
442.707	80.81
442.928	77.81
443.149	91.81
443.371	103.81
443.592	98.81
443.813	90.81
444.034	98.81
444.255	102.81
444.476	90.81
444.698	79.81
444.919	82.81
445.14	146.81
445.361	112.81
445.582	84.81
445.803	74.81
446.024	78.81
446.245	82.81
446.466	103.81
446.687	93.81
446.908	82.81
447.129	100.81
447.35	91.81
447.571	86.81
447.792	86.81
448.013	83.81
448.234	83.81
448.455	85.81
448.675	100.81
448.896	87.81
449.117	69.81
449.338	87.81
449.559	82.81
449.779	88.81
450	80.81
450.221	90.81
450.442	70.81
450.662	69.81
450.883	85.81
451.104	82.81
451.324	96.81
451.545	93.81
451.766	85.81
451.986	100.81
452.207	101.81
452.428	93.81
452.648	70.81
452.869	85.81
453.089	86.81
453.31	77.81
453.53	93.81
453.751	86.81
453.971	80.81
454.192	97.81
454.412	82.81
454.633	77.81
454.853	93.81
455.073	96.81
455.294	80.81
455.514	102.81
455.734	90.81
455.955	96.81
456.175	82.81
456.395	80.81
456.616	85.81
456.836	81.81
457.056	83.81
457.276	84.81
457.497	93.81
457.717	103.81
457.937	92.81
458.157	82.81
458.377	80.81
458.598	89.81
458.818	86.81
459.038	96.81
459.258	72.81
459.478	92.81
459.698	89.81
459.918	81.81
460.138	83.81
460.358	86.81
460.578	76.81
460.798	84.81
461.018	93.81
461.238	84.81
461.458	100.81
461.678	82.81
461.898	86.81
462.118	88.81
462.338	99.81
462.558	80.81
462.777	84.81
462.997	98.81
463.217	98.81
463.437	90.81
463.657	84.81
463.876	84.81
464.096	85.81
464.316	102.81
464.536	96.81
464.755	84.81
464.975	94.81
465.195	89.81
465.414	82.81
465.634	78.81
465.854	84.81
466.073	85.81
466.293	92.81
466.512	77.81
466.732	89.81
466.951	91.81
467.171	79.81
467.391	87.81
467.61	101.81
467.829	76.81
468.049	96.81
468.268	75.81
468.488	71.81
468.707	76.81
468.927	90.81
469.146	91.81
469.365	85.81
469.585	89.81
469.804	80.81
470.023	85.81
470.243	96.81
470.462	94.81
470.681	108.81
470.901	95.81
471.12	85.81
471.339	93.81
471.558	86.81
471.777	85.81
471.997	98.81
472.216	72.81
472.435	95.81
472.654	90.81
472.873	80.81
473.092	74.81
473.311	95.81
473.53	87.81
473.749	83.81
473.968	97.81
474.187	93.81
474.406	86.81
474.625	94.81
474.844	84.81
475.063	99.81
475.282	96.81
475.501	82.81
475.72	93.81
475.939	76.81
476.158	86.81
476.377	90.81
476.596	81.81
476.814	99.81
477.033	86.81
477.252	88.81
477.471	84.81
477.69	80.81
477.908	88.81
478.127	94.81
478.346	88.81
478.564	86.81
478.783	76.81
479.002	84.81
479.22	86.81
479.439	101.81
479.658	78.81
479.876	90.81
480.095	88.81
480.313	94.81
480.532	102.81
480.751	90.81
480.969	93.81
481.188	89.81
481.406	81.81
481.624	97.81
481.843	86.81
482.061	89.81
482.28	91.81
482.498	86.81
482.717	85.81
482.935	76.81
483.153	94.81
483.372	101.81
483.59	75.81
483.808	78.81
484.027	93.81
484.245	93.81
484.463	93.81
484.681	105.81
484.9	90.81
485.118	97.81
485.336	96.81
485.554	99.81
485.772	97.81
485.99	87.81
486.209	89.81
486.427	89.81
486.645	86.81
486.863	97.81
487.081	98.81
487.299	89.81
487.517	98.81
487.735	93.81
487.953	96.81
488.171	77.81
488.389	85.81
488.607	80.81
488.825	87.81
489.043	85.81
489.261	88.81
489.479	93.81
489.696	93.81
489.914	106.81
490.132	101.81
490.35	88.81
490.568	88.81
490.786	87.81
491.003	106.81
491.221	94.81
491.439	88.81
491.657	89.81
491.874	79.81
492.092	101.81
492.31	97.81
492.527	105.81
492.745	89.81
492.963	102.81
493.18	98.81
493.398	97.81
493.615	101.81
493.833	89.81
494.05	80.81
494.268	86.81
494.485	83.81
494.703	98.81
494.92	96.81
495.138	86.81
495.355	74.81
495.573	93.81
495.79	79.81
496.008	96.81
496.225	78.81
496.442	88.81
496.66	90.81
496.877	91.81
497.094	102.81
497.312	86.81
497.529	99.81
497.746	98.81
497.963	101.81
498.181	84.81
498.398	93.81
498.615	89.81
498.832	98.81
499.049	101.81
499.267	84.81
499.484	100.81
499.701	105.81
499.918	84.81
500.135	84.81
500.352	89.81
500.569	95.81
500.786	86.81
501.003	93.81
501.22	99.81
501.437	108.81
501.654	107.81
501.871	84.81
502.088	89.81
502.305	85.81
502.522	97.81
502.739	91.81
502.956	88.81
503.172	92.81
503.389	96.81
503.606	91.81
503.823	91.81
504.04	92.81
504.256	96.81
504.473	93.81
504.69	91.81
504.907	105.81
505.123	102.81
505.34	75.81
505.557	76.81
505.773	90.81
505.99	78.81
506.207	88.81
506.423	97.81
506.64	90.81
506.856	86.81
507.073	100.81
507.289	91.81
507.506	86.81
507.722	87.81
507.939	80.81
508.155	74.81
508.372	95.81
508.588	101.81
508.805	103.81
509.021	94.81
509.238	90.81
509.454	108.81
509.67	96.81
509.887	99.81
510.103	92.81
510.319	94.81
510.536	88.81
510.752	96.81
510.968	101.81
511.184	92.81
511.401	96.81
511.617	112.81
511.833	110.81
512.049	104.81
512.265	106.81
512.481	87.81
512.698	86.81
512.914	98.81
513.13	108.81
513.346	106.81
513.562	92.81
513.778	99.81
513.994	86.81
514.21	77.81
514.426	78.81
514.642	89.81
514.858	88.81
515.074	91.81
515.29	97.81
515.506	103.81
515.721	76.81
515.937	102.81
516.153	90.81
516.369	80.81
516.585	93.81
516.801	83.81
517.016	81.81
517.232	96.81
517.448	101.81
517.664	78.81
517.879	92.81
518.095	76.81
518.311	84.81
518.527	88.81
518.742	105.81
518.958	86.81
519.173	87.81
