Data from 10100_3_HRD10591_00030.txt Node
Date: Mon Jan 19 14:02:37 EST 2026
User: Yrep
Spectrometer: HR+D1059
Trigger mode: 1
Integration Time (sec): 1.000000E-1
Scans to average: 1
Electric dark correction enabled: true
Nonlinearity correction enabled: false
Boxcar width: 0
XAxis mode: Wavelengths
Number of Pixels in Spectrum: 2048
>>>>>Begin Spectral Data<<<<<
223.165	-17.25
223.4	-17.25
223.635	-17.25
223.869	-13.25
224.104	-23.25
224.338	-15.25
224.573	-20.25
224.808	10.75
225.042	-3.25
225.277	-12.25
225.511	-7.25
225.746	-5.25
225.98	8.75
226.215	3.75
226.449	-3.25
226.683	28.75
226.918	33.75
227.152	34.75
227.387	37.75
227.621	28.75
227.856	37.75
228.09	44.75
228.324	53.75
228.559	40.75
228.793	57.75
229.027	52.75
229.262	64.75
229.496	67.75
229.73	80.75
229.964	71.75
230.199	65.75
230.433	54.75
230.667	64.75
230.901	74.75
231.136	75.75
231.37	73.75
231.604	78.75
231.838	79.75
232.072	68.75
232.306	80.75
232.541	83.75
232.775	78.75
233.009	84.75
233.243	76.75
233.477	82.75
233.711	81.75
233.945	89.75
234.179	74.75
234.413	79.75
234.647	92.75
234.881	67.75
235.115	81.75
235.349	70.75
235.583	79.75
235.817	72.75
236.051	82.75
236.285	64.75
236.519	79.75
236.753	84.75
236.987	73.75
237.221	69.75
237.455	68.75
237.689	74.75
237.922	62.75
238.156	70.75
238.39	73.75
238.624	66.75
238.858	78.75
239.091	75.75
239.325	75.75
239.559	81.75
239.793	76.75
240.027	97.75
240.26	61.75
240.494	86.75
240.728	83.75
240.961	74.75
241.195	84.75
241.429	82.75
241.662	68.75
241.896	70.75
242.13	71.75
242.363	68.75
242.597	62.75
242.83	66.75
243.064	69.75
243.298	71.75
243.531	74.75
243.765	79.75
243.998	74.75
244.232	77.75
244.465	76.75
244.699	77.75
244.932	80.75
245.166	72.75
245.399	72.75
245.633	80.75
245.866	65.75
246.099	88.75
246.333	60.75
246.566	74.75
246.8	85.75
247.033	70.75
247.266	72.75
247.5	76.75
247.733	64.75
247.966	60.75
248.2	74.75
248.433	83.75
248.666	73.75
248.899	63.75
249.133	82.75
249.366	79.75
249.599	61.75
249.832	63.75
250.066	65.75
250.299	65.75
250.532	89.75
250.765	83.75
250.998	84.75
251.231	65.75
251.465	82.75
251.698	69.75
251.931	81.75
252.164	81.75
252.397	77.75
252.63	78.75
252.863	75.75
253.096	77.75
253.329	64.75
253.562	86.75
253.795	78.75
254.028	70.75
254.261	72.75
254.494	72.75
254.727	74.75
254.96	74.75
255.193	60.75
255.426	73.75
255.659	81.75
255.892	78.75
256.124	76.75
256.357	88.75
256.59	60.75
256.823	85.75
257.056	84.75
257.289	73.75
257.521	72.75
257.754	66.75
257.987	70.75
258.22	80.75
258.452	61.75
258.685	90.75
258.918	64.75
259.151	73.75
259.383	75.75
259.616	72.75
259.849	79.75
260.081	81.75
260.314	64.75
260.547	71.75
260.779	58.75
261.012	90.75
261.244	80.75
261.477	74.75
261.71	69.75
261.942	77.75
262.175	74.75
262.407	77.75
262.64	86.75
262.872	85.75
263.105	58.75
263.337	88.75
263.57	69.75
263.802	71.75
264.035	86.75
264.267	62.75
264.499	69.75
264.732	79.75
264.964	70.75
265.197	70.75
265.429	75.75
265.661	91.75
265.894	90.75
266.126	78.75
266.358	69.75
266.591	68.75
266.823	74.75
267.055	68.75
267.287	76.75
267.52	81.75
267.752	64.75
267.984	84.75
268.216	84.75
268.448	68.75
268.681	89.75
268.913	81.75
269.145	88.75
269.377	76.75
269.609	83.75
269.841	72.75
270.073	66.75
270.306	72.75
270.538	82.75
270.77	90.75
271.002	91.75
271.234	83.75
271.466	64.75
271.698	67.75
271.93	73.75
272.162	79.75
272.394	83.75
272.626	89.75
272.858	76.75
273.09	78.75
273.322	79.75
273.553	83.75
273.785	79.75
274.017	70.75
274.249	85.75
274.481	71.75
274.713	76.75
274.945	76.75
275.176	75.75
275.408	82.75
275.64	74.75
275.872	80.75
276.104	76.75
276.335	88.75
276.567	80.75
276.799	68.75
277.031	84.75
277.262	74.75
277.494	88.75
277.726	78.75
277.957	84.75
278.189	80.75
278.421	89.75
278.652	90.75
278.884	70.75
279.115	72.75
279.347	74.75
279.579	90.75
279.81	75.75
280.042	80.75
280.273	92.75
280.505	89.75
280.736	70.75
280.968	74.75
281.199	84.75
281.431	62.75
281.662	60.75
281.894	74.75
282.125	84.75
282.356	68.75
282.588	64.75
282.819	74.75
283.051	80.75
283.282	80.75
283.513	76.75
283.745	69.75
283.976	67.75
284.207	84.75
284.439	74.75
284.67	85.75
284.901	85.75
285.132	68.75
285.364	77.75
285.595	67.75
285.826	90.75
286.057	85.75
286.288	82.75
286.52	86.75
286.751	83.75
286.982	83.75
287.213	74.75
287.444	83.75
287.675	85.75
287.906	82.75
288.138	100.75
288.369	78.75
288.6	78.75
288.831	80.75
289.062	84.75
289.293	76.75
289.524	76.75
289.755	82.75
289.986	77.75
290.217	70.75
290.448	77.75
290.679	84.75
290.91	90.75
291.141	80.75
291.371	87.75
291.602	74.75
291.833	76.75
292.064	73.75
292.295	75.75
292.526	69.75
292.757	80.75
292.987	87.75
293.218	74.75
293.449	83.75
293.68	89.75
293.91	65.75
294.141	75.75
294.372	67.75
294.603	97.75
294.833	71.75
295.064	63.75
295.295	68.75
295.525	79.75
295.756	70.75
295.987	77.75
296.217	90.75
296.448	77.75
296.679	88.75
296.909	69.75
297.14	73.75
297.37	94.75
297.601	78.75
297.831	69.75
298.062	83.75
298.292	74.75
298.523	79.75
298.753	75.75
298.984	80.75
299.214	104.75
299.445	88.75
299.675	88.75
299.905	74.75
300.136	78.75
300.366	84.75
300.597	83.75
300.827	77.75
301.057	101.75
301.288	80.75
301.518	75.75
301.748	81.75
301.979	98.75
302.209	75.75
302.439	99.75
302.669	82.75
302.9	78.75
303.13	81.75
303.36	86.75
303.59	78.75
303.82	83.75
304.051	72.75
304.281	86.75
304.511	71.75
304.741	82.75
304.971	74.75
305.201	89.75
305.431	88.75
305.661	84.75
305.891	84.75
306.121	76.75
306.352	92.75
306.582	80.75
306.812	80.75
307.042	80.75
307.272	86.75
307.502	81.75
307.731	78.75
307.961	91.75
308.191	76.75
308.421	62.75
308.651	74.75
308.881	84.75
309.111	80.75
309.341	78.75
309.571	77.75
309.8	80.75
310.03	86.75
310.26	78.75
310.49	90.75
310.72	83.75
310.949	82.75
311.179	65.75
311.409	75.75
311.639	72.75
311.868	79.75
312.098	98.75
312.328	89.75
312.557	92.75
312.787	76.75
313.017	69.75
313.246	82.75
313.476	93.75
313.706	74.75
313.935	67.75
314.165	71.75
314.394	79.75
314.624	74.75
314.853	78.75
315.083	87.75
315.312	75.75
315.542	81.75
315.771	72.75
316.001	70.75
316.23	69.75
316.46	88.75
316.689	97.75
316.919	88.75
317.148	71.75
317.377	96.75
317.607	83.75
317.836	87.75
318.065	78.75
318.295	92.75
318.524	75.75
318.753	94.75
318.983	79.75
319.212	80.75
319.441	77.75
319.67	84.75
319.9	78.75
320.129	79.75
320.358	85.75
320.587	75.75
320.816	86.75
321.046	64.75
321.275	50.75
321.504	71.75
321.733	84.75
321.962	88.75
322.191	88.75
322.42	84.75
322.649	79.75
322.878	82.75
323.108	76.75
323.337	80.75
323.566	90.75
323.795	70.75
324.024	72.75
324.253	71.75
324.482	69.75
324.71	82.75
324.939	80.75
325.168	83.75
325.397	91.75
325.626	76.75
325.855	57.75
326.084	76.75
326.313	81.75
326.542	74.75
326.77	70.75
326.999	86.75
327.228	78.75
327.457	89.75
327.686	76.75
327.914	84.75
328.143	81.75
328.372	98.75
328.6	72.75
328.829	72.75
329.058	89.75
329.287	63.75
329.515	73.75
329.744	80.75
329.972	86.75
330.201	80.75
330.43	80.75
330.658	87.75
330.887	89.75
331.115	75.75
331.344	74.75
331.572	76.75
331.801	80.75
332.03	81.75
332.258	81.75
332.486	79.75
332.715	76.75
332.943	80.75
333.172	89.75
333.4	78.75
333.629	86.75
333.857	68.75
334.085	86.75
334.314	95.75
334.542	76.75
334.771	86.75
334.999	75.75
335.227	81.75
335.455	86.75
335.684	73.75
335.912	75.75
336.14	77.75
336.369	68.75
336.597	89.75
336.825	85.75
337.053	85.75
337.281	53.75
337.51	82.75
337.738	70.75
337.966	76.75
338.194	88.75
338.422	73.75
338.65	61.75
338.878	89.75
339.106	77.75
339.334	82.75
339.562	79.75
339.79	81.75
340.018	78.75
340.246	74.75
340.474	61.75
340.702	82.75
340.93	81.75
341.158	74.75
341.386	89.75
341.614	60.75
341.842	86.75
342.07	68.75
342.298	87.75
342.526	87.75
342.754	73.75
342.981	68.75
343.209	76.75
343.437	93.75
343.665	92.75
343.893	86.75
344.12	71.75
344.348	94.75
344.576	83.75
344.804	69.75
345.031	97.75
345.259	80.75
345.487	79.75
345.714	73.75
345.942	80.75
346.17	76.75
346.397	83.75
346.625	85.75
346.853	83.75
347.08	82.75
347.308	80.75
347.535	87.75
347.763	88.75
347.99	89.75
348.218	79.75
348.445	76.75
348.673	83.75
348.9	86.75
349.128	77.75
349.355	70.75
349.583	83.75
349.81	70.75
350.037	72.75
350.265	72.75
350.492	88.75
350.72	71.75
350.947	79.75
351.174	79.75
351.402	83.75
351.629	81.75
351.856	83.75
352.083	81.75
352.311	74.75
352.538	73.75
352.765	79.75
352.992	69.75
353.22	95.75
353.447	92.75
353.674	75.75
353.901	76.75
354.128	81.75
354.355	74.75
354.583	81.75
354.81	89.75
355.037	75.75
355.264	66.75
355.491	91.75
355.718	85.75
355.945	95.75
356.172	89.75
356.399	70.75
356.626	64.75
356.853	81.75
357.08	81.75
357.307	70.75
357.534	72.75
357.761	78.75
357.988	82.75
358.215	72.75
358.441	87.75
358.668	75.75
358.895	74.75
359.122	70.75
359.349	64.75
359.576	76.75
359.802	88.75
360.029	85.75
360.256	66.75
360.483	74.75
360.709	81.75
360.936	76.75
361.163	65.75
361.39	92.75
361.616	70.75
361.843	84.75
362.07	71.75
362.296	75.75
362.523	84.75
362.749	86.75
362.976	94.75
363.203	101.75
363.429	74.75
363.656	76.75
363.882	97.75
364.109	93.75
364.335	96.75
364.562	93.75
364.788	64.75
365.015	78.75
365.241	89.75
365.468	91.75
365.694	79.75
365.92	76.75
366.147	68.75
366.373	70.75
366.599	65.75
366.826	69.75
367.052	76.75
367.278	71.75
367.505	81.75
367.731	98.75
367.957	79.75
368.184	83.75
368.41	79.75
368.636	84.75
368.862	83.75
369.089	78.75
369.315	73.75
369.541	71.75
369.767	79.75
369.993	86.75
370.219	71.75
370.445	82.75
370.672	74.75
370.898	74.75
371.124	84.75
371.35	85.75
371.576	71.75
371.802	73.75
372.028	91.75
372.254	86.75
372.48	90.75
372.706	87.75
372.932	78.75
373.158	84.75
373.384	86.75
373.61	85.75
373.835	82.75
374.061	95.75
374.287	76.75
374.513	81.75
374.739	87.75
374.965	77.75
375.191	73.75
375.416	76.75
375.642	58.75
375.868	74.75
376.094	84.75
376.319	92.75
376.545	76.75
376.771	79.75
376.997	74.75
377.222	80.75
377.448	78.75
377.674	62.75
377.899	75.75
378.125	80.75
378.35	72.75
378.576	92.75
378.802	92.75
379.027	66.75
379.253	76.75
379.478	89.75
379.704	83.75
379.929	88.75
380.155	81.75
380.38	88.75
380.606	81.75
380.831	74.75
381.057	90.75
381.282	84.75
381.507	77.75
381.733	82.75
381.958	83.75
382.184	88.75
382.409	80.75
382.634	84.75
382.86	74.75
383.085	76.75
383.31	88.75
383.535	74.75
383.761	80.75
383.986	82.75
384.211	88.75
384.436	93.75
384.662	76.75
384.887	74.75
385.112	76.75
385.337	82.75
385.562	72.75
385.787	62.75
386.013	75.75
386.238	81.75
386.463	89.75
386.688	84.75
386.913	79.75
387.138	78.75
387.363	77.75
387.588	84.75
387.813	80.75
388.038	86.75
388.263	92.75
388.488	86.75
388.713	77.75
388.938	80.75
389.163	82.75
389.387	78.75
389.612	74.75
389.837	69.75
390.062	84.75
390.287	75.75
390.512	78.75
390.736	62.75
390.961	81.75
391.186	76.75
391.411	80.75
391.636	79.75
391.86	61.75
392.085	93.75
392.31	80.75
392.534	77.75
392.759	88.75
392.984	101.75
393.208	140.75
393.433	145.75
393.658	113.75
393.882	94.75
394.107	86.75
394.331	73.75
394.556	73.75
394.78	84.75
395.005	97.75
395.229	84.75
395.454	67.75
395.678	78.75
395.903	80.75
396.127	95.75
396.352	98.75
396.576	110.75
396.801	127.75
397.025	126.75
397.249	104.75
397.474	92.75
397.698	78.75
397.922	78.75
398.147	78.75
398.371	75.75
398.595	83.75
398.82	88.75
399.044	79.75
399.268	78.75
399.492	78.75
399.717	77.75
399.941	87.75
400.165	89.75
400.389	90.75
400.613	87.75
400.837	77.75
401.062	69.75
401.286	83.75
401.51	82.75
401.734	84.75
401.958	78.75
402.182	71.75
402.406	82.75
402.63	69.75
402.854	84.75
403.078	66.75
403.302	84.75
403.526	77.75
403.75	75.75
403.974	79.75
404.198	66.75
404.422	94.75
404.645	91.75
404.869	92.75
405.093	77.75
405.317	83.75
405.541	82.75
405.765	68.75
405.988	81.75
406.212	68.75
406.436	75.75
406.66	78.75
406.883	78.75
407.107	80.75
407.331	84.75
407.555	82.75
407.778	89.75
408.002	97.75
408.226	73.75
408.449	64.75
408.673	82.75
408.896	75.75
409.12	69.75
409.344	89.75
409.567	85.75
409.791	84.75
410.014	91.75
410.238	90.75
410.461	78.75
410.685	84.75
410.908	77.75
411.132	99.75
411.355	75.75
411.578	74.75
411.802	70.75
412.025	75.75
412.249	58.75
412.472	75.75
412.695	89.75
412.919	70.75
413.142	92.75
413.365	74.75
413.589	80.75
413.812	74.75
414.035	78.75
414.258	83.75
414.482	88.75
414.705	70.75
414.928	86.75
415.151	81.75
415.374	80.75
415.597	70.75
415.821	73.75
416.044	80.75
416.267	76.75
416.49	57.75
416.713	74.75
416.936	80.75
417.159	61.75
417.382	74.75
417.605	80.75
417.828	70.75
418.051	76.75
418.274	74.75
418.497	68.75
418.72	80.75
418.943	76.75
419.166	90.75
419.389	87.75
419.611	80.75
419.834	77.75
420.057	88.75
420.28	80.75
420.503	91.75
420.726	77.75
420.948	99.75
421.171	86.75
421.394	83.75
421.617	91.75
421.839	98.75
422.062	99.75
422.285	99.75
422.507	136.75
422.73	206.75
422.953	174.75
423.175	140.75
423.398	102.75
423.621	91.75
423.843	90.75
424.066	91.75
424.288	88.75
424.511	84.75
424.733	78.75
424.956	87.75
425.178	76.75
425.401	84.75
425.623	73.75
425.846	84.75
426.068	84.75
426.291	69.75
426.513	70.75
426.735	75.75
426.958	77.75
427.18	86.75
427.402	76.75
427.625	88.75
427.847	80.75
428.069	76.75
428.292	84.75
428.514	91.75
428.736	85.75
428.958	86.75
429.181	94.75
429.403	85.75
429.625	84.75
429.847	91.75
430.069	104.75
430.292	104.75
430.514	109.75
430.736	87.75
430.958	100.75
431.18	89.75
431.402	75.75
431.624	97.75
431.846	99.75
432.068	95.75
432.29	89.75
432.512	86.75
432.734	88.75
432.956	78.75
433.178	87.75
433.4	82.75
433.622	80.75
433.844	70.75
434.066	96.75
434.287	85.75
434.509	78.75
434.731	87.75
434.953	90.75
435.175	76.75
435.397	88.75
435.618	87.75
435.84	84.75
436.062	99.75
436.284	85.75
436.505	80.75
436.727	75.75
436.949	65.75
437.17	71.75
437.392	81.75
437.614	86.75
437.835	84.75
438.057	91.75
438.278	69.75
438.5	85.75
438.721	78.75
438.943	77.75
439.165	78.75
439.386	82.75
439.608	80.75
439.829	94.75
440.05	88.75
440.272	74.75
440.493	62.75
440.715	82.75
440.936	79.75
441.158	89.75
441.379	83.75
441.6	74.75
441.822	72.75
442.043	69.75
442.264	67.75
442.486	94.75
442.707	97.75
442.928	110.75
443.149	90.75
443.371	104.75
443.592	132.75
443.813	105.75
444.034	89.75
444.255	86.75
444.476	74.75
444.698	74.75
444.919	90.75
445.14	142.75
445.361	134.75
445.582	142.75
445.803	114.75
446.024	88.75
446.245	79.75
446.466	78.75
446.687	77.75
446.908	71.75
447.129	77.75
447.35	78.75
447.571	80.75
447.792	70.75
448.013	85.75
448.234	61.75
448.455	77.75
448.675	78.75
448.896	75.75
449.117	83.75
449.338	95.75
449.559	92.75
449.779	64.75
450	79.75
450.221	81.75
450.442	79.75
450.662	78.75
450.883	66.75
451.104	74.75
451.324	89.75
451.545	90.75
451.766	96.75
451.986	87.75
452.207	77.75
452.428	92.75
452.648	67.75
452.869	74.75
453.089	86.75
453.31	81.75
453.53	76.75
453.751	82.75
453.971	88.75
454.192	76.75
454.412	80.75
454.633	80.75
454.853	84.75
455.073	88.75
455.294	68.75
455.514	84.75
455.734	98.75
455.955	84.75
456.175	85.75
456.395	80.75
456.616	76.75
456.836	89.75
457.056	77.75
457.276	84.75
457.497	82.75
457.717	72.75
457.937	86.75
458.157	77.75
458.377	86.75
458.598	87.75
458.818	94.75
459.038	81.75
459.258	80.75
459.478	69.75
459.698	93.75
459.918	64.75
460.138	71.75
460.358	96.75
460.578	74.75
460.798	101.75
461.018	88.75
461.238	79.75
461.458	92.75
461.678	84.75
461.898	68.75
462.118	76.75
462.338	78.75
462.558	74.75
462.777	85.75
462.997	72.75
463.217	92.75
463.437	80.75
463.657	91.75
463.876	80.75
464.096	78.75
464.316	84.75
464.536	62.75
464.755	76.75
464.975	67.75
465.195	83.75
465.414	73.75
465.634	77.75
465.854	96.75
466.073	86.75
466.293	88.75
466.512	70.75
466.732	97.75
466.951	76.75
467.171	85.75
467.391	78.75
467.61	82.75
467.829	78.75
468.049	86.75
468.268	78.75
468.488	83.75
468.707	80.75
468.927	86.75
469.146	88.75
469.365	86.75
469.585	86.75
469.804	83.75
470.023	77.75
470.243	76.75
470.462	64.75
470.681	75.75
470.901	68.75
471.12	74.75
471.339	74.75
471.558	76.75
471.777	77.75
471.997	98.75
472.216	84.75
472.435	67.75
472.654	91.75
472.873	69.75
473.092	88.75
473.311	90.75
473.53	77.75
473.749	76.75
473.968	91.75
474.187	77.75
474.406	69.75
474.625	88.75
474.844	74.75
475.063	74.75
475.282	82.75
475.501	67.75
475.72	80.75
475.939	70.75
476.158	74.75
476.377	84.75
476.596	76.75
476.814	58.75
477.033	76.75
477.252	92.75
477.471	80.75
477.69	80.75
477.908	81.75
478.127	76.75
478.346	79.75
478.564	83.75
478.783	84.75
479.002	73.75
479.22	97.75
479.439	81.75
479.658	80.75
479.876	78.75
480.095	76.75
480.313	67.75
480.532	84.75
480.751	80.75
480.969	89.75
481.188	85.75
481.406	87.75
481.624	80.75
481.843	85.75
482.061	74.75
482.28	83.75
482.498	85.75
482.717	76.75
482.935	75.75
483.153	80.75
483.372	93.75
483.59	88.75
483.808	86.75
484.027	73.75
484.245	80.75
484.463	84.75
484.681	91.75
484.9	62.75
485.118	78.75
485.336	76.75
485.554	84.75
485.772	86.75
485.99	96.75
486.209	70.75
486.427	69.75
486.645	76.75
486.863	87.75
487.081	67.75
487.299	82.75
487.517	87.75
487.735	96.75
487.953	112.75
488.171	107.75
488.389	81.75
488.607	80.75
488.825	76.75
489.043	94.75
489.261	80.75
489.479	76.75
489.696	77.75
489.914	89.75
490.132	80.75
490.35	84.75
490.568	76.75
490.786	89.75
491.003	88.75
491.221	96.75
491.439	90.75
491.657	78.75
491.874	92.75
492.092	98.75
492.31	70.75
492.527	82.75
492.745	90.75
492.963	72.75
493.18	90.75
493.398	75.75
493.615	75.75
493.833	80.75
494.05	92.75
494.268	76.75
494.485	79.75
494.703	92.75
494.92	85.75
495.138	77.75
495.355	83.75
495.573	85.75
495.79	89.75
496.008	92.75
496.225	73.75
496.442	80.75
496.66	90.75
496.877	88.75
497.094	83.75
497.312	82.75
497.529	78.75
497.746	86.75
497.963	80.75
498.181	75.75
498.398	76.75
498.615	76.75
498.832	66.75
499.049	84.75
499.267	83.75
499.484	81.75
499.701	70.75
499.918	82.75
500.135	84.75
500.352	75.75
500.569	80.75
500.786	92.75
501.003	85.75
501.22	98.75
501.437	84.75
501.654	77.75
501.871	79.75
502.088	86.75
502.305	85.75
502.522	71.75
502.739	82.75
502.956	86.75
503.172	88.75
503.389	86.75
503.606	74.75
503.823	91.75
504.04	88.75
504.256	92.75
504.473	97.75
504.69	85.75
504.907	67.75
505.123	76.75
505.34	77.75
505.557	73.75
505.773	75.75
505.99	78.75
506.207	61.75
506.423	84.75
506.64	74.75
506.856	77.75
507.073	85.75
507.289	71.75
507.506	84.75
507.722	80.75
507.939	70.75
508.155	79.75
508.372	76.75
508.588	78.75
508.805	81.75
509.021	83.75
509.238	92.75
509.454	85.75
509.67	80.75
509.887	81.75
510.103	81.75
510.319	81.75
510.536	83.75
510.752	77.75
510.968	74.75
511.184	86.75
511.401	77.75
511.617	83.75
511.833	86.75
512.049	79.75
512.265	78.75
512.481	85.75
512.698	76.75
512.914	86.75
513.13	66.75
513.346	80.75
513.562	87.75
513.778	97.75
513.994	82.75
514.21	82.75
514.426	70.75
514.642	90.75
514.858	93.75
515.074	73.75
515.29	86.75
515.506	81.75
515.721	70.75
515.937	75.75
516.153	82.75
516.369	76.75
516.585	82.75
516.801	85.75
517.016	93.75
517.232	95.75
517.448	92.75
517.664	75.75
517.879	85.75
518.095	93.75
518.311	88.75
518.527	82.75
518.742	84.75
518.958	104.75
519.173	108.75
519.389	95.75
519.605	80.75
519.82	76.75
