Data from 10100_3_HRD10591_00028.txt Node
Date: Mon Jan 19 14:02:36 EST 2026
User: Yrep
Spectrometer: HR+D1059
Trigger mode: 1
Integration Time (sec): 1.000000E-1
Scans to average: 1
Electric dark correction enabled: true
Nonlinearity correction enabled: false
Boxcar width: 0
XAxis mode: Wavelengths
Number of Pixels in Spectrum: 2048
>>>>>Begin Spectral Data<<<<<
223.165	-11.19
223.4	-11.19
223.635	-11.19
223.869	-20.19
224.104	-15.19
224.338	-9.19
224.573	-10.19
224.808	-14.19
225.042	-17.19
225.277	2.81
225.511	-10.19
225.746	-2.19
225.98	3.81
226.215	-0.19
226.449	16.81
226.683	20.81
226.918	24.81
227.152	40.81
227.387	55.81
227.621	44.81
227.856	34.81
228.09	57.81
228.324	44.81
228.559	64.81
228.793	58.81
229.027	47.81
229.262	63.81
229.496	71.81
229.73	63.81
229.964	74.81
230.199	67.81
230.433	70.81
230.667	93.81
230.901	80.81
231.136	69.81
231.37	84.81
231.604	81.81
231.838	92.81
232.072	95.81
232.306	88.81
232.541	82.81
232.775	87.81
233.009	62.81
233.243	84.81
233.477	94.81
233.711	74.81
233.945	96.81
234.179	85.81
234.413	86.81
234.647	82.81
234.881	77.81
235.115	75.81
235.349	68.81
235.583	78.81
235.817	68.81
236.051	70.81
236.285	75.81
236.519	78.81
236.753	80.81
236.987	67.81
237.221	75.81
237.455	87.81
237.689	79.81
237.922	82.81
238.156	92.81
238.39	71.81
238.624	73.81
238.858	62.81
239.091	60.81
239.325	78.81
239.559	78.81
239.793	74.81
240.027	67.81
240.26	67.81
240.494	81.81
240.728	80.81
240.961	62.81
241.195	80.81
241.429	65.81
241.662	84.81
241.896	73.81
242.13	78.81
242.363	92.81
242.597	81.81
242.83	66.81
243.064	72.81
243.298	73.81
243.531	64.81
243.765	64.81
243.998	87.81
244.232	97.81
244.465	77.81
244.699	80.81
244.932	67.81
245.166	74.81
245.399	79.81
245.633	82.81
245.866	93.81
246.099	74.81
246.333	80.81
246.566	89.81
246.8	81.81
247.033	71.81
247.266	77.81
247.5	78.81
247.733	77.81
247.966	83.81
248.2	80.81
248.433	72.81
248.666	69.81
248.899	90.81
249.133	76.81
249.366	84.81
249.599	74.81
249.832	78.81
250.066	78.81
250.299	81.81
250.532	78.81
250.765	84.81
250.998	75.81
251.231	73.81
251.465	85.81
251.698	77.81
251.931	78.81
252.164	77.81
252.397	81.81
252.63	79.81
252.863	75.81
253.096	88.81
253.329	87.81
253.562	77.81
253.795	92.81
254.028	67.81
254.261	85.81
254.494	77.81
254.727	73.81
254.96	86.81
255.193	92.81
255.426	86.81
255.659	78.81
255.892	80.81
256.124	87.81
256.357	93.81
256.59	82.81
256.823	79.81
257.056	71.81
257.289	75.81
257.521	80.81
257.754	77.81
257.987	86.81
258.22	61.81
258.452	67.81
258.685	77.81
258.918	79.81
259.151	92.81
259.383	89.81
259.616	73.81
259.849	78.81
260.081	84.81
260.314	84.81
260.547	73.81
260.779	73.81
261.012	84.81
261.244	93.81
261.477	80.81
261.71	93.81
261.942	87.81
262.175	73.81
262.407	77.81
262.64	79.81
262.872	85.81
263.105	76.81
263.337	89.81
263.57	91.81
263.802	75.81
264.035	75.81
264.267	84.81
264.499	84.81
264.732	75.81
264.964	69.81
265.197	81.81
265.429	78.81
265.661	88.81
265.894	86.81
266.126	88.81
266.358	89.81
266.591	89.81
266.823	85.81
267.055	71.81
267.287	78.81
267.52	67.81
267.752	80.81
267.984	89.81
268.216	80.81
268.448	84.81
268.681	82.81
268.913	78.81
269.145	79.81
269.377	85.81
269.609	86.81
269.841	88.81
270.073	76.81
270.306	85.81
270.538	78.81
270.77	66.81
271.002	69.81
271.234	94.81
271.466	76.81
271.698	84.81
271.93	81.81
272.162	78.81
272.394	96.81
272.626	84.81
272.858	70.81
273.09	84.81
273.322	85.81
273.553	79.81
273.785	72.81
274.017	69.81
274.249	73.81
274.481	82.81
274.713	92.81
274.945	83.81
275.176	76.81
275.408	81.81
275.64	78.81
275.872	84.81
276.104	74.81
276.335	74.81
276.567	82.81
276.799	75.81
277.031	73.81
277.262	72.81
277.494	88.81
277.726	83.81
277.957	76.81
278.189	95.81
278.421	96.81
278.652	80.81
278.884	60.81
279.115	77.81
279.347	82.81
279.579	88.81
279.81	95.81
280.042	81.81
280.273	92.81
280.505	80.81
280.736	88.81
280.968	84.81
281.199	71.81
281.431	88.81
281.662	82.81
281.894	83.81
282.125	78.81
282.356	84.81
282.588	89.81
282.819	75.81
283.051	74.81
283.282	72.81
283.513	96.81
283.745	66.81
283.976	85.81
284.207	80.81
284.439	94.81
284.67	89.81
284.901	98.81
285.132	93.81
285.364	92.81
285.595	74.81
285.826	76.81
286.057	74.81
286.288	54.81
286.52	74.81
286.751	87.81
286.982	89.81
287.213	72.81
287.444	81.81
287.675	84.81
287.906	85.81
288.138	85.81
288.369	78.81
288.6	86.81
288.831	81.81
289.062	92.81
289.293	73.81
289.524	84.81
289.755	82.81
289.986	92.81
290.217	84.81
290.448	87.81
290.679	72.81
290.91	92.81
291.141	76.81
291.371	85.81
291.602	87.81
291.833	83.81
292.064	77.81
292.295	77.81
292.526	85.81
292.757	91.81
292.987	87.81
293.218	76.81
293.449	66.81
293.68	89.81
293.91	93.81
294.141	64.81
294.372	76.81
294.603	91.81
294.833	75.81
295.064	92.81
295.295	76.81
295.525	81.81
295.756	86.81
295.987	76.81
296.217	86.81
296.448	93.81
296.679	89.81
296.909	92.81
297.14	101.81
297.37	87.81
297.601	76.81
297.831	80.81
298.062	87.81
298.292	73.81
298.523	88.81
298.753	72.81
298.984	93.81
299.214	84.81
299.445	96.81
299.675	69.81
299.905	86.81
300.136	93.81
300.366	83.81
300.597	81.81
300.827	87.81
301.057	81.81
301.288	87.81
301.518	81.81
301.748	93.81
301.979	98.81
302.209	89.81
302.439	84.81
302.669	101.81
302.9	82.81
303.13	90.81
303.36	93.81
303.59	92.81
303.82	90.81
304.051	82.81
304.281	87.81
304.511	95.81
304.741	82.81
304.971	83.81
305.201	92.81
305.431	77.81
305.661	83.81
305.891	79.81
306.121	87.81
306.352	85.81
306.582	98.81
306.812	83.81
307.042	84.81
307.272	80.81
307.502	89.81
307.731	79.81
307.961	83.81
308.191	77.81
308.421	82.81
308.651	79.81
308.881	92.81
309.111	87.81
309.341	83.81
309.571	81.81
309.8	78.81
310.03	84.81
310.26	76.81
310.49	79.81
310.72	82.81
310.949	84.81
311.179	81.81
311.409	72.81
311.639	82.81
311.868	89.81
312.098	86.81
312.328	118.81
312.557	95.81
312.787	78.81
313.017	84.81
313.246	80.81
313.476	88.81
313.706	81.81
313.935	72.81
314.165	81.81
314.394	94.81
314.624	88.81
314.853	74.81
315.083	86.81
315.312	77.81
315.542	85.81
315.771	91.81
316.001	76.81
316.23	76.81
316.46	90.81
316.689	77.81
316.919	90.81
317.148	85.81
317.377	80.81
317.607	87.81
317.836	85.81
318.065	73.81
318.295	69.81
318.524	99.81
318.753	75.81
318.983	85.81
319.212	92.81
319.441	89.81
319.67	78.81
319.9	86.81
320.129	77.81
320.358	102.81
320.587	87.81
320.816	68.81
321.046	82.81
321.275	88.81
321.504	82.81
321.733	86.81
321.962	80.81
322.191	91.81
322.42	84.81
322.649	86.81
322.878	91.81
323.108	79.81
323.337	77.81
323.566	74.81
323.795	84.81
324.024	95.81
324.253	79.81
324.482	74.81
324.71	82.81
324.939	79.81
325.168	86.81
325.397	78.81
325.626	74.81
325.855	79.81
326.084	86.81
326.313	70.81
326.542	75.81
326.77	70.81
326.999	82.81
327.228	81.81
327.457	78.81
327.686	86.81
327.914	93.81
328.143	80.81
328.372	79.81
328.6	80.81
328.829	77.81
329.058	74.81
329.287	88.81
329.515	83.81
329.744	67.81
329.972	77.81
330.201	87.81
330.43	74.81
330.658	70.81
330.887	79.81
331.115	84.81
331.344	84.81
331.572	79.81
331.801	89.81
332.03	69.81
332.258	77.81
332.486	69.81
332.715	80.81
332.943	95.81
333.172	89.81
333.4	75.81
333.629	74.81
333.857	80.81
334.085	78.81
334.314	91.81
334.542	80.81
334.771	84.81
334.999	79.81
335.227	78.81
335.455	83.81
335.684	77.81
335.912	81.81
336.14	101.81
336.369	83.81
336.597	73.81
336.825	81.81
337.053	79.81
337.281	82.81
337.51	89.81
337.738	96.81
337.966	69.81
338.194	65.81
338.422	71.81
338.65	91.81
338.878	78.81
339.106	83.81
339.334	71.81
339.562	79.81
339.79	98.81
340.018	83.81
340.246	87.81
340.474	88.81
340.702	74.81
340.93	81.81
341.158	77.81
341.386	96.81
341.614	89.81
341.842	82.81
342.07	76.81
342.298	77.81
342.526	82.81
342.754	73.81
342.981	75.81
343.209	72.81
343.437	94.81
343.665	85.81
343.893	81.81
344.12	99.81
344.348	84.81
344.576	73.81
344.804	88.81
345.031	84.81
345.259	78.81
345.487	95.81
345.714	75.81
345.942	89.81
346.17	79.81
346.397	77.81
346.625	82.81
346.853	71.81
347.08	86.81
347.308	80.81
347.535	55.81
347.763	87.81
347.99	81.81
348.218	75.81
348.445	80.81
348.673	75.81
348.9	95.81
349.128	97.81
349.355	87.81
349.583	93.81
349.81	71.81
350.037	84.81
350.265	87.81
350.492	69.81
350.72	83.81
350.947	82.81
351.174	78.81
351.402	96.81
351.629	80.81
351.856	91.81
352.083	91.81
352.311	77.81
352.538	76.81
352.765	85.81
352.992	80.81
353.22	82.81
353.447	74.81
353.674	87.81
353.901	81.81
354.128	81.81
354.355	86.81
354.583	80.81
354.81	77.81
355.037	85.81
355.264	94.81
355.491	84.81
355.718	82.81
355.945	83.81
356.172	79.81
356.399	77.81
356.626	85.81
356.853	78.81
357.08	83.81
357.307	79.81
357.534	85.81
357.761	90.81
357.988	87.81
358.215	84.81
358.441	92.81
358.668	72.81
358.895	76.81
359.122	74.81
359.349	81.81
359.576	81.81
359.802	89.81
360.029	92.81
360.256	94.81
360.483	77.81
360.709	79.81
360.936	94.81
361.163	78.81
361.39	77.81
361.616	82.81
361.843	79.81
362.07	95.81
362.296	96.81
362.523	80.81
362.749	81.81
362.976	74.81
363.203	98.81
363.429	89.81
363.656	69.81
363.882	76.81
364.109	86.81
364.335	99.81
364.562	94.81
364.788	86.81
365.015	92.81
365.241	84.81
365.468	79.81
365.694	93.81
365.92	86.81
366.147	84.81
366.373	91.81
366.599	90.81
366.826	80.81
367.052	72.81
367.278	80.81
367.505	93.81
367.731	84.81
367.957	74.81
368.184	85.81
368.41	76.81
368.636	82.81
368.862	76.81
369.089	69.81
369.315	82.81
369.541	76.81
369.767	91.81
369.993	96.81
370.219	86.81
370.445	85.81
370.672	78.81
370.898	80.81
371.124	70.81
371.35	84.81
371.576	90.81
371.802	69.81
372.028	80.81
372.254	88.81
372.48	84.81
372.706	79.81
372.932	78.81
373.158	73.81
373.384	83.81
373.61	90.81
373.835	80.81
374.061	69.81
374.287	79.81
374.513	77.81
374.739	84.81
374.965	86.81
375.191	83.81
375.416	73.81
375.642	96.81
375.868	70.81
376.094	94.81
376.319	86.81
376.545	73.81
376.771	88.81
376.997	91.81
377.222	81.81
377.448	82.81
377.674	92.81
377.899	87.81
378.125	86.81
378.35	100.81
378.576	89.81
378.802	78.81
379.027	85.81
379.253	68.81
379.478	83.81
379.704	74.81
379.929	84.81
380.155	93.81
380.38	89.81
380.606	77.81
380.831	90.81
381.057	84.81
381.282	78.81
381.507	72.81
381.733	86.81
381.958	74.81
382.184	79.81
382.409	88.81
382.634	95.81
382.86	84.81
383.085	81.81
383.31	84.81
383.535	79.81
383.761	83.81
383.986	85.81
384.211	84.81
384.436	84.81
384.662	87.81
384.887	75.81
385.112	84.81
385.337	80.81
385.562	93.81
385.787	76.81
386.013	71.81
386.238	98.81
386.463	71.81
386.688	82.81
386.913	83.81
387.138	92.81
387.363	72.81
387.588	86.81
387.813	86.81
388.038	79.81
388.263	80.81
388.488	85.81
388.713	78.81
388.938	85.81
389.163	81.81
389.387	89.81
389.612	84.81
389.837	73.81
390.062	78.81
390.287	76.81
390.512	80.81
390.736	88.81
390.961	82.81
391.186	72.81
391.411	82.81
391.636	88.81
391.86	93.81
392.085	85.81
392.31	80.81
392.534	91.81
392.759	92.81
392.984	100.81
393.208	103.81
393.433	129.81
393.658	123.81
393.882	89.81
394.107	89.81
394.331	79.81
394.556	89.81
394.78	82.81
395.005	85.81
395.229	84.81
395.454	92.81
395.678	84.81
395.903	98.81
396.127	90.81
396.352	97.81
396.576	94.81
396.801	120.81
397.025	118.81
397.249	85.81
397.474	82.81
397.698	80.81
397.922	76.81
398.147	88.81
398.371	84.81
398.595	89.81
398.82	78.81
399.044	82.81
399.268	87.81
399.492	92.81
399.717	90.81
399.941	84.81
400.165	88.81
400.389	80.81
400.613	71.81
400.837	87.81
401.062	82.81
401.286	74.81
401.51	89.81
401.734	77.81
401.958	76.81
402.182	67.81
402.406	85.81
402.63	80.81
402.854	66.81
403.078	88.81
403.302	81.81
403.526	86.81
403.75	97.81
403.974	64.81
404.198	72.81
404.422	74.81
404.645	85.81
404.869	73.81
405.093	95.81
405.317	77.81
405.541	85.81
405.765	79.81
405.988	77.81
406.212	67.81
406.436	92.81
406.66	71.81
406.883	89.81
407.107	80.81
407.331	83.81
407.555	84.81
407.778	101.81
408.002	75.81
408.226	64.81
408.449	60.81
408.673	64.81
408.896	70.81
409.12	70.81
409.344	97.81
409.567	96.81
409.791	86.81
410.014	100.81
410.238	87.81
410.461	97.81
410.685	89.81
410.908	73.81
411.132	94.81
411.355	83.81
411.578	83.81
411.802	67.81
412.025	67.81
412.249	59.81
412.472	78.81
412.695	80.81
412.919	75.81
413.142	77.81
413.365	85.81
413.589	87.81
413.812	80.81
414.035	90.81
414.258	94.81
414.482	96.81
414.705	94.81
414.928	95.81
415.151	88.81
415.374	86.81
415.597	91.81
415.821	80.81
416.044	88.81
416.267	80.81
416.49	78.81
416.713	69.81
416.936	77.81
417.159	80.81
417.382	76.81
417.605	88.81
417.828	93.81
418.051	73.81
418.274	78.81
418.497	75.81
418.72	68.81
418.943	80.81
419.166	83.81
419.389	77.81
419.611	80.81
419.834	76.81
420.057	96.81
420.28	95.81
420.503	86.81
420.726	89.81
420.948	80.81
421.171	96.81
421.394	85.81
421.617	87.81
421.839	92.81
422.062	97.81
422.285	108.81
422.507	124.81
422.73	174.81
422.953	145.81
423.175	131.81
423.398	97.81
423.621	75.81
423.843	87.81
424.066	96.81
424.288	86.81
424.511	76.81
424.733	85.81
424.956	81.81
425.178	77.81
425.401	80.81
425.623	74.81
425.846	80.81
426.068	77.81
426.291	62.81
426.513	76.81
426.735	77.81
426.958	68.81
427.18	88.81
427.402	79.81
427.625	81.81
427.847	70.81
428.069	88.81
428.292	92.81
428.514	99.81
428.736	105.81
428.958	99.81
429.181	97.81
429.403	83.81
429.625	85.81
429.847	100.81
430.069	115.81
430.292	115.81
430.514	120.81
430.736	90.81
430.958	96.81
431.18	95.81
431.402	82.81
431.624	80.81
431.846	86.81
432.068	87.81
432.29	89.81
432.512	69.81
432.734	89.81
432.956	98.81
433.178	83.81
433.4	86.81
433.622	84.81
433.844	79.81
434.066	84.81
434.287	75.81
434.509	68.81
434.731	74.81
434.953	81.81
435.175	76.81
435.397	77.81
435.618	68.81
435.84	80.81
436.062	84.81
436.284	79.81
436.505	76.81
436.727	80.81
436.949	80.81
437.17	71.81
437.392	72.81
437.614	78.81
437.835	92.81
438.057	74.81
438.278	72.81
438.5	67.81
438.721	96.81
438.943	83.81
439.165	71.81
439.386	72.81
439.608	81.81
439.829	93.81
440.05	81.81
440.272	77.81
440.493	86.81
440.715	83.81
440.936	93.81
441.158	64.81
441.379	89.81
441.6	85.81
441.822	73.81
442.043	80.81
442.264	84.81
442.486	92.81
442.707	110.81
442.928	100.81
443.149	76.81
443.371	92.81
443.592	132.81
443.813	114.81
444.034	101.81
444.255	74.81
444.476	78.81
444.698	85.81
444.919	100.81
445.14	172.81
445.361	128.81
445.582	128.81
445.803	106.81
446.024	90.81
446.245	78.81
446.466	80.81
446.687	71.81
446.908	79.81
447.129	79.81
447.35	77.81
447.571	72.81
447.792	78.81
448.013	80.81
448.234	85.81
448.455	90.81
448.675	70.81
448.896	80.81
449.117	75.81
449.338	91.81
449.559	82.81
449.779	90.81
450	77.81
450.221	68.81
450.442	84.81
450.662	91.81
450.883	78.81
451.104	97.81
451.324	84.81
451.545	85.81
451.766	94.81
451.986	80.81
452.207	91.81
452.428	82.81
452.648	91.81
452.869	80.81
453.089	75.81
453.31	81.81
453.53	85.81
453.751	88.81
453.971	76.81
454.192	80.81
454.412	73.81
454.633	78.81
454.853	89.81
455.073	86.81
455.294	89.81
455.514	85.81
455.734	88.81
455.955	69.81
456.175	88.81
456.395	82.81
456.616	87.81
456.836	76.81
457.056	85.81
457.276	87.81
457.497	85.81
457.717	81.81
457.937	86.81
458.157	100.81
458.377	92.81
458.598	90.81
458.818	93.81
459.038	76.81
459.258	76.81
459.478	77.81
459.698	69.81
459.918	92.81
460.138	74.81
460.358	64.81
460.578	81.81
460.798	91.81
461.018	87.81
461.238	80.81
461.458	78.81
461.678	69.81
461.898	78.81
462.118	71.81
462.338	88.81
462.558	84.81
462.777	77.81
462.997	69.81
463.217	65.81
463.437	86.81
463.657	86.81
463.876	76.81
464.096	91.81
464.316	79.81
464.536	77.81
464.755	82.81
464.975	78.81
465.195	75.81
465.414	87.81
465.634	71.81
465.854	89.81
466.073	86.81
466.293	95.81
466.512	82.81
466.732	77.81
466.951	78.81
467.171	74.81
467.391	78.81
467.61	88.81
467.829	92.81
468.049	83.81
468.268	81.81
468.488	78.81
468.707	72.81
468.927	74.81
469.146	86.81
469.365	86.81
469.585	86.81
469.804	89.81
470.023	80.81
470.243	70.81
470.462	86.81
470.681	69.81
470.901	78.81
471.12	88.81
471.339	83.81
471.558	71.81
471.777	84.81
471.997	88.81
472.216	88.81
472.435	96.81
472.654	82.81
472.873	83.81
473.092	74.81
473.311	88.81
473.53	75.81
473.749	86.81
473.968	86.81
474.187	78.81
474.406	85.81
474.625	81.81
474.844	78.81
475.063	88.81
475.282	79.81
475.501	80.81
475.72	86.81
475.939	78.81
476.158	84.81
476.377	92.81
476.596	84.81
476.814	69.81
477.033	96.81
477.252	80.81
477.471	80.81
477.69	89.81
477.908	69.81
478.127	72.81
478.346	84.81
478.564	87.81
478.783	86.81
479.002	86.81
479.22	70.81
479.439	96.81
479.658	83.81
479.876	75.81
480.095	95.81
480.313	74.81
480.532	72.81
480.751	79.81
480.969	77.81
481.188	80.81
481.406	88.81
481.624	99.81
481.843	73.81
482.061	82.81
482.28	68.81
482.498	66.81
482.717	85.81
482.935	76.81
483.153	81.81
483.372	84.81
483.59	82.81
483.808	95.81
484.027	86.81
484.245	81.81
484.463	82.81
484.681	79.81
484.9	80.81
485.118	81.81
485.336	77.81
485.554	74.81
485.772	75.81
485.99	79.81
486.209	84.81
486.427	82.81
486.645	76.81
486.863	74.81
487.081	69.81
487.299	71.81
487.517	75.81
487.735	84.81
487.953	108.81
488.171	100.81
488.389	72.81
488.607	81.81
488.825	84.81
489.043	76.81
489.261	79.81
489.479	67.81
489.696	72.81
489.914	82.81
490.132	82.81
490.35	88.81
490.568	92.81
490.786	69.81
491.003	81.81
491.221	80.81
491.439	88.81
491.657	101.81
491.874	89.81
492.092	83.81
492.31	82.81
492.527	74.81
492.745	94.81
492.963	93.81
493.18	78.81
493.398	86.81
493.615	89.81
493.833	88.81
494.05	80.81
494.268	69.81
494.485	88.81
494.703	75.81
494.92	93.81
495.138	69.81
495.355	72.81
495.573	75.81
495.79	84.81
496.008	84.81
496.225	86.81
496.442	83.81
496.66	82.81
496.877	81.81
497.094	102.81
497.312	85.81
497.529	85.81
497.746	91.81
497.963	74.81
498.181	89.81
498.398	92.81
498.615	82.81
498.832	73.81
499.049	81.81
499.267	74.81
499.484	86.81
499.701	101.81
499.918	88.81
500.135	78.81
500.352	90.81
500.569	84.81
500.786	83.81
501.003	89.81
501.22	78.81
501.437	84.81
501.654	82.81
501.871	89.81
502.088	80.81
502.305	74.81
502.522	80.81
502.739	97.81
502.956	93.81
503.172	79.81
503.389	84.81
503.606	82.81
503.823	90.81
504.04	89.81
504.256	98.81
504.473	94.81
504.69	95.81
504.907	101.81
505.123	90.81
505.34	70.81
505.557	77.81
505.773	101.81
505.99	80.81
506.207	96.81
506.423	81.81
506.64	82.81
506.856	96.81
507.073	97.81
507.289	87.81
507.506	86.81
507.722	93.81
507.939	79.81
508.155	94.81
508.372	76.81
508.588	83.81
508.805	86.81
509.021	88.81
509.238	93.81
509.454	82.81
509.67	84.81
509.887	76.81
510.103	95.81
510.319	88.81
510.536	74.81
510.752	97.81
510.968	82.81
511.184	89.81
511.401	87.81
511.617	90.81
511.833	74.81
512.049	88.81
512.265	83.81
512.481	73.81
512.698	71.81
512.914	81.81
513.13	93.81
513.346	86.81
513.562	92.81
513.778	81.81
513.994	95.81
514.21	80.81
514.426	93.81
514.642	79.81
514.858	87.81
515.074	97.81
515.29	89.81
515.506	80.81
515.721	73.81
515.937	82.81
516.153	79.81
516.369	90.81
516.585	91.81
516.801	82.81
517.016	102.81
517.232	77.81
517.448	88.81
517.664	97.81
517.879	80.81
518.095	78.81
518.311	80.81
518.527	94.81
518.742	81.81
518.958	108.81
519.173	115.81
519.389	85.81
519.605	90.81
