Data from 10100_3_HRD10591_00006.txt Node
Date: Mon Jan 19 14:02:25 EST 2026
User: Yrep
Spectrometer: HR+D1059
Trigger mode: 1
Integration Time (sec): 1.000000E-1
Scans to average: 1
Electric dark correction enabled: true
Nonlinearity correction enabled: false
Boxcar width: 0
XAxis mode: Wavelengths
Number of Pixels in Spectrum: 2048
>>>>>Begin Spectral Data<<<<<
223.165	-5.31
223.4	-5.31
223.635	-5.31
223.869	-24.31
224.104	-32.31
224.338	-16.31
224.573	-10.31
224.808	-4.31
225.042	-11.31
225.277	-6.31
225.511	-0.31
225.746	4.69
225.98	7.69
226.215	9.69
226.449	6.69
226.683	19.69
226.918	32.69
227.152	29.69
227.387	30.69
227.621	43.69
227.856	48.69
228.09	38.69
228.324	57.69
228.559	55.69
228.793	59.69
229.027	63.69
229.262	66.69
229.496	62.69
229.73	74.69
229.964	71.69
230.199	71.69
230.433	81.69
230.667	87.69
230.901	84.69
231.136	88.69
231.37	90.69
231.604	69.69
231.838	76.69
232.072	60.69
232.306	76.69
232.541	96.69
232.775	71.69
233.009	73.69
233.243	85.69
233.477	67.69
233.711	78.69
233.945	87.69
234.179	54.69
234.413	76.69
234.647	64.69
234.881	70.69
235.115	75.69
235.349	75.69
235.583	80.69
235.817	71.69
236.051	81.69
236.285	73.69
236.519	73.69
236.753	70.69
236.987	80.69
237.221	72.69
237.455	68.69
237.689	60.69
237.922	73.69
238.156	54.69
238.39	77.69
238.624	76.69
238.858	68.69
239.091	79.69
239.325	69.69
239.559	86.69
239.793	79.69
240.027	73.69
240.26	73.69
240.494	85.69
240.728	68.69
240.961	53.69
241.195	78.69
241.429	76.69
241.662	69.69
241.896	81.69
242.13	73.69
242.363	74.69
242.597	81.69
242.83	76.69
243.064	71.69
243.298	79.69
243.531	63.69
243.765	60.69
243.998	80.69
244.232	81.69
244.465	76.69
244.699	66.69
244.932	72.69
245.166	70.69
245.399	76.69
245.633	83.69
245.866	71.69
246.099	91.69
246.333	85.69
246.566	76.69
246.8	76.69
247.033	70.69
247.266	72.69
247.5	81.69
247.733	79.69
247.966	79.69
248.2	89.69
248.433	76.69
248.666	78.69
248.899	85.69
249.133	82.69
249.366	72.69
249.599	82.69
249.832	97.69
250.066	85.69
250.299	79.69
250.532	77.69
250.765	73.69
250.998	79.69
251.231	70.69
251.465	85.69
251.698	75.69
251.931	85.69
252.164	86.69
252.397	93.69
252.63	93.69
252.863	81.69
253.096	86.69
253.329	61.69
253.562	85.69
253.795	63.69
254.028	67.69
254.261	77.69
254.494	81.69
254.727	96.69
254.96	88.69
255.193	68.69
255.426	84.69
255.659	60.69
255.892	78.69
256.124	83.69
256.357	76.69
256.59	83.69
256.823	74.69
257.056	67.69
257.289	96.69
257.521	76.69
257.754	83.69
257.987	73.69
258.22	82.69
258.452	89.69
258.685	91.69
258.918	87.69
259.151	73.69
259.383	71.69
259.616	81.69
259.849	74.69
260.081	74.69
260.314	92.69
260.547	85.69
260.779	82.69
261.012	87.69
261.244	67.69
261.477	87.69
261.71	82.69
261.942	93.69
262.175	81.69
262.407	81.69
262.64	82.69
262.872	85.69
263.105	87.69
263.337	88.69
263.57	77.69
263.802	75.69
264.035	66.69
264.267	70.69
264.499	91.69
264.732	82.69
264.964	74.69
265.197	78.69
265.429	67.69
265.661	90.69
265.894	68.69
266.126	86.69
266.358	77.69
266.591	77.69
266.823	88.69
267.055	89.69
267.287	81.69
267.52	86.69
267.752	77.69
267.984	93.69
268.216	80.69
268.448	87.69
268.681	73.69
268.913	87.69
269.145	82.69
269.377	80.69
269.609	83.69
269.841	83.69
270.073	93.69
270.306	80.69
270.538	91.69
270.77	83.69
271.002	94.69
271.234	79.69
271.466	80.69
271.698	95.69
271.93	89.69
272.162	80.69
272.394	73.69
272.626	85.69
272.858	85.69
273.09	90.69
273.322	71.69
273.553	73.69
273.785	76.69
274.017	102.69
274.249	83.69
274.481	82.69
274.713	81.69
274.945	95.69
275.176	75.69
275.408	86.69
275.64	83.69
275.872	85.69
276.104	74.69
276.335	76.69
276.567	88.69
276.799	77.69
277.031	82.69
277.262	84.69
277.494	73.69
277.726	83.69
277.957	69.69
278.189	83.69
278.421	81.69
278.652	79.69
278.884	74.69
279.115	85.69
279.347	86.69
279.579	87.69
279.81	98.69
280.042	104.69
280.273	82.69
280.505	81.69
280.736	69.69
280.968	76.69
281.199	79.69
281.431	85.69
281.662	82.69
281.894	76.69
282.125	77.69
282.356	85.69
282.588	93.69
282.819	82.69
283.051	86.69
283.282	81.69
283.513	89.69
283.745	78.69
283.976	81.69
284.207	92.69
284.439	85.69
284.67	88.69
284.901	86.69
285.132	87.69
285.364	77.69
285.595	83.69
285.826	81.69
286.057	80.69
286.288	81.69
286.52	72.69
286.751	83.69
286.982	81.69
287.213	83.69
287.444	101.69
287.675	84.69
287.906	96.69
288.138	84.69
288.369	85.69
288.6	87.69
288.831	81.69
289.062	80.69
289.293	91.69
289.524	93.69
289.755	88.69
289.986	74.69
290.217	81.69
290.448	65.69
290.679	84.69
290.91	77.69
291.141	71.69
291.371	65.69
291.602	71.69
291.833	81.69
292.064	92.69
292.295	89.69
292.526	77.69
292.757	81.69
292.987	61.69
293.218	84.69
293.449	77.69
293.68	72.69
293.91	82.69
294.141	89.69
294.372	82.69
294.603	83.69
294.833	84.69
295.064	80.69
295.295	80.69
295.525	71.69
295.756	95.69
295.987	81.69
296.217	79.69
296.448	86.69
296.679	87.69
296.909	82.69
297.14	96.69
297.37	77.69
297.601	87.69
297.831	86.69
298.062	88.69
298.292	77.69
298.523	93.69
298.753	83.69
298.984	94.69
299.214	81.69
299.445	84.69
299.675	72.69
299.905	79.69
300.136	75.69
300.366	77.69
300.597	101.69
300.827	98.69
301.057	83.69
301.288	88.69
301.518	75.69
301.748	93.69
301.979	95.69
302.209	75.69
302.439	78.69
302.669	87.69
302.9	88.69
303.13	97.69
303.36	84.69
303.59	80.69
303.82	74.69
304.051	79.69
304.281	68.69
304.511	78.69
304.741	93.69
304.971	88.69
305.201	85.69
305.431	86.69
305.661	87.69
305.891	93.69
306.121	94.69
306.352	101.69
306.582	73.69
306.812	77.69
307.042	95.69
307.272	85.69
307.502	101.69
307.731	76.69
307.961	98.69
308.191	76.69
308.421	86.69
308.651	86.69
308.881	96.69
309.111	89.69
309.341	77.69
309.571	79.69
309.8	68.69
310.03	74.69
310.26	83.69
310.49	83.69
310.72	83.69
310.949	86.69
311.179	80.69
311.409	96.69
311.639	77.69
311.868	97.69
312.098	92.69
312.328	86.69
312.557	75.69
312.787	88.69
313.017	82.69
313.246	85.69
313.476	79.69
313.706	84.69
313.935	92.69
314.165	78.69
314.394	92.69
314.624	77.69
314.853	79.69
315.083	99.69
315.312	96.69
315.542	87.69
315.771	77.69
316.001	70.69
316.23	91.69
316.46	88.69
316.689	79.69
316.919	93.69
317.148	82.69
317.377	87.69
317.607	79.69
317.836	81.69
318.065	84.69
318.295	88.69
318.524	84.69
318.753	81.69
318.983	83.69
319.212	104.69
319.441	88.69
319.67	92.69
319.9	89.69
320.129	80.69
320.358	96.69
320.587	85.69
320.816	85.69
321.046	69.69
321.275	91.69
321.504	85.69
321.733	77.69
321.962	81.69
322.191	94.69
322.42	85.69
322.649	93.69
322.878	92.69
323.108	90.69
323.337	87.69
323.566	82.69
323.795	81.69
324.024	91.69
324.253	85.69
324.482	84.69
324.71	89.69
324.939	87.69
325.168	86.69
325.397	76.69
325.626	86.69
325.855	88.69
326.084	93.69
326.313	85.69
326.542	92.69
326.77	76.69
326.999	84.69
327.228	84.69
327.457	85.69
327.686	93.69
327.914	92.69
328.143	85.69
328.372	68.69
328.6	84.69
328.829	78.69
329.058	92.69
329.287	87.69
329.515	77.69
329.744	88.69
329.972	78.69
330.201	81.69
330.43	101.69
330.658	92.69
330.887	83.69
331.115	81.69
331.344	91.69
331.572	78.69
331.801	94.69
332.03	89.69
332.258	90.69
332.486	85.69
332.715	74.69
332.943	91.69
333.172	87.69
333.4	87.69
333.629	82.69
333.857	82.69
334.085	77.69
334.314	83.69
334.542	90.69
334.771	96.69
334.999	86.69
335.227	87.69
335.455	95.69
335.684	89.69
335.912	103.69
336.14	99.69
336.369	96.69
336.597	96.69
336.825	83.69
337.053	84.69
337.281	77.69
337.51	87.69
337.738	74.69
337.966	85.69
338.194	78.69
338.422	79.69
338.65	80.69
338.878	91.69
339.106	80.69
339.334	76.69
339.562	76.69
339.79	83.69
340.018	85.69
340.246	78.69
340.474	77.69
340.702	83.69
340.93	85.69
341.158	79.69
341.386	79.69
341.614	75.69
341.842	88.69
342.07	85.69
342.298	103.69
342.526	75.69
342.754	80.69
342.981	84.69
343.209	67.69
343.437	84.69
343.665	77.69
343.893	73.69
344.12	84.69
344.348	81.69
344.576	73.69
344.804	81.69
345.031	81.69
345.259	78.69
345.487	87.69
345.714	89.69
345.942	88.69
346.17	91.69
346.397	86.69
346.625	73.69
346.853	89.69
347.08	91.69
347.308	85.69
347.535	77.69
347.763	76.69
347.99	75.69
348.218	91.69
348.445	70.69
348.673	96.69
348.9	77.69
349.128	82.69
349.355	75.69
349.583	79.69
349.81	101.69
350.037	84.69
350.265	93.69
350.492	92.69
350.72	76.69
350.947	83.69
351.174	97.69
351.402	91.69
351.629	90.69
351.856	75.69
352.083	86.69
352.311	85.69
352.538	72.69
352.765	70.69
352.992	92.69
353.22	95.69
353.447	81.69
353.674	91.69
353.901	79.69
354.128	71.69
354.355	83.69
354.583	83.69
354.81	97.69
355.037	98.69
355.264	73.69
355.491	79.69
355.718	85.69
355.945	84.69
356.172	81.69
356.399	92.69
356.626	81.69
356.853	72.69
357.08	89.69
357.307	91.69
357.534	78.69
357.761	77.69
357.988	89.69
358.215	81.69
358.441	97.69
358.668	85.69
358.895	60.69
359.122	88.69
359.349	83.69
359.576	83.69
359.802	86.69
360.029	91.69
360.256	85.69
360.483	83.69
360.709	89.69
360.936	95.69
361.163	92.69
361.39	99.69
361.616	72.69
361.843	94.69
362.07	91.69
362.296	90.69
362.523	82.69
362.749	86.69
362.976	88.69
363.203	110.69
363.429	88.69
363.656	86.69
363.882	88.69
364.109	83.69
364.335	97.69
364.562	98.69
364.788	80.69
365.015	87.69
365.241	82.69
365.468	87.69
365.694	77.69
365.92	96.69
366.147	74.69
366.373	80.69
366.599	99.69
366.826	91.69
367.052	83.69
367.278	77.69
367.505	85.69
367.731	82.69
367.957	73.69
368.184	86.69
368.41	86.69
368.636	72.69
368.862	93.69
369.089	89.69
369.315	67.69
369.541	80.69
369.767	81.69
369.993	99.69
370.219	85.69
370.445	69.69
370.672	81.69
370.898	71.69
371.124	82.69
371.35	82.69
371.576	79.69
371.802	82.69
372.028	100.69
372.254	92.69
372.48	80.69
372.706	80.69
372.932	70.69
373.158	93.69
373.384	92.69
373.61	89.69
373.835	81.69
374.061	83.69
374.287	85.69
374.513	79.69
374.739	91.69
374.965	81.69
375.191	91.69
375.416	82.69
375.642	95.69
375.868	81.69
376.094	83.69
376.319	84.69
376.545	88.69
376.771	72.69
376.997	74.69
377.222	80.69
377.448	105.69
377.674	83.69
377.899	83.69
378.125	88.69
378.35	87.69
378.576	66.69
378.802	85.69
379.027	91.69
379.253	88.69
379.478	95.69
379.704	84.69
379.929	71.69
380.155	88.69
380.38	87.69
380.606	83.69
380.831	86.69
381.057	71.69
381.282	84.69
381.507	99.69
381.733	84.69
381.958	90.69
382.184	91.69
382.409	89.69
382.634	81.69
382.86	84.69
383.085	74.69
383.31	93.69
383.535	94.69
383.761	88.69
383.986	95.69
384.211	87.69
384.436	76.69
384.662	78.69
384.887	69.69
385.112	79.69
385.337	88.69
385.562	97.69
385.787	97.69
386.013	112.69
386.238	96.69
386.463	73.69
386.688	98.69
386.913	87.69
387.138	77.69
387.363	81.69
387.588	95.69
387.813	69.69
388.038	88.69
388.263	97.69
388.488	86.69
388.713	74.69
388.938	85.69
389.163	68.69
389.387	87.69
389.612	87.69
389.837	100.69
390.062	79.69
390.287	84.69
390.512	88.69
390.736	85.69
390.961	81.69
391.186	87.69
391.411	83.69
391.636	81.69
391.86	98.69
392.085	74.69
392.31	81.69
392.534	90.69
392.759	95.69
392.984	102.69
393.208	113.69
393.433	135.69
393.658	115.69
393.882	97.69
394.107	79.69
394.331	108.69
394.556	92.69
394.78	89.69
395.005	88.69
395.229	81.69
395.454	92.69
395.678	88.69
395.903	85.69
396.127	102.69
396.352	101.69
396.576	98.69
396.801	108.69
397.025	115.69
397.249	105.69
397.474	95.69
397.698	100.69
397.922	84.69
398.147	94.69
398.371	75.69
398.595	97.69
398.82	70.69
399.044	77.69
399.268	81.69
399.492	88.69
399.717	91.69
399.941	74.69
400.165	82.69
400.389	86.69
400.613	86.69
400.837	85.69
401.062	80.69
401.286	71.69
401.51	69.69
401.734	90.69
401.958	79.69
402.182	77.69
402.406	83.69
402.63	79.69
402.854	76.69
403.078	90.69
403.302	100.69
403.526	92.69
403.75	89.69
403.974	87.69
404.198	73.69
404.422	81.69
404.645	105.69
404.869	81.69
405.093	66.69
405.317	88.69
405.541	81.69
405.765	94.69
405.988	75.69
406.212	81.69
406.436	94.69
406.66	81.69
406.883	78.69
407.107	71.69
407.331	99.69
407.555	93.69
407.778	85.69
408.002	102.69
408.226	72.69
408.449	76.69
408.673	81.69
408.896	79.69
409.12	67.69
409.344	69.69
409.567	100.69
409.791	89.69
410.014	99.69
410.238	69.69
410.461	77.69
410.685	85.69
410.908	84.69
411.132	75.69
411.355	83.69
411.578	88.69
411.802	74.69
412.025	86.69
412.249	76.69
412.472	66.69
412.695	84.69
412.919	95.69
413.142	91.69
413.365	73.69
413.589	83.69
413.812	77.69
414.035	89.69
414.258	83.69
414.482	80.69
414.705	74.69
414.928	93.69
415.151	94.69
415.374	85.69
415.597	89.69
415.821	71.69
416.044	74.69
416.267	89.69
416.49	70.69
416.713	83.69
416.936	87.69
417.159	82.69
417.382	62.69
417.605	83.69
417.828	88.69
418.051	69.69
418.274	93.69
418.497	85.69
418.72	73.69
418.943	92.69
419.166	98.69
419.389	92.69
419.611	79.69
419.834	63.69
420.057	90.69
420.28	92.69
420.503	93.69
420.726	84.69
420.948	91.69
421.171	95.69
421.394	89.69
421.617	93.69
421.839	93.69
422.062	104.69
422.285	116.69
422.507	143.69
422.73	152.69
422.953	164.69
423.175	139.69
423.398	107.69
423.621	100.69
423.843	89.69
424.066	79.69
424.288	97.69
424.511	88.69
424.733	84.69
424.956	80.69
425.178	81.69
425.401	92.69
425.623	82.69
425.846	83.69
426.068	84.69
426.291	76.69
426.513	85.69
426.735	82.69
426.958	89.69
427.18	89.69
427.402	84.69
427.625	96.69
427.847	91.69
428.069	85.69
428.292	100.69
428.514	99.69
428.736	95.69
428.958	95.69
429.181	84.69
429.403	79.69
429.625	69.69
429.847	104.69
430.069	120.69
430.292	103.69
430.514	104.69
430.736	83.69
430.958	103.69
431.18	82.69
431.402	75.69
431.624	92.69
431.846	104.69
432.068	104.69
432.29	88.69
432.512	82.69
432.734	88.69
432.956	71.69
433.178	99.69
433.4	92.69
433.622	68.69
433.844	87.69
434.066	79.69
434.287	89.69
434.509	90.69
434.731	78.69
434.953	85.69
435.175	79.69
435.397	87.69
435.618	70.69
435.84	86.69
436.062	73.69
436.284	87.69
436.505	94.69
436.727	74.69
436.949	84.69
437.17	91.69
437.392	88.69
437.614	74.69
437.835	85.69
438.057	85.69
438.278	97.69
438.5	88.69
438.721	93.69
438.943	75.69
439.165	56.69
439.386	73.69
439.608	88.69
439.829	82.69
440.05	97.69
440.272	87.69
440.493	89.69
440.715	87.69
440.936	82.69
441.158	83.69
441.379	93.69
441.6	83.69
441.822	84.69
442.043	87.69
442.264	92.69
442.486	88.69
442.707	91.69
442.928	92.69
443.149	84.69
443.371	96.69
443.592	144.69
443.813	105.69
444.034	91.69
444.255	85.69
444.476	81.69
444.698	82.69
444.919	95.69
445.14	178.69
445.361	155.69
445.582	144.69
445.803	133.69
446.024	103.69
446.245	88.69
446.466	73.69
446.687	85.69
446.908	85.69
447.129	62.69
447.35	83.69
447.571	75.69
447.792	72.69
448.013	83.69
448.234	81.69
448.455	76.69
448.675	87.69
448.896	71.69
449.117	77.69
449.338	76.69
449.559	89.69
449.779	85.69
450	80.69
450.221	83.69
450.442	70.69
450.662	68.69
450.883	77.69
451.104	85.69
451.324	99.69
451.545	84.69
451.766	70.69
451.986	91.69
452.207	79.69
452.428	95.69
452.648	82.69
452.869	86.69
453.089	83.69
453.31	68.69
453.53	90.69
453.751	84.69
453.971	92.69
454.192	72.69
454.412	80.69
454.633	79.69
454.853	65.69
455.073	84.69
455.294	93.69
455.514	95.69
455.734	77.69
455.955	81.69
456.175	87.69
456.395	77.69
456.616	81.69
456.836	69.69
457.056	91.69
457.276	79.69
457.497	82.69
457.717	94.69
457.937	98.69
458.157	95.69
458.377	87.69
458.598	82.69
458.818	101.69
459.038	88.69
459.258	75.69
459.478	72.69
459.698	77.69
459.918	93.69
460.138	100.69
460.358	87.69
460.578	99.69
460.798	93.69
461.018	109.69
461.238	83.69
461.458	103.69
461.678	75.69
461.898	81.69
462.118	80.69
462.338	84.69
462.558	92.69
462.777	81.69
462.997	77.69
463.217	79.69
463.437	68.69
463.657	81.69
463.876	78.69
464.096	72.69
464.316	84.69
464.536	73.69
464.755	93.69
464.975	91.69
465.195	88.69
465.414	87.69
465.634	76.69
465.854	89.69
466.073	79.69
466.293	77.69
466.512	76.69
466.732	73.69
466.951	71.69
467.171	86.69
467.391	83.69
467.61	97.69
467.829	97.69
468.049	90.69
468.268	86.69
468.488	92.69
468.707	85.69
468.927	78.69
469.146	82.69
469.365	84.69
469.585	88.69
469.804	71.69
470.023	71.69
470.243	76.69
470.462	75.69
470.681	91.69
470.901	76.69
471.12	84.69
471.339	84.69
471.558	76.69
471.777	60.69
471.997	91.69
472.216	86.69
472.435	79.69
472.654	85.69
472.873	72.69
473.092	84.69
473.311	90.69
473.53	68.69
473.749	79.69
473.968	65.69
474.187	70.69
474.406	79.69
474.625	84.69
474.844	88.69
475.063	77.69
475.282	76.69
475.501	86.69
475.72	81.69
475.939	81.69
476.158	90.69
476.377	91.69
476.596	78.69
476.814	73.69
477.033	79.69
477.252	87.69
477.471	102.69
477.69	83.69
477.908	67.69
478.127	80.69
478.346	75.69
478.564	79.69
478.783	87.69
479.002	82.69
479.22	78.69
479.439	78.69
479.658	74.69
479.876	69.69
480.095	83.69
480.313	84.69
480.532	91.69
480.751	88.69
480.969	80.69
481.188	89.69
481.406	72.69
481.624	84.69
481.843	84.69
482.061	86.69
482.28	80.69
482.498	86.69
482.717	87.69
482.935	86.69
483.153	77.69
483.372	84.69
483.59	89.69
483.808	77.69
484.027	80.69
484.245	80.69
484.463	77.69
484.681	92.69
484.9	87.69
485.118	97.69
485.336	89.69
485.554	75.69
485.772	92.69
485.99	79.69
486.209	77.69
486.427	80.69
486.645	83.69
486.863	89.69
487.081	81.69
487.299	100.69
487.517	77.69
487.735	87.69
487.953	115.69
488.171	114.69
488.389	99.69
488.607	81.69
488.825	77.69
489.043	83.69
489.261	71.69
489.479	84.69
489.696	86.69
489.914	77.69
490.132	91.69
490.35	79.69
490.568	87.69
490.786	85.69
491.003	77.69
491.221	76.69
491.439	77.69
491.657	99.69
491.874	88.69
492.092	90.69
492.31	86.69
492.527	75.69
492.745	82.69
492.963	95.69
493.18	77.69
493.398	87.69
493.615	73.69
493.833	79.69
494.05	79.69
494.268	96.69
494.485	93.69
494.703	91.69
494.92	94.69
495.138	97.69
495.355	88.69
495.573	94.69
495.79	86.69
496.008	85.69
496.225	94.69
496.442	90.69
496.66	91.69
496.877	91.69
497.094	108.69
497.312	79.69
497.529	79.69
497.746	86.69
497.963	93.69
498.181	73.69
498.398	91.69
498.615	93.69
498.832	78.69
499.049	83.69
499.267	83.69
499.484	82.69
499.701	85.69
499.918	89.69
500.135	92.69
500.352	97.69
500.569	97.69
500.786	88.69
501.003	92.69
501.22	81.69
501.437	81.69
501.654	89.69
501.871	83.69
502.088	91.69
502.305	95.69
502.522	91.69
502.739	76.69
502.956	103.69
503.172	83.69
503.389	93.69
503.606	86.69
503.823	71.69
504.04	84.69
504.256	115.69
504.473	101.69
504.69	91.69
504.907	99.69
505.123	72.69
505.34	81.69
505.557	86.69
505.773	97.69
505.99	95.69
506.207	82.69
506.423	71.69
506.64	75.69
506.856	91.69
507.073	87.69
507.289	96.69
507.506	96.69
507.722	88.69
507.939	92.69
508.155	89.69
508.372	100.69
508.588	102.69
508.805	94.69
509.021	87.69
509.238	95.69
509.454	80.69
509.67	87.69
509.887	92.69
510.103	83.69
510.319	95.69
510.536	89.69
510.752	89.69
510.968	81.69
511.184	83.69
511.401	84.69
511.617	93.69
511.833	88.69
512.049	87.69
512.265	87.69
512.481	85.69
512.698	91.69
512.914	71.69
513.13	82.69
513.346	87.69
513.562	86.69
513.778	82.69
513.994	87.69
514.21	69.69
514.426	91.69
514.642	81.69
514.858	97.69
515.074	87.69
515.29	93.69
515.506	75.69
515.721	77.69
515.937	93.69
516.153	85.69
516.369	78.69
516.585	93.69
516.801	83.69
517.016	97.69
517.232	92.69
517.448	90.69
517.664	88.69
517.879	85.69
518.095	89.69
518.311	76.69
518.527	101.69
518.742	103.69
518.958	119.69
519.173	111.69
519.389	89.69
