Data from 10100_3_HRD10591_00008.txt Node
Date: Mon Jan 19 14:02:26 EST 2026
User: Yrep
Spectrometer: HR+D1059
Trigger mode: 1
Integration Time (sec): 1.000000E-1
Scans to average: 1
Electric dark correction enabled: true
Nonlinearity correction enabled: false
Boxcar width: 0
XAxis mode: Wavelengths
Number of Pixels in Spectrum: 2048
>>>>>Begin Spectral Data<<<<<
223.165	-12.94
223.4	-12.94
223.635	-12.94
223.869	-20.94
224.104	-13.94
224.338	-9.94
224.573	-21.94
224.808	-9.94
225.042	-13.94
225.277	0.06
225.511	5.06
225.746	6.06
225.98	2.06
226.215	3.06
226.449	27.06
226.683	26.06
226.918	13.06
227.152	21.06
227.387	36.06
227.621	40.06
227.856	52.06
228.09	49.06
228.324	48.06
228.559	62.06
228.793	54.06
229.027	56.06
229.262	61.06
229.496	62.06
229.73	77.06
229.964	66.06
230.199	67.06
230.433	78.06
230.667	77.06
230.901	82.06
231.136	83.06
231.37	80.06
231.604	87.06
231.838	74.06
232.072	81.06
232.306	70.06
232.541	80.06
232.775	73.06
233.009	93.06
233.243	83.06
233.477	71.06
233.711	67.06
233.945	92.06
234.179	79.06
234.413	82.06
234.647	92.06
234.881	88.06
235.115	87.06
235.349	80.06
235.583	85.06
235.817	86.06
236.051	78.06
236.285	85.06
236.519	81.06
236.753	82.06
236.987	91.06
237.221	85.06
237.455	77.06
237.689	71.06
237.922	76.06
238.156	79.06
238.39	77.06
238.624	83.06
238.858	75.06
239.091	84.06
239.325	69.06
239.559	79.06
239.793	83.06
240.027	76.06
240.26	78.06
240.494	76.06
240.728	84.06
240.961	85.06
241.195	74.06
241.429	71.06
241.662	88.06
241.896	79.06
242.13	80.06
242.363	85.06
242.597	69.06
242.83	83.06
243.064	74.06
243.298	77.06
243.531	89.06
243.765	72.06
243.998	79.06
244.232	89.06
244.465	77.06
244.699	88.06
244.932	79.06
245.166	79.06
245.399	86.06
245.633	83.06
245.866	80.06
246.099	70.06
246.333	83.06
246.566	75.06
246.8	81.06
247.033	66.06
247.266	80.06
247.5	80.06
247.733	70.06
247.966	74.06
248.2	85.06
248.433	64.06
248.666	70.06
248.899	80.06
249.133	81.06
249.366	97.06
249.599	69.06
249.832	91.06
250.066	77.06
250.299	76.06
250.532	83.06
250.765	94.06
250.998	68.06
251.231	86.06
251.465	67.06
251.698	76.06
251.931	82.06
252.164	82.06
252.397	75.06
252.63	75.06
252.863	79.06
253.096	82.06
253.329	82.06
253.562	81.06
253.795	84.06
254.028	94.06
254.261	82.06
254.494	89.06
254.727	68.06
254.96	89.06
255.193	83.06
255.426	78.06
255.659	87.06
255.892	81.06
256.124	90.06
256.357	86.06
256.59	68.06
256.823	84.06
257.056	89.06
257.289	89.06
257.521	87.06
257.754	87.06
257.987	57.06
258.22	71.06
258.452	87.06
258.685	78.06
258.918	91.06
259.151	81.06
259.383	94.06
259.616	88.06
259.849	76.06
260.081	76.06
260.314	82.06
260.547	88.06
260.779	86.06
261.012	77.06
261.244	75.06
261.477	83.06
261.71	78.06
261.942	70.06
262.175	69.06
262.407	93.06
262.64	80.06
262.872	76.06
263.105	90.06
263.337	72.06
263.57	74.06
263.802	84.06
264.035	80.06
264.267	71.06
264.499	85.06
264.732	74.06
264.964	86.06
265.197	76.06
265.429	85.06
265.661	87.06
265.894	80.06
266.126	87.06
266.358	78.06
266.591	82.06
266.823	75.06
267.055	83.06
267.287	83.06
267.52	76.06
267.752	101.06
267.984	81.06
268.216	86.06
268.448	92.06
268.681	97.06
268.913	86.06
269.145	75.06
269.377	75.06
269.609	81.06
269.841	86.06
270.073	94.06
270.306	86.06
270.538	86.06
270.77	82.06
271.002	83.06
271.234	82.06
271.466	82.06
271.698	81.06
271.93	82.06
272.162	76.06
272.394	82.06
272.626	89.06
272.858	96.06
273.09	88.06
273.322	92.06
273.553	83.06
273.785	70.06
274.017	75.06
274.249	80.06
274.481	86.06
274.713	89.06
274.945	96.06
275.176	86.06
275.408	83.06
275.64	84.06
275.872	64.06
276.104	76.06
276.335	76.06
276.567	68.06
276.799	85.06
277.031	84.06
277.262	79.06
277.494	93.06
277.726	94.06
277.957	89.06
278.189	91.06
278.421	94.06
278.652	83.06
278.884	80.06
279.115	86.06
279.347	88.06
279.579	89.06
279.81	86.06
280.042	74.06
280.273	95.06
280.505	76.06
280.736	77.06
280.968	80.06
281.199	76.06
281.431	82.06
281.662	93.06
281.894	87.06
282.125	81.06
282.356	83.06
282.588	75.06
282.819	80.06
283.051	86.06
283.282	76.06
283.513	88.06
283.745	87.06
283.976	83.06
284.207	80.06
284.439	82.06
284.67	79.06
284.901	82.06
285.132	93.06
285.364	86.06
285.595	74.06
285.826	74.06
286.057	89.06
286.288	90.06
286.52	79.06
286.751	81.06
286.982	76.06
287.213	92.06
287.444	82.06
287.675	91.06
287.906	82.06
288.138	86.06
288.369	82.06
288.6	81.06
288.831	88.06
289.062	85.06
289.293	87.06
289.524	93.06
289.755	80.06
289.986	91.06
290.217	83.06
290.448	84.06
290.679	91.06
290.91	85.06
291.141	79.06
291.371	77.06
291.602	92.06
291.833	76.06
292.064	89.06
292.295	84.06
292.526	79.06
292.757	86.06
292.987	73.06
293.218	82.06
293.449	85.06
293.68	82.06
293.91	74.06
294.141	89.06
294.372	73.06
294.603	77.06
294.833	94.06
295.064	84.06
295.295	86.06
295.525	82.06
295.756	91.06
295.987	76.06
296.217	75.06
296.448	68.06
296.679	80.06
296.909	100.06
297.14	65.06
297.37	95.06
297.601	84.06
297.831	82.06
298.062	99.06
298.292	94.06
298.523	86.06
298.753	90.06
298.984	77.06
299.214	62.06
299.445	86.06
299.675	74.06
299.905	87.06
300.136	89.06
300.366	98.06
300.597	94.06
300.827	84.06
301.057	94.06
301.288	92.06
301.518	100.06
301.748	72.06
301.979	92.06
302.209	72.06
302.439	90.06
302.669	90.06
302.9	84.06
303.13	80.06
303.36	76.06
303.59	86.06
303.82	76.06
304.051	93.06
304.281	94.06
304.511	97.06
304.741	82.06
304.971	92.06
305.201	88.06
305.431	85.06
305.661	92.06
305.891	88.06
306.121	89.06
306.352	68.06
306.582	67.06
306.812	87.06
307.042	94.06
307.272	81.06
307.502	90.06
307.731	94.06
307.961	81.06
308.191	84.06
308.421	97.06
308.651	89.06
308.881	85.06
309.111	90.06
309.341	86.06
309.571	91.06
309.8	84.06
310.03	79.06
310.26	80.06
310.49	88.06
310.72	95.06
310.949	88.06
311.179	88.06
311.409	66.06
311.639	78.06
311.868	86.06
312.098	88.06
312.328	92.06
312.557	75.06
312.787	87.06
313.017	75.06
313.246	89.06
313.476	94.06
313.706	78.06
313.935	92.06
314.165	72.06
314.394	83.06
314.624	77.06
314.853	98.06
315.083	82.06
315.312	87.06
315.542	82.06
315.771	86.06
316.001	75.06
316.23	76.06
316.46	79.06
316.689	86.06
316.919	92.06
317.148	76.06
317.377	88.06
317.607	95.06
317.836	96.06
318.065	91.06
318.295	94.06
318.524	91.06
318.753	99.06
318.983	84.06
319.212	83.06
319.441	98.06
319.67	81.06
319.9	82.06
320.129	89.06
320.358	88.06
320.587	82.06
320.816	79.06
321.046	93.06
321.275	83.06
321.504	86.06
321.733	83.06
321.962	88.06
322.191	107.06
322.42	92.06
322.649	81.06
322.878	98.06
323.108	89.06
323.337	87.06
323.566	80.06
323.795	81.06
324.024	83.06
324.253	100.06
324.482	87.06
324.71	86.06
324.939	88.06
325.168	77.06
325.397	98.06
325.626	90.06
325.855	86.06
326.084	83.06
326.313	92.06
326.542	88.06
326.77	82.06
326.999	82.06
327.228	76.06
327.457	79.06
327.686	92.06
327.914	89.06
328.143	90.06
328.372	95.06
328.6	86.06
328.829	74.06
329.058	94.06
329.287	76.06
329.515	90.06
329.744	82.06
329.972	77.06
330.201	84.06
330.43	83.06
330.658	90.06
330.887	89.06
331.115	97.06
331.344	96.06
331.572	85.06
331.801	88.06
332.03	82.06
332.258	83.06
332.486	83.06
332.715	80.06
332.943	93.06
333.172	98.06
333.4	87.06
333.629	94.06
333.857	79.06
334.085	95.06
334.314	79.06
334.542	77.06
334.771	73.06
334.999	83.06
335.227	85.06
335.455	82.06
335.684	86.06
335.912	93.06
336.14	91.06
336.369	92.06
336.597	81.06
336.825	84.06
337.053	91.06
337.281	96.06
337.51	95.06
337.738	90.06
337.966	92.06
338.194	79.06
338.422	93.06
338.65	90.06
338.878	74.06
339.106	72.06
339.334	77.06
339.562	88.06
339.79	84.06
340.018	82.06
340.246	83.06
340.474	75.06
340.702	84.06
340.93	91.06
341.158	75.06
341.386	80.06
341.614	78.06
341.842	83.06
342.07	89.06
342.298	105.06
342.526	92.06
342.754	91.06
342.981	68.06
343.209	75.06
343.437	87.06
343.665	76.06
343.893	84.06
344.12	86.06
344.348	74.06
344.576	77.06
344.804	77.06
345.031	90.06
345.259	98.06
345.487	71.06
345.714	87.06
345.942	78.06
346.17	90.06
346.397	71.06
346.625	81.06
346.853	75.06
347.08	83.06
347.308	87.06
347.535	82.06
347.763	92.06
347.99	96.06
348.218	101.06
348.445	76.06
348.673	83.06
348.9	91.06
349.128	83.06
349.355	95.06
349.583	75.06
349.81	84.06
350.037	83.06
350.265	96.06
350.492	90.06
350.72	100.06
350.947	88.06
351.174	77.06
351.402	86.06
351.629	90.06
351.856	77.06
352.083	79.06
352.311	89.06
352.538	85.06
352.765	79.06
352.992	88.06
353.22	89.06
353.447	87.06
353.674	96.06
353.901	74.06
354.128	91.06
354.355	91.06
354.583	82.06
354.81	79.06
355.037	80.06
355.264	83.06
355.491	75.06
355.718	91.06
355.945	72.06
356.172	83.06
356.399	85.06
356.626	82.06
356.853	95.06
357.08	97.06
357.307	92.06
357.534	90.06
357.761	90.06
357.988	89.06
358.215	90.06
358.441	84.06
358.668	91.06
358.895	89.06
359.122	98.06
359.349	75.06
359.576	87.06
359.802	82.06
360.029	82.06
360.256	81.06
360.483	95.06
360.709	92.06
360.936	104.06
361.163	96.06
361.39	87.06
361.616	78.06
361.843	79.06
362.07	87.06
362.296	79.06
362.523	97.06
362.749	82.06
362.976	96.06
363.203	91.06
363.429	86.06
363.656	82.06
363.882	89.06
364.109	104.06
364.335	107.06
364.562	98.06
364.788	105.06
365.015	87.06
365.241	87.06
365.468	92.06
365.694	89.06
365.92	92.06
366.147	86.06
366.373	74.06
366.599	85.06
366.826	85.06
367.052	79.06
367.278	80.06
367.505	76.06
367.731	96.06
367.957	84.06
368.184	75.06
368.41	88.06
368.636	83.06
368.862	81.06
369.089	82.06
369.315	90.06
369.541	91.06
369.767	89.06
369.993	95.06
370.219	89.06
370.445	92.06
370.672	94.06
370.898	94.06
371.124	101.06
371.35	86.06
371.576	102.06
371.802	79.06
372.028	83.06
372.254	80.06
372.48	74.06
372.706	92.06
372.932	99.06
373.158	88.06
373.384	100.06
373.61	82.06
373.835	87.06
374.061	81.06
374.287	92.06
374.513	85.06
374.739	96.06
374.965	102.06
375.191	88.06
375.416	103.06
375.642	84.06
375.868	84.06
376.094	69.06
376.319	90.06
376.545	73.06
376.771	92.06
376.997	87.06
377.222	83.06
377.448	87.06
377.674	89.06
377.899	94.06
378.125	77.06
378.35	98.06
378.576	84.06
378.802	83.06
379.027	86.06
379.253	96.06
379.478	89.06
379.704	88.06
379.929	90.06
380.155	84.06
380.38	92.06
380.606	76.06
380.831	86.06
381.057	80.06
381.282	96.06
381.507	99.06
381.733	100.06
381.958	79.06
382.184	77.06
382.409	83.06
382.634	95.06
382.86	88.06
383.085	89.06
383.31	97.06
383.535	84.06
383.761	86.06
383.986	88.06
384.211	89.06
384.436	94.06
384.662	89.06
384.887	85.06
385.112	91.06
385.337	94.06
385.562	90.06
385.787	84.06
386.013	102.06
386.238	85.06
386.463	68.06
386.688	99.06
386.913	90.06
387.138	86.06
387.363	93.06
387.588	84.06
387.813	84.06
388.038	94.06
388.263	87.06
388.488	85.06
388.713	91.06
388.938	92.06
389.163	95.06
389.387	75.06
389.612	83.06
389.837	90.06
390.062	84.06
390.287	91.06
390.512	86.06
390.736	89.06
390.961	82.06
391.186	90.06
391.411	90.06
391.636	76.06
391.86	94.06
392.085	92.06
392.31	83.06
392.534	85.06
392.759	91.06
392.984	116.06
393.208	132.06
393.433	199.06
393.658	174.06
393.882	111.06
394.107	91.06
394.331	96.06
394.556	100.06
394.78	84.06
395.005	77.06
395.229	79.06
395.454	95.06
395.678	87.06
395.903	88.06
396.127	102.06
396.352	112.06
396.576	122.06
396.801	152.06
397.025	161.06
397.249	104.06
397.474	102.06
397.698	99.06
397.922	90.06
398.147	72.06
398.371	92.06
398.595	77.06
398.82	89.06
399.044	86.06
399.268	78.06
399.492	88.06
399.717	83.06
399.941	87.06
400.165	75.06
400.389	76.06
400.613	80.06
400.837	92.06
401.062	90.06
401.286	88.06
401.51	99.06
401.734	85.06
401.958	88.06
402.182	86.06
402.406	83.06
402.63	87.06
402.854	80.06
403.078	88.06
403.302	86.06
403.526	79.06
403.75	85.06
403.974	102.06
404.198	89.06
404.422	87.06
404.645	80.06
404.869	96.06
405.093	86.06
405.317	72.06
405.541	87.06
405.765	92.06
405.988	92.06
406.212	87.06
406.436	88.06
406.66	84.06
406.883	80.06
407.107	72.06
407.331	79.06
407.555	103.06
407.778	80.06
408.002	98.06
408.226	79.06
408.449	88.06
408.673	88.06
408.896	84.06
409.12	86.06
409.344	92.06
409.567	88.06
409.791	103.06
410.014	95.06
410.238	94.06
410.461	90.06
410.685	81.06
410.908	83.06
411.132	102.06
411.355	95.06
411.578	99.06
411.802	83.06
412.025	81.06
412.249	94.06
412.472	82.06
412.695	101.06
412.919	74.06
413.142	70.06
413.365	92.06
413.589	95.06
413.812	89.06
414.035	87.06
414.258	85.06
414.482	90.06
414.705	88.06
414.928	101.06
415.151	94.06
415.374	75.06
415.597	70.06
415.821	101.06
416.044	66.06
416.267	82.06
416.49	79.06
416.713	92.06
416.936	79.06
417.159	79.06
417.382	66.06
417.605	92.06
417.828	89.06
418.051	92.06
418.274	96.06
418.497	91.06
418.72	85.06
418.943	85.06
419.166	87.06
419.389	96.06
419.611	96.06
419.834	98.06
420.057	92.06
420.28	86.06
420.503	84.06
420.726	83.06
420.948	78.06
421.171	92.06
421.394	75.06
421.617	97.06
421.839	106.06
422.062	106.06
422.285	107.06
422.507	169.06
422.73	203.06
422.953	210.06
423.175	136.06
423.398	100.06
423.621	107.06
423.843	89.06
424.066	96.06
424.288	79.06
424.511	90.06
424.733	92.06
424.956	103.06
425.178	92.06
425.401	69.06
425.623	103.06
425.846	92.06
426.068	77.06
426.291	97.06
426.513	93.06
426.735	91.06
426.958	96.06
427.18	95.06
427.402	87.06
427.625	86.06
427.847	85.06
428.069	87.06
428.292	91.06
428.514	92.06
428.736	90.06
428.958	94.06
429.181	115.06
429.403	91.06
429.625	85.06
429.847	109.06
430.069	102.06
430.292	114.06
430.514	104.06
430.736	108.06
430.958	97.06
431.18	95.06
431.402	90.06
431.624	85.06
431.846	88.06
432.068	112.06
432.29	83.06
432.512	93.06
432.734	89.06
432.956	78.06
433.178	89.06
433.4	81.06
433.622	77.06
433.844	77.06
434.066	83.06
434.287	99.06
434.509	81.06
434.731	85.06
434.953	87.06
435.175	97.06
435.397	84.06
435.618	82.06
435.84	88.06
436.062	84.06
436.284	88.06
436.505	74.06
436.727	80.06
436.949	78.06
437.17	90.06
437.392	88.06
437.614	87.06
437.835	87.06
438.057	91.06
438.278	91.06
438.5	88.06
438.721	89.06
438.943	105.06
439.165	93.06
439.386	83.06
439.608	88.06
439.829	81.06
440.05	80.06
440.272	102.06
440.493	85.06
440.715	82.06
440.936	86.06
441.158	68.06
441.379	92.06
441.6	73.06
441.822	82.06
442.043	97.06
442.264	97.06
442.486	107.06
442.707	141.06
442.928	95.06
443.149	91.06
443.371	94.06
443.592	146.06
443.813	135.06
444.034	99.06
444.255	94.06
444.476	82.06
444.698	95.06
444.919	86.06
445.14	186.06
445.361	147.06
445.582	150.06
445.803	131.06
446.024	104.06
446.245	82.06
446.466	89.06
446.687	90.06
446.908	78.06
447.129	74.06
447.35	91.06
447.571	87.06
447.792	81.06
448.013	75.06
448.234	82.06
448.455	83.06
448.675	90.06
448.896	83.06
449.117	90.06
449.338	64.06
449.559	91.06
449.779	98.06
450	98.06
450.221	88.06
450.442	81.06
450.662	81.06
450.883	99.06
451.104	88.06
451.324	94.06
451.545	88.06
451.766	98.06
451.986	88.06
452.207	106.06
452.428	88.06
452.648	83.06
452.869	89.06
453.089	81.06
453.31	73.06
453.53	80.06
453.751	95.06
453.971	87.06
454.192	101.06
454.412	96.06
454.633	88.06
454.853	83.06
455.073	77.06
455.294	93.06
455.514	94.06
455.734	80.06
455.955	78.06
456.175	79.06
456.395	104.06
456.616	86.06
456.836	88.06
457.056	83.06
457.276	96.06
457.497	85.06
457.717	77.06
457.937	97.06
458.157	107.06
458.377	106.06
458.598	98.06
458.818	95.06
459.038	86.06
459.258	90.06
459.478	88.06
459.698	67.06
459.918	92.06
460.138	94.06
460.358	78.06
460.578	99.06
460.798	106.06
461.018	95.06
461.238	88.06
461.458	103.06
461.678	96.06
461.898	88.06
462.118	66.06
462.338	84.06
462.558	90.06
462.777	91.06
462.997	90.06
463.217	92.06
463.437	89.06
463.657	97.06
463.876	83.06
464.096	81.06
464.316	85.06
464.536	88.06
464.755	91.06
464.975	91.06
465.195	83.06
465.414	84.06
465.634	77.06
465.854	86.06
466.073	84.06
466.293	80.06
466.512	81.06
466.732	95.06
466.951	83.06
467.171	80.06
467.391	87.06
467.61	76.06
467.829	86.06
468.049	88.06
468.268	91.06
468.488	98.06
468.707	78.06
468.927	83.06
469.146	82.06
469.365	88.06
469.585	93.06
469.804	92.06
470.023	95.06
470.243	78.06
470.462	90.06
470.681	96.06
470.901	84.06
471.12	80.06
471.339	75.06
471.558	88.06
471.777	74.06
471.997	99.06
472.216	95.06
472.435	99.06
472.654	99.06
472.873	91.06
473.092	86.06
473.311	98.06
473.53	91.06
473.749	83.06
473.968	91.06
474.187	94.06
474.406	97.06
474.625	98.06
474.844	100.06
475.063	85.06
475.282	88.06
475.501	90.06
475.72	82.06
475.939	93.06
476.158	96.06
476.377	83.06
476.596	88.06
476.814	83.06
477.033	90.06
477.252	89.06
477.471	92.06
477.69	92.06
477.908	73.06
478.127	81.06
478.346	97.06
478.564	102.06
478.783	80.06
479.002	79.06
479.22	79.06
479.439	88.06
479.658	85.06
479.876	87.06
480.095	81.06
480.313	92.06
480.532	103.06
480.751	97.06
480.969	82.06
481.188	91.06
481.406	85.06
481.624	106.06
481.843	83.06
482.061	83.06
482.28	98.06
482.498	97.06
482.717	89.06
482.935	98.06
483.153	103.06
483.372	91.06
483.59	86.06
483.808	86.06
484.027	90.06
484.245	99.06
484.463	68.06
484.681	105.06
484.9	72.06
485.118	93.06
485.336	84.06
485.554	79.06
485.772	82.06
485.99	92.06
486.209	84.06
486.427	81.06
486.645	88.06
486.863	72.06
487.081	88.06
487.299	81.06
487.517	92.06
487.735	90.06
487.953	93.06
488.171	105.06
488.389	92.06
488.607	96.06
488.825	90.06
489.043	80.06
489.261	83.06
489.479	100.06
489.696	99.06
489.914	89.06
490.132	97.06
490.35	104.06
490.568	72.06
490.786	76.06
491.003	91.06
491.221	94.06
491.439	78.06
491.657	94.06
491.874	77.06
492.092	101.06
492.31	95.06
492.527	84.06
492.745	98.06
492.963	96.06
493.18	84.06
493.398	86.06
493.615	101.06
493.833	98.06
494.05	84.06
494.268	91.06
494.485	76.06
494.703	90.06
494.92	94.06
495.138	95.06
495.355	104.06
495.573	90.06
495.79	82.06
496.008	89.06
496.225	86.06
496.442	88.06
496.66	104.06
496.877	84.06
497.094	96.06
497.312	86.06
497.529	93.06
497.746	100.06
497.963	102.06
498.181	86.06
498.398	83.06
498.615	87.06
498.832	80.06
499.049	87.06
499.267	87.06
499.484	97.06
499.701	90.06
499.918	94.06
500.135	88.06
500.352	91.06
500.569	88.06
500.786	94.06
501.003	96.06
501.22	95.06
501.437	92.06
501.654	110.06
501.871	87.06
502.088	91.06
502.305	83.06
502.522	92.06
502.739	89.06
502.956	94.06
503.172	88.06
503.389	95.06
503.606	98.06
503.823	99.06
504.04	106.06
504.256	117.06
504.473	97.06
504.69	94.06
504.907	87.06
505.123	94.06
505.34	89.06
505.557	97.06
505.773	87.06
505.99	88.06
506.207	96.06
506.423	75.06
506.64	94.06
506.856	99.06
507.073	83.06
507.289	92.06
507.506	84.06
507.722	101.06
507.939	98.06
508.155	94.06
508.372	89.06
508.588	86.06
508.805	87.06
509.021	82.06
509.238	81.06
509.454	95.06
509.67	86.06
509.887	93.06
510.103	94.06
510.319	79.06
510.536	90.06
510.752	91.06
510.968	96.06
511.184	83.06
511.401	102.06
511.617	91.06
511.833	77.06
512.049	87.06
512.265	87.06
512.481	90.06
512.698	88.06
512.914	94.06
513.13	97.06
513.346	83.06
513.562	91.06
513.778	99.06
513.994	101.06
514.21	75.06
514.426	91.06
514.642	89.06
514.858	88.06
515.074	91.06
515.29	108.06
515.506	83.06
515.721	80.06
515.937	92.06
516.153	91.06
516.369	83.06
516.585	93.06
516.801	110.06
517.016	114.06
517.232	97.06
517.448	102.06
517.664	103.06
517.879	81.06
518.095	82.06
518.311	85.06
518.527	96.06
518.742	74.06
518.958	110.06
