Data from 10100_3_HRD10591_00031.txt Node
Date: Mon Jan 19 14:02:38 EST 2026
User: Yrep
Spectrometer: HR+D1059
Trigger mode: 1
Integration Time (sec): 1.000000E-1
Scans to average: 1
Electric dark correction enabled: true
Nonlinearity correction enabled: false
Boxcar width: 0
XAxis mode: Wavelengths
Number of Pixels in Spectrum: 2048
>>>>>Begin Spectral Data<<<<<
223.165	-18.38
223.4	-18.38
223.635	-18.38
223.869	-21.38
224.104	-18.38
224.338	-17.38
224.573	-26.38
224.808	-0.38
225.042	-20.38
225.277	-19.38
225.511	-5.38
225.746	5.62
225.98	21.62
226.215	-3.38
226.449	29.62
226.683	18.62
226.918	38.62
227.152	36.62
227.387	30.62
227.621	44.62
227.856	39.62
228.09	58.62
228.324	43.62
228.559	59.62
228.793	69.62
229.027	49.62
229.262	60.62
229.496	64.62
229.73	81.62
229.964	76.62
230.199	85.62
230.433	83.62
230.667	70.62
230.901	65.62
231.136	61.62
231.37	79.62
231.604	80.62
231.838	78.62
232.072	67.62
232.306	76.62
232.541	73.62
232.775	87.62
233.009	85.62
233.243	76.62
233.477	85.62
233.711	84.62
233.945	79.62
234.179	98.62
234.413	77.62
234.647	82.62
234.881	88.62
235.115	76.62
235.349	72.62
235.583	77.62
235.817	76.62
236.051	78.62
236.285	89.62
236.519	81.62
236.753	87.62
236.987	85.62
237.221	73.62
237.455	75.62
237.689	74.62
237.922	73.62
238.156	68.62
238.39	75.62
238.624	65.62
238.858	71.62
239.091	82.62
239.325	73.62
239.559	80.62
239.793	73.62
240.027	72.62
240.26	77.62
240.494	89.62
240.728	76.62
240.961	83.62
241.195	85.62
241.429	71.62
241.662	77.62
241.896	91.62
242.13	88.62
242.363	83.62
242.597	72.62
242.83	85.62
243.064	74.62
243.298	83.62
243.531	74.62
243.765	77.62
243.998	75.62
244.232	65.62
244.465	73.62
244.699	81.62
244.932	72.62
245.166	70.62
245.399	90.62
245.633	70.62
245.866	67.62
246.099	71.62
246.333	80.62
246.566	101.62
246.8	81.62
247.033	90.62
247.266	81.62
247.5	84.62
247.733	85.62
247.966	83.62
248.2	80.62
248.433	71.62
248.666	85.62
248.899	63.62
249.133	87.62
249.366	87.62
249.599	65.62
249.832	68.62
250.066	71.62
250.299	72.62
250.532	91.62
250.765	87.62
250.998	87.62
251.231	85.62
251.465	76.62
251.698	72.62
251.931	78.62
252.164	78.62
252.397	95.62
252.63	82.62
252.863	89.62
253.096	92.62
253.329	73.62
253.562	80.62
253.795	93.62
254.028	76.62
254.261	74.62
254.494	84.62
254.727	87.62
254.96	85.62
255.193	92.62
255.426	75.62
255.659	74.62
255.892	80.62
256.124	76.62
256.357	77.62
256.59	81.62
256.823	88.62
257.056	75.62
257.289	101.62
257.521	80.62
257.754	76.62
257.987	91.62
258.22	75.62
258.452	71.62
258.685	87.62
258.918	72.62
259.151	77.62
259.383	78.62
259.616	83.62
259.849	80.62
260.081	81.62
260.314	79.62
260.547	74.62
260.779	91.62
261.012	79.62
261.244	71.62
261.477	69.62
261.71	83.62
261.942	70.62
262.175	83.62
262.407	76.62
262.64	79.62
262.872	76.62
263.105	68.62
263.337	90.62
263.57	73.62
263.802	91.62
264.035	86.62
264.267	84.62
264.499	89.62
264.732	85.62
264.964	84.62
265.197	90.62
265.429	103.62
265.661	89.62
265.894	76.62
266.126	83.62
266.358	96.62
266.591	86.62
266.823	80.62
267.055	90.62
267.287	87.62
267.52	88.62
267.752	88.62
267.984	88.62
268.216	76.62
268.448	93.62
268.681	91.62
268.913	85.62
269.145	97.62
269.377	85.62
269.609	86.62
269.841	89.62
270.073	78.62
270.306	81.62
270.538	100.62
270.77	80.62
271.002	93.62
271.234	94.62
271.466	83.62
271.698	79.62
271.93	88.62
272.162	77.62
272.394	86.62
272.626	91.62
272.858	94.62
273.09	84.62
273.322	85.62
273.553	96.62
273.785	87.62
274.017	85.62
274.249	84.62
274.481	83.62
274.713	90.62
274.945	74.62
275.176	100.62
275.408	86.62
275.64	78.62
275.872	84.62
276.104	84.62
276.335	77.62
276.567	80.62
276.799	97.62
277.031	79.62
277.262	67.62
277.494	86.62
277.726	76.62
277.957	91.62
278.189	76.62
278.421	79.62
278.652	84.62
278.884	76.62
279.115	97.62
279.347	109.62
279.579	78.62
279.81	87.62
280.042	72.62
280.273	86.62
280.505	87.62
280.736	89.62
280.968	91.62
281.199	89.62
281.431	88.62
281.662	89.62
281.894	82.62
282.125	76.62
282.356	74.62
282.588	89.62
282.819	92.62
283.051	78.62
283.282	95.62
283.513	103.62
283.745	76.62
283.976	90.62
284.207	70.62
284.439	85.62
284.67	109.62
284.901	78.62
285.132	86.62
285.364	80.62
285.595	107.62
285.826	93.62
286.057	66.62
286.288	71.62
286.52	86.62
286.751	76.62
286.982	83.62
287.213	76.62
287.444	74.62
287.675	83.62
287.906	88.62
288.138	89.62
288.369	81.62
288.6	85.62
288.831	79.62
289.062	83.62
289.293	88.62
289.524	98.62
289.755	90.62
289.986	77.62
290.217	75.62
290.448	85.62
290.679	82.62
290.91	86.62
291.141	89.62
291.371	78.62
291.602	72.62
291.833	81.62
292.064	93.62
292.295	79.62
292.526	86.62
292.757	81.62
292.987	86.62
293.218	95.62
293.449	83.62
293.68	84.62
293.91	83.62
294.141	94.62
294.372	87.62
294.603	84.62
294.833	83.62
295.064	84.62
295.295	92.62
295.525	88.62
295.756	93.62
295.987	86.62
296.217	96.62
296.448	83.62
296.679	91.62
296.909	88.62
297.14	84.62
297.37	86.62
297.601	100.62
297.831	90.62
298.062	90.62
298.292	69.62
298.523	94.62
298.753	85.62
298.984	88.62
299.214	83.62
299.445	81.62
299.675	83.62
299.905	87.62
300.136	99.62
300.366	75.62
300.597	87.62
300.827	87.62
301.057	95.62
301.288	73.62
301.518	82.62
301.748	88.62
301.979	101.62
302.209	93.62
302.439	90.62
302.669	62.62
302.9	84.62
303.13	87.62
303.36	104.62
303.59	87.62
303.82	93.62
304.051	88.62
304.281	96.62
304.511	88.62
304.741	84.62
304.971	74.62
305.201	91.62
305.431	92.62
305.661	85.62
305.891	80.62
306.121	84.62
306.352	81.62
306.582	96.62
306.812	92.62
307.042	96.62
307.272	83.62
307.502	86.62
307.731	91.62
307.961	88.62
308.191	90.62
308.421	80.62
308.651	92.62
308.881	93.62
309.111	94.62
309.341	92.62
309.571	90.62
309.8	93.62
310.03	83.62
310.26	76.62
310.49	88.62
310.72	93.62
310.949	100.62
311.179	97.62
311.409	77.62
311.639	95.62
311.868	98.62
312.098	86.62
312.328	79.62
312.557	89.62
312.787	95.62
313.017	85.62
313.246	87.62
313.476	78.62
313.706	97.62
313.935	99.62
314.165	86.62
314.394	101.62
314.624	104.62
314.853	71.62
315.083	85.62
315.312	89.62
315.542	87.62
315.771	89.62
316.001	101.62
316.23	96.62
316.46	73.62
316.689	85.62
316.919	87.62
317.148	87.62
317.377	83.62
317.607	87.62
317.836	74.62
318.065	100.62
318.295	92.62
318.524	90.62
318.753	81.62
318.983	71.62
319.212	87.62
319.441	90.62
319.67	85.62
319.9	91.62
320.129	91.62
320.358	84.62
320.587	85.62
320.816	79.62
321.046	83.62
321.275	97.62
321.504	101.62
321.733	101.62
321.962	85.62
322.191	85.62
322.42	86.62
322.649	83.62
322.878	92.62
323.108	80.62
323.337	88.62
323.566	88.62
323.795	92.62
324.024	87.62
324.253	83.62
324.482	89.62
324.71	86.62
324.939	91.62
325.168	95.62
325.397	99.62
325.626	84.62
325.855	97.62
326.084	84.62
326.313	88.62
326.542	97.62
326.77	99.62
326.999	96.62
327.228	84.62
327.457	89.62
327.686	89.62
327.914	81.62
328.143	100.62
328.372	84.62
328.6	83.62
328.829	89.62
329.058	88.62
329.287	108.62
329.515	90.62
329.744	85.62
329.972	82.62
330.201	86.62
330.43	95.62
330.658	99.62
330.887	77.62
331.115	84.62
331.344	85.62
331.572	108.62
331.801	95.62
332.03	76.62
332.258	77.62
332.486	92.62
332.715	79.62
332.943	89.62
333.172	92.62
333.4	87.62
333.629	87.62
333.857	73.62
334.085	100.62
334.314	93.62
334.542	87.62
334.771	103.62
334.999	96.62
335.227	99.62
335.455	76.62
335.684	99.62
335.912	103.62
336.14	96.62
336.369	96.62
336.597	88.62
336.825	86.62
337.053	74.62
337.281	73.62
337.51	88.62
337.738	83.62
337.966	97.62
338.194	83.62
338.422	76.62
338.65	87.62
338.878	92.62
339.106	92.62
339.334	93.62
339.562	75.62
339.79	80.62
340.018	84.62
340.246	77.62
340.474	96.62
340.702	77.62
340.93	92.62
341.158	90.62
341.386	98.62
341.614	89.62
341.842	100.62
342.07	83.62
342.298	80.62
342.526	88.62
342.754	83.62
342.981	79.62
343.209	75.62
343.437	93.62
343.665	79.62
343.893	91.62
344.12	88.62
344.348	102.62
344.576	84.62
344.804	91.62
345.031	103.62
345.259	77.62
345.487	82.62
345.714	91.62
345.942	85.62
346.17	84.62
346.397	83.62
346.625	97.62
346.853	83.62
347.08	96.62
347.308	93.62
347.535	82.62
347.763	85.62
347.99	90.62
348.218	90.62
348.445	80.62
348.673	92.62
348.9	85.62
349.128	97.62
349.355	104.62
349.583	104.62
349.81	74.62
350.037	92.62
350.265	82.62
350.492	88.62
350.72	81.62
350.947	100.62
351.174	90.62
351.402	88.62
351.629	85.62
351.856	80.62
352.083	85.62
352.311	99.62
352.538	80.62
352.765	81.62
352.992	84.62
353.22	84.62
353.447	83.62
353.674	91.62
353.901	84.62
354.128	98.62
354.355	95.62
354.583	86.62
354.81	101.62
355.037	87.62
355.264	83.62
355.491	84.62
355.718	81.62
355.945	78.62
356.172	74.62
356.399	79.62
356.626	95.62
356.853	85.62
357.08	98.62
357.307	97.62
357.534	71.62
357.761	99.62
357.988	87.62
358.215	97.62
358.441	100.62
358.668	90.62
358.895	90.62
359.122	84.62
359.349	76.62
359.576	97.62
359.802	81.62
360.029	96.62
360.256	88.62
360.483	99.62
360.709	95.62
360.936	86.62
361.163	91.62
361.39	92.62
361.616	87.62
361.843	91.62
362.07	105.62
362.296	100.62
362.523	102.62
362.749	112.62
362.976	115.62
363.203	117.62
363.429	106.62
363.656	92.62
363.882	90.62
364.109	114.62
364.335	128.62
364.562	127.62
364.788	116.62
365.015	87.62
365.241	89.62
365.468	93.62
365.694	78.62
365.92	88.62
366.147	87.62
366.373	88.62
366.599	68.62
366.826	86.62
367.052	103.62
367.278	103.62
367.505	82.62
367.731	89.62
367.957	95.62
368.184	96.62
368.41	70.62
368.636	85.62
368.862	91.62
369.089	85.62
369.315	88.62
369.541	96.62
369.767	86.62
369.993	95.62
370.219	85.62
370.445	92.62
370.672	81.62
370.898	89.62
371.124	95.62
371.35	85.62
371.576	91.62
371.802	102.62
372.028	85.62
372.254	95.62
372.48	75.62
372.706	100.62
372.932	99.62
373.158	97.62
373.384	106.62
373.61	107.62
373.835	97.62
374.061	104.62
374.287	94.62
374.513	103.62
374.739	91.62
374.965	100.62
375.191	98.62
375.416	91.62
375.642	90.62
375.868	81.62
376.094	79.62
376.319	85.62
376.545	93.62
376.771	100.62
376.997	88.62
377.222	87.62
377.448	102.62
377.674	86.62
377.899	88.62
378.125	92.62
378.35	95.62
378.576	85.62
378.802	91.62
379.027	91.62
379.253	83.62
379.478	87.62
379.704	96.62
379.929	84.62
380.155	81.62
380.38	92.62
380.606	84.62
380.831	76.62
381.057	95.62
381.282	87.62
381.507	76.62
381.733	83.62
381.958	98.62
382.184	95.62
382.409	96.62
382.634	96.62
382.86	91.62
383.085	87.62
383.31	92.62
383.535	97.62
383.761	101.62
383.986	104.62
384.211	82.62
384.436	88.62
384.662	82.62
384.887	78.62
385.112	101.62
385.337	98.62
385.562	91.62
385.787	106.62
386.013	95.62
386.238	92.62
386.463	95.62
386.688	111.62
386.913	82.62
387.138	102.62
387.363	89.62
387.588	97.62
387.813	87.62
388.038	83.62
388.263	88.62
388.488	95.62
388.713	99.62
388.938	88.62
389.163	87.62
389.387	89.62
389.612	95.62
389.837	102.62
390.062	89.62
390.287	87.62
390.512	87.62
390.736	81.62
390.961	88.62
391.186	95.62
391.411	91.62
391.636	91.62
391.86	92.62
392.085	79.62
392.31	88.62
392.534	103.62
392.759	111.62
392.984	165.62
393.208	214.62
393.433	310.62
393.658	260.62
393.882	143.62
394.107	101.62
394.331	111.62
394.556	114.62
394.78	97.62
395.005	101.62
395.229	82.62
395.454	92.62
395.678	99.62
395.903	130.62
396.127	144.62
396.352	136.62
396.576	167.62
396.801	244.62
397.025	245.62
397.249	166.62
397.474	123.62
397.698	122.62
397.922	102.62
398.147	97.62
398.371	75.62
398.595	87.62
398.82	73.62
399.044	89.62
399.268	69.62
399.492	95.62
399.717	98.62
399.941	93.62
400.165	74.62
400.389	94.62
400.613	84.62
400.837	86.62
401.062	87.62
401.286	95.62
401.51	79.62
401.734	82.62
401.958	107.62
402.182	90.62
402.406	85.62
402.63	71.62
402.854	98.62
403.078	91.62
403.302	101.62
403.526	97.62
403.75	83.62
403.974	84.62
404.198	81.62
404.422	85.62
404.645	90.62
404.869	101.62
405.093	101.62
405.317	85.62
405.541	94.62
405.765	88.62
405.988	83.62
406.212	84.62
406.436	89.62
406.66	85.62
406.883	74.62
407.107	88.62
407.331	81.62
407.555	91.62
407.778	106.62
408.002	106.62
408.226	89.62
408.449	80.62
408.673	85.62
408.896	93.62
409.12	85.62
409.344	111.62
409.567	93.62
409.791	106.62
410.014	100.62
410.238	98.62
410.461	80.62
410.685	83.62
410.908	75.62
411.132	84.62
411.355	67.62
411.578	94.62
411.802	86.62
412.025	78.62
412.249	89.62
412.472	75.62
412.695	96.62
412.919	94.62
413.142	97.62
413.365	97.62
413.589	84.62
413.812	90.62
414.035	93.62
414.258	83.62
414.482	85.62
414.705	87.62
414.928	86.62
415.151	86.62
415.374	75.62
415.597	83.62
415.821	86.62
416.044	77.62
416.267	84.62
416.49	81.62
416.713	96.62
416.936	91.62
417.159	84.62
417.382	83.62
417.605	82.62
417.828	98.62
418.051	87.62
418.274	87.62
418.497	76.62
418.72	69.62
418.943	85.62
419.166	84.62
419.389	89.62
419.611	73.62
419.834	82.62
420.057	92.62
420.28	92.62
420.503	90.62
420.726	90.62
420.948	83.62
421.171	107.62
421.394	105.62
421.617	114.62
421.839	115.62
422.062	124.62
422.285	172.62
422.507	272.62
422.73	375.62
422.953	349.62
423.175	215.62
423.398	143.62
423.621	116.62
423.843	103.62
424.066	93.62
424.288	93.62
424.511	97.62
424.733	75.62
424.956	97.62
425.178	92.62
425.401	90.62
425.623	92.62
425.846	93.62
426.068	82.62
426.291	99.62
426.513	92.62
426.735	93.62
426.958	98.62
427.18	97.62
427.402	86.62
427.625	84.62
427.847	92.62
428.069	98.62
428.292	123.62
428.514	125.62
428.736	116.62
428.958	112.62
429.181	124.62
429.403	105.62
429.625	98.62
429.847	122.62
430.069	149.62
430.292	189.62
430.514	154.62
430.736	123.62
430.958	134.62
431.18	112.62
431.402	95.62
431.624	92.62
431.846	111.62
432.068	140.62
432.29	105.62
432.512	90.62
432.734	89.62
432.956	89.62
433.178	74.62
433.4	95.62
433.622	79.62
433.844	82.62
434.066	98.62
434.287	84.62
434.509	87.62
434.731	82.62
434.953	80.62
435.175	75.62
435.397	100.62
435.618	97.62
435.84	97.62
436.062	83.62
436.284	90.62
436.505	88.62
436.727	87.62
436.949	89.62
437.17	87.62
437.392	86.62
437.614	77.62
437.835	78.62
438.057	86.62
438.278	102.62
438.5	88.62
438.721	90.62
438.943	80.62
439.165	80.62
439.386	98.62
439.608	86.62
439.829	82.62
440.05	90.62
440.272	88.62
440.493	99.62
440.715	96.62
440.936	88.62
441.158	78.62
441.379	96.62
441.6	92.62
441.822	104.62
442.043	91.62
442.264	107.62
442.486	122.62
442.707	155.62
442.928	117.62
443.149	119.62
443.371	156.62
443.592	229.62
443.813	198.62
444.034	117.62
444.255	113.62
444.476	97.62
444.698	95.62
444.919	100.62
445.14	177.62
445.361	181.62
445.582	295.62
445.803	237.62
446.024	119.62
446.245	98.62
446.466	109.62
446.687	91.62
446.908	97.62
447.129	86.62
447.35	96.62
447.571	88.62
447.792	88.62
448.013	93.62
448.234	94.62
448.455	95.62
448.675	96.62
448.896	95.62
449.117	75.62
449.338	87.62
449.559	74.62
449.779	94.62
450	85.62
450.221	83.62
450.442	83.62
450.662	95.62
450.883	95.62
451.104	93.62
451.324	87.62
451.545	82.62
451.766	96.62
451.986	87.62
452.207	80.62
452.428	91.62
452.648	106.62
452.869	102.62
453.089	92.62
453.31	102.62
453.53	89.62
453.751	97.62
453.971	96.62
454.192	86.62
454.412	86.62
454.633	79.62
454.853	83.62
455.073	81.62
455.294	93.62
455.514	88.62
455.734	71.62
455.955	79.62
456.175	84.62
456.395	95.62
456.616	92.62
456.836	94.62
457.056	73.62
457.276	96.62
457.497	87.62
457.717	97.62
457.937	114.62
458.157	129.62
458.377	130.62
458.598	121.62
458.818	116.62
459.038	97.62
459.258	81.62
459.478	95.62
459.698	80.62
459.918	94.62
460.138	91.62
460.358	99.62
460.578	100.62
460.798	120.62
461.018	107.62
461.238	96.62
461.458	80.62
461.678	94.62
461.898	85.62
462.118	99.62
462.338	91.62
462.558	82.62
462.777	90.62
462.997	89.62
463.217	93.62
463.437	92.62
463.657	90.62
463.876	91.62
464.096	95.62
464.316	91.62
464.536	78.62
464.755	86.62
464.975	91.62
465.195	89.62
465.414	85.62
465.634	77.62
465.854	86.62
466.073	80.62
466.293	97.62
466.512	90.62
466.732	74.62
466.951	87.62
467.171	92.62
467.391	74.62
467.61	81.62
467.829	92.62
468.049	89.62
468.268	90.62
468.488	75.62
468.707	92.62
468.927	76.62
469.146	78.62
469.365	86.62
469.585	80.62
469.804	91.62
470.023	82.62
470.243	81.62
470.462	96.62
470.681	100.62
470.901	97.62
471.12	81.62
471.339	83.62
471.558	72.62
471.777	74.62
471.997	79.62
472.216	87.62
472.435	96.62
472.654	83.62
472.873	78.62
473.092	90.62
473.311	81.62
473.53	76.62
473.749	95.62
473.968	89.62
474.187	96.62
474.406	88.62
474.625	88.62
474.844	96.62
475.063	93.62
475.282	81.62
475.501	73.62
475.72	76.62
475.939	95.62
476.158	92.62
476.377	90.62
476.596	81.62
476.814	84.62
477.033	86.62
477.252	84.62
477.471	73.62
477.69	89.62
477.908	88.62
478.127	83.62
478.346	86.62
478.564	82.62
478.783	85.62
479.002	76.62
479.22	77.62
479.439	82.62
479.658	78.62
479.876	91.62
480.095	85.62
480.313	88.62
480.532	103.62
480.751	95.62
480.969	73.62
481.188	83.62
481.406	84.62
481.624	85.62
481.843	80.62
482.061	86.62
482.28	98.62
482.498	88.62
482.717	87.62
482.935	98.62
483.153	98.62
483.372	104.62
483.59	83.62
483.808	79.62
484.027	87.62
484.245	95.62
484.463	74.62
484.681	102.62
484.9	101.62
485.118	89.62
485.336	89.62
485.554	88.62
485.772	97.62
485.99	90.62
486.209	99.62
486.427	92.62
486.645	77.62
486.863	89.62
487.081	79.62
487.299	90.62
487.517	97.62
487.735	123.62
487.953	202.62
488.171	162.62
488.389	100.62
488.607	82.62
488.825	95.62
489.043	87.62
489.261	86.62
489.479	96.62
489.696	77.62
489.914	89.62
490.132	81.62
490.35	91.62
490.568	89.62
490.786	72.62
491.003	83.62
491.221	88.62
491.439	95.62
491.657	78.62
491.874	96.62
492.092	98.62
492.31	96.62
492.527	89.62
492.745	95.62
492.963	84.62
493.18	106.62
493.398	97.62
493.615	97.62
493.833	96.62
494.05	88.62
494.268	90.62
494.485	75.62
494.703	83.62
494.92	72.62
495.138	89.62
495.355	93.62
495.573	92.62
495.79	100.62
496.008	86.62
496.225	99.62
496.442	95.62
496.66	88.62
496.877	96.62
497.094	98.62
497.312	87.62
497.529	97.62
497.746	91.62
497.963	93.62
498.181	93.62
498.398	96.62
498.615	81.62
498.832	104.62
499.049	93.62
499.267	101.62
499.484	101.62
499.701	95.62
499.918	83.62
500.135	105.62
500.352	83.62
500.569	96.62
500.786	101.62
501.003	87.62
501.22	96.62
501.437	82.62
501.654	111.62
501.871	92.62
502.088	85.62
502.305	83.62
502.522	78.62
502.739	87.62
502.956	91.62
503.172	96.62
503.389	87.62
503.606	81.62
503.823	100.62
504.04	103.62
504.256	137.62
504.473	138.62
504.69	92.62
504.907	98.62
505.123	89.62
505.34	113.62
505.557	99.62
505.773	93.62
505.99	83.62
506.207	112.62
506.423	96.62
506.64	80.62
506.856	97.62
507.073	74.62
507.289	86.62
507.506	85.62
507.722	77.62
507.939	80.62
508.155	91.62
508.372	103.62
508.588	76.62
508.805	90.62
509.021	100.62
509.238	99.62
509.454	94.62
509.67	94.62
509.887	88.62
510.103	101.62
510.319	66.62
510.536	73.62
510.752	74.62
510.968	93.62
511.184	82.62
511.401	89.62
511.617	93.62
511.833	96.62
512.049	92.62
512.265	88.62
512.481	80.62
512.698	106.62
512.914	92.62
513.13	86.62
513.346	81.62
513.562	90.62
513.778	89.62
513.994	103.62
514.21	84.62
514.426	85.62
514.642	71.62
514.858	92.62
515.074	79.62
515.29	96.62
515.506	100.62
515.721	92.62
515.937	84.62
516.153	82.62
516.369	89.62
516.585	109.62
516.801	85.62
517.016	88.62
517.232	98.62
517.448	103.62
517.664	104.62
