Data from 10100_3_HRD10591_00042.txt Node
Date: Mon Jan 19 14:02:43 EST 2026
User: Yrep
Spectrometer: HR+D1059
Trigger mode: 1
Integration Time (sec): 1.000000E-1
Scans to average: 1
Electric dark correction enabled: true
Nonlinearity correction enabled: false
Boxcar width: 0
XAxis mode: Wavelengths
Number of Pixels in Spectrum: 2048
>>>>>Begin Spectral Data<<<<<
223.165	-8.94
223.4	-8.94
223.635	-8.94
223.869	-29.94
224.104	-25.94
224.338	-6.94
224.573	-3.94
224.808	-2.94
225.042	-10.94
225.277	-6.94
225.511	-13.94
225.746	-10.94
225.98	1.06
226.215	17.06
226.449	22.06
226.683	25.06
226.918	14.06
227.152	42.06
227.387	42.06
227.621	47.06
227.856	42.06
228.09	47.06
228.324	77.06
228.559	72.06
228.793	65.06
229.027	81.06
229.262	65.06
229.496	73.06
229.73	55.06
229.964	82.06
230.199	74.06
230.433	76.06
230.667	75.06
230.901	69.06
231.136	71.06
231.37	90.06
231.604	87.06
231.838	86.06
232.072	78.06
232.306	89.06
232.541	89.06
232.775	97.06
233.009	75.06
233.243	94.06
233.477	77.06
233.711	88.06
233.945	76.06
234.179	100.06
234.413	80.06
234.647	74.06
234.881	86.06
235.115	89.06
235.349	80.06
235.583	94.06
235.817	71.06
236.051	83.06
236.285	86.06
236.519	72.06
236.753	84.06
236.987	74.06
237.221	79.06
237.455	85.06
237.689	79.06
237.922	97.06
238.156	71.06
238.39	74.06
238.624	80.06
238.858	88.06
239.091	75.06
239.325	79.06
239.559	75.06
239.793	96.06
240.027	79.06
240.26	75.06
240.494	72.06
240.728	79.06
240.961	75.06
241.195	76.06
241.429	71.06
241.662	86.06
241.896	82.06
242.13	79.06
242.363	77.06
242.597	74.06
242.83	85.06
243.064	74.06
243.298	72.06
243.531	88.06
243.765	77.06
243.998	76.06
244.232	75.06
244.465	74.06
244.699	78.06
244.932	80.06
245.166	75.06
245.399	79.06
245.633	72.06
245.866	78.06
246.099	92.06
246.333	80.06
246.566	70.06
246.8	73.06
247.033	77.06
247.266	104.06
247.5	82.06
247.733	89.06
247.966	70.06
248.2	92.06
248.433	86.06
248.666	78.06
248.899	93.06
249.133	83.06
249.366	82.06
249.599	82.06
249.832	83.06
250.066	81.06
250.299	83.06
250.532	76.06
250.765	78.06
250.998	81.06
251.231	81.06
251.465	104.06
251.698	73.06
251.931	75.06
252.164	78.06
252.397	77.06
252.63	98.06
252.863	93.06
253.096	80.06
253.329	83.06
253.562	80.06
253.795	78.06
254.028	87.06
254.261	87.06
254.494	86.06
254.727	86.06
254.96	64.06
255.193	82.06
255.426	85.06
255.659	88.06
255.892	101.06
256.124	74.06
256.357	85.06
256.59	89.06
256.823	74.06
257.056	82.06
257.289	80.06
257.521	78.06
257.754	77.06
257.987	83.06
258.22	94.06
258.452	86.06
258.685	80.06
258.918	87.06
259.151	86.06
259.383	111.06
259.616	84.06
259.849	89.06
260.081	85.06
260.314	84.06
260.547	81.06
260.779	77.06
261.012	82.06
261.244	89.06
261.477	95.06
261.71	78.06
261.942	67.06
262.175	87.06
262.407	78.06
262.64	77.06
262.872	83.06
263.105	83.06
263.337	100.06
263.57	78.06
263.802	78.06
264.035	82.06
264.267	90.06
264.499	94.06
264.732	95.06
264.964	89.06
265.197	86.06
265.429	83.06
265.661	79.06
265.894	75.06
266.126	77.06
266.358	70.06
266.591	77.06
266.823	82.06
267.055	67.06
267.287	81.06
267.52	62.06
267.752	92.06
267.984	89.06
268.216	89.06
268.448	100.06
268.681	80.06
268.913	77.06
269.145	83.06
269.377	83.06
269.609	86.06
269.841	87.06
270.073	88.06
270.306	81.06
270.538	69.06
270.77	77.06
271.002	86.06
271.234	90.06
271.466	84.06
271.698	94.06
271.93	80.06
272.162	87.06
272.394	87.06
272.626	75.06
272.858	82.06
273.09	75.06
273.322	88.06
273.553	90.06
273.785	93.06
274.017	89.06
274.249	91.06
274.481	85.06
274.713	85.06
274.945	74.06
275.176	92.06
275.408	77.06
275.64	86.06
275.872	91.06
276.104	87.06
276.335	90.06
276.567	85.06
276.799	83.06
277.031	71.06
277.262	83.06
277.494	90.06
277.726	73.06
277.957	91.06
278.189	84.06
278.421	69.06
278.652	88.06
278.884	94.06
279.115	78.06
279.347	75.06
279.579	84.06
279.81	85.06
280.042	85.06
280.273	100.06
280.505	77.06
280.736	95.06
280.968	66.06
281.199	90.06
281.431	92.06
281.662	88.06
281.894	94.06
282.125	85.06
282.356	90.06
282.588	103.06
282.819	92.06
283.051	87.06
283.282	95.06
283.513	87.06
283.745	94.06
283.976	86.06
284.207	90.06
284.439	82.06
284.67	94.06
284.901	91.06
285.132	90.06
285.364	82.06
285.595	101.06
285.826	100.06
286.057	96.06
286.288	91.06
286.52	85.06
286.751	73.06
286.982	80.06
287.213	106.06
287.444	79.06
287.675	86.06
287.906	81.06
288.138	80.06
288.369	76.06
288.6	92.06
288.831	92.06
289.062	97.06
289.293	85.06
289.524	96.06
289.755	84.06
289.986	91.06
290.217	97.06
290.448	83.06
290.679	85.06
290.91	88.06
291.141	83.06
291.371	77.06
291.602	87.06
291.833	94.06
292.064	106.06
292.295	89.06
292.526	91.06
292.757	70.06
292.987	93.06
293.218	76.06
293.449	80.06
293.68	91.06
293.91	87.06
294.141	92.06
294.372	84.06
294.603	85.06
294.833	91.06
295.064	74.06
295.295	83.06
295.525	98.06
295.756	105.06
295.987	95.06
296.217	90.06
296.448	85.06
296.679	79.06
296.909	101.06
297.14	97.06
297.37	95.06
297.601	97.06
297.831	92.06
298.062	97.06
298.292	93.06
298.523	85.06
298.753	104.06
298.984	101.06
299.214	97.06
299.445	86.06
299.675	99.06
299.905	92.06
300.136	83.06
300.366	85.06
300.597	90.06
300.827	94.06
301.057	90.06
301.288	88.06
301.518	99.06
301.748	92.06
301.979	107.06
302.209	81.06
302.439	92.06
302.669	85.06
302.9	92.06
303.13	92.06
303.36	97.06
303.59	92.06
303.82	79.06
304.051	77.06
304.281	95.06
304.511	88.06
304.741	79.06
304.971	80.06
305.201	91.06
305.431	89.06
305.661	101.06
305.891	91.06
306.121	89.06
306.352	89.06
306.582	84.06
306.812	83.06
307.042	88.06
307.272	75.06
307.502	85.06
307.731	84.06
307.961	82.06
308.191	96.06
308.421	94.06
308.651	104.06
308.881	86.06
309.111	103.06
309.341	94.06
309.571	79.06
309.8	87.06
310.03	85.06
310.26	88.06
310.49	94.06
310.72	96.06
310.949	84.06
311.179	93.06
311.409	76.06
311.639	89.06
311.868	91.06
312.098	87.06
312.328	92.06
312.557	85.06
312.787	73.06
313.017	83.06
313.246	89.06
313.476	83.06
313.706	87.06
313.935	98.06
314.165	82.06
314.394	97.06
314.624	97.06
314.853	94.06
315.083	91.06
315.312	82.06
315.542	78.06
315.771	92.06
316.001	97.06
316.23	110.06
316.46	87.06
316.689	96.06
316.919	97.06
317.148	83.06
317.377	88.06
317.607	91.06
317.836	82.06
318.065	103.06
318.295	83.06
318.524	78.06
318.753	85.06
318.983	88.06
319.212	93.06
319.441	93.06
319.67	80.06
319.9	83.06
320.129	101.06
320.358	79.06
320.587	80.06
320.816	94.06
321.046	94.06
321.275	95.06
321.504	88.06
321.733	93.06
321.962	94.06
322.191	94.06
322.42	75.06
322.649	90.06
322.878	86.06
323.108	84.06
323.337	78.06
323.566	92.06
323.795	87.06
324.024	85.06
324.253	91.06
324.482	86.06
324.71	85.06
324.939	97.06
325.168	82.06
325.397	82.06
325.626	97.06
325.855	76.06
326.084	87.06
326.313	87.06
326.542	84.06
326.77	83.06
326.999	99.06
327.228	79.06
327.457	86.06
327.686	86.06
327.914	83.06
328.143	94.06
328.372	95.06
328.6	100.06
328.829	84.06
329.058	92.06
329.287	93.06
329.515	96.06
329.744	89.06
329.972	91.06
330.201	87.06
330.43	85.06
330.658	86.06
330.887	90.06
331.115	75.06
331.344	100.06
331.572	97.06
331.801	106.06
332.03	74.06
332.258	88.06
332.486	88.06
332.715	97.06
332.943	92.06
333.172	85.06
333.4	96.06
333.629	79.06
333.857	78.06
334.085	92.06
334.314	107.06
334.542	85.06
334.771	89.06
334.999	88.06
335.227	92.06
335.455	98.06
335.684	78.06
335.912	89.06
336.14	85.06
336.369	95.06
336.597	97.06
336.825	90.06
337.053	86.06
337.281	79.06
337.51	89.06
337.738	89.06
337.966	110.06
338.194	88.06
338.422	80.06
338.65	85.06
338.878	85.06
339.106	94.06
339.334	90.06
339.562	88.06
339.79	90.06
340.018	101.06
340.246	85.06
340.474	81.06
340.702	111.06
340.93	78.06
341.158	83.06
341.386	92.06
341.614	93.06
341.842	84.06
342.07	90.06
342.298	90.06
342.526	97.06
342.754	89.06
342.981	98.06
343.209	84.06
343.437	88.06
343.665	88.06
343.893	87.06
344.12	95.06
344.348	74.06
344.576	92.06
344.804	102.06
345.031	93.06
345.259	77.06
345.487	107.06
345.714	89.06
345.942	88.06
346.17	95.06
346.397	83.06
346.625	72.06
346.853	85.06
347.08	89.06
347.308	89.06
347.535	82.06
347.763	97.06
347.99	87.06
348.218	72.06
348.445	77.06
348.673	94.06
348.9	94.06
349.128	82.06
349.355	86.06
349.583	86.06
349.81	88.06
350.037	87.06
350.265	89.06
350.492	95.06
350.72	83.06
350.947	86.06
351.174	79.06
351.402	81.06
351.629	73.06
351.856	96.06
352.083	87.06
352.311	91.06
352.538	88.06
352.765	82.06
352.992	104.06
353.22	80.06
353.447	80.06
353.674	81.06
353.901	97.06
354.128	82.06
354.355	87.06
354.583	94.06
354.81	85.06
355.037	89.06
355.264	99.06
355.491	97.06
355.718	78.06
355.945	95.06
356.172	92.06
356.399	106.06
356.626	85.06
356.853	90.06
357.08	93.06
357.307	85.06
357.534	81.06
357.761	85.06
357.988	90.06
358.215	80.06
358.441	86.06
358.668	87.06
358.895	82.06
359.122	85.06
359.349	80.06
359.576	69.06
359.802	73.06
360.029	73.06
360.256	77.06
360.483	89.06
360.709	95.06
360.936	101.06
361.163	94.06
361.39	94.06
361.616	93.06
361.843	82.06
362.07	83.06
362.296	97.06
362.523	90.06
362.749	109.06
362.976	101.06
363.203	96.06
363.429	98.06
363.656	92.06
363.882	93.06
364.109	88.06
364.335	112.06
364.562	95.06
364.788	100.06
365.015	99.06
365.241	85.06
365.468	86.06
365.694	73.06
365.92	71.06
366.147	81.06
366.373	93.06
366.599	84.06
366.826	97.06
367.052	83.06
367.278	81.06
367.505	93.06
367.731	97.06
367.957	87.06
368.184	79.06
368.41	90.06
368.636	86.06
368.862	91.06
369.089	91.06
369.315	95.06
369.541	104.06
369.767	86.06
369.993	92.06
370.219	85.06
370.445	89.06
370.672	65.06
370.898	76.06
371.124	89.06
371.35	75.06
371.576	79.06
371.802	80.06
372.028	91.06
372.254	97.06
372.48	83.06
372.706	78.06
372.932	74.06
373.158	90.06
373.384	94.06
373.61	92.06
373.835	93.06
374.061	91.06
374.287	93.06
374.513	78.06
374.739	89.06
374.965	87.06
375.191	87.06
375.416	78.06
375.642	91.06
375.868	87.06
376.094	76.06
376.319	97.06
376.545	97.06
376.771	98.06
376.997	89.06
377.222	93.06
377.448	87.06
377.674	76.06
377.899	89.06
378.125	83.06
378.35	76.06
378.576	87.06
378.802	83.06
379.027	86.06
379.253	85.06
379.478	83.06
379.704	93.06
379.929	82.06
380.155	95.06
380.38	72.06
380.606	89.06
380.831	97.06
381.057	83.06
381.282	83.06
381.507	98.06
381.733	87.06
381.958	84.06
382.184	87.06
382.409	86.06
382.634	83.06
382.86	87.06
383.085	97.06
383.31	88.06
383.535	89.06
383.761	90.06
383.986	87.06
384.211	85.06
384.436	90.06
384.662	79.06
384.887	92.06
385.112	85.06
385.337	95.06
385.562	102.06
385.787	95.06
386.013	96.06
386.238	99.06
386.463	102.06
386.688	99.06
386.913	94.06
387.138	98.06
387.363	81.06
387.588	98.06
387.813	89.06
388.038	95.06
388.263	98.06
388.488	76.06
388.713	90.06
388.938	88.06
389.163	91.06
389.387	99.06
389.612	91.06
389.837	93.06
390.062	85.06
390.287	83.06
390.512	97.06
390.736	76.06
390.961	88.06
391.186	85.06
391.411	90.06
391.636	93.06
391.86	86.06
392.085	105.06
392.31	88.06
392.534	87.06
392.759	73.06
392.984	112.06
393.208	115.06
393.433	150.06
393.658	121.06
393.882	98.06
394.107	96.06
394.331	90.06
394.556	97.06
394.78	83.06
395.005	89.06
395.229	90.06
395.454	99.06
395.678	99.06
395.903	89.06
396.127	101.06
396.352	101.06
396.576	101.06
396.801	119.06
397.025	133.06
397.249	103.06
397.474	100.06
397.698	91.06
397.922	85.06
398.147	71.06
398.371	90.06
398.595	77.06
398.82	98.06
399.044	81.06
399.268	72.06
399.492	86.06
399.717	89.06
399.941	85.06
400.165	85.06
400.389	94.06
400.613	89.06
400.837	89.06
401.062	87.06
401.286	83.06
401.51	102.06
401.734	89.06
401.958	99.06
402.182	86.06
402.406	86.06
402.63	79.06
402.854	92.06
403.078	91.06
403.302	80.06
403.526	85.06
403.75	98.06
403.974	85.06
404.198	75.06
404.422	93.06
404.645	80.06
404.869	94.06
405.093	89.06
405.317	70.06
405.541	92.06
405.765	79.06
405.988	83.06
406.212	85.06
406.436	83.06
406.66	93.06
406.883	90.06
407.107	93.06
407.331	81.06
407.555	85.06
407.778	98.06
408.002	90.06
408.226	79.06
408.449	93.06
408.673	97.06
408.896	86.06
409.12	94.06
409.344	91.06
409.567	91.06
409.791	101.06
410.014	92.06
410.238	98.06
410.461	98.06
410.685	105.06
410.908	83.06
411.132	85.06
411.355	91.06
411.578	90.06
411.802	82.06
412.025	87.06
412.249	86.06
412.472	108.06
412.695	80.06
412.919	98.06
413.142	92.06
413.365	93.06
413.589	89.06
413.812	78.06
414.035	75.06
414.258	91.06
414.482	87.06
414.705	87.06
414.928	83.06
415.151	82.06
415.374	85.06
415.597	73.06
415.821	99.06
416.044	84.06
416.267	91.06
416.49	77.06
416.713	76.06
416.936	87.06
417.159	94.06
417.382	89.06
417.605	84.06
417.828	82.06
418.051	84.06
418.274	91.06
418.497	93.06
418.72	84.06
418.943	79.06
419.166	94.06
419.389	85.06
419.611	78.06
419.834	90.06
420.057	89.06
420.28	87.06
420.503	85.06
420.726	76.06
420.948	94.06
421.171	94.06
421.394	102.06
421.617	72.06
421.839	92.06
422.062	111.06
422.285	123.06
422.507	151.06
422.73	200.06
422.953	168.06
423.175	134.06
423.398	95.06
423.621	107.06
423.843	95.06
424.066	85.06
424.288	96.06
424.511	100.06
424.733	89.06
424.956	92.06
425.178	95.06
425.401	96.06
425.623	73.06
425.846	85.06
426.068	87.06
426.291	76.06
426.513	94.06
426.735	97.06
426.958	85.06
427.18	86.06
427.402	87.06
427.625	95.06
427.847	85.06
428.069	82.06
428.292	92.06
428.514	100.06
428.736	93.06
428.958	101.06
429.181	101.06
429.403	84.06
429.625	82.06
429.847	97.06
430.069	105.06
430.292	129.06
430.514	117.06
430.736	100.06
430.958	110.06
431.18	86.06
431.402	77.06
431.624	93.06
431.846	85.06
432.068	94.06
432.29	92.06
432.512	98.06
432.734	96.06
432.956	92.06
433.178	102.06
433.4	88.06
433.622	78.06
433.844	81.06
434.066	61.06
434.287	91.06
434.509	91.06
434.731	85.06
434.953	85.06
435.175	84.06
435.397	76.06
435.618	89.06
435.84	84.06
436.062	83.06
436.284	89.06
436.505	84.06
436.727	79.06
436.949	89.06
437.17	79.06
437.392	84.06
437.614	94.06
437.835	78.06
438.057	94.06
438.278	98.06
438.5	85.06
438.721	87.06
438.943	100.06
439.165	84.06
439.386	77.06
439.608	89.06
439.829	79.06
440.05	88.06
440.272	88.06
440.493	89.06
440.715	89.06
440.936	97.06
441.158	93.06
441.379	76.06
441.6	77.06
441.822	85.06
442.043	85.06
442.264	90.06
442.486	104.06
442.707	110.06
442.928	97.06
443.149	89.06
443.371	85.06
443.592	145.06
443.813	117.06
444.034	100.06
444.255	90.06
444.476	91.06
444.698	99.06
444.919	84.06
445.14	150.06
445.361	147.06
445.582	142.06
445.803	147.06
446.024	103.06
446.245	89.06
446.466	92.06
446.687	92.06
446.908	89.06
447.129	77.06
447.35	75.06
447.571	74.06
447.792	90.06
448.013	85.06
448.234	92.06
448.455	93.06
448.675	94.06
448.896	77.06
449.117	83.06
449.338	85.06
449.559	92.06
449.779	85.06
450	92.06
450.221	96.06
450.442	85.06
450.662	86.06
450.883	86.06
451.104	97.06
451.324	85.06
451.545	79.06
451.766	81.06
451.986	74.06
452.207	82.06
452.428	91.06
452.648	91.06
452.869	110.06
453.089	87.06
453.31	84.06
453.53	72.06
453.751	78.06
453.971	102.06
454.192	94.06
454.412	85.06
454.633	82.06
454.853	99.06
455.073	88.06
455.294	91.06
455.514	86.06
455.734	80.06
455.955	93.06
456.175	84.06
456.395	94.06
456.616	87.06
456.836	93.06
457.056	91.06
457.276	85.06
457.497	75.06
457.717	95.06
457.937	94.06
458.157	94.06
458.377	107.06
458.598	84.06
458.818	95.06
459.038	89.06
459.258	92.06
459.478	66.06
459.698	81.06
459.918	87.06
460.138	91.06
460.358	86.06
460.578	86.06
460.798	92.06
461.018	88.06
461.238	88.06
461.458	80.06
461.678	92.06
461.898	80.06
462.118	98.06
462.338	89.06
462.558	89.06
462.777	69.06
462.997	89.06
463.217	91.06
463.437	92.06
463.657	82.06
463.876	88.06
464.096	78.06
464.316	87.06
464.536	77.06
464.755	91.06
464.975	72.06
465.195	81.06
465.414	89.06
465.634	73.06
465.854	98.06
466.073	80.06
466.293	84.06
466.512	91.06
466.732	94.06
466.951	70.06
467.171	73.06
467.391	84.06
467.61	91.06
467.829	89.06
468.049	100.06
468.268	84.06
468.488	90.06
468.707	87.06
468.927	75.06
469.146	91.06
469.365	78.06
469.585	78.06
469.804	106.06
470.023	85.06
470.243	86.06
470.462	84.06
470.681	76.06
470.901	98.06
471.12	101.06
471.339	97.06
471.558	84.06
471.777	84.06
471.997	87.06
472.216	90.06
472.435	82.06
472.654	68.06
472.873	88.06
473.092	93.06
473.311	94.06
473.53	82.06
473.749	87.06
473.968	87.06
474.187	97.06
474.406	93.06
474.625	91.06
474.844	97.06
475.063	72.06
475.282	95.06
475.501	86.06
475.72	101.06
475.939	95.06
476.158	87.06
476.377	95.06
476.596	86.06
476.814	84.06
477.033	92.06
477.252	85.06
477.471	77.06
477.69	89.06
477.908	94.06
478.127	87.06
478.346	69.06
478.564	83.06
478.783	80.06
479.002	89.06
479.22	98.06
479.439	101.06
479.658	87.06
479.876	95.06
480.095	82.06
480.313	86.06
480.532	97.06
480.751	89.06
480.969	87.06
481.188	79.06
481.406	91.06
481.624	80.06
481.843	91.06
482.061	86.06
482.28	102.06
482.498	94.06
482.717	87.06
482.935	86.06
483.153	84.06
483.372	94.06
483.59	89.06
483.808	95.06
484.027	104.06
484.245	91.06
484.463	72.06
484.681	94.06
484.9	93.06
485.118	87.06
485.336	87.06
485.554	82.06
485.772	94.06
485.99	95.06
486.209	99.06
486.427	97.06
486.645	79.06
486.863	87.06
487.081	93.06
487.299	81.06
487.517	94.06
487.735	97.06
487.953	114.06
488.171	104.06
488.389	88.06
488.607	93.06
488.825	88.06
489.043	78.06
489.261	100.06
489.479	82.06
489.696	79.06
489.914	78.06
490.132	79.06
490.35	83.06
490.568	83.06
490.786	94.06
491.003	97.06
491.221	98.06
491.439	96.06
491.657	94.06
491.874	93.06
492.092	95.06
492.31	94.06
492.527	83.06
492.745	75.06
492.963	88.06
493.18	100.06
493.398	93.06
493.615	96.06
493.833	89.06
494.05	95.06
494.268	82.06
494.485	97.06
494.703	87.06
494.92	89.06
495.138	90.06
495.355	86.06
495.573	67.06
495.79	81.06
496.008	77.06
496.225	99.06
496.442	90.06
496.66	75.06
496.877	96.06
497.094	92.06
497.312	78.06
497.529	90.06
497.746	82.06
497.963	83.06
498.181	79.06
498.398	99.06
498.615	89.06
498.832	102.06
499.049	89.06
499.267	78.06
499.484	71.06
499.701	85.06
499.918	82.06
500.135	99.06
500.352	89.06
500.569	82.06
500.786	95.06
501.003	98.06
501.22	95.06
501.437	89.06
501.654	92.06
501.871	89.06
502.088	84.06
502.305	88.06
502.522	106.06
502.739	81.06
502.956	86.06
503.172	89.06
503.389	81.06
503.606	85.06
503.823	73.06
504.04	93.06
504.256	110.06
504.473	105.06
504.69	87.06
504.907	93.06
505.123	80.06
505.34	75.06
505.557	73.06
505.773	95.06
505.99	75.06
506.207	100.06
506.423	77.06
506.64	88.06
506.856	83.06
507.073	96.06
507.289	90.06
507.506	90.06
507.722	97.06
507.939	93.06
508.155	101.06
508.372	98.06
508.588	83.06
508.805	87.06
509.021	99.06
509.238	86.06
509.454	90.06
509.67	80.06
509.887	106.06
510.103	93.06
510.319	92.06
510.536	92.06
510.752	104.06
510.968	77.06
511.184	77.06
511.401	87.06
511.617	91.06
511.833	93.06
512.049	94.06
512.265	73.06
512.481	69.06
512.698	86.06
512.914	92.06
513.13	93.06
513.346	84.06
513.562	94.06
513.778	84.06
513.994	88.06
514.21	86.06
514.426	93.06
514.642	92.06
514.858	91.06
515.074	83.06
515.29	94.06
515.506	99.06
515.721	83.06
515.937	86.06
516.153	84.06
516.369	79.06
516.585	89.06
516.801	86.06
517.016	87.06
517.232	93.06
517.448	81.06
517.664	98.06
517.879	80.06
518.095	101.06
518.311	89.06
518.527	102.06
518.742	98.06
