Data from 10100_3_HRD10591_00050.txt Node
Date: Mon Jan 19 14:02:47 EST 2026
User: Yrep
Spectrometer: HR+D1059
Trigger mode: 1
Integration Time (sec): 1.000000E-1
Scans to average: 1
Electric dark correction enabled: true
Nonlinearity correction enabled: false
Boxcar width: 0
XAxis mode: Wavelengths
Number of Pixels in Spectrum: 2048
>>>>>Begin Spectral Data<<<<<
223.165	-26.25
223.4	-26.25
223.635	-26.25
223.869	-21.25
224.104	-11.25
224.338	-22.25
224.573	-5.25
224.808	2.75
225.042	-11.25
225.277	-8.25
225.511	-0.25
225.746	2.75
225.98	6.75
226.215	9.75
226.449	20.75
226.683	20.75
226.918	10.75
227.152	31.75
227.387	32.75
227.621	27.75
227.856	50.75
228.09	49.75
228.324	50.75
228.559	58.75
228.793	51.75
229.027	65.75
229.262	77.75
229.496	74.75
229.73	73.75
229.964	64.75
230.199	67.75
230.433	73.75
230.667	79.75
230.901	84.75
231.136	82.75
231.37	77.75
231.604	86.75
231.838	83.75
232.072	74.75
232.306	79.75
232.541	88.75
232.775	89.75
233.009	78.75
233.243	80.75
233.477	91.75
233.711	90.75
233.945	82.75
234.179	92.75
234.413	80.75
234.647	66.75
234.881	93.75
235.115	78.75
235.349	78.75
235.583	79.75
235.817	81.75
236.051	70.75
236.285	94.75
236.519	83.75
236.753	59.75
236.987	84.75
237.221	73.75
237.455	82.75
237.689	78.75
237.922	75.75
238.156	66.75
238.39	74.75
238.624	77.75
238.858	82.75
239.091	70.75
239.325	82.75
239.559	68.75
239.793	68.75
240.027	75.75
240.26	90.75
240.494	66.75
240.728	74.75
240.961	70.75
241.195	87.75
241.429	95.75
241.662	86.75
241.896	78.75
242.13	83.75
242.363	82.75
242.597	79.75
242.83	67.75
243.064	72.75
243.298	64.75
243.531	87.75
243.765	75.75
243.998	79.75
244.232	74.75
244.465	94.75
244.699	75.75
244.932	90.75
245.166	56.75
245.399	63.75
245.633	81.75
245.866	77.75
246.099	79.75
246.333	80.75
246.566	83.75
246.8	75.75
247.033	70.75
247.266	84.75
247.5	81.75
247.733	73.75
247.966	68.75
248.2	94.75
248.433	86.75
248.666	81.75
248.899	78.75
249.133	70.75
249.366	62.75
249.599	71.75
249.832	81.75
250.066	77.75
250.299	81.75
250.532	82.75
250.765	74.75
250.998	67.75
251.231	82.75
251.465	86.75
251.698	72.75
251.931	79.75
252.164	72.75
252.397	83.75
252.63	77.75
252.863	77.75
253.096	85.75
253.329	83.75
253.562	79.75
253.795	81.75
254.028	80.75
254.261	88.75
254.494	82.75
254.727	86.75
254.96	70.75
255.193	73.75
255.426	82.75
255.659	72.75
255.892	86.75
256.124	88.75
256.357	85.75
256.59	83.75
256.823	85.75
257.056	86.75
257.289	89.75
257.521	88.75
257.754	91.75
257.987	70.75
258.22	86.75
258.452	94.75
258.685	97.75
258.918	83.75
259.151	84.75
259.383	82.75
259.616	77.75
259.849	82.75
260.081	93.75
260.314	82.75
260.547	89.75
260.779	86.75
261.012	74.75
261.244	76.75
261.477	86.75
261.71	88.75
261.942	81.75
262.175	78.75
262.407	83.75
262.64	67.75
262.872	92.75
263.105	82.75
263.337	93.75
263.57	79.75
263.802	82.75
264.035	76.75
264.267	76.75
264.499	82.75
264.732	80.75
264.964	95.75
265.197	73.75
265.429	84.75
265.661	66.75
265.894	76.75
266.126	91.75
266.358	82.75
266.591	80.75
266.823	75.75
267.055	83.75
267.287	74.75
267.52	78.75
267.752	89.75
267.984	78.75
268.216	77.75
268.448	88.75
268.681	66.75
268.913	84.75
269.145	88.75
269.377	87.75
269.609	82.75
269.841	104.75
270.073	62.75
270.306	80.75
270.538	77.75
270.77	80.75
271.002	88.75
271.234	86.75
271.466	97.75
271.698	82.75
271.93	74.75
272.162	74.75
272.394	78.75
272.626	80.75
272.858	90.75
273.09	90.75
273.322	78.75
273.553	82.75
273.785	89.75
274.017	88.75
274.249	99.75
274.481	88.75
274.713	85.75
274.945	83.75
275.176	81.75
275.408	77.75
275.64	78.75
275.872	84.75
276.104	82.75
276.335	85.75
276.567	76.75
276.799	88.75
277.031	89.75
277.262	86.75
277.494	96.75
277.726	85.75
277.957	86.75
278.189	83.75
278.421	77.75
278.652	84.75
278.884	88.75
279.115	86.75
279.347	81.75
279.579	96.75
279.81	93.75
280.042	81.75
280.273	90.75
280.505	82.75
280.736	84.75
280.968	79.75
281.199	94.75
281.431	66.75
281.662	81.75
281.894	86.75
282.125	90.75
282.356	90.75
282.588	85.75
282.819	82.75
283.051	88.75
283.282	83.75
283.513	77.75
283.745	89.75
283.976	90.75
284.207	73.75
284.439	73.75
284.67	84.75
284.901	74.75
285.132	92.75
285.364	76.75
285.595	74.75
285.826	90.75
286.057	89.75
286.288	92.75
286.52	81.75
286.751	86.75
286.982	71.75
287.213	82.75
287.444	78.75
287.675	97.75
287.906	96.75
288.138	80.75
288.369	92.75
288.6	92.75
288.831	94.75
289.062	80.75
289.293	73.75
289.524	73.75
289.755	87.75
289.986	69.75
290.217	80.75
290.448	70.75
290.679	92.75
290.91	104.75
291.141	93.75
291.371	86.75
291.602	77.75
291.833	90.75
292.064	80.75
292.295	83.75
292.526	101.75
292.757	86.75
292.987	74.75
293.218	83.75
293.449	100.75
293.68	82.75
293.91	74.75
294.141	85.75
294.372	75.75
294.603	92.75
294.833	98.75
295.064	82.75
295.295	99.75
295.525	90.75
295.756	90.75
295.987	92.75
296.217	81.75
296.448	88.75
296.679	97.75
296.909	89.75
297.14	83.75
297.37	94.75
297.601	74.75
297.831	70.75
298.062	86.75
298.292	75.75
298.523	81.75
298.753	75.75
298.984	86.75
299.214	82.75
299.445	82.75
299.675	84.75
299.905	83.75
300.136	87.75
300.366	107.75
300.597	86.75
300.827	89.75
301.057	96.75
301.288	88.75
301.518	103.75
301.748	83.75
301.979	102.75
302.209	84.75
302.439	91.75
302.669	84.75
302.9	87.75
303.13	92.75
303.36	72.75
303.59	89.75
303.82	82.75
304.051	89.75
304.281	77.75
304.511	84.75
304.741	79.75
304.971	89.75
305.201	87.75
305.431	89.75
305.661	91.75
305.891	89.75
306.121	85.75
306.352	84.75
306.582	91.75
306.812	88.75
307.042	94.75
307.272	91.75
307.502	80.75
307.731	77.75
307.961	73.75
308.191	91.75
308.421	94.75
308.651	84.75
308.881	84.75
309.111	90.75
309.341	87.75
309.571	79.75
309.8	91.75
310.03	90.75
310.26	90.75
310.49	85.75
310.72	75.75
310.949	79.75
311.179	87.75
311.409	91.75
311.639	85.75
311.868	89.75
312.098	85.75
312.328	91.75
312.557	95.75
312.787	74.75
313.017	79.75
313.246	76.75
313.476	86.75
313.706	87.75
313.935	78.75
314.165	91.75
314.394	97.75
314.624	89.75
314.853	84.75
315.083	90.75
315.312	86.75
315.542	99.75
315.771	90.75
316.001	84.75
316.23	80.75
316.46	88.75
316.689	90.75
316.919	81.75
317.148	96.75
317.377	94.75
317.607	84.75
317.836	98.75
318.065	84.75
318.295	78.75
318.524	99.75
318.753	94.75
318.983	80.75
319.212	84.75
319.441	90.75
319.67	87.75
319.9	80.75
320.129	83.75
320.358	84.75
320.587	87.75
320.816	92.75
321.046	67.75
321.275	83.75
321.504	94.75
321.733	90.75
321.962	88.75
322.191	102.75
322.42	87.75
322.649	91.75
322.878	93.75
323.108	88.75
323.337	92.75
323.566	107.75
323.795	83.75
324.024	68.75
324.253	75.75
324.482	81.75
324.71	81.75
324.939	98.75
325.168	67.75
325.397	80.75
325.626	80.75
325.855	84.75
326.084	76.75
326.313	89.75
326.542	86.75
326.77	91.75
326.999	88.75
327.228	79.75
327.457	93.75
327.686	80.75
327.914	72.75
328.143	95.75
328.372	84.75
328.6	91.75
328.829	85.75
329.058	87.75
329.287	76.75
329.515	82.75
329.744	93.75
329.972	90.75
330.201	103.75
330.43	83.75
330.658	71.75
330.887	94.75
331.115	74.75
331.344	95.75
331.572	83.75
331.801	86.75
332.03	76.75
332.258	94.75
332.486	77.75
332.715	92.75
332.943	75.75
333.172	88.75
333.4	80.75
333.629	79.75
333.857	82.75
334.085	88.75
334.314	83.75
334.542	102.75
334.771	88.75
334.999	88.75
335.227	84.75
335.455	84.75
335.684	78.75
335.912	81.75
336.14	86.75
336.369	99.75
336.597	92.75
336.825	88.75
337.053	85.75
337.281	76.75
337.51	70.75
337.738	90.75
337.966	94.75
338.194	77.75
338.422	99.75
338.65	88.75
338.878	99.75
339.106	82.75
339.334	94.75
339.562	77.75
339.79	96.75
340.018	81.75
340.246	93.75
340.474	87.75
340.702	84.75
340.93	80.75
341.158	91.75
341.386	80.75
341.614	78.75
341.842	79.75
342.07	79.75
342.298	86.75
342.526	90.75
342.754	84.75
342.981	91.75
343.209	71.75
343.437	88.75
343.665	84.75
343.893	86.75
344.12	75.75
344.348	88.75
344.576	70.75
344.804	90.75
345.031	79.75
345.259	106.75
345.487	87.75
345.714	86.75
345.942	86.75
346.17	82.75
346.397	90.75
346.625	77.75
346.853	74.75
347.08	67.75
347.308	88.75
347.535	82.75
347.763	80.75
347.99	100.75
348.218	85.75
348.445	97.75
348.673	84.75
348.9	90.75
349.128	90.75
349.355	92.75
349.583	90.75
349.81	82.75
350.037	89.75
350.265	75.75
350.492	90.75
350.72	76.75
350.947	88.75
351.174	88.75
351.402	82.75
351.629	80.75
351.856	101.75
352.083	84.75
352.311	67.75
352.538	83.75
352.765	82.75
352.992	97.75
353.22	92.75
353.447	91.75
353.674	89.75
353.901	83.75
354.128	80.75
354.355	75.75
354.583	86.75
354.81	82.75
355.037	84.75
355.264	78.75
355.491	84.75
355.718	86.75
355.945	87.75
356.172	89.75
356.399	67.75
356.626	80.75
356.853	73.75
357.08	80.75
357.307	93.75
357.534	87.75
357.761	94.75
357.988	84.75
358.215	98.75
358.441	89.75
358.668	84.75
358.895	94.75
359.122	86.75
359.349	82.75
359.576	80.75
359.802	83.75
360.029	93.75
360.256	75.75
360.483	80.75
360.709	92.75
360.936	85.75
361.163	75.75
361.39	82.75
361.616	72.75
361.843	74.75
362.07	78.75
362.296	94.75
362.523	104.75
362.749	81.75
362.976	86.75
363.203	90.75
363.429	89.75
363.656	91.75
363.882	91.75
364.109	75.75
364.335	81.75
364.562	78.75
364.788	86.75
365.015	92.75
365.241	86.75
365.468	97.75
365.694	72.75
365.92	91.75
366.147	87.75
366.373	75.75
366.599	96.75
366.826	78.75
367.052	86.75
367.278	86.75
367.505	97.75
367.731	85.75
367.957	84.75
368.184	83.75
368.41	76.75
368.636	76.75
368.862	84.75
369.089	92.75
369.315	77.75
369.541	85.75
369.767	92.75
369.993	71.75
370.219	84.75
370.445	77.75
370.672	82.75
370.898	88.75
371.124	79.75
371.35	102.75
371.576	85.75
371.802	79.75
372.028	83.75
372.254	95.75
372.48	87.75
372.706	85.75
372.932	82.75
373.158	90.75
373.384	93.75
373.61	94.75
373.835	87.75
374.061	91.75
374.287	96.75
374.513	95.75
374.739	82.75
374.965	96.75
375.191	83.75
375.416	86.75
375.642	94.75
375.868	94.75
376.094	94.75
376.319	72.75
376.545	79.75
376.771	86.75
376.997	91.75
377.222	73.75
377.448	74.75
377.674	78.75
377.899	78.75
378.125	81.75
378.35	90.75
378.576	83.75
378.802	72.75
379.027	85.75
379.253	71.75
379.478	87.75
379.704	72.75
379.929	80.75
380.155	89.75
380.38	92.75
380.606	74.75
380.831	82.75
381.057	88.75
381.282	82.75
381.507	81.75
381.733	90.75
381.958	86.75
382.184	77.75
382.409	77.75
382.634	95.75
382.86	81.75
383.085	96.75
383.31	100.75
383.535	86.75
383.761	86.75
383.986	86.75
384.211	84.75
384.436	89.75
384.662	91.75
384.887	100.75
385.112	76.75
385.337	74.75
385.562	89.75
385.787	91.75
386.013	83.75
386.238	87.75
386.463	91.75
386.688	90.75
386.913	94.75
387.138	91.75
387.363	74.75
387.588	99.75
387.813	72.75
388.038	76.75
388.263	79.75
388.488	82.75
388.713	75.75
388.938	89.75
389.163	79.75
389.387	86.75
389.612	79.75
389.837	100.75
390.062	81.75
390.287	79.75
390.512	77.75
390.736	76.75
390.961	82.75
391.186	85.75
391.411	74.75
391.636	80.75
391.86	89.75
392.085	107.75
392.31	86.75
392.534	99.75
392.759	80.75
392.984	96.75
393.208	106.75
393.433	119.75
393.658	108.75
393.882	90.75
394.107	92.75
394.331	82.75
394.556	87.75
394.78	94.75
395.005	78.75
395.229	70.75
395.454	78.75
395.678	70.75
395.903	75.75
396.127	76.75
396.352	98.75
396.576	105.75
396.801	106.75
397.025	116.75
397.249	100.75
397.474	90.75
397.698	95.75
397.922	82.75
398.147	73.75
398.371	80.75
398.595	80.75
398.82	89.75
399.044	84.75
399.268	74.75
399.492	81.75
399.717	86.75
399.941	83.75
400.165	88.75
400.389	84.75
400.613	91.75
400.837	82.75
401.062	78.75
401.286	77.75
401.51	77.75
401.734	86.75
401.958	88.75
402.182	90.75
402.406	85.75
402.63	97.75
402.854	87.75
403.078	88.75
403.302	86.75
403.526	79.75
403.75	80.75
403.974	78.75
404.198	78.75
404.422	80.75
404.645	90.75
404.869	88.75
405.093	90.75
405.317	93.75
405.541	84.75
405.765	75.75
405.988	92.75
406.212	87.75
406.436	87.75
406.66	75.75
406.883	75.75
407.107	90.75
407.331	84.75
407.555	81.75
407.778	78.75
408.002	89.75
408.226	89.75
408.449	90.75
408.673	83.75
408.896	85.75
409.12	86.75
409.344	92.75
409.567	95.75
409.791	80.75
410.014	79.75
410.238	68.75
410.461	85.75
410.685	90.75
410.908	86.75
411.132	98.75
411.355	76.75
411.578	81.75
411.802	82.75
412.025	85.75
412.249	73.75
412.472	105.75
412.695	74.75
412.919	67.75
413.142	67.75
413.365	74.75
413.589	86.75
413.812	85.75
414.035	95.75
414.258	71.75
414.482	66.75
414.705	91.75
414.928	69.75
415.151	90.75
415.374	75.75
415.597	80.75
415.821	82.75
416.044	86.75
416.267	86.75
416.49	87.75
416.713	89.75
416.936	74.75
417.159	78.75
417.382	76.75
417.605	75.75
417.828	88.75
418.051	73.75
418.274	70.75
418.497	86.75
418.72	89.75
418.943	90.75
419.166	91.75
419.389	70.75
419.611	88.75
419.834	89.75
420.057	84.75
420.28	85.75
420.503	69.75
420.726	81.75
420.948	98.75
421.171	91.75
421.394	91.75
421.617	81.75
421.839	95.75
422.062	88.75
422.285	102.75
422.507	121.75
422.73	160.75
422.953	151.75
423.175	100.75
423.398	87.75
423.621	70.75
423.843	90.75
424.066	91.75
424.288	104.75
424.511	82.75
424.733	90.75
424.956	86.75
425.178	64.75
425.401	78.75
425.623	88.75
425.846	83.75
426.068	55.75
426.291	96.75
426.513	82.75
426.735	94.75
426.958	98.75
427.18	82.75
427.402	91.75
427.625	86.75
427.847	80.75
428.069	83.75
428.292	80.75
428.514	108.75
428.736	96.75
428.958	91.75
429.181	92.75
429.403	98.75
429.625	85.75
429.847	86.75
430.069	82.75
430.292	94.75
430.514	100.75
430.736	89.75
430.958	110.75
431.18	70.75
431.402	91.75
431.624	81.75
431.846	106.75
432.068	98.75
432.29	89.75
432.512	94.75
432.734	75.75
432.956	98.75
433.178	84.75
433.4	77.75
433.622	96.75
433.844	69.75
434.066	79.75
434.287	98.75
434.509	77.75
434.731	86.75
434.953	83.75
435.175	94.75
435.397	73.75
435.618	83.75
435.84	77.75
436.062	83.75
436.284	81.75
436.505	86.75
436.727	89.75
436.949	75.75
437.17	80.75
437.392	85.75
437.614	97.75
437.835	87.75
438.057	78.75
438.278	90.75
438.5	97.75
438.721	88.75
438.943	90.75
439.165	75.75
439.386	83.75
439.608	91.75
439.829	82.75
440.05	88.75
440.272	98.75
440.493	86.75
440.715	80.75
440.936	81.75
441.158	91.75
441.379	97.75
441.6	71.75
441.822	72.75
442.043	71.75
442.264	76.75
442.486	94.75
442.707	87.75
442.928	79.75
443.149	90.75
443.371	86.75
443.592	127.75
443.813	103.75
444.034	94.75
444.255	77.75
444.476	86.75
444.698	68.75
444.919	79.75
445.14	136.75
445.361	126.75
445.582	127.75
445.803	103.75
446.024	89.75
446.245	74.75
446.466	91.75
446.687	87.75
446.908	80.75
447.129	91.75
447.35	90.75
447.571	88.75
447.792	77.75
448.013	80.75
448.234	91.75
448.455	80.75
448.675	78.75
448.896	73.75
449.117	84.75
449.338	78.75
449.559	82.75
449.779	72.75
450	77.75
450.221	80.75
450.442	87.75
450.662	80.75
450.883	74.75
451.104	74.75
451.324	71.75
451.545	76.75
451.766	86.75
451.986	88.75
452.207	92.75
452.428	95.75
452.648	104.75
452.869	73.75
453.089	85.75
453.31	85.75
453.53	94.75
453.751	87.75
453.971	96.75
454.192	72.75
454.412	83.75
454.633	64.75
454.853	89.75
455.073	86.75
455.294	79.75
455.514	84.75
455.734	76.75
455.955	75.75
456.175	90.75
456.395	67.75
456.616	82.75
456.836	85.75
457.056	82.75
457.276	74.75
457.497	96.75
457.717	77.75
457.937	104.75
458.157	94.75
458.377	66.75
458.598	87.75
458.818	82.75
459.038	80.75
459.258	80.75
459.478	75.75
459.698	62.75
459.918	64.75
460.138	85.75
460.358	76.75
460.578	101.75
460.798	104.75
461.018	89.75
461.238	87.75
461.458	99.75
461.678	75.75
461.898	93.75
462.118	87.75
462.338	83.75
462.558	71.75
462.777	81.75
462.997	84.75
463.217	87.75
463.437	88.75
463.657	97.75
463.876	87.75
464.096	86.75
464.316	88.75
464.536	90.75
464.755	86.75
464.975	96.75
465.195	87.75
465.414	88.75
465.634	82.75
465.854	103.75
466.073	97.75
466.293	93.75
466.512	82.75
466.732	93.75
466.951	102.75
467.171	88.75
467.391	87.75
467.61	87.75
467.829	96.75
468.049	79.75
468.268	87.75
468.488	79.75
468.707	63.75
468.927	88.75
469.146	86.75
469.365	91.75
469.585	90.75
469.804	83.75
470.023	86.75
470.243	82.75
470.462	88.75
470.681	88.75
470.901	74.75
471.12	90.75
471.339	77.75
471.558	84.75
471.777	76.75
471.997	92.75
472.216	79.75
472.435	82.75
472.654	81.75
472.873	80.75
473.092	82.75
473.311	95.75
473.53	66.75
473.749	81.75
473.968	87.75
474.187	77.75
474.406	81.75
474.625	92.75
474.844	71.75
475.063	86.75
475.282	92.75
475.501	100.75
475.72	91.75
475.939	98.75
476.158	66.75
476.377	78.75
476.596	93.75
476.814	74.75
477.033	84.75
477.252	80.75
477.471	90.75
477.69	92.75
477.908	77.75
478.127	80.75
478.346	74.75
478.564	65.75
478.783	75.75
479.002	75.75
479.22	75.75
479.439	88.75
479.658	73.75
479.876	86.75
480.095	78.75
480.313	77.75
480.532	88.75
480.751	103.75
480.969	91.75
481.188	85.75
481.406	74.75
481.624	74.75
481.843	72.75
482.061	89.75
482.28	74.75
482.498	80.75
482.717	75.75
482.935	75.75
483.153	91.75
483.372	79.75
483.59	84.75
483.808	85.75
484.027	70.75
484.245	86.75
484.463	77.75
484.681	92.75
484.9	84.75
485.118	84.75
485.336	71.75
485.554	87.75
485.772	74.75
485.99	81.75
486.209	76.75
486.427	83.75
486.645	85.75
486.863	91.75
487.081	82.75
487.299	88.75
487.517	103.75
487.735	89.75
487.953	95.75
488.171	94.75
488.389	81.75
488.607	91.75
488.825	100.75
489.043	82.75
489.261	79.75
489.479	92.75
489.696	82.75
489.914	83.75
490.132	89.75
490.35	76.75
490.568	88.75
490.786	93.75
491.003	96.75
491.221	94.75
491.439	70.75
491.657	90.75
491.874	82.75
492.092	83.75
492.31	72.75
492.527	80.75
492.745	84.75
492.963	90.75
493.18	81.75
493.398	82.75
493.615	91.75
493.833	89.75
494.05	83.75
494.268	67.75
494.485	69.75
494.703	80.75
494.92	72.75
495.138	91.75
495.355	83.75
495.573	83.75
495.79	74.75
496.008	82.75
496.225	87.75
496.442	80.75
496.66	94.75
496.877	84.75
497.094	79.75
497.312	86.75
497.529	80.75
497.746	92.75
497.963	86.75
498.181	80.75
498.398	93.75
498.615	81.75
498.832	87.75
499.049	82.75
499.267	89.75
499.484	74.75
499.701	86.75
499.918	93.75
500.135	81.75
500.352	92.75
500.569	88.75
500.786	81.75
501.003	100.75
501.22	83.75
501.437	94.75
501.654	90.75
501.871	84.75
502.088	68.75
502.305	78.75
502.522	76.75
502.739	91.75
502.956	82.75
503.172	86.75
503.389	83.75
503.606	83.75
503.823	95.75
504.04	103.75
504.256	87.75
504.473	80.75
504.69	86.75
504.907	82.75
505.123	100.75
505.34	87.75
505.557	86.75
505.773	83.75
505.99	76.75
506.207	95.75
506.423	86.75
506.64	86.75
506.856	88.75
507.073	92.75
507.289	71.75
507.506	72.75
507.722	90.75
507.939	90.75
508.155	84.75
508.372	79.75
508.588	95.75
508.805	95.75
509.021	95.75
509.238	81.75
509.454	101.75
509.67	90.75
509.887	93.75
510.103	84.75
510.319	88.75
510.536	90.75
510.752	81.75
510.968	87.75
511.184	94.75
511.401	90.75
511.617	94.75
511.833	96.75
512.049	89.75
512.265	74.75
512.481	73.75
512.698	81.75
512.914	83.75
513.13	87.75
513.346	105.75
513.562	91.75
513.778	96.75
513.994	86.75
514.21	82.75
514.426	75.75
514.642	102.75
514.858	83.75
515.074	94.75
515.29	84.75
515.506	97.75
515.721	89.75
515.937	101.75
516.153	84.75
516.369	77.75
516.585	92.75
516.801	83.75
517.016	94.75
517.232	75.75
517.448	89.75
517.664	89.75
517.879	97.75
518.095	96.75
518.311	97.75
518.527	82.75
518.742	90.75
518.958	100.75
519.173	100.75
519.389	78.75
