Data from 10100_3_HRD10591_00004.txt Node
Date: Mon Jan 19 14:02:24 EST 2026
User: Yrep
Spectrometer: HR+D1059
Trigger mode: 1
Integration Time (sec): 1.000000E-1
Scans to average: 1
Electric dark correction enabled: true
Nonlinearity correction enabled: false
Boxcar width: 0
XAxis mode: Wavelengths
Number of Pixels in Spectrum: 2048
>>>>>Begin Spectral Data<<<<<
223.165	-13.38
223.4	-13.38
223.635	-13.38
223.869	-2.38
224.104	-17.38
224.338	-12.38
224.573	-23.38
224.808	-18.38
225.042	-13.38
225.277	-5.38
225.511	10.62
225.746	2.62
225.98	6.62
226.215	5.62
226.449	8.62
226.683	17.62
226.918	24.62
227.152	29.62
227.387	39.62
227.621	41.62
227.856	33.62
228.09	47.62
228.324	55.62
228.559	49.62
228.793	58.62
229.027	71.62
229.262	68.62
229.496	66.62
229.73	61.62
229.964	86.62
230.199	77.62
230.433	62.62
230.667	62.62
230.901	69.62
231.136	71.62
231.37	73.62
231.604	67.62
231.838	78.62
232.072	76.62
232.306	97.62
232.541	74.62
232.775	79.62
233.009	78.62
233.243	93.62
233.477	88.62
233.711	76.62
233.945	84.62
234.179	94.62
234.413	87.62
234.647	79.62
234.881	72.62
235.115	64.62
235.349	72.62
235.583	71.62
235.817	84.62
236.051	83.62
236.285	69.62
236.519	82.62
236.753	78.62
236.987	82.62
237.221	71.62
237.455	73.62
237.689	80.62
237.922	78.62
238.156	63.62
238.39	72.62
238.624	90.62
238.858	76.62
239.091	83.62
239.325	79.62
239.559	86.62
239.793	90.62
240.027	88.62
240.26	78.62
240.494	70.62
240.728	78.62
240.961	73.62
241.195	78.62
241.429	80.62
241.662	75.62
241.896	72.62
242.13	79.62
242.363	67.62
242.597	80.62
242.83	82.62
243.064	78.62
243.298	85.62
243.531	96.62
243.765	75.62
243.998	86.62
244.232	69.62
244.465	78.62
244.699	71.62
244.932	80.62
245.166	70.62
245.399	85.62
245.633	93.62
245.866	68.62
246.099	78.62
246.333	80.62
246.566	74.62
246.8	87.62
247.033	73.62
247.266	79.62
247.5	73.62
247.733	79.62
247.966	77.62
248.2	84.62
248.433	81.62
248.666	77.62
248.899	65.62
249.133	80.62
249.366	78.62
249.599	79.62
249.832	70.62
250.066	78.62
250.299	73.62
250.532	72.62
250.765	80.62
250.998	82.62
251.231	71.62
251.465	73.62
251.698	75.62
251.931	80.62
252.164	79.62
252.397	87.62
252.63	79.62
252.863	93.62
253.096	91.62
253.329	97.62
253.562	74.62
253.795	81.62
254.028	90.62
254.261	77.62
254.494	82.62
254.727	82.62
254.96	79.62
255.193	83.62
255.426	73.62
255.659	68.62
255.892	87.62
256.124	83.62
256.357	87.62
256.59	80.62
256.823	82.62
257.056	99.62
257.289	78.62
257.521	100.62
257.754	80.62
257.987	71.62
258.22	88.62
258.452	79.62
258.685	80.62
258.918	77.62
259.151	72.62
259.383	86.62
259.616	87.62
259.849	89.62
260.081	86.62
260.314	87.62
260.547	81.62
260.779	76.62
261.012	86.62
261.244	87.62
261.477	78.62
261.71	84.62
261.942	75.62
262.175	82.62
262.407	78.62
262.64	82.62
262.872	98.62
263.105	86.62
263.337	85.62
263.57	80.62
263.802	90.62
264.035	94.62
264.267	91.62
264.499	85.62
264.732	85.62
264.964	63.62
265.197	74.62
265.429	72.62
265.661	92.62
265.894	81.62
266.126	80.62
266.358	73.62
266.591	84.62
266.823	64.62
267.055	80.62
267.287	78.62
267.52	82.62
267.752	93.62
267.984	85.62
268.216	57.62
268.448	72.62
268.681	84.62
268.913	75.62
269.145	78.62
269.377	87.62
269.609	92.62
269.841	93.62
270.073	75.62
270.306	82.62
270.538	85.62
270.77	71.62
271.002	75.62
271.234	76.62
271.466	69.62
271.698	74.62
271.93	88.62
272.162	84.62
272.394	84.62
272.626	77.62
272.858	97.62
273.09	66.62
273.322	93.62
273.553	85.62
273.785	85.62
274.017	86.62
274.249	87.62
274.481	90.62
274.713	93.62
274.945	93.62
275.176	82.62
275.408	81.62
275.64	85.62
275.872	79.62
276.104	75.62
276.335	81.62
276.567	84.62
276.799	77.62
277.031	68.62
277.262	88.62
277.494	88.62
277.726	82.62
277.957	86.62
278.189	74.62
278.421	84.62
278.652	87.62
278.884	73.62
279.115	89.62
279.347	76.62
279.579	96.62
279.81	90.62
280.042	87.62
280.273	72.62
280.505	81.62
280.736	74.62
280.968	88.62
281.199	84.62
281.431	79.62
281.662	93.62
281.894	94.62
282.125	78.62
282.356	86.62
282.588	77.62
282.819	80.62
283.051	97.62
283.282	91.62
283.513	81.62
283.745	84.62
283.976	74.62
284.207	73.62
284.439	81.62
284.67	95.62
284.901	89.62
285.132	82.62
285.364	88.62
285.595	87.62
285.826	90.62
286.057	80.62
286.288	87.62
286.52	87.62
286.751	88.62
286.982	85.62
287.213	73.62
287.444	83.62
287.675	84.62
287.906	93.62
288.138	98.62
288.369	88.62
288.6	95.62
288.831	86.62
289.062	85.62
289.293	83.62
289.524	84.62
289.755	74.62
289.986	80.62
290.217	78.62
290.448	85.62
290.679	84.62
290.91	98.62
291.141	87.62
291.371	80.62
291.602	92.62
291.833	84.62
292.064	91.62
292.295	95.62
292.526	82.62
292.757	102.62
292.987	80.62
293.218	86.62
293.449	70.62
293.68	71.62
293.91	78.62
294.141	77.62
294.372	79.62
294.603	80.62
294.833	79.62
295.064	83.62
295.295	82.62
295.525	91.62
295.756	89.62
295.987	85.62
296.217	78.62
296.448	101.62
296.679	84.62
296.909	100.62
297.14	79.62
297.37	74.62
297.601	85.62
297.831	87.62
298.062	82.62
298.292	80.62
298.523	78.62
298.753	77.62
298.984	80.62
299.214	95.62
299.445	84.62
299.675	96.62
299.905	87.62
300.136	96.62
300.366	80.62
300.597	79.62
300.827	75.62
301.057	78.62
301.288	92.62
301.518	85.62
301.748	84.62
301.979	93.62
302.209	94.62
302.439	97.62
302.669	72.62
302.9	84.62
303.13	75.62
303.36	88.62
303.59	68.62
303.82	92.62
304.051	89.62
304.281	88.62
304.511	90.62
304.741	87.62
304.971	82.62
305.201	76.62
305.431	78.62
305.661	76.62
305.891	80.62
306.121	88.62
306.352	95.62
306.582	93.62
306.812	85.62
307.042	71.62
307.272	86.62
307.502	94.62
307.731	90.62
307.961	97.62
308.191	90.62
308.421	98.62
308.651	82.62
308.881	94.62
309.111	78.62
309.341	86.62
309.571	93.62
309.8	91.62
310.03	89.62
310.26	77.62
310.49	95.62
310.72	96.62
310.949	86.62
311.179	84.62
311.409	74.62
311.639	90.62
311.868	90.62
312.098	91.62
312.328	90.62
312.557	95.62
312.787	84.62
313.017	78.62
313.246	81.62
313.476	97.62
313.706	80.62
313.935	99.62
314.165	79.62
314.394	102.62
314.624	88.62
314.853	78.62
315.083	95.62
315.312	89.62
315.542	79.62
315.771	89.62
316.001	95.62
316.23	100.62
316.46	78.62
316.689	95.62
316.919	80.62
317.148	94.62
317.377	74.62
317.607	88.62
317.836	86.62
318.065	100.62
318.295	106.62
318.524	91.62
318.753	92.62
318.983	89.62
319.212	80.62
319.441	76.62
319.67	85.62
319.9	81.62
320.129	74.62
320.358	83.62
320.587	78.62
320.816	82.62
321.046	94.62
321.275	86.62
321.504	86.62
321.733	88.62
321.962	86.62
322.191	84.62
322.42	88.62
322.649	103.62
322.878	97.62
323.108	80.62
323.337	91.62
323.566	95.62
323.795	84.62
324.024	80.62
324.253	79.62
324.482	87.62
324.71	93.62
324.939	100.62
325.168	86.62
325.397	75.62
325.626	80.62
325.855	70.62
326.084	81.62
326.313	81.62
326.542	83.62
326.77	87.62
326.999	81.62
327.228	96.62
327.457	81.62
327.686	88.62
327.914	84.62
328.143	100.62
328.372	91.62
328.6	84.62
328.829	93.62
329.058	87.62
329.287	81.62
329.515	91.62
329.744	107.62
329.972	82.62
330.201	89.62
330.43	81.62
330.658	92.62
330.887	87.62
331.115	93.62
331.344	80.62
331.572	86.62
331.801	72.62
332.03	88.62
332.258	89.62
332.486	73.62
332.715	76.62
332.943	96.62
333.172	96.62
333.4	85.62
333.629	85.62
333.857	87.62
334.085	80.62
334.314	86.62
334.542	90.62
334.771	92.62
334.999	104.62
335.227	98.62
335.455	91.62
335.684	93.62
335.912	103.62
336.14	94.62
336.369	99.62
336.597	89.62
336.825	92.62
337.053	92.62
337.281	84.62
337.51	100.62
337.738	79.62
337.966	71.62
338.194	80.62
338.422	88.62
338.65	88.62
338.878	83.62
339.106	85.62
339.334	97.62
339.562	86.62
339.79	89.62
340.018	84.62
340.246	85.62
340.474	95.62
340.702	85.62
340.93	84.62
341.158	82.62
341.386	84.62
341.614	100.62
341.842	78.62
342.07	86.62
342.298	71.62
342.526	87.62
342.754	88.62
342.981	87.62
343.209	95.62
343.437	90.62
343.665	87.62
343.893	86.62
344.12	93.62
344.348	79.62
344.576	103.62
344.804	89.62
345.031	86.62
345.259	79.62
345.487	81.62
345.714	83.62
345.942	83.62
346.17	72.62
346.397	63.62
346.625	78.62
346.853	69.62
347.08	84.62
347.308	89.62
347.535	89.62
347.763	87.62
347.99	99.62
348.218	84.62
348.445	80.62
348.673	90.62
348.9	96.62
349.128	75.62
349.355	86.62
349.583	89.62
349.81	85.62
350.037	85.62
350.265	78.62
350.492	85.62
350.72	94.62
350.947	88.62
351.174	78.62
351.402	85.62
351.629	86.62
351.856	89.62
352.083	91.62
352.311	87.62
352.538	83.62
352.765	84.62
352.992	77.62
353.22	83.62
353.447	93.62
353.674	103.62
353.901	94.62
354.128	80.62
354.355	85.62
354.583	84.62
354.81	92.62
355.037	80.62
355.264	84.62
355.491	85.62
355.718	96.62
355.945	92.62
356.172	73.62
356.399	102.62
356.626	80.62
356.853	96.62
357.08	89.62
357.307	101.62
357.534	93.62
357.761	90.62
357.988	104.62
358.215	120.62
358.441	104.62
358.668	96.62
358.895	94.62
359.122	70.62
359.349	77.62
359.576	92.62
359.802	85.62
360.029	99.62
360.256	82.62
360.483	93.62
360.709	82.62
360.936	103.62
361.163	86.62
361.39	73.62
361.616	91.62
361.843	87.62
362.07	97.62
362.296	98.62
362.523	110.62
362.749	109.62
362.976	122.62
363.203	136.62
363.429	106.62
363.656	112.62
363.882	98.62
364.109	108.62
364.335	141.62
364.562	152.62
364.788	104.62
365.015	97.62
365.241	95.62
365.468	103.62
365.694	100.62
365.92	86.62
366.147	89.62
366.373	97.62
366.599	83.62
366.826	96.62
367.052	97.62
367.278	78.62
367.505	77.62
367.731	89.62
367.957	98.62
368.184	81.62
368.41	89.62
368.636	99.62
368.862	96.62
369.089	89.62
369.315	88.62
369.541	86.62
369.767	91.62
369.993	90.62
370.219	83.62
370.445	89.62
370.672	102.62
370.898	93.62
371.124	78.62
371.35	84.62
371.576	84.62
371.802	99.62
372.028	82.62
372.254	88.62
372.48	88.62
372.706	87.62
372.932	105.62
373.158	90.62
373.384	92.62
373.61	122.62
373.835	114.62
374.061	103.62
374.287	96.62
374.513	105.62
374.739	100.62
374.965	84.62
375.191	101.62
375.416	93.62
375.642	100.62
375.868	99.62
376.094	99.62
376.319	89.62
376.545	95.62
376.771	90.62
376.997	96.62
377.222	81.62
377.448	66.62
377.674	86.62
377.899	94.62
378.125	85.62
378.35	78.62
378.576	86.62
378.802	103.62
379.027	86.62
379.253	87.62
379.478	82.62
379.704	96.62
379.929	110.62
380.155	88.62
380.38	84.62
380.606	88.62
380.831	91.62
381.057	106.62
381.282	73.62
381.507	78.62
381.733	108.62
381.958	104.62
382.184	103.62
382.409	106.62
382.634	106.62
382.86	101.62
383.085	100.62
383.31	100.62
383.535	87.62
383.761	98.62
383.986	106.62
384.211	99.62
384.436	103.62
384.662	85.62
384.887	108.62
385.112	108.62
385.337	97.62
385.562	86.62
385.787	90.62
386.013	105.62
386.238	108.62
386.463	100.62
386.688	108.62
386.913	87.62
387.138	114.62
387.363	108.62
387.588	101.62
387.813	116.62
388.038	105.62
388.263	94.62
388.488	101.62
388.713	100.62
388.938	88.62
389.163	84.62
389.387	88.62
389.612	84.62
389.837	84.62
390.062	89.62
390.287	90.62
390.512	85.62
390.736	100.62
390.961	94.62
391.186	98.62
391.411	92.62
391.636	95.62
391.86	109.62
392.085	106.62
392.31	107.62
392.534	134.62
392.759	133.62
392.984	169.62
393.208	269.62
393.433	326.62
393.658	264.62
393.882	138.62
394.107	106.62
394.331	134.62
394.556	126.62
394.78	108.62
395.005	89.62
395.229	93.62
395.454	109.62
395.678	113.62
395.903	125.62
396.127	126.62
396.352	156.62
396.576	178.62
396.801	270.62
397.025	292.62
397.249	177.62
397.474	147.62
397.698	124.62
397.922	101.62
398.147	87.62
398.371	97.62
398.595	110.62
398.82	108.62
399.044	91.62
399.268	99.62
399.492	86.62
399.717	84.62
399.941	90.62
400.165	85.62
400.389	90.62
400.613	86.62
400.837	89.62
401.062	99.62
401.286	100.62
401.51	93.62
401.734	93.62
401.958	94.62
402.182	100.62
402.406	84.62
402.63	87.62
402.854	75.62
403.078	99.62
403.302	89.62
403.526	108.62
403.75	86.62
403.974	96.62
404.198	78.62
404.422	113.62
404.645	110.62
404.869	85.62
405.093	80.62
405.317	89.62
405.541	88.62
405.765	88.62
405.988	87.62
406.212	95.62
406.436	91.62
406.66	98.62
406.883	92.62
407.107	87.62
407.331	96.62
407.555	91.62
407.778	115.62
408.002	122.62
408.226	81.62
408.449	93.62
408.673	95.62
408.896	97.62
409.12	100.62
409.344	100.62
409.567	113.62
409.791	118.62
410.014	106.62
410.238	102.62
410.461	91.62
410.685	92.62
410.908	95.62
411.132	75.62
411.355	91.62
411.578	100.62
411.802	103.62
412.025	90.62
412.249	86.62
412.472	88.62
412.695	89.62
412.919	96.62
413.142	89.62
413.365	99.62
413.589	93.62
413.812	85.62
414.035	91.62
414.258	88.62
414.482	85.62
414.705	80.62
414.928	86.62
415.151	76.62
415.374	102.62
415.597	87.62
415.821	92.62
416.044	79.62
416.267	72.62
416.49	81.62
416.713	84.62
416.936	97.62
417.159	84.62
417.382	94.62
417.605	77.62
417.828	98.62
418.051	86.62
418.274	92.62
418.497	90.62
418.72	87.62
418.943	90.62
419.166	103.62
419.389	88.62
419.611	97.62
419.834	100.62
420.057	101.62
420.28	81.62
420.503	92.62
420.726	109.62
420.948	94.62
421.171	97.62
421.394	117.62
421.617	124.62
421.839	146.62
422.062	154.62
422.285	199.62
422.507	292.62
422.73	361.62
422.953	338.62
423.175	249.62
423.398	184.62
423.621	144.62
423.843	119.62
424.066	103.62
424.288	111.62
424.511	109.62
424.733	110.62
424.956	96.62
425.178	98.62
425.401	103.62
425.623	84.62
425.846	100.62
426.068	103.62
426.291	81.62
426.513	92.62
426.735	94.62
426.958	106.62
427.18	112.62
427.402	87.62
427.625	104.62
427.847	103.62
428.069	105.62
428.292	125.62
428.514	135.62
428.736	119.62
428.958	128.62
429.181	141.62
429.403	94.62
429.625	95.62
429.847	127.62
430.069	169.62
430.292	192.62
430.514	178.62
430.736	137.62
430.958	138.62
431.18	113.62
431.402	101.62
431.624	85.62
431.846	140.62
432.068	139.62
432.29	115.62
432.512	92.62
432.734	94.62
432.956	101.62
433.178	104.62
433.4	86.62
433.622	80.62
433.844	90.62
434.066	91.62
434.287	85.62
434.509	88.62
434.731	88.62
434.953	78.62
435.175	89.62
435.397	93.62
435.618	110.62
435.84	94.62
436.062	92.62
436.284	80.62
436.505	79.62
436.727	98.62
436.949	80.62
437.17	93.62
437.392	95.62
437.614	85.62
437.835	98.62
438.057	86.62
438.278	94.62
438.5	90.62
438.721	109.62
438.943	86.62
439.165	96.62
439.386	89.62
439.608	95.62
439.829	94.62
440.05	92.62
440.272	92.62
440.493	93.62
440.715	100.62
440.936	88.62
441.158	92.62
441.379	94.62
441.6	90.62
441.822	97.62
442.043	86.62
442.264	113.62
442.486	143.62
442.707	174.62
442.928	134.62
443.149	118.62
443.371	174.62
443.592	241.62
443.813	222.62
444.034	114.62
444.255	95.62
444.476	100.62
444.698	98.62
444.919	101.62
445.14	191.62
445.361	233.62
445.582	302.62
445.803	280.62
446.024	140.62
446.245	105.62
446.466	88.62
446.687	83.62
446.908	82.62
447.129	89.62
447.35	95.62
447.571	82.62
447.792	93.62
448.013	93.62
448.234	89.62
448.455	79.62
448.675	86.62
448.896	73.62
449.117	69.62
449.338	98.62
449.559	88.62
449.779	90.62
450	84.62
450.221	92.62
450.442	82.62
450.662	74.62
450.883	90.62
451.104	90.62
451.324	83.62
451.545	78.62
451.766	104.62
451.986	83.62
452.207	85.62
452.428	86.62
452.648	94.62
452.869	103.62
453.089	108.62
453.31	86.62
453.53	98.62
453.751	97.62
453.971	101.62
454.192	81.62
454.412	98.62
454.633	74.62
454.853	81.62
455.073	91.62
455.294	93.62
455.514	98.62
455.734	106.62
455.955	101.62
456.175	85.62
456.395	81.62
456.616	77.62
456.836	87.62
457.056	85.62
457.276	96.62
457.497	92.62
457.717	92.62
457.937	116.62
458.157	145.62
458.377	146.62
458.598	130.62
458.818	152.62
459.038	93.62
459.258	81.62
459.478	91.62
459.698	89.62
459.918	90.62
460.138	85.62
460.358	92.62
460.578	101.62
460.798	142.62
461.018	124.62
461.238	87.62
461.458	93.62
461.678	95.62
461.898	90.62
462.118	100.62
462.338	88.62
462.558	92.62
462.777	85.62
462.997	78.62
463.217	80.62
463.437	95.62
463.657	83.62
463.876	85.62
464.096	95.62
464.316	88.62
464.536	80.62
464.755	85.62
464.975	78.62
465.195	86.62
465.414	86.62
465.634	84.62
465.854	87.62
466.073	89.62
466.293	94.62
466.512	84.62
466.732	87.62
466.951	89.62
467.171	85.62
467.391	104.62
467.61	84.62
467.829	101.62
468.049	92.62
468.268	92.62
468.488	116.62
468.707	104.62
468.927	90.62
469.146	92.62
469.365	105.62
469.585	81.62
469.804	99.62
470.023	78.62
470.243	88.62
470.462	92.62
470.681	79.62
470.901	88.62
471.12	82.62
471.339	97.62
471.558	87.62
471.777	89.62
471.997	83.62
472.216	84.62
472.435	91.62
472.654	93.62
472.873	75.62
473.092	90.62
473.311	96.62
473.53	88.62
473.749	96.62
473.968	100.62
474.187	91.62
474.406	84.62
474.625	92.62
474.844	87.62
475.063	72.62
475.282	92.62
475.501	96.62
475.72	97.62
475.939	93.62
476.158	90.62
476.377	97.62
476.596	100.62
476.814	87.62
477.033	84.62
477.252	82.62
477.471	94.62
477.69	85.62
477.908	90.62
478.127	112.62
478.346	98.62
478.564	92.62
478.783	90.62
479.002	96.62
479.22	86.62
479.439	96.62
479.658	87.62
479.876	99.62
480.095	85.62
480.313	101.62
480.532	93.62
480.751	88.62
480.969	103.62
481.188	95.62
481.406	93.62
481.624	100.62
481.843	97.62
482.061	90.62
482.28	85.62
482.498	89.62
482.717	93.62
482.935	97.62
483.153	111.62
483.372	101.62
483.59	108.62
483.808	103.62
484.027	92.62
484.245	103.62
484.463	90.62
484.681	101.62
484.9	101.62
485.118	104.62
485.336	87.62
485.554	95.62
485.772	88.62
485.99	86.62
486.209	99.62
486.427	85.62
486.645	98.62
486.863	97.62
487.081	98.62
487.299	98.62
487.517	97.62
487.735	141.62
487.953	222.62
488.171	192.62
488.389	99.62
488.607	96.62
488.825	91.62
489.043	98.62
489.261	101.62
489.479	100.62
489.696	96.62
489.914	87.62
490.132	98.62
490.35	102.62
490.568	101.62
490.786	90.62
491.003	80.62
491.221	97.62
491.439	96.62
491.657	93.62
491.874	106.62
492.092	107.62
492.31	106.62
492.527	85.62
492.745	109.62
492.963	102.62
493.18	101.62
493.398	98.62
493.615	102.62
493.833	109.62
494.05	104.62
494.268	100.62
494.485	108.62
494.703	100.62
494.92	101.62
495.138	102.62
495.355	102.62
495.573	97.62
495.79	99.62
496.008	105.62
496.225	104.62
496.442	97.62
496.66	98.62
496.877	94.62
497.094	86.62
497.312	103.62
497.529	87.62
497.746	78.62
497.963	92.62
498.181	108.62
498.398	111.62
498.615	108.62
498.832	91.62
499.049	96.62
499.267	114.62
499.484	97.62
499.701	93.62
499.918	94.62
500.135	101.62
500.352	99.62
500.569	103.62
500.786	91.62
501.003	103.62
501.22	95.62
501.437	100.62
501.654	98.62
501.871	118.62
502.088	105.62
502.305	96.62
502.522	89.62
502.739	90.62
502.956	102.62
503.172	105.62
503.389	86.62
503.606	106.62
503.823	105.62
504.04	125.62
504.256	158.62
504.473	169.62
504.69	109.62
504.907	100.62
505.123	108.62
505.34	90.62
505.557	88.62
505.773	93.62
505.99	98.62
506.207	80.62
506.423	116.62
506.64	108.62
506.856	88.62
507.073	92.62
507.289	87.62
507.506	87.62
507.722	98.62
507.939	97.62
508.155	95.62
508.372	84.62
508.588	98.62
508.805	95.62
509.021	103.62
509.238	101.62
509.454	96.62
509.67	102.62
509.887	104.62
510.103	86.62
510.319	101.62
510.536	100.62
510.752	87.62
510.968	114.62
511.184	105.62
511.401	101.62
511.617	82.62
511.833	84.62
512.049	98.62
512.265	92.62
512.481	93.62
512.698	103.62
512.914	86.62
513.13	99.62
513.346	95.62
513.562	114.62
513.778	91.62
513.994	98.62
514.21	108.62
514.426	113.62
514.642	89.62
514.858	86.62
515.074	96.62
515.29	101.62
515.506	91.62
515.721	79.62
515.937	92.62
516.153	94.62
516.369	96.62
