Data from 10100_3_HRD10591_00010.txt Node
Date: Mon Jan 19 14:02:27 EST 2026
User: Yrep
Spectrometer: HR+D1059
Trigger mode: 1
Integration Time (sec): 1.000000E-1
Scans to average: 1
Electric dark correction enabled: true
Nonlinearity correction enabled: false
Boxcar width: 0
XAxis mode: Wavelengths
Number of Pixels in Spectrum: 2048
>>>>>Begin Spectral Data<<<<<
223.165	-24.94
223.4	-24.94
223.635	-24.94
223.869	-15.94
224.104	-11.94
224.338	-10.94
224.573	-4.94
224.808	-14.94
225.042	-9.94
225.277	-3.94
225.511	8.06
225.746	-2.94
225.98	6.06
226.215	24.06
226.449	12.06
226.683	20.06
226.918	4.06
227.152	26.06
227.387	27.06
227.621	46.06
227.856	48.06
228.09	44.06
228.324	56.06
228.559	65.06
228.793	74.06
229.027	55.06
229.262	61.06
229.496	55.06
229.73	68.06
229.964	63.06
230.199	73.06
230.433	73.06
230.667	74.06
230.901	68.06
231.136	69.06
231.37	84.06
231.604	80.06
231.838	72.06
232.072	84.06
232.306	90.06
232.541	76.06
232.775	71.06
233.009	74.06
233.243	70.06
233.477	85.06
233.711	83.06
233.945	80.06
234.179	80.06
234.413	79.06
234.647	81.06
234.881	84.06
235.115	80.06
235.349	69.06
235.583	68.06
235.817	77.06
236.051	63.06
236.285	80.06
236.519	74.06
236.753	85.06
236.987	76.06
237.221	81.06
237.455	80.06
237.689	77.06
237.922	80.06
238.156	73.06
238.39	89.06
238.624	83.06
238.858	73.06
239.091	76.06
239.325	72.06
239.559	78.06
239.793	72.06
240.027	83.06
240.26	86.06
240.494	88.06
240.728	77.06
240.961	69.06
241.195	88.06
241.429	72.06
241.662	75.06
241.896	73.06
242.13	76.06
242.363	64.06
242.597	82.06
242.83	78.06
243.064	75.06
243.298	78.06
243.531	80.06
243.765	72.06
243.998	80.06
244.232	73.06
244.465	68.06
244.699	66.06
244.932	64.06
245.166	86.06
245.399	65.06
245.633	52.06
245.866	78.06
246.099	69.06
246.333	80.06
246.566	67.06
246.8	85.06
247.033	81.06
247.266	73.06
247.5	89.06
247.733	58.06
247.966	74.06
248.2	81.06
248.433	66.06
248.666	73.06
248.899	75.06
249.133	79.06
249.366	76.06
249.599	96.06
249.832	75.06
250.066	85.06
250.299	84.06
250.532	84.06
250.765	89.06
250.998	76.06
251.231	80.06
251.465	85.06
251.698	85.06
251.931	66.06
252.164	81.06
252.397	76.06
252.63	65.06
252.863	65.06
253.096	72.06
253.329	69.06
253.562	70.06
253.795	81.06
254.028	89.06
254.261	84.06
254.494	91.06
254.727	76.06
254.96	84.06
255.193	72.06
255.426	67.06
255.659	76.06
255.892	85.06
256.124	66.06
256.357	66.06
256.59	72.06
256.823	62.06
257.056	77.06
257.289	86.06
257.521	86.06
257.754	74.06
257.987	78.06
258.22	74.06
258.452	72.06
258.685	82.06
258.918	73.06
259.151	75.06
259.383	86.06
259.616	89.06
259.849	100.06
260.081	68.06
260.314	91.06
260.547	80.06
260.779	87.06
261.012	76.06
261.244	94.06
261.477	79.06
261.71	80.06
261.942	71.06
262.175	82.06
262.407	81.06
262.64	88.06
262.872	74.06
263.105	70.06
263.337	79.06
263.57	76.06
263.802	86.06
264.035	76.06
264.267	93.06
264.499	74.06
264.732	74.06
264.964	84.06
265.197	82.06
265.429	91.06
265.661	98.06
265.894	75.06
266.126	95.06
266.358	88.06
266.591	88.06
266.823	83.06
267.055	90.06
267.287	75.06
267.52	76.06
267.752	82.06
267.984	78.06
268.216	78.06
268.448	88.06
268.681	85.06
268.913	89.06
269.145	66.06
269.377	80.06
269.609	93.06
269.841	93.06
270.073	77.06
270.306	79.06
270.538	79.06
270.77	80.06
271.002	73.06
271.234	86.06
271.466	57.06
271.698	81.06
271.93	92.06
272.162	86.06
272.394	81.06
272.626	92.06
272.858	86.06
273.09	75.06
273.322	83.06
273.553	85.06
273.785	85.06
274.017	79.06
274.249	80.06
274.481	81.06
274.713	93.06
274.945	75.06
275.176	68.06
275.408	84.06
275.64	95.06
275.872	86.06
276.104	82.06
276.335	96.06
276.567	80.06
276.799	89.06
277.031	83.06
277.262	69.06
277.494	68.06
277.726	85.06
277.957	81.06
278.189	84.06
278.421	76.06
278.652	87.06
278.884	88.06
279.115	75.06
279.347	79.06
279.579	78.06
279.81	68.06
280.042	101.06
280.273	95.06
280.505	92.06
280.736	102.06
280.968	88.06
281.199	68.06
281.431	70.06
281.662	86.06
281.894	78.06
282.125	74.06
282.356	70.06
282.588	81.06
282.819	92.06
283.051	96.06
283.282	78.06
283.513	86.06
283.745	81.06
283.976	81.06
284.207	102.06
284.439	79.06
284.67	76.06
284.901	87.06
285.132	76.06
285.364	80.06
285.595	77.06
285.826	95.06
286.057	83.06
286.288	76.06
286.52	73.06
286.751	82.06
286.982	93.06
287.213	81.06
287.444	87.06
287.675	89.06
287.906	78.06
288.138	85.06
288.369	90.06
288.6	81.06
288.831	78.06
289.062	82.06
289.293	87.06
289.524	94.06
289.755	97.06
289.986	84.06
290.217	89.06
290.448	91.06
290.679	88.06
290.91	82.06
291.141	68.06
291.371	80.06
291.602	81.06
291.833	71.06
292.064	80.06
292.295	86.06
292.526	76.06
292.757	82.06
292.987	81.06
293.218	77.06
293.449	74.06
293.68	82.06
293.91	92.06
294.141	82.06
294.372	86.06
294.603	64.06
294.833	80.06
295.064	87.06
295.295	81.06
295.525	94.06
295.756	84.06
295.987	68.06
296.217	70.06
296.448	87.06
296.679	86.06
296.909	95.06
297.14	78.06
297.37	80.06
297.601	73.06
297.831	93.06
298.062	90.06
298.292	91.06
298.523	92.06
298.753	84.06
298.984	76.06
299.214	81.06
299.445	86.06
299.675	85.06
299.905	90.06
300.136	100.06
300.366	82.06
300.597	86.06
300.827	87.06
301.057	86.06
301.288	100.06
301.518	83.06
301.748	65.06
301.979	101.06
302.209	84.06
302.439	85.06
302.669	73.06
302.9	86.06
303.13	65.06
303.36	74.06
303.59	80.06
303.82	84.06
304.051	92.06
304.281	99.06
304.511	93.06
304.741	87.06
304.971	85.06
305.201	90.06
305.431	82.06
305.661	78.06
305.891	94.06
306.121	84.06
306.352	84.06
306.582	84.06
306.812	81.06
307.042	90.06
307.272	75.06
307.502	97.06
307.731	89.06
307.961	89.06
308.191	94.06
308.421	99.06
308.651	85.06
308.881	93.06
309.111	68.06
309.341	86.06
309.571	83.06
309.8	89.06
310.03	69.06
310.26	92.06
310.49	94.06
310.72	82.06
310.949	87.06
311.179	100.06
311.409	85.06
311.639	79.06
311.868	74.06
312.098	84.06
312.328	85.06
312.557	84.06
312.787	76.06
313.017	92.06
313.246	80.06
313.476	73.06
313.706	88.06
313.935	98.06
314.165	73.06
314.394	95.06
314.624	69.06
314.853	80.06
315.083	80.06
315.312	80.06
315.542	92.06
315.771	80.06
316.001	84.06
316.23	99.06
316.46	94.06
316.689	93.06
316.919	61.06
317.148	76.06
317.377	88.06
317.607	94.06
317.836	89.06
318.065	80.06
318.295	86.06
318.524	95.06
318.753	72.06
318.983	87.06
319.212	81.06
319.441	80.06
319.67	80.06
319.9	82.06
320.129	87.06
320.358	85.06
320.587	88.06
320.816	83.06
321.046	76.06
321.275	84.06
321.504	88.06
321.733	83.06
321.962	88.06
322.191	79.06
322.42	91.06
322.649	89.06
322.878	97.06
323.108	86.06
323.337	67.06
323.566	84.06
323.795	79.06
324.024	88.06
324.253	89.06
324.482	80.06
324.71	87.06
324.939	86.06
325.168	72.06
325.397	87.06
325.626	89.06
325.855	84.06
326.084	82.06
326.313	84.06
326.542	74.06
326.77	95.06
326.999	89.06
327.228	78.06
327.457	89.06
327.686	76.06
327.914	78.06
328.143	88.06
328.372	84.06
328.6	94.06
328.829	73.06
329.058	84.06
329.287	88.06
329.515	93.06
329.744	101.06
329.972	90.06
330.201	87.06
330.43	91.06
330.658	86.06
330.887	85.06
331.115	84.06
331.344	91.06
331.572	75.06
331.801	75.06
332.03	89.06
332.258	86.06
332.486	74.06
332.715	95.06
332.943	82.06
333.172	76.06
333.4	77.06
333.629	83.06
333.857	87.06
334.085	70.06
334.314	83.06
334.542	76.06
334.771	75.06
334.999	85.06
335.227	86.06
335.455	86.06
335.684	93.06
335.912	79.06
336.14	93.06
336.369	73.06
336.597	81.06
336.825	88.06
337.053	79.06
337.281	93.06
337.51	72.06
337.738	70.06
337.966	82.06
338.194	88.06
338.422	81.06
338.65	86.06
338.878	97.06
339.106	78.06
339.334	96.06
339.562	81.06
339.79	100.06
340.018	76.06
340.246	90.06
340.474	74.06
340.702	65.06
340.93	75.06
341.158	86.06
341.386	92.06
341.614	81.06
341.842	87.06
342.07	79.06
342.298	86.06
342.526	90.06
342.754	64.06
342.981	95.06
343.209	97.06
343.437	91.06
343.665	88.06
343.893	87.06
344.12	79.06
344.348	80.06
344.576	86.06
344.804	84.06
345.031	74.06
345.259	95.06
345.487	84.06
345.714	91.06
345.942	93.06
346.17	94.06
346.397	94.06
346.625	93.06
346.853	80.06
347.08	67.06
347.308	74.06
347.535	90.06
347.763	83.06
347.99	78.06
348.218	78.06
348.445	97.06
348.673	100.06
348.9	84.06
349.128	82.06
349.355	85.06
349.583	86.06
349.81	85.06
350.037	78.06
350.265	96.06
350.492	87.06
350.72	87.06
350.947	62.06
351.174	89.06
351.402	82.06
351.629	73.06
351.856	90.06
352.083	74.06
352.311	77.06
352.538	87.06
352.765	83.06
352.992	96.06
353.22	86.06
353.447	71.06
353.674	74.06
353.901	93.06
354.128	85.06
354.355	79.06
354.583	81.06
354.81	78.06
355.037	79.06
355.264	84.06
355.491	84.06
355.718	85.06
355.945	79.06
356.172	85.06
356.399	78.06
356.626	81.06
356.853	88.06
357.08	81.06
357.307	94.06
357.534	80.06
357.761	79.06
357.988	90.06
358.215	88.06
358.441	77.06
358.668	89.06
358.895	83.06
359.122	80.06
359.349	74.06
359.576	70.06
359.802	88.06
360.029	82.06
360.256	82.06
360.483	84.06
360.709	101.06
360.936	87.06
361.163	88.06
361.39	82.06
361.616	84.06
361.843	72.06
362.07	91.06
362.296	81.06
362.523	90.06
362.749	101.06
362.976	115.06
363.203	108.06
363.429	102.06
363.656	89.06
363.882	88.06
364.109	104.06
364.335	92.06
364.562	105.06
364.788	98.06
365.015	99.06
365.241	86.06
365.468	100.06
365.694	98.06
365.92	98.06
366.147	74.06
366.373	77.06
366.599	89.06
366.826	84.06
367.052	80.06
367.278	93.06
367.505	92.06
367.731	84.06
367.957	96.06
368.184	85.06
368.41	100.06
368.636	92.06
368.862	105.06
369.089	94.06
369.315	91.06
369.541	88.06
369.767	92.06
369.993	98.06
370.219	64.06
370.445	68.06
370.672	73.06
370.898	107.06
371.124	93.06
371.35	84.06
371.576	85.06
371.802	80.06
372.028	85.06
372.254	96.06
372.48	95.06
372.706	96.06
372.932	94.06
373.158	95.06
373.384	86.06
373.61	106.06
373.835	95.06
374.061	77.06
374.287	92.06
374.513	90.06
374.739	85.06
374.965	88.06
375.191	88.06
375.416	88.06
375.642	92.06
375.868	92.06
376.094	88.06
376.319	83.06
376.545	100.06
376.771	93.06
376.997	80.06
377.222	94.06
377.448	92.06
377.674	73.06
377.899	74.06
378.125	78.06
378.35	83.06
378.576	88.06
378.802	82.06
379.027	88.06
379.253	94.06
379.478	73.06
379.704	93.06
379.929	80.06
380.155	88.06
380.38	87.06
380.606	81.06
380.831	92.06
381.057	88.06
381.282	88.06
381.507	81.06
381.733	93.06
381.958	81.06
382.184	89.06
382.409	94.06
382.634	94.06
382.86	93.06
383.085	85.06
383.31	92.06
383.535	90.06
383.761	96.06
383.986	85.06
384.211	104.06
384.436	91.06
384.662	81.06
384.887	89.06
385.112	83.06
385.337	84.06
385.562	80.06
385.787	84.06
386.013	85.06
386.238	95.06
386.463	86.06
386.688	92.06
386.913	93.06
387.138	75.06
387.363	99.06
387.588	96.06
387.813	87.06
388.038	80.06
388.263	98.06
388.488	84.06
388.713	87.06
388.938	97.06
389.163	92.06
389.387	86.06
389.612	97.06
389.837	80.06
390.062	69.06
390.287	83.06
390.512	86.06
390.736	85.06
390.961	87.06
391.186	87.06
391.411	87.06
391.636	84.06
391.86	93.06
392.085	91.06
392.31	93.06
392.534	82.06
392.759	102.06
392.984	98.06
393.208	165.06
393.433	186.06
393.658	170.06
393.882	117.06
394.107	84.06
394.331	93.06
394.556	82.06
394.78	101.06
395.005	82.06
395.229	94.06
395.454	88.06
395.678	87.06
395.903	99.06
396.127	121.06
396.352	125.06
396.576	120.06
396.801	148.06
397.025	177.06
397.249	124.06
397.474	105.06
397.698	101.06
397.922	90.06
398.147	78.06
398.371	82.06
398.595	84.06
398.82	73.06
399.044	100.06
399.268	78.06
399.492	83.06
399.717	101.06
399.941	86.06
400.165	79.06
400.389	92.06
400.613	69.06
400.837	84.06
401.062	92.06
401.286	88.06
401.51	90.06
401.734	81.06
401.958	79.06
402.182	85.06
402.406	72.06
402.63	75.06
402.854	89.06
403.078	85.06
403.302	79.06
403.526	80.06
403.75	85.06
403.974	93.06
404.198	80.06
404.422	93.06
404.645	85.06
404.869	88.06
405.093	74.06
405.317	80.06
405.541	74.06
405.765	93.06
405.988	84.06
406.212	75.06
406.436	86.06
406.66	81.06
406.883	92.06
407.107	85.06
407.331	85.06
407.555	81.06
407.778	89.06
408.002	105.06
408.226	90.06
408.449	81.06
408.673	72.06
408.896	88.06
409.12	79.06
409.344	89.06
409.567	108.06
409.791	86.06
410.014	102.06
410.238	94.06
410.461	87.06
410.685	80.06
410.908	92.06
411.132	85.06
411.355	80.06
411.578	84.06
411.802	78.06
412.025	79.06
412.249	90.06
412.472	86.06
412.695	85.06
412.919	87.06
413.142	87.06
413.365	65.06
413.589	79.06
413.812	86.06
414.035	91.06
414.258	69.06
414.482	80.06
414.705	77.06
414.928	95.06
415.151	84.06
415.374	94.06
415.597	84.06
415.821	84.06
416.044	99.06
416.267	64.06
416.49	72.06
416.713	80.06
416.936	82.06
417.159	71.06
417.382	76.06
417.605	82.06
417.828	96.06
418.051	84.06
418.274	95.06
418.497	82.06
418.72	83.06
418.943	78.06
419.166	90.06
419.389	93.06
419.611	88.06
419.834	97.06
420.057	94.06
420.28	88.06
420.503	73.06
420.726	82.06
420.948	93.06
421.171	84.06
421.394	89.06
421.617	114.06
421.839	112.06
422.062	89.06
422.285	141.06
422.507	220.06
422.73	275.06
422.953	246.06
423.175	194.06
423.398	128.06
423.621	117.06
423.843	96.06
424.066	91.06
424.288	99.06
424.511	86.06
424.733	92.06
424.956	89.06
425.178	86.06
425.401	88.06
425.623	80.06
425.846	101.06
426.068	90.06
426.291	83.06
426.513	89.06
426.735	86.06
426.958	90.06
427.18	87.06
427.402	91.06
427.625	88.06
427.847	84.06
428.069	103.06
428.292	114.06
428.514	102.06
428.736	74.06
428.958	120.06
429.181	118.06
429.403	80.06
429.625	105.06
429.847	88.06
430.069	136.06
430.292	139.06
430.514	136.06
430.736	116.06
430.958	104.06
431.18	100.06
431.402	88.06
431.624	73.06
431.846	99.06
432.068	121.06
432.29	82.06
432.512	89.06
432.734	92.06
432.956	97.06
433.178	93.06
433.4	85.06
433.622	89.06
433.844	93.06
434.066	74.06
434.287	80.06
434.509	89.06
434.731	87.06
434.953	74.06
435.175	80.06
435.397	93.06
435.618	89.06
435.84	96.06
436.062	87.06
436.284	95.06
436.505	75.06
436.727	75.06
436.949	73.06
437.17	76.06
437.392	98.06
437.614	93.06
437.835	70.06
438.057	98.06
438.278	84.06
438.5	89.06
438.721	87.06
438.943	81.06
439.165	100.06
439.386	91.06
439.608	94.06
439.829	99.06
440.05	79.06
440.272	91.06
440.493	82.06
440.715	85.06
440.936	92.06
441.158	86.06
441.379	81.06
441.6	98.06
441.822	84.06
442.043	78.06
442.264	92.06
442.486	104.06
442.707	135.06
442.928	115.06
443.149	96.06
443.371	115.06
443.592	177.06
443.813	179.06
444.034	113.06
444.255	100.06
444.476	84.06
444.698	87.06
444.919	93.06
445.14	182.06
445.361	177.06
445.582	206.06
445.803	192.06
446.024	107.06
446.245	102.06
446.466	97.06
446.687	68.06
446.908	98.06
447.129	94.06
447.35	81.06
447.571	86.06
447.792	82.06
448.013	84.06
448.234	98.06
448.455	99.06
448.675	75.06
448.896	73.06
449.117	79.06
449.338	81.06
449.559	89.06
449.779	69.06
450	78.06
450.221	91.06
450.442	86.06
450.662	83.06
450.883	72.06
451.104	76.06
451.324	86.06
451.545	79.06
451.766	96.06
451.986	78.06
452.207	87.06
452.428	91.06
452.648	94.06
452.869	93.06
453.089	80.06
453.31	96.06
453.53	98.06
453.751	75.06
453.971	89.06
454.192	87.06
454.412	89.06
454.633	95.06
454.853	94.06
455.073	74.06
455.294	85.06
455.514	83.06
455.734	97.06
455.955	85.06
456.175	78.06
456.395	95.06
456.616	81.06
456.836	78.06
457.056	83.06
457.276	80.06
457.497	86.06
457.717	96.06
457.937	84.06
458.157	112.06
458.377	110.06
458.598	103.06
458.818	120.06
459.038	80.06
459.258	94.06
459.478	93.06
459.698	90.06
459.918	85.06
460.138	79.06
460.358	75.06
460.578	97.06
460.798	121.06
461.018	118.06
461.238	68.06
461.458	73.06
461.678	91.06
461.898	95.06
462.118	89.06
462.338	93.06
462.558	83.06
462.777	66.06
462.997	74.06
463.217	78.06
463.437	95.06
463.657	88.06
463.876	82.06
464.096	97.06
464.316	75.06
464.536	88.06
464.755	84.06
464.975	88.06
465.195	82.06
465.414	93.06
465.634	71.06
465.854	87.06
466.073	85.06
466.293	102.06
466.512	95.06
466.732	88.06
466.951	73.06
467.171	82.06
467.391	85.06
467.61	81.06
467.829	91.06
468.049	93.06
468.268	74.06
468.488	83.06
468.707	79.06
468.927	87.06
469.146	90.06
469.365	82.06
469.585	94.06
469.804	92.06
470.023	93.06
470.243	83.06
470.462	85.06
470.681	85.06
470.901	74.06
471.12	80.06
471.339	94.06
471.558	83.06
471.777	85.06
471.997	89.06
472.216	88.06
472.435	105.06
472.654	97.06
472.873	89.06
473.092	82.06
473.311	88.06
473.53	101.06
473.749	90.06
473.968	87.06
474.187	86.06
474.406	87.06
474.625	88.06
474.844	84.06
475.063	81.06
475.282	72.06
475.501	72.06
475.72	94.06
475.939	81.06
476.158	89.06
476.377	73.06
476.596	86.06
476.814	94.06
477.033	79.06
477.252	87.06
477.471	88.06
477.69	92.06
477.908	69.06
478.127	84.06
478.346	103.06
478.564	86.06
478.783	86.06
479.002	83.06
479.22	90.06
479.439	99.06
479.658	75.06
479.876	87.06
480.095	90.06
480.313	91.06
480.532	100.06
480.751	85.06
480.969	84.06
481.188	74.06
481.406	90.06
481.624	95.06
481.843	85.06
482.061	86.06
482.28	86.06
482.498	81.06
482.717	88.06
482.935	94.06
483.153	68.06
483.372	94.06
483.59	100.06
483.808	87.06
484.027	81.06
484.245	81.06
484.463	86.06
484.681	81.06
484.9	87.06
485.118	82.06
485.336	76.06
485.554	90.06
485.772	74.06
485.99	85.06
486.209	88.06
486.427	85.06
486.645	76.06
486.863	102.06
487.081	84.06
487.299	95.06
487.517	95.06
487.735	110.06
487.953	170.06
488.171	127.06
488.389	106.06
488.607	88.06
488.825	88.06
489.043	79.06
489.261	92.06
489.479	92.06
489.696	94.06
489.914	98.06
490.132	114.06
490.35	92.06
490.568	98.06
490.786	102.06
491.003	93.06
491.221	83.06
491.439	78.06
491.657	100.06
491.874	104.06
492.092	88.06
492.31	95.06
492.527	89.06
492.745	78.06
492.963	81.06
493.18	86.06
493.398	90.06
493.615	87.06
493.833	87.06
494.05	78.06
494.268	70.06
494.485	100.06
494.703	101.06
494.92	86.06
495.138	84.06
495.355	84.06
495.573	107.06
495.79	89.06
496.008	92.06
496.225	75.06
496.442	89.06
496.66	90.06
496.877	89.06
497.094	82.06
497.312	93.06
497.529	85.06
497.746	88.06
497.963	87.06
498.181	91.06
498.398	93.06
498.615	78.06
498.832	92.06
499.049	90.06
499.267	102.06
499.484	82.06
499.701	105.06
499.918	106.06
500.135	97.06
500.352	84.06
500.569	86.06
500.786	98.06
501.003	88.06
501.22	92.06
501.437	76.06
501.654	82.06
501.871	88.06
502.088	86.06
502.305	88.06
502.522	88.06
502.739	84.06
502.956	96.06
503.172	85.06
503.389	90.06
503.606	88.06
503.823	89.06
504.04	102.06
504.256	124.06
504.473	127.06
504.69	90.06
504.907	87.06
505.123	89.06
505.34	89.06
505.557	81.06
505.773	89.06
505.99	96.06
506.207	97.06
506.423	97.06
506.64	103.06
506.856	92.06
507.073	74.06
507.289	86.06
507.506	89.06
507.722	89.06
507.939	98.06
508.155	87.06
508.372	96.06
508.588	84.06
508.805	75.06
509.021	85.06
509.238	80.06
509.454	103.06
509.67	97.06
509.887	85.06
510.103	86.06
510.319	89.06
510.536	92.06
510.752	89.06
510.968	86.06
511.184	90.06
511.401	95.06
511.617	85.06
511.833	95.06
512.049	92.06
512.265	96.06
512.481	96.06
512.698	97.06
512.914	82.06
513.13	87.06
513.346	97.06
513.562	98.06
513.778	95.06
513.994	84.06
514.21	102.06
514.426	94.06
514.642	83.06
514.858	83.06
515.074	92.06
515.29	92.06
515.506	92.06
515.721	98.06
515.937	93.06
516.153	77.06
516.369	98.06
516.585	85.06
516.801	79.06
517.016	91.06
517.232	92.06
517.448	95.06
517.664	92.06
517.879	101.06
518.095	87.06
518.311	88.06
518.527	94.06
518.742	105.06
