Data from 10100_3_HRD10591_00013.txt Node
Date: Mon Jan 19 14:02:29 EST 2026
User: Yrep
Spectrometer: HR+D1059
Trigger mode: 1
Integration Time (sec): 1.000000E-1
Scans to average: 1
Electric dark correction enabled: true
Nonlinearity correction enabled: false
Boxcar width: 0
XAxis mode: Wavelengths
Number of Pixels in Spectrum: 2048
>>>>>Begin Spectral Data<<<<<
223.165	-16.06
223.4	-16.06
223.635	-16.06
223.869	-23.06
224.104	-12.06
224.338	-15.06
224.573	-11.06
224.808	-11.06
225.042	-23.06
225.277	-3.06
225.511	-8.06
225.746	6.94
225.98	8.94
226.215	3.94
226.449	19.94
226.683	17.94
226.918	34.94
227.152	29.94
227.387	35.94
227.621	42.94
227.856	41.94
228.09	57.94
228.324	65.94
228.559	63.94
228.793	72.94
229.027	69.94
229.262	55.94
229.496	70.94
229.73	64.94
229.964	66.94
230.199	80.94
230.433	72.94
230.667	73.94
230.901	57.94
231.136	71.94
231.37	90.94
231.604	67.94
231.838	86.94
232.072	85.94
232.306	75.94
232.541	87.94
232.775	86.94
233.009	91.94
233.243	96.94
233.477	83.94
233.711	90.94
233.945	72.94
234.179	73.94
234.413	79.94
234.647	95.94
234.881	92.94
235.115	92.94
235.349	80.94
235.583	75.94
235.817	77.94
236.051	80.94
236.285	91.94
236.519	71.94
236.753	77.94
236.987	71.94
237.221	75.94
237.455	75.94
237.689	70.94
237.922	64.94
238.156	85.94
238.39	66.94
238.624	72.94
238.858	86.94
239.091	75.94
239.325	86.94
239.559	76.94
239.793	88.94
240.027	84.94
240.26	71.94
240.494	74.94
240.728	85.94
240.961	79.94
241.195	87.94
241.429	74.94
241.662	85.94
241.896	80.94
242.13	76.94
242.363	69.94
242.597	77.94
242.83	77.94
243.064	74.94
243.298	74.94
243.531	73.94
243.765	85.94
243.998	81.94
244.232	85.94
244.465	87.94
244.699	91.94
244.932	74.94
245.166	97.94
245.399	84.94
245.633	73.94
245.866	71.94
246.099	92.94
246.333	73.94
246.566	85.94
246.8	73.94
247.033	79.94
247.266	81.94
247.5	84.94
247.733	74.94
247.966	83.94
248.2	82.94
248.433	91.94
248.666	80.94
248.899	59.94
249.133	71.94
249.366	85.94
249.599	85.94
249.832	80.94
250.066	87.94
250.299	85.94
250.532	89.94
250.765	81.94
250.998	85.94
251.231	89.94
251.465	79.94
251.698	82.94
251.931	83.94
252.164	94.94
252.397	71.94
252.63	91.94
252.863	71.94
253.096	97.94
253.329	91.94
253.562	80.94
253.795	93.94
254.028	81.94
254.261	91.94
254.494	74.94
254.727	86.94
254.96	85.94
255.193	80.94
255.426	88.94
255.659	76.94
255.892	84.94
256.124	85.94
256.357	87.94
256.59	76.94
256.823	88.94
257.056	85.94
257.289	69.94
257.521	75.94
257.754	87.94
257.987	89.94
258.22	71.94
258.452	91.94
258.685	84.94
258.918	80.94
259.151	87.94
259.383	88.94
259.616	78.94
259.849	87.94
260.081	91.94
260.314	82.94
260.547	84.94
260.779	82.94
261.012	97.94
261.244	88.94
261.477	90.94
261.71	79.94
261.942	67.94
262.175	85.94
262.407	82.94
262.64	85.94
262.872	73.94
263.105	88.94
263.337	95.94
263.57	75.94
263.802	87.94
264.035	83.94
264.267	78.94
264.499	69.94
264.732	86.94
264.964	78.94
265.197	84.94
265.429	96.94
265.661	79.94
265.894	90.94
266.126	83.94
266.358	85.94
266.591	92.94
266.823	81.94
267.055	71.94
267.287	70.94
267.52	61.94
267.752	92.94
267.984	91.94
268.216	72.94
268.448	79.94
268.681	92.94
268.913	81.94
269.145	79.94
269.377	88.94
269.609	83.94
269.841	88.94
270.073	89.94
270.306	80.94
270.538	87.94
270.77	93.94
271.002	95.94
271.234	81.94
271.466	85.94
271.698	92.94
271.93	86.94
272.162	87.94
272.394	109.94
272.626	89.94
272.858	87.94
273.09	86.94
273.322	77.94
273.553	93.94
273.785	77.94
274.017	98.94
274.249	102.94
274.481	85.94
274.713	91.94
274.945	96.94
275.176	91.94
275.408	78.94
275.64	92.94
275.872	85.94
276.104	88.94
276.335	87.94
276.567	83.94
276.799	86.94
277.031	100.94
277.262	75.94
277.494	91.94
277.726	89.94
277.957	96.94
278.189	77.94
278.421	92.94
278.652	90.94
278.884	100.94
279.115	92.94
279.347	88.94
279.579	92.94
279.81	90.94
280.042	97.94
280.273	92.94
280.505	92.94
280.736	97.94
280.968	95.94
281.199	99.94
281.431	92.94
281.662	80.94
281.894	76.94
282.125	84.94
282.356	77.94
282.588	90.94
282.819	100.94
283.051	98.94
283.282	96.94
283.513	89.94
283.745	88.94
283.976	88.94
284.207	84.94
284.439	91.94
284.67	93.94
284.901	100.94
285.132	100.94
285.364	112.94
285.595	95.94
285.826	83.94
286.057	89.94
286.288	84.94
286.52	80.94
286.751	95.94
286.982	100.94
287.213	96.94
287.444	97.94
287.675	101.94
287.906	99.94
288.138	84.94
288.369	101.94
288.6	90.94
288.831	87.94
289.062	75.94
289.293	97.94
289.524	98.94
289.755	92.94
289.986	71.94
290.217	81.94
290.448	87.94
290.679	98.94
290.91	96.94
291.141	95.94
291.371	89.94
291.602	103.94
291.833	89.94
292.064	81.94
292.295	67.94
292.526	89.94
292.757	88.94
292.987	88.94
293.218	87.94
293.449	73.94
293.68	93.94
293.91	87.94
294.141	93.94
294.372	87.94
294.603	92.94
294.833	94.94
295.064	98.94
295.295	91.94
295.525	87.94
295.756	108.94
295.987	82.94
296.217	86.94
296.448	97.94
296.679	91.94
296.909	94.94
297.14	103.94
297.37	103.94
297.601	102.94
297.831	95.94
298.062	83.94
298.292	95.94
298.523	101.94
298.753	85.94
298.984	86.94
299.214	96.94
299.445	97.94
299.675	99.94
299.905	100.94
300.136	102.94
300.366	107.94
300.597	112.94
300.827	115.94
301.057	117.94
301.288	104.94
301.518	86.94
301.748	107.94
301.979	124.94
302.209	103.94
302.439	85.94
302.669	99.94
302.9	91.94
303.13	95.94
303.36	90.94
303.59	87.94
303.82	84.94
304.051	95.94
304.281	95.94
304.511	95.94
304.741	95.94
304.971	85.94
305.201	86.94
305.431	85.94
305.661	91.94
305.891	107.94
306.121	85.94
306.352	102.94
306.582	99.94
306.812	93.94
307.042	83.94
307.272	84.94
307.502	81.94
307.731	98.94
307.961	120.94
308.191	116.94
308.421	113.94
308.651	89.94
308.881	107.94
309.111	113.94
309.341	128.94
309.571	119.94
309.8	113.94
310.03	102.94
310.26	92.94
310.49	86.94
310.72	83.94
310.949	84.94
311.179	78.94
311.409	83.94
311.639	99.94
311.868	90.94
312.098	83.94
312.328	84.94
312.557	93.94
312.787	81.94
313.017	87.94
313.246	101.94
313.476	101.94
313.706	78.94
313.935	96.94
314.165	102.94
314.394	92.94
314.624	95.94
314.853	110.94
315.083	97.94
315.312	90.94
315.542	99.94
315.771	106.94
316.001	116.94
316.23	107.94
316.46	89.94
316.689	108.94
316.919	93.94
317.148	91.94
317.377	99.94
317.607	122.94
317.836	117.94
318.065	136.94
318.295	113.94
318.524	105.94
318.753	100.94
318.983	104.94
319.212	99.94
319.441	99.94
319.67	103.94
319.9	108.94
320.129	97.94
320.358	95.94
320.587	100.94
320.816	107.94
321.046	88.94
321.275	105.94
321.504	102.94
321.733	109.94
321.962	109.94
322.191	103.94
322.42	104.94
322.649	101.94
322.878	104.94
323.108	89.94
323.337	95.94
323.566	102.94
323.795	92.94
324.024	93.94
324.253	106.94
324.482	99.94
324.71	94.94
324.939	92.94
325.168	106.94
325.397	104.94
325.626	93.94
325.855	92.94
326.084	85.94
326.313	88.94
326.542	89.94
326.77	89.94
326.999	110.94
327.228	106.94
327.457	101.94
327.686	98.94
327.914	90.94
328.143	85.94
328.372	94.94
328.6	84.94
328.829	100.94
329.058	102.94
329.287	103.94
329.515	101.94
329.744	93.94
329.972	98.94
330.201	94.94
330.43	108.94
330.658	103.94
330.887	87.94
331.115	82.94
331.344	104.94
331.572	102.94
331.801	115.94
332.03	105.94
332.258	89.94
332.486	81.94
332.715	105.94
332.943	98.94
333.172	105.94
333.4	107.94
333.629	99.94
333.857	115.94
334.085	96.94
334.314	115.94
334.542	120.94
334.771	124.94
334.999	132.94
335.227	112.94
335.455	124.94
335.684	133.94
335.912	140.94
336.14	149.94
336.369	156.94
336.597	111.94
336.825	120.94
337.053	113.94
337.281	95.94
337.51	104.94
337.738	98.94
337.966	87.94
338.194	104.94
338.422	92.94
338.65	98.94
338.878	104.94
339.106	100.94
339.334	96.94
339.562	95.94
339.79	95.94
340.018	101.94
340.246	95.94
340.474	91.94
340.702	101.94
340.93	108.94
341.158	85.94
341.386	94.94
341.614	101.94
341.842	102.94
342.07	89.94
342.298	106.94
342.526	83.94
342.754	85.94
342.981	92.94
343.209	103.94
343.437	87.94
343.665	99.94
343.893	106.94
344.12	109.94
344.348	104.94
344.576	108.94
344.804	114.94
345.031	91.94
345.259	98.94
345.487	89.94
345.714	86.94
345.942	95.94
346.17	91.94
346.397	92.94
346.625	85.94
346.853	88.94
347.08	96.94
347.308	102.94
347.535	102.94
347.763	98.94
347.99	107.94
348.218	112.94
348.445	87.94
348.673	95.94
348.9	116.94
349.128	104.94
349.355	97.94
349.583	91.94
349.81	107.94
350.037	95.94
350.265	99.94
350.492	90.94
350.72	90.94
350.947	93.94
351.174	88.94
351.402	104.94
351.629	95.94
351.856	91.94
352.083	88.94
352.311	90.94
352.538	95.94
352.765	101.94
352.992	115.94
353.22	85.94
353.447	102.94
353.674	91.94
353.901	92.94
354.128	96.94
354.355	106.94
354.583	102.94
354.81	97.94
355.037	95.94
355.264	92.94
355.491	91.94
355.718	96.94
355.945	92.94
356.172	116.94
356.399	108.94
356.626	117.94
356.853	115.94
357.08	103.94
357.307	99.94
357.534	108.94
357.761	104.94
357.988	128.94
358.215	124.94
358.441	112.94
358.668	102.94
358.895	112.94
359.122	99.94
359.349	106.94
359.576	114.94
359.802	88.94
360.029	98.94
360.256	104.94
360.483	102.94
360.709	114.94
360.936	115.94
361.163	100.94
361.39	119.94
361.616	119.94
361.843	106.94
362.07	146.94
362.296	166.94
362.523	165.94
362.749	179.94
362.976	228.94
363.203	276.94
363.429	168.94
363.656	121.94
363.882	159.94
364.109	204.94
364.335	280.94
364.562	321.94
364.788	204.94
365.015	140.94
365.241	118.94
365.468	113.94
365.694	114.94
365.92	106.94
366.147	95.94
366.373	91.94
366.599	117.94
366.826	93.94
367.052	99.94
367.278	93.94
367.505	89.94
367.731	114.94
367.957	113.94
368.184	103.94
368.41	105.94
368.636	112.94
368.862	106.94
369.089	91.94
369.315	88.94
369.541	85.94
369.767	109.94
369.993	108.94
370.219	101.94
370.445	101.94
370.672	131.94
370.898	115.94
371.124	108.94
371.35	104.94
371.576	106.94
371.802	107.94
372.028	120.94
372.254	121.94
372.48	100.94
372.706	108.94
372.932	114.94
373.158	119.94
373.384	123.94
373.61	157.94
373.835	150.94
374.061	127.94
374.287	128.94
374.513	129.94
374.739	145.94
374.965	135.94
375.191	127.94
375.416	127.94
375.642	122.94
375.868	120.94
376.094	116.94
376.319	106.94
376.545	105.94
376.771	123.94
376.997	101.94
377.222	95.94
377.448	84.94
377.674	87.94
377.899	104.94
378.125	105.94
378.35	97.94
378.576	111.94
378.802	107.94
379.027	98.94
379.253	99.94
379.478	117.94
379.704	111.94
379.929	111.94
380.155	107.94
380.38	95.94
380.606	91.94
380.831	100.94
381.057	107.94
381.282	104.94
381.507	115.94
381.733	109.94
381.958	119.94
382.184	133.94
382.409	130.94
382.634	135.94
382.86	136.94
383.085	144.94
383.31	141.94
383.535	140.94
383.761	135.94
383.986	160.94
384.211	125.94
384.436	122.94
384.662	105.94
384.887	118.94
385.112	120.94
385.337	121.94
385.562	113.94
385.787	131.94
386.013	134.94
386.238	123.94
386.463	109.94
386.688	127.94
386.913	123.94
387.138	132.94
387.363	131.94
387.588	143.94
387.813	130.94
388.038	151.94
388.263	150.94
388.488	129.94
388.713	129.94
388.938	132.94
389.163	114.94
389.387	102.94
389.612	104.94
389.837	113.94
390.062	113.94
390.287	112.94
390.512	119.94
390.736	128.94
390.961	113.94
391.186	103.94
391.411	108.94
391.636	115.94
391.86	128.94
392.085	125.94
392.31	149.94
392.534	183.94
392.759	221.94
392.984	326.94
393.208	593.94
393.433	869.94
393.658	664.94
393.882	309.94
394.107	187.94
394.331	200.94
394.556	212.94
394.78	166.94
395.005	168.94
395.229	141.94
395.454	156.94
395.678	179.94
395.903	244.94
396.127	268.94
396.352	319.94
396.576	386.94
396.801	611.94
397.025	702.94
397.249	382.94
397.474	255.94
397.698	167.94
397.922	123.94
398.147	127.94
398.371	116.94
398.595	109.94
398.82	107.94
399.044	106.94
399.268	79.94
399.492	125.94
399.717	115.94
399.941	111.94
400.165	116.94
400.389	96.94
400.613	109.94
400.837	105.94
401.062	98.94
401.286	119.94
401.51	90.94
401.734	101.94
401.958	104.94
402.182	105.94
402.406	95.94
402.63	113.94
402.854	98.94
403.078	106.94
403.302	102.94
403.526	116.94
403.75	107.94
403.974	92.94
404.198	128.94
404.422	156.94
404.645	204.94
404.869	176.94
405.093	125.94
405.317	106.94
405.541	109.94
405.765	99.94
405.988	103.94
406.212	122.94
406.436	116.94
406.66	117.94
406.883	102.94
407.107	106.94
407.331	108.94
407.555	127.94
407.778	160.94
408.002	178.94
408.226	111.94
408.449	102.94
408.673	123.94
408.896	109.94
409.12	113.94
409.344	125.94
409.567	162.94
409.791	170.94
410.014	161.94
410.238	136.94
410.461	117.94
410.685	121.94
410.908	102.94
411.132	113.94
411.355	115.94
411.578	109.94
411.802	100.94
412.025	99.94
412.249	108.94
412.472	87.94
412.695	102.94
412.919	101.94
413.142	106.94
413.365	107.94
413.589	109.94
413.812	105.94
414.035	93.94
414.258	107.94
414.482	121.94
414.705	97.94
414.928	85.94
415.151	101.94
415.374	107.94
415.597	96.94
415.821	97.94
416.044	105.94
416.267	102.94
416.49	95.94
416.713	95.94
416.936	88.94
417.159	97.94
417.382	98.94
417.605	96.94
417.828	86.94
418.051	100.94
418.274	94.94
418.497	101.94
418.72	92.94
418.943	109.94
419.166	104.94
419.389	101.94
419.611	111.94
419.834	125.94
420.057	117.94
420.28	122.94
420.503	106.94
420.726	112.94
420.948	124.94
421.171	132.94
421.394	154.94
421.617	219.94
421.839	228.94
422.062	269.94
422.285	415.94
422.507	692.94
422.73	889.94
422.953	835.94
423.175	562.94
423.398	351.94
423.621	231.94
423.843	183.94
424.066	164.94
424.288	151.94
424.511	134.94
424.733	131.94
424.956	124.94
425.178	132.94
425.401	117.94
425.623	132.94
425.846	104.94
426.068	102.94
426.291	108.94
426.513	113.94
426.735	104.94
426.958	107.94
427.18	113.94
427.402	113.94
427.625	127.94
427.847	111.94
428.069	151.94
428.292	245.94
428.514	273.94
428.736	205.94
428.958	236.94
429.181	267.94
429.403	160.94
429.625	146.94
429.847	233.94
430.069	349.94
430.292	427.94
430.514	403.94
430.736	276.94
430.958	300.94
431.18	183.94
431.402	120.94
431.624	153.94
431.846	227.94
432.068	255.94
432.29	163.94
432.512	116.94
432.734	116.94
432.956	103.94
433.178	99.94
433.4	89.94
433.622	105.94
433.844	98.94
434.066	100.94
434.287	93.94
434.509	84.94
434.731	105.94
434.953	88.94
435.175	100.94
435.397	124.94
435.618	117.94
435.84	125.94
436.062	130.94
436.284	91.94
436.505	103.94
436.727	95.94
436.949	96.94
437.17	97.94
437.392	101.94
437.614	108.94
437.835	89.94
438.057	97.94
438.278	108.94
438.5	127.94
438.721	112.94
438.943	99.94
439.165	102.94
439.386	88.94
439.608	109.94
439.829	108.94
440.05	111.94
440.272	108.94
440.493	108.94
440.715	112.94
440.936	95.94
441.158	115.94
441.379	109.94
441.6	98.94
441.822	111.94
442.043	119.94
442.264	153.94
442.486	259.94
442.707	459.94
442.928	252.94
443.149	214.94
443.371	349.94
443.592	692.94
443.813	598.94
444.034	215.94
444.255	145.94
444.476	119.94
444.698	122.94
444.919	142.94
445.14	313.94
445.361	467.94
445.582	824.94
445.803	708.94
446.024	268.94
446.245	154.94
446.466	104.94
446.687	113.94
446.908	103.94
447.129	105.94
447.35	94.94
447.571	103.94
447.792	89.94
448.013	91.94
448.234	99.94
448.455	86.94
448.675	83.94
448.896	82.94
449.117	83.94
449.338	87.94
449.559	100.94
449.779	80.94
450	102.94
450.221	103.94
450.442	101.94
450.662	109.94
450.883	92.94
451.104	106.94
451.324	83.94
451.545	97.94
451.766	113.94
451.986	111.94
452.207	110.94
452.428	115.94
452.648	139.94
452.869	156.94
453.089	146.94
453.31	117.94
453.53	122.94
453.751	143.94
453.971	89.94
454.192	103.94
454.412	101.94
454.633	100.94
454.853	83.94
455.073	103.94
455.294	103.94
455.514	117.94
455.734	111.94
455.955	105.94
456.175	99.94
456.395	106.94
456.616	84.94
456.836	80.94
457.056	99.94
457.276	86.94
457.497	109.94
457.717	150.94
457.937	200.94
458.157	275.94
458.377	311.94
458.598	275.94
458.818	323.94
459.038	179.94
459.258	108.94
459.478	104.94
459.698	109.94
459.918	103.94
460.138	97.94
460.358	94.94
460.578	125.94
460.798	205.94
461.018	184.94
461.238	112.94
461.458	103.94
461.678	107.94
461.898	108.94
462.118	97.94
462.338	101.94
462.558	93.94
462.777	81.94
462.997	89.94
463.217	85.94
463.437	94.94
463.657	98.94
463.876	97.94
464.096	86.94
464.316	90.94
464.536	91.94
464.755	94.94
464.975	92.94
465.195	85.94
465.414	88.94
465.634	92.94
465.854	88.94
466.073	89.94
466.293	87.94
466.512	95.94
466.732	87.94
466.951	93.94
467.171	95.94
467.391	89.94
467.61	108.94
467.829	83.94
468.049	94.94
468.268	110.94
468.488	121.94
468.707	108.94
468.927	113.94
469.146	113.94
469.365	87.94
469.585	98.94
469.804	84.94
470.023	88.94
470.243	111.94
470.462	107.94
470.681	99.94
470.901	97.94
471.12	104.94
471.339	108.94
471.558	91.94
471.777	78.94
471.997	83.94
472.216	113.94
472.435	97.94
472.654	93.94
472.873	104.94
473.092	83.94
473.311	86.94
473.53	98.94
473.749	87.94
473.968	111.94
474.187	115.94
474.406	108.94
474.625	93.94
474.844	89.94
475.063	92.94
475.282	95.94
475.501	115.94
475.72	102.94
475.939	101.94
476.158	91.94
476.377	90.94
476.596	98.94
476.814	88.94
477.033	103.94
477.252	91.94
477.471	97.94
477.69	95.94
477.908	84.94
478.127	105.94
478.346	121.94
478.564	100.94
478.783	108.94
479.002	90.94
479.22	77.94
479.439	100.94
479.658	79.94
479.876	81.94
480.095	97.94
480.313	108.94
480.532	114.94
480.751	99.94
480.969	116.94
481.188	107.94
481.406	118.94
481.624	105.94
481.843	100.94
482.061	111.94
482.28	99.94
482.498	103.94
482.717	103.94
482.935	107.94
483.153	91.94
483.372	106.94
483.59	123.94
483.808	120.94
484.027	112.94
484.245	107.94
484.463	104.94
484.681	129.94
484.9	108.94
485.118	115.94
485.336	101.94
485.554	103.94
485.772	113.94
485.99	111.94
486.209	119.94
486.427	100.94
486.645	97.94
486.863	99.94
487.081	124.94
487.299	136.94
487.517	162.94
487.735	232.94
487.953	473.94
488.171	403.94
488.389	172.94
488.607	129.94
488.825	116.94
489.043	98.94
489.261	119.94
489.479	111.94
489.696	92.94
489.914	92.94
490.132	90.94
490.35	107.94
490.568	110.94
490.786	119.94
491.003	104.94
491.221	100.94
491.439	88.94
491.657	111.94
491.874	117.94
492.092	113.94
492.31	117.94
492.527	101.94
492.745	96.94
492.963	99.94
493.18	121.94
493.398	111.94
493.615	131.94
493.833	124.94
494.05	104.94
494.268	113.94
494.485	83.94
494.703	80.94
494.92	99.94
495.138	104.94
495.355	107.94
495.573	113.94
495.79	107.94
496.008	128.94
496.225	113.94
496.442	106.94
496.66	97.94
496.877	104.94
497.094	111.94
497.312	116.94
497.529	105.94
497.746	103.94
497.963	121.94
498.181	117.94
498.398	143.94
498.615	118.94
498.832	130.94
499.049	127.94
499.267	134.94
499.484	112.94
499.701	106.94
499.918	116.94
500.135	129.94
500.352	121.94
500.569	106.94
500.786	108.94
501.003	117.94
501.22	117.94
501.437	125.94
501.654	132.94
501.871	101.94
502.088	109.94
502.305	104.94
502.522	104.94
502.739	103.94
502.956	102.94
503.172	112.94
503.389	92.94
503.606	116.94
503.823	135.94
504.04	163.94
504.256	294.94
504.473	344.94
504.69	181.94
504.907	123.94
505.123	115.94
505.34	96.94
505.557	96.94
505.773	106.94
505.99	97.94
506.207	113.94
506.423	88.94
506.64	117.94
506.856	120.94
507.073	119.94
507.289	107.94
507.506	101.94
507.722	92.94
507.939	113.94
508.155	98.94
508.372	111.94
508.588	97.94
508.805	93.94
509.021	87.94
509.238	103.94
509.454	86.94
509.67	97.94
509.887	111.94
510.103	102.94
510.319	109.94
510.536	106.94
510.752	101.94
