Data from 10100_3_HRD10591_00040.txt Node
Date: Mon Jan 19 14:02:42 EST 2026
User: Yrep
Spectrometer: HR+D1059
Trigger mode: 1
Integration Time (sec): 1.000000E-1
Scans to average: 1
Electric dark correction enabled: true
Nonlinearity correction enabled: false
Boxcar width: 0
XAxis mode: Wavelengths
Number of Pixels in Spectrum: 2048
>>>>>Begin Spectral Data<<<<<
223.165	-37.06
223.4	-37.06
223.635	-37.06
223.869	-13.06
224.104	-25.06
224.338	-7.06
224.573	-9.06
224.808	-10.06
225.042	-18.06
225.277	-8.06
225.511	2.94
225.746	-1.06
225.98	9.94
226.215	15.94
226.449	8.94
226.683	27.94
226.918	25.94
227.152	36.94
227.387	37.94
227.621	39.94
227.856	39.94
228.09	31.94
228.324	40.94
228.559	57.94
228.793	67.94
229.027	53.94
229.262	70.94
229.496	68.94
229.73	70.94
229.964	73.94
230.199	67.94
230.433	69.94
230.667	86.94
230.901	78.94
231.136	72.94
231.37	74.94
231.604	86.94
231.838	93.94
232.072	88.94
232.306	84.94
232.541	75.94
232.775	86.94
233.009	73.94
233.243	72.94
233.477	76.94
233.711	81.94
233.945	78.94
234.179	73.94
234.413	80.94
234.647	88.94
234.881	84.94
235.115	91.94
235.349	75.94
235.583	74.94
235.817	63.94
236.051	82.94
236.285	82.94
236.519	81.94
236.753	68.94
236.987	69.94
237.221	84.94
237.455	78.94
237.689	76.94
237.922	75.94
238.156	85.94
238.39	94.94
238.624	88.94
238.858	74.94
239.091	70.94
239.325	74.94
239.559	64.94
239.793	80.94
240.027	76.94
240.26	74.94
240.494	64.94
240.728	69.94
240.961	80.94
241.195	62.94
241.429	76.94
241.662	72.94
241.896	98.94
242.13	71.94
242.363	72.94
242.597	78.94
242.83	76.94
243.064	73.94
243.298	84.94
243.531	72.94
243.765	72.94
243.998	75.94
244.232	92.94
244.465	79.94
244.699	86.94
244.932	80.94
245.166	74.94
245.399	68.94
245.633	77.94
245.866	82.94
246.099	68.94
246.333	66.94
246.566	77.94
246.8	86.94
247.033	95.94
247.266	66.94
247.5	76.94
247.733	82.94
247.966	74.94
248.2	84.94
248.433	72.94
248.666	88.94
248.899	73.94
249.133	80.94
249.366	84.94
249.599	78.94
249.832	85.94
250.066	74.94
250.299	72.94
250.532	66.94
250.765	74.94
250.998	74.94
251.231	78.94
251.465	83.94
251.698	72.94
251.931	79.94
252.164	72.94
252.397	78.94
252.63	78.94
252.863	81.94
253.096	80.94
253.329	75.94
253.562	84.94
253.795	73.94
254.028	76.94
254.261	78.94
254.494	80.94
254.727	88.94
254.96	92.94
255.193	89.94
255.426	82.94
255.659	87.94
255.892	78.94
256.124	92.94
256.357	79.94
256.59	84.94
256.823	80.94
257.056	84.94
257.289	88.94
257.521	71.94
257.754	79.94
257.987	78.94
258.22	85.94
258.452	85.94
258.685	79.94
258.918	74.94
259.151	76.94
259.383	78.94
259.616	82.94
259.849	81.94
260.081	77.94
260.314	77.94
260.547	74.94
260.779	82.94
261.012	79.94
261.244	60.94
261.477	90.94
261.71	66.94
261.942	86.94
262.175	69.94
262.407	73.94
262.64	69.94
262.872	90.94
263.105	90.94
263.337	89.94
263.57	77.94
263.802	80.94
264.035	89.94
264.267	87.94
264.499	80.94
264.732	71.94
264.964	90.94
265.197	78.94
265.429	81.94
265.661	81.94
265.894	78.94
266.126	82.94
266.358	77.94
266.591	96.94
266.823	84.94
267.055	74.94
267.287	92.94
267.52	93.94
267.752	79.94
267.984	79.94
268.216	85.94
268.448	90.94
268.681	82.94
268.913	89.94
269.145	77.94
269.377	81.94
269.609	91.94
269.841	85.94
270.073	86.94
270.306	88.94
270.538	97.94
270.77	96.94
271.002	71.94
271.234	82.94
271.466	86.94
271.698	83.94
271.93	81.94
272.162	85.94
272.394	97.94
272.626	71.94
272.858	72.94
273.09	78.94
273.322	98.94
273.553	82.94
273.785	77.94
274.017	84.94
274.249	88.94
274.481	85.94
274.713	98.94
274.945	94.94
275.176	82.94
275.408	89.94
275.64	67.94
275.872	87.94
276.104	90.94
276.335	102.94
276.567	92.94
276.799	75.94
277.031	88.94
277.262	92.94
277.494	82.94
277.726	69.94
277.957	80.94
278.189	91.94
278.421	90.94
278.652	72.94
278.884	81.94
279.115	85.94
279.347	93.94
279.579	78.94
279.81	79.94
280.042	95.94
280.273	86.94
280.505	90.94
280.736	76.94
280.968	99.94
281.199	78.94
281.431	83.94
281.662	90.94
281.894	86.94
282.125	85.94
282.356	76.94
282.588	74.94
282.819	84.94
283.051	90.94
283.282	71.94
283.513	96.94
283.745	92.94
283.976	69.94
284.207	85.94
284.439	85.94
284.67	92.94
284.901	82.94
285.132	84.94
285.364	87.94
285.595	82.94
285.826	92.94
286.057	82.94
286.288	83.94
286.52	96.94
286.751	87.94
286.982	85.94
287.213	89.94
287.444	85.94
287.675	74.94
287.906	88.94
288.138	90.94
288.369	77.94
288.6	83.94
288.831	89.94
289.062	88.94
289.293	86.94
289.524	85.94
289.755	87.94
289.986	80.94
290.217	82.94
290.448	77.94
290.679	80.94
290.91	80.94
291.141	91.94
291.371	80.94
291.602	88.94
291.833	80.94
292.064	83.94
292.295	76.94
292.526	68.94
292.757	71.94
292.987	80.94
293.218	94.94
293.449	82.94
293.68	83.94
293.91	82.94
294.141	86.94
294.372	84.94
294.603	88.94
294.833	81.94
295.064	85.94
295.295	76.94
295.525	86.94
295.756	90.94
295.987	89.94
296.217	81.94
296.448	84.94
296.679	74.94
296.909	86.94
297.14	100.94
297.37	80.94
297.601	84.94
297.831	80.94
298.062	99.94
298.292	101.94
298.523	83.94
298.753	85.94
298.984	79.94
299.214	89.94
299.445	90.94
299.675	90.94
299.905	74.94
300.136	93.94
300.366	84.94
300.597	88.94
300.827	71.94
301.057	69.94
301.288	88.94
301.518	80.94
301.748	84.94
301.979	88.94
302.209	88.94
302.439	93.94
302.669	87.94
302.9	100.94
303.13	87.94
303.36	74.94
303.59	84.94
303.82	80.94
304.051	84.94
304.281	95.94
304.511	74.94
304.741	80.94
304.971	74.94
305.201	93.94
305.431	74.94
305.661	82.94
305.891	87.94
306.121	89.94
306.352	95.94
306.582	72.94
306.812	72.94
307.042	90.94
307.272	74.94
307.502	82.94
307.731	89.94
307.961	102.94
308.191	82.94
308.421	90.94
308.651	85.94
308.881	84.94
309.111	85.94
309.341	82.94
309.571	84.94
309.8	84.94
310.03	81.94
310.26	86.94
310.49	78.94
310.72	85.94
310.949	88.94
311.179	70.94
311.409	80.94
311.639	105.94
311.868	89.94
312.098	85.94
312.328	84.94
312.557	82.94
312.787	81.94
313.017	96.94
313.246	84.94
313.476	96.94
313.706	77.94
313.935	74.94
314.165	74.94
314.394	93.94
314.624	84.94
314.853	90.94
315.083	89.94
315.312	75.94
315.542	88.94
315.771	95.94
316.001	72.94
316.23	79.94
316.46	87.94
316.689	85.94
316.919	82.94
317.148	90.94
317.377	88.94
317.607	100.94
317.836	91.94
318.065	82.94
318.295	92.94
318.524	88.94
318.753	93.94
318.983	76.94
319.212	96.94
319.441	80.94
319.67	82.94
319.9	69.94
320.129	81.94
320.358	86.94
320.587	71.94
320.816	85.94
321.046	87.94
321.275	80.94
321.504	83.94
321.733	88.94
321.962	77.94
322.191	88.94
322.42	59.94
322.649	94.94
322.878	84.94
323.108	84.94
323.337	96.94
323.566	76.94
323.795	82.94
324.024	78.94
324.253	91.94
324.482	87.94
324.71	78.94
324.939	77.94
325.168	80.94
325.397	92.94
325.626	83.94
325.855	76.94
326.084	89.94
326.313	76.94
326.542	68.94
326.77	80.94
326.999	81.94
327.228	72.94
327.457	94.94
327.686	89.94
327.914	86.94
328.143	77.94
328.372	86.94
328.6	70.94
328.829	89.94
329.058	79.94
329.287	73.94
329.515	77.94
329.744	88.94
329.972	82.94
330.201	76.94
330.43	83.94
330.658	90.94
330.887	92.94
331.115	80.94
331.344	84.94
331.572	87.94
331.801	96.94
332.03	97.94
332.258	94.94
332.486	75.94
332.715	74.94
332.943	86.94
333.172	97.94
333.4	86.94
333.629	79.94
333.857	77.94
334.085	82.94
334.314	87.94
334.542	89.94
334.771	89.94
334.999	91.94
335.227	81.94
335.455	85.94
335.684	89.94
335.912	92.94
336.14	80.94
336.369	86.94
336.597	96.94
336.825	73.94
337.053	91.94
337.281	100.94
337.51	69.94
337.738	77.94
337.966	80.94
338.194	88.94
338.422	96.94
338.65	77.94
338.878	78.94
339.106	74.94
339.334	80.94
339.562	84.94
339.79	84.94
340.018	86.94
340.246	85.94
340.474	85.94
340.702	83.94
340.93	86.94
341.158	89.94
341.386	86.94
341.614	92.94
341.842	86.94
342.07	78.94
342.298	98.94
342.526	91.94
342.754	74.94
342.981	91.94
343.209	76.94
343.437	84.94
343.665	89.94
343.893	84.94
344.12	76.94
344.348	80.94
344.576	91.94
344.804	80.94
345.031	89.94
345.259	84.94
345.487	78.94
345.714	91.94
345.942	76.94
346.17	76.94
346.397	74.94
346.625	86.94
346.853	62.94
347.08	99.94
347.308	95.94
347.535	81.94
347.763	73.94
347.99	84.94
348.218	74.94
348.445	85.94
348.673	78.94
348.9	80.94
349.128	83.94
349.355	80.94
349.583	89.94
349.81	96.94
350.037	76.94
350.265	85.94
350.492	73.94
350.72	86.94
350.947	95.94
351.174	80.94
351.402	76.94
351.629	78.94
351.856	81.94
352.083	83.94
352.311	81.94
352.538	80.94
352.765	84.94
352.992	100.94
353.22	85.94
353.447	84.94
353.674	83.94
353.901	82.94
354.128	83.94
354.355	80.94
354.583	89.94
354.81	82.94
355.037	80.94
355.264	72.94
355.491	83.94
355.718	81.94
355.945	88.94
356.172	90.94
356.399	86.94
356.626	80.94
356.853	86.94
357.08	75.94
357.307	87.94
357.534	70.94
357.761	74.94
357.988	86.94
358.215	90.94
358.441	84.94
358.668	96.94
358.895	93.94
359.122	102.94
359.349	86.94
359.576	81.94
359.802	80.94
360.029	95.94
360.256	75.94
360.483	83.94
360.709	86.94
360.936	84.94
361.163	83.94
361.39	81.94
361.616	79.94
361.843	85.94
362.07	88.94
362.296	79.94
362.523	104.94
362.749	87.94
362.976	106.94
363.203	98.94
363.429	100.94
363.656	92.94
363.882	83.94
364.109	91.94
364.335	99.94
364.562	93.94
364.788	92.94
365.015	85.94
365.241	75.94
365.468	92.94
365.694	81.94
365.92	78.94
366.147	88.94
366.373	85.94
366.599	101.94
366.826	105.94
367.052	70.94
367.278	80.94
367.505	80.94
367.731	93.94
367.957	82.94
368.184	96.94
368.41	81.94
368.636	92.94
368.862	86.94
369.089	74.94
369.315	76.94
369.541	103.94
369.767	78.94
369.993	93.94
370.219	73.94
370.445	83.94
370.672	85.94
370.898	96.94
371.124	73.94
371.35	76.94
371.576	82.94
371.802	76.94
372.028	88.94
372.254	86.94
372.48	93.94
372.706	89.94
372.932	80.94
373.158	74.94
373.384	85.94
373.61	92.94
373.835	91.94
374.061	88.94
374.287	91.94
374.513	93.94
374.739	86.94
374.965	97.94
375.191	83.94
375.416	74.94
375.642	87.94
375.868	91.94
376.094	89.94
376.319	86.94
376.545	90.94
376.771	89.94
376.997	86.94
377.222	88.94
377.448	88.94
377.674	80.94
377.899	89.94
378.125	80.94
378.35	69.94
378.576	78.94
378.802	82.94
379.027	89.94
379.253	84.94
379.478	85.94
379.704	96.94
379.929	80.94
380.155	75.94
380.38	88.94
380.606	75.94
380.831	85.94
381.057	89.94
381.282	93.94
381.507	82.94
381.733	78.94
381.958	83.94
382.184	79.94
382.409	82.94
382.634	89.94
382.86	92.94
383.085	101.94
383.31	81.94
383.535	89.94
383.761	92.94
383.986	78.94
384.211	78.94
384.436	93.94
384.662	91.94
384.887	90.94
385.112	84.94
385.337	83.94
385.562	108.94
385.787	102.94
386.013	79.94
386.238	88.94
386.463	84.94
386.688	93.94
386.913	81.94
387.138	86.94
387.363	86.94
387.588	95.94
387.813	84.94
388.038	72.94
388.263	94.94
388.488	96.94
388.713	80.94
388.938	87.94
389.163	88.94
389.387	80.94
389.612	94.94
389.837	90.94
390.062	87.94
390.287	72.94
390.512	79.94
390.736	85.94
390.961	70.94
391.186	83.94
391.411	94.94
391.636	76.94
391.86	82.94
392.085	85.94
392.31	80.94
392.534	86.94
392.759	107.94
392.984	118.94
393.208	154.94
393.433	218.94
393.658	178.94
393.882	116.94
394.107	92.94
394.331	94.94
394.556	82.94
394.78	82.94
395.005	88.94
395.229	88.94
395.454	97.94
395.678	81.94
395.903	93.94
396.127	94.94
396.352	100.94
396.576	118.94
396.801	164.94
397.025	188.94
397.249	132.94
397.474	94.94
397.698	93.94
397.922	98.94
398.147	90.94
398.371	79.94
398.595	76.94
398.82	76.94
399.044	79.94
399.268	86.94
399.492	85.94
399.717	84.94
399.941	91.94
400.165	96.94
400.389	76.94
400.613	79.94
400.837	74.94
401.062	66.94
401.286	84.94
401.51	68.94
401.734	90.94
401.958	80.94
402.182	81.94
402.406	84.94
402.63	87.94
402.854	90.94
403.078	84.94
403.302	76.94
403.526	88.94
403.75	90.94
403.974	89.94
404.198	90.94
404.422	88.94
404.645	77.94
404.869	82.94
405.093	90.94
405.317	84.94
405.541	74.94
405.765	101.94
405.988	86.94
406.212	74.94
406.436	74.94
406.66	78.94
406.883	76.94
407.107	62.94
407.331	83.94
407.555	93.94
407.778	96.94
408.002	94.94
408.226	80.94
408.449	90.94
408.673	82.94
408.896	71.94
409.12	93.94
409.344	78.94
409.567	100.94
409.791	111.94
410.014	88.94
410.238	93.94
410.461	78.94
410.685	84.94
410.908	84.94
411.132	91.94
411.355	86.94
411.578	80.94
411.802	88.94
412.025	78.94
412.249	90.94
412.472	80.94
412.695	62.94
412.919	72.94
413.142	80.94
413.365	82.94
413.589	77.94
413.812	82.94
414.035	80.94
414.258	89.94
414.482	81.94
414.705	73.94
414.928	86.94
415.151	76.94
415.374	75.94
415.597	84.94
415.821	74.94
416.044	73.94
416.267	78.94
416.49	94.94
416.713	68.94
416.936	87.94
417.159	86.94
417.382	88.94
417.605	72.94
417.828	99.94
418.051	85.94
418.274	91.94
418.497	71.94
418.72	77.94
418.943	76.94
419.166	89.94
419.389	75.94
419.611	80.94
419.834	84.94
420.057	78.94
420.28	83.94
420.503	91.94
420.726	75.94
420.948	79.94
421.171	84.94
421.394	102.94
421.617	97.94
421.839	95.94
422.062	94.94
422.285	112.94
422.507	174.94
422.73	255.94
422.953	226.94
423.175	130.94
423.398	102.94
423.621	106.94
423.843	85.94
424.066	91.94
424.288	96.94
424.511	90.94
424.733	75.94
424.956	92.94
425.178	81.94
425.401	90.94
425.623	81.94
425.846	79.94
426.068	77.94
426.291	80.94
426.513	77.94
426.735	77.94
426.958	86.94
427.18	85.94
427.402	77.94
427.625	101.94
427.847	96.94
428.069	96.94
428.292	94.94
428.514	110.94
428.736	81.94
428.958	105.94
429.181	114.94
429.403	93.94
429.625	99.94
429.847	100.94
430.069	126.94
430.292	140.94
430.514	122.94
430.736	97.94
430.958	112.94
431.18	103.94
431.402	88.94
431.624	76.94
431.846	103.94
432.068	113.94
432.29	97.94
432.512	91.94
432.734	80.94
432.956	74.94
433.178	89.94
433.4	84.94
433.622	93.94
433.844	80.94
434.066	81.94
434.287	85.94
434.509	94.94
434.731	71.94
434.953	84.94
435.175	94.94
435.397	83.94
435.618	78.94
435.84	89.94
436.062	89.94
436.284	100.94
436.505	74.94
436.727	78.94
436.949	84.94
437.17	73.94
437.392	74.94
437.614	86.94
437.835	95.94
438.057	77.94
438.278	79.94
438.5	94.94
438.721	95.94
438.943	93.94
439.165	90.94
439.386	84.94
439.608	75.94
439.829	83.94
440.05	90.94
440.272	93.94
440.493	84.94
440.715	86.94
440.936	89.94
441.158	93.94
441.379	80.94
441.6	96.94
441.822	73.94
442.043	74.94
442.264	90.94
442.486	105.94
442.707	102.94
442.928	118.94
443.149	92.94
443.371	108.94
443.592	157.94
443.813	116.94
444.034	73.94
444.255	74.94
444.476	75.94
444.698	69.94
444.919	81.94
445.14	151.94
445.361	154.94
445.582	178.94
445.803	152.94
446.024	96.94
446.245	94.94
446.466	89.94
446.687	84.94
446.908	95.94
447.129	86.94
447.35	81.94
447.571	88.94
447.792	70.94
448.013	87.94
448.234	80.94
448.455	75.94
448.675	92.94
448.896	68.94
449.117	87.94
449.338	72.94
449.559	93.94
449.779	89.94
450	90.94
450.221	85.94
450.442	79.94
450.662	80.94
450.883	80.94
451.104	56.94
451.324	75.94
451.545	81.94
451.766	87.94
451.986	72.94
452.207	93.94
452.428	83.94
452.648	79.94
452.869	92.94
453.089	68.94
453.31	75.94
453.53	88.94
453.751	72.94
453.971	76.94
454.192	86.94
454.412	84.94
454.633	82.94
454.853	69.94
455.073	89.94
455.294	80.94
455.514	76.94
455.734	74.94
455.955	77.94
456.175	79.94
456.395	77.94
456.616	83.94
456.836	82.94
457.056	82.94
457.276	82.94
457.497	90.94
457.717	91.94
457.937	92.94
458.157	90.94
458.377	95.94
458.598	105.94
458.818	98.94
459.038	71.94
459.258	72.94
459.478	63.94
459.698	85.94
459.918	82.94
460.138	81.94
460.358	78.94
460.578	91.94
460.798	96.94
461.018	85.94
461.238	88.94
461.458	80.94
461.678	72.94
461.898	79.94
462.118	86.94
462.338	57.94
462.558	98.94
462.777	86.94
462.997	77.94
463.217	81.94
463.437	93.94
463.657	82.94
463.876	78.94
464.096	75.94
464.316	75.94
464.536	85.94
464.755	81.94
464.975	78.94
465.195	75.94
465.414	92.94
465.634	91.94
465.854	72.94
466.073	80.94
466.293	93.94
466.512	69.94
466.732	86.94
466.951	73.94
467.171	72.94
467.391	94.94
467.61	80.94
467.829	101.94
468.049	83.94
468.268	81.94
468.488	96.94
468.707	80.94
468.927	95.94
469.146	89.94
469.365	72.94
469.585	82.94
469.804	77.94
470.023	75.94
470.243	81.94
470.462	94.94
470.681	69.94
470.901	80.94
471.12	85.94
471.339	88.94
471.558	90.94
471.777	83.94
471.997	86.94
472.216	77.94
472.435	81.94
472.654	81.94
472.873	80.94
473.092	86.94
473.311	96.94
473.53	84.94
473.749	92.94
473.968	85.94
474.187	81.94
474.406	88.94
474.625	91.94
474.844	80.94
475.063	66.94
475.282	74.94
475.501	78.94
475.72	72.94
475.939	90.94
476.158	77.94
476.377	77.94
476.596	81.94
476.814	88.94
477.033	85.94
477.252	70.94
477.471	87.94
477.69	90.94
477.908	92.94
478.127	88.94
478.346	81.94
478.564	83.94
478.783	95.94
479.002	76.94
479.22	80.94
479.439	96.94
479.658	85.94
479.876	72.94
480.095	86.94
480.313	88.94
480.532	95.94
480.751	74.94
480.969	74.94
481.188	79.94
481.406	72.94
481.624	77.94
481.843	80.94
482.061	84.94
482.28	80.94
482.498	82.94
482.717	91.94
482.935	83.94
483.153	93.94
483.372	80.94
483.59	86.94
483.808	88.94
484.027	83.94
484.245	88.94
484.463	103.94
484.681	88.94
484.9	86.94
485.118	97.94
485.336	89.94
485.554	80.94
485.772	81.94
485.99	77.94
486.209	93.94
486.427	86.94
486.645	80.94
486.863	97.94
487.081	83.94
487.299	86.94
487.517	91.94
487.735	98.94
487.953	116.94
488.171	88.94
488.389	73.94
488.607	88.94
488.825	78.94
489.043	94.94
489.261	83.94
489.479	87.94
489.696	87.94
489.914	96.94
490.132	88.94
490.35	71.94
490.568	92.94
490.786	101.94
491.003	82.94
491.221	94.94
491.439	84.94
491.657	79.94
491.874	96.94
492.092	92.94
492.31	79.94
492.527	91.94
492.745	78.94
492.963	97.94
493.18	85.94
493.398	84.94
493.615	86.94
493.833	72.94
494.05	91.94
494.268	77.94
494.485	89.94
494.703	92.94
494.92	73.94
495.138	89.94
495.355	90.94
495.573	90.94
495.79	78.94
496.008	83.94
496.225	95.94
496.442	92.94
496.66	95.94
496.877	87.94
497.094	82.94
497.312	96.94
497.529	74.94
497.746	101.94
497.963	76.94
498.181	82.94
498.398	89.94
498.615	103.94
498.832	84.94
499.049	76.94
499.267	80.94
499.484	76.94
499.701	72.94
499.918	84.94
500.135	68.94
500.352	78.94
500.569	81.94
500.786	79.94
501.003	76.94
501.22	78.94
501.437	87.94
501.654	95.94
501.871	78.94
502.088	77.94
502.305	79.94
502.522	84.94
502.739	87.94
502.956	84.94
503.172	78.94
503.389	87.94
503.606	81.94
503.823	87.94
504.04	83.94
504.256	96.94
504.473	108.94
504.69	91.94
504.907	90.94
505.123	78.94
505.34	85.94
505.557	80.94
505.773	80.94
505.99	106.94
506.207	92.94
506.423	104.94
506.64	79.94
506.856	90.94
507.073	76.94
507.289	70.94
507.506	91.94
507.722	94.94
507.939	83.94
508.155	93.94
508.372	83.94
508.588	81.94
508.805	88.94
509.021	81.94
509.238	91.94
509.454	89.94
509.67	75.94
509.887	74.94
510.103	96.94
510.319	90.94
510.536	89.94
510.752	93.94
510.968	88.94
511.184	85.94
511.401	88.94
511.617	81.94
511.833	70.94
512.049	88.94
512.265	92.94
512.481	76.94
512.698	97.94
512.914	92.94
513.13	81.94
513.346	78.94
513.562	84.94
513.778	74.94
513.994	85.94
514.21	64.94
514.426	86.94
514.642	84.94
514.858	73.94
515.074	84.94
515.29	79.94
515.506	84.94
515.721	95.94
515.937	88.94
516.153	84.94
516.369	89.94
516.585	82.94
516.801	85.94
517.016	93.94
517.232	84.94
517.448	86.94
517.664	86.94
517.879	102.94
518.095	85.94
518.311	90.94
518.527	102.94
518.742	88.94
518.958	110.94
519.173	113.94
