Data from 10100_3_HRD10591_00044.txt Node
Date: Mon Jan 19 14:02:44 EST 2026
User: Yrep
Spectrometer: HR+D1059
Trigger mode: 1
Integration Time (sec): 1.000000E-1
Scans to average: 1
Electric dark correction enabled: true
Nonlinearity correction enabled: false
Boxcar width: 0
XAxis mode: Wavelengths
Number of Pixels in Spectrum: 2048
>>>>>Begin Spectral Data<<<<<
223.165	-21.19
223.4	-21.19
223.635	-21.19
223.869	-15.19
224.104	-16.19
224.338	-17.19
224.573	-1.19
224.808	-9.19
225.042	-11.19
225.277	-8.19
225.511	-7.19
225.746	10.81
225.98	13.81
226.215	18.81
226.449	13.81
226.683	1.81
226.918	22.81
227.152	24.81
227.387	33.81
227.621	35.81
227.856	56.81
228.09	54.81
228.324	51.81
228.559	38.81
228.793	61.81
229.027	57.81
229.262	64.81
229.496	73.81
229.73	74.81
229.964	79.81
230.199	84.81
230.433	71.81
230.667	79.81
230.901	72.81
231.136	66.81
231.37	74.81
231.604	81.81
231.838	78.81
232.072	90.81
232.306	87.81
232.541	82.81
232.775	70.81
233.009	93.81
233.243	92.81
233.477	80.81
233.711	70.81
233.945	85.81
234.179	70.81
234.413	80.81
234.647	77.81
234.881	73.81
235.115	69.81
235.349	62.81
235.583	67.81
235.817	62.81
236.051	72.81
236.285	75.81
236.519	69.81
236.753	72.81
236.987	68.81
237.221	59.81
237.455	77.81
237.689	83.81
237.922	79.81
238.156	68.81
238.39	65.81
238.624	64.81
238.858	84.81
239.091	83.81
239.325	81.81
239.559	79.81
239.793	69.81
240.027	74.81
240.26	79.81
240.494	75.81
240.728	76.81
240.961	72.81
241.195	88.81
241.429	68.81
241.662	79.81
241.896	71.81
242.13	73.81
242.363	74.81
242.597	89.81
242.83	80.81
243.064	59.81
243.298	71.81
243.531	68.81
243.765	83.81
243.998	71.81
244.232	75.81
244.465	77.81
244.699	82.81
244.932	67.81
245.166	84.81
245.399	93.81
245.633	88.81
245.866	78.81
246.099	67.81
246.333	73.81
246.566	67.81
246.8	73.81
247.033	81.81
247.266	80.81
247.5	66.81
247.733	70.81
247.966	63.81
248.2	56.81
248.433	75.81
248.666	89.81
248.899	79.81
249.133	65.81
249.366	79.81
249.599	90.81
249.832	76.81
250.066	65.81
250.299	82.81
250.532	87.81
250.765	93.81
250.998	74.81
251.231	83.81
251.465	83.81
251.698	68.81
251.931	83.81
252.164	87.81
252.397	70.81
252.63	71.81
252.863	77.81
253.096	86.81
253.329	82.81
253.562	80.81
253.795	61.81
254.028	93.81
254.261	94.81
254.494	91.81
254.727	104.81
254.96	69.81
255.193	88.81
255.426	83.81
255.659	74.81
255.892	73.81
256.124	97.81
256.357	76.81
256.59	77.81
256.823	62.81
257.056	83.81
257.289	89.81
257.521	89.81
257.754	80.81
257.987	78.81
258.22	78.81
258.452	81.81
258.685	79.81
258.918	85.81
259.151	64.81
259.383	93.81
259.616	87.81
259.849	93.81
260.081	79.81
260.314	89.81
260.547	64.81
260.779	84.81
261.012	79.81
261.244	77.81
261.477	89.81
261.71	79.81
261.942	65.81
262.175	76.81
262.407	79.81
262.64	75.81
262.872	81.81
263.105	76.81
263.337	75.81
263.57	75.81
263.802	79.81
264.035	79.81
264.267	73.81
264.499	79.81
264.732	75.81
264.964	78.81
265.197	82.81
265.429	72.81
265.661	79.81
265.894	75.81
266.126	94.81
266.358	82.81
266.591	89.81
266.823	81.81
267.055	77.81
267.287	83.81
267.52	83.81
267.752	81.81
267.984	90.81
268.216	83.81
268.448	71.81
268.681	83.81
268.913	67.81
269.145	75.81
269.377	74.81
269.609	78.81
269.841	83.81
270.073	73.81
270.306	61.81
270.538	79.81
270.77	80.81
271.002	88.81
271.234	86.81
271.466	81.81
271.698	70.81
271.93	77.81
272.162	79.81
272.394	74.81
272.626	83.81
272.858	84.81
273.09	65.81
273.322	90.81
273.553	81.81
273.785	78.81
274.017	86.81
274.249	73.81
274.481	87.81
274.713	80.81
274.945	86.81
275.176	75.81
275.408	85.81
275.64	87.81
275.872	69.81
276.104	91.81
276.335	81.81
276.567	81.81
276.799	76.81
277.031	84.81
277.262	83.81
277.494	85.81
277.726	89.81
277.957	80.81
278.189	79.81
278.421	86.81
278.652	88.81
278.884	73.81
279.115	86.81
279.347	84.81
279.579	87.81
279.81	72.81
280.042	77.81
280.273	83.81
280.505	79.81
280.736	93.81
280.968	89.81
281.199	75.81
281.431	78.81
281.662	77.81
281.894	72.81
282.125	79.81
282.356	77.81
282.588	88.81
282.819	103.81
283.051	87.81
283.282	79.81
283.513	78.81
283.745	87.81
283.976	91.81
284.207	82.81
284.439	85.81
284.67	84.81
284.901	80.81
285.132	84.81
285.364	82.81
285.595	79.81
285.826	91.81
286.057	81.81
286.288	76.81
286.52	86.81
286.751	87.81
286.982	75.81
287.213	89.81
287.444	90.81
287.675	80.81
287.906	85.81
288.138	75.81
288.369	80.81
288.6	81.81
288.831	78.81
289.062	89.81
289.293	69.81
289.524	81.81
289.755	88.81
289.986	77.81
290.217	67.81
290.448	80.81
290.679	72.81
290.91	83.81
291.141	80.81
291.371	91.81
291.602	90.81
291.833	72.81
292.064	83.81
292.295	97.81
292.526	71.81
292.757	69.81
292.987	84.81
293.218	80.81
293.449	94.81
293.68	91.81
293.91	79.81
294.141	70.81
294.372	89.81
294.603	90.81
294.833	79.81
295.064	84.81
295.295	75.81
295.525	82.81
295.756	91.81
295.987	72.81
296.217	88.81
296.448	81.81
296.679	87.81
296.909	96.81
297.14	80.81
297.37	86.81
297.601	81.81
297.831	71.81
298.062	91.81
298.292	100.81
298.523	77.81
298.753	70.81
298.984	92.81
299.214	88.81
299.445	89.81
299.675	80.81
299.905	83.81
300.136	94.81
300.366	97.81
300.597	88.81
300.827	98.81
301.057	93.81
301.288	84.81
301.518	83.81
301.748	81.81
301.979	96.81
302.209	85.81
302.439	81.81
302.669	80.81
302.9	73.81
303.13	89.81
303.36	74.81
303.59	91.81
303.82	91.81
304.051	94.81
304.281	75.81
304.511	75.81
304.741	78.81
304.971	74.81
305.201	88.81
305.431	86.81
305.661	79.81
305.891	99.81
306.121	74.81
306.352	83.81
306.582	84.81
306.812	86.81
307.042	75.81
307.272	83.81
307.502	80.81
307.731	90.81
307.961	100.81
308.191	92.81
308.421	93.81
308.651	89.81
308.881	90.81
309.111	90.81
309.341	96.81
309.571	107.81
309.8	73.81
310.03	83.81
310.26	83.81
310.49	85.81
310.72	103.81
310.949	90.81
311.179	78.81
311.409	82.81
311.639	83.81
311.868	87.81
312.098	81.81
312.328	82.81
312.557	88.81
312.787	77.81
313.017	66.81
313.246	79.81
313.476	67.81
313.706	91.81
313.935	82.81
314.165	75.81
314.394	75.81
314.624	89.81
314.853	92.81
315.083	93.81
315.312	89.81
315.542	75.81
315.771	80.81
316.001	98.81
316.23	86.81
316.46	88.81
316.689	87.81
316.919	77.81
317.148	82.81
317.377	88.81
317.607	93.81
317.836	86.81
318.065	96.81
318.295	85.81
318.524	85.81
318.753	88.81
318.983	89.81
319.212	85.81
319.441	88.81
319.67	80.81
319.9	81.81
320.129	92.81
320.358	87.81
320.587	91.81
320.816	81.81
321.046	88.81
321.275	88.81
321.504	86.81
321.733	85.81
321.962	86.81
322.191	90.81
322.42	85.81
322.649	93.81
322.878	77.81
323.108	102.81
323.337	83.81
323.566	94.81
323.795	88.81
324.024	82.81
324.253	81.81
324.482	82.81
324.71	92.81
324.939	84.81
325.168	73.81
325.397	86.81
325.626	89.81
325.855	72.81
326.084	73.81
326.313	82.81
326.542	86.81
326.77	75.81
326.999	102.81
327.228	81.81
327.457	91.81
327.686	85.81
327.914	88.81
328.143	89.81
328.372	79.81
328.6	81.81
328.829	71.81
329.058	84.81
329.287	76.81
329.515	87.81
329.744	91.81
329.972	84.81
330.201	80.81
330.43	77.81
330.658	86.81
330.887	77.81
331.115	104.81
331.344	86.81
331.572	93.81
331.801	96.81
332.03	93.81
332.258	69.81
332.486	77.81
332.715	92.81
332.943	74.81
333.172	85.81
333.4	85.81
333.629	92.81
333.857	80.81
334.085	94.81
334.314	103.81
334.542	85.81
334.771	75.81
334.999	92.81
335.227	92.81
335.455	82.81
335.684	81.81
335.912	84.81
336.14	76.81
336.369	86.81
336.597	88.81
336.825	75.81
337.053	91.81
337.281	87.81
337.51	70.81
337.738	95.81
337.966	90.81
338.194	88.81
338.422	84.81
338.65	91.81
338.878	98.81
339.106	83.81
339.334	81.81
339.562	97.81
339.79	74.81
340.018	78.81
340.246	60.81
340.474	85.81
340.702	81.81
340.93	94.81
341.158	84.81
341.386	73.81
341.614	79.81
341.842	90.81
342.07	80.81
342.298	86.81
342.526	76.81
342.754	80.81
342.981	73.81
343.209	99.81
343.437	108.81
343.665	93.81
343.893	83.81
344.12	94.81
344.348	83.81
344.576	99.81
344.804	84.81
345.031	95.81
345.259	82.81
345.487	96.81
345.714	85.81
345.942	81.81
346.17	80.81
346.397	88.81
346.625	95.81
346.853	91.81
347.08	79.81
347.308	79.81
347.535	91.81
347.763	82.81
347.99	90.81
348.218	82.81
348.445	73.81
348.673	88.81
348.9	88.81
349.128	87.81
349.355	95.81
349.583	99.81
349.81	85.81
350.037	87.81
350.265	89.81
350.492	87.81
350.72	71.81
350.947	88.81
351.174	86.81
351.402	79.81
351.629	84.81
351.856	79.81
352.083	89.81
352.311	88.81
352.538	83.81
352.765	87.81
352.992	87.81
353.22	87.81
353.447	85.81
353.674	77.81
353.901	92.81
354.128	79.81
354.355	85.81
354.583	101.81
354.81	84.81
355.037	90.81
355.264	89.81
355.491	86.81
355.718	94.81
355.945	93.81
356.172	91.81
356.399	84.81
356.626	81.81
356.853	78.81
357.08	72.81
357.307	90.81
357.534	92.81
357.761	102.81
357.988	90.81
358.215	83.81
358.441	95.81
358.668	86.81
358.895	84.81
359.122	99.81
359.349	89.81
359.576	99.81
359.802	79.81
360.029	72.81
360.256	81.81
360.483	84.81
360.709	75.81
360.936	98.81
361.163	102.81
361.39	71.81
361.616	93.81
361.843	89.81
362.07	102.81
362.296	86.81
362.523	103.81
362.749	84.81
362.976	89.81
363.203	107.81
363.429	89.81
363.656	94.81
363.882	95.81
364.109	103.81
364.335	121.81
364.562	129.81
364.788	102.81
365.015	98.81
365.241	84.81
365.468	90.81
365.694	88.81
365.92	71.81
366.147	84.81
366.373	99.81
366.599	100.81
366.826	93.81
367.052	75.81
367.278	91.81
367.505	81.81
367.731	88.81
367.957	79.81
368.184	86.81
368.41	87.81
368.636	85.81
368.862	92.81
369.089	78.81
369.315	83.81
369.541	80.81
369.767	90.81
369.993	89.81
370.219	75.81
370.445	93.81
370.672	89.81
370.898	74.81
371.124	89.81
371.35	93.81
371.576	91.81
371.802	86.81
372.028	85.81
372.254	89.81
372.48	89.81
372.706	73.81
372.932	95.81
373.158	82.81
373.384	97.81
373.61	109.81
373.835	115.81
374.061	94.81
374.287	90.81
374.513	87.81
374.739	96.81
374.965	78.81
375.191	91.81
375.416	97.81
375.642	92.81
375.868	89.81
376.094	92.81
376.319	87.81
376.545	100.81
376.771	83.81
376.997	89.81
377.222	95.81
377.448	69.81
377.674	81.81
377.899	86.81
378.125	104.81
378.35	79.81
378.576	87.81
378.802	87.81
379.027	77.81
379.253	97.81
379.478	98.81
379.704	94.81
379.929	91.81
380.155	79.81
380.38	82.81
380.606	101.81
380.831	87.81
381.057	96.81
381.282	80.81
381.507	83.81
381.733	96.81
381.958	100.81
382.184	110.81
382.409	88.81
382.634	111.81
382.86	95.81
383.085	102.81
383.31	109.81
383.535	88.81
383.761	82.81
383.986	97.81
384.211	87.81
384.436	79.81
384.662	82.81
384.887	81.81
385.112	91.81
385.337	81.81
385.562	93.81
385.787	101.81
386.013	83.81
386.238	87.81
386.463	96.81
386.688	95.81
386.913	85.81
387.138	98.81
387.363	101.81
387.588	83.81
387.813	93.81
388.038	91.81
388.263	99.81
388.488	102.81
388.713	96.81
388.938	94.81
389.163	78.81
389.387	93.81
389.612	94.81
389.837	77.81
390.062	79.81
390.287	82.81
390.512	95.81
390.736	92.81
390.961	90.81
391.186	85.81
391.411	99.81
391.636	88.81
391.86	89.81
392.085	80.81
392.31	81.81
392.534	101.81
392.759	128.81
392.984	147.81
393.208	273.81
393.433	423.81
393.658	303.81
393.882	132.81
394.107	107.81
394.331	107.81
394.556	100.81
394.78	100.81
395.005	93.81
395.229	95.81
395.454	89.81
395.678	100.81
395.903	107.81
396.127	115.81
396.352	139.81
396.576	161.81
396.801	260.81
397.025	320.81
397.249	177.81
397.474	121.81
397.698	101.81
397.922	100.81
398.147	95.81
398.371	84.81
398.595	74.81
398.82	88.81
399.044	82.81
399.268	86.81
399.492	84.81
399.717	96.81
399.941	77.81
400.165	91.81
400.389	81.81
400.613	92.81
400.837	78.81
401.062	79.81
401.286	91.81
401.51	75.81
401.734	77.81
401.958	84.81
402.182	90.81
402.406	95.81
402.63	94.81
402.854	79.81
403.078	85.81
403.302	89.81
403.526	75.81
403.75	95.81
403.974	85.81
404.198	87.81
404.422	88.81
404.645	81.81
404.869	96.81
405.093	74.81
405.317	79.81
405.541	75.81
405.765	86.81
405.988	77.81
406.212	80.81
406.436	75.81
406.66	88.81
406.883	84.81
407.107	76.81
407.331	85.81
407.555	100.81
407.778	117.81
408.002	102.81
408.226	100.81
408.449	92.81
408.673	77.81
408.896	83.81
409.12	81.81
409.344	100.81
409.567	93.81
409.791	91.81
410.014	87.81
410.238	93.81
410.461	70.81
410.685	73.81
410.908	93.81
411.132	79.81
411.355	82.81
411.578	85.81
411.802	64.81
412.025	92.81
412.249	67.81
412.472	81.81
412.695	83.81
412.919	82.81
413.142	84.81
413.365	89.81
413.589	87.81
413.812	74.81
414.035	97.81
414.258	87.81
414.482	87.81
414.705	77.81
414.928	100.81
415.151	82.81
415.374	89.81
415.597	78.81
415.821	67.81
416.044	95.81
416.267	87.81
416.49	77.81
416.713	94.81
416.936	73.81
417.159	82.81
417.382	81.81
417.605	92.81
417.828	79.81
418.051	75.81
418.274	76.81
418.497	88.81
418.72	98.81
418.943	85.81
419.166	81.81
419.389	74.81
419.611	89.81
419.834	72.81
420.057	74.81
420.28	89.81
420.503	98.81
420.726	89.81
420.948	93.81
421.171	101.81
421.394	99.81
421.617	117.81
421.839	104.81
422.062	119.81
422.285	129.81
422.507	208.81
422.73	342.81
422.953	321.81
423.175	169.81
423.398	127.81
423.621	99.81
423.843	110.81
424.066	95.81
424.288	91.81
424.511	85.81
424.733	74.81
424.956	81.81
425.178	91.81
425.401	88.81
425.623	78.81
425.846	78.81
426.068	89.81
426.291	78.81
426.513	88.81
426.735	90.81
426.958	79.81
427.18	77.81
427.402	98.81
427.625	78.81
427.847	89.81
428.069	100.81
428.292	115.81
428.514	127.81
428.736	106.81
428.958	120.81
429.181	118.81
429.403	94.81
429.625	93.81
429.847	115.81
430.069	143.81
430.292	149.81
430.514	140.81
430.736	117.81
430.958	141.81
431.18	96.81
431.402	91.81
431.624	94.81
431.846	105.81
432.068	137.81
432.29	88.81
432.512	86.81
432.734	98.81
432.956	71.81
433.178	91.81
433.4	86.81
433.622	87.81
433.844	87.81
434.066	91.81
434.287	83.81
434.509	85.81
434.731	77.81
434.953	90.81
435.175	84.81
435.397	83.81
435.618	84.81
435.84	97.81
436.062	97.81
436.284	82.81
436.505	82.81
436.727	79.81
436.949	80.81
437.17	73.81
437.392	71.81
437.614	87.81
437.835	79.81
438.057	71.81
438.278	86.81
438.5	85.81
438.721	80.81
438.943	90.81
439.165	91.81
439.386	84.81
439.608	96.81
439.829	84.81
440.05	91.81
440.272	92.81
440.493	87.81
440.715	96.81
440.936	81.81
441.158	82.81
441.379	81.81
441.6	81.81
441.822	98.81
442.043	73.81
442.264	92.81
442.486	115.81
442.707	144.81
442.928	120.81
443.149	95.81
443.371	141.81
443.592	216.81
443.813	179.81
444.034	104.81
444.255	85.81
444.476	86.81
444.698	87.81
444.919	75.81
445.14	159.81
445.361	182.81
445.582	240.81
445.803	202.81
446.024	103.81
446.245	77.81
446.466	77.81
446.687	71.81
446.908	86.81
447.129	71.81
447.35	89.81
447.571	77.81
447.792	87.81
448.013	83.81
448.234	84.81
448.455	84.81
448.675	84.81
448.896	92.81
449.117	89.81
449.338	91.81
449.559	77.81
449.779	78.81
450	79.81
450.221	97.81
450.442	73.81
450.662	91.81
450.883	80.81
451.104	92.81
451.324	89.81
451.545	79.81
451.766	85.81
451.986	83.81
452.207	88.81
452.428	94.81
452.648	85.81
452.869	81.81
453.089	88.81
453.31	79.81
453.53	86.81
453.751	78.81
453.971	77.81
454.192	78.81
454.412	65.81
454.633	80.81
454.853	82.81
455.073	90.81
455.294	81.81
455.514	92.81
455.734	104.81
455.955	80.81
456.175	77.81
456.395	85.81
456.616	75.81
456.836	81.81
457.056	80.81
457.276	81.81
457.497	94.81
457.717	92.81
457.937	91.81
458.157	112.81
458.377	111.81
458.598	107.81
458.818	110.81
459.038	95.81
459.258	78.81
459.478	86.81
459.698	92.81
459.918	90.81
460.138	86.81
460.358	95.81
460.578	91.81
460.798	102.81
461.018	102.81
461.238	83.81
461.458	85.81
461.678	80.81
461.898	90.81
462.118	82.81
462.338	96.81
462.558	93.81
462.777	89.81
462.997	94.81
463.217	90.81
463.437	73.81
463.657	79.81
463.876	90.81
464.096	83.81
464.316	73.81
464.536	84.81
464.755	87.81
464.975	83.81
465.195	98.81
465.414	94.81
465.634	87.81
465.854	84.81
466.073	84.81
466.293	73.81
466.512	99.81
466.732	85.81
466.951	87.81
467.171	83.81
467.391	77.81
467.61	83.81
467.829	104.81
468.049	94.81
468.268	90.81
468.488	92.81
468.707	86.81
468.927	79.81
469.146	97.81
469.365	72.81
469.585	85.81
469.804	76.81
470.023	83.81
470.243	84.81
470.462	86.81
470.681	81.81
470.901	80.81
471.12	79.81
471.339	82.81
471.558	89.81
471.777	81.81
471.997	108.81
472.216	84.81
472.435	88.81
472.654	77.81
472.873	86.81
473.092	88.81
473.311	87.81
473.53	72.81
473.749	91.81
473.968	89.81
474.187	79.81
474.406	88.81
474.625	95.81
474.844	81.81
475.063	76.81
475.282	93.81
475.501	92.81
475.72	94.81
475.939	91.81
476.158	94.81
476.377	79.81
476.596	85.81
476.814	101.81
477.033	88.81
477.252	83.81
477.471	93.81
477.69	91.81
477.908	91.81
478.127	88.81
478.346	88.81
478.564	80.81
478.783	81.81
479.002	83.81
479.22	88.81
479.439	89.81
479.658	99.81
479.876	81.81
480.095	76.81
480.313	76.81
480.532	101.81
480.751	86.81
480.969	86.81
481.188	95.81
481.406	85.81
481.624	83.81
481.843	91.81
482.061	88.81
482.28	81.81
482.498	85.81
482.717	84.81
482.935	86.81
483.153	73.81
483.372	96.81
483.59	104.81
483.808	87.81
484.027	92.81
484.245	85.81
484.463	97.81
484.681	81.81
484.9	94.81
485.118	93.81
485.336	95.81
485.554	91.81
485.772	100.81
485.99	86.81
486.209	79.81
486.427	79.81
486.645	81.81
486.863	72.81
487.081	86.81
487.299	85.81
487.517	94.81
487.735	104.81
487.953	149.81
488.171	124.81
488.389	105.81
488.607	87.81
488.825	93.81
489.043	85.81
489.261	84.81
489.479	85.81
489.696	85.81
489.914	86.81
490.132	88.81
490.35	83.81
490.568	84.81
490.786	95.81
491.003	105.81
491.221	99.81
491.439	85.81
491.657	88.81
491.874	93.81
492.092	91.81
492.31	109.81
492.527	86.81
492.745	91.81
492.963	86.81
493.18	92.81
493.398	86.81
493.615	107.81
493.833	98.81
494.05	98.81
494.268	93.81
494.485	73.81
494.703	91.81
494.92	83.81
495.138	75.81
495.355	80.81
495.573	86.81
495.79	78.81
496.008	84.81
496.225	92.81
496.442	91.81
496.66	84.81
496.877	96.81
497.094	90.81
497.312	99.81
497.529	94.81
497.746	91.81
497.963	84.81
498.181	98.81
498.398	98.81
498.615	84.81
498.832	79.81
499.049	86.81
499.267	97.81
499.484	89.81
499.701	90.81
499.918	103.81
500.135	84.81
500.352	75.81
500.569	93.81
500.786	98.81
501.003	92.81
501.22	87.81
501.437	89.81
501.654	83.81
501.871	104.81
502.088	91.81
502.305	96.81
502.522	81.81
502.739	79.81
502.956	82.81
503.172	75.81
503.389	78.81
503.606	86.81
503.823	73.81
504.04	98.81
504.256	143.81
504.473	115.81
504.69	98.81
504.907	102.81
505.123	98.81
505.34	86.81
505.557	97.81
505.773	89.81
505.99	93.81
506.207	84.81
506.423	83.81
506.64	70.81
506.856	94.81
507.073	78.81
507.289	89.81
507.506	86.81
507.722	106.81
507.939	88.81
508.155	91.81
508.372	102.81
508.588	72.81
508.805	81.81
509.021	79.81
509.238	87.81
509.454	94.81
509.67	76.81
509.887	67.81
510.103	85.81
510.319	90.81
510.536	91.81
510.752	82.81
510.968	85.81
511.184	73.81
511.401	84.81
511.617	95.81
511.833	93.81
512.049	84.81
512.265	80.81
512.481	87.81
512.698	76.81
512.914	87.81
513.13	94.81
513.346	84.81
513.562	93.81
513.778	99.81
513.994	99.81
514.21	98.81
514.426	87.81
514.642	90.81
514.858	101.81
515.074	94.81
515.29	93.81
515.506	83.81
515.721	83.81
515.937	88.81
516.153	91.81
516.369	85.81
516.585	86.81
516.801	96.81
517.016	85.81
517.232	83.81
517.448	95.81
517.664	86.81
517.879	82.81
518.095	81.81
518.311	72.81
518.527	95.81
