Data from 10100_3_HRD10591_00012.txt Node
Date: Mon Jan 19 14:02:28 EST 2026
User: Yrep
Spectrometer: HR+D1059
Trigger mode: 1
Integration Time (sec): 1.000000E-1
Scans to average: 1
Electric dark correction enabled: true
Nonlinearity correction enabled: false
Boxcar width: 0
XAxis mode: Wavelengths
Number of Pixels in Spectrum: 2048
>>>>>Begin Spectral Data<<<<<
223.165	-29.88
223.4	-29.88
223.635	-29.88
223.869	-6.88
224.104	-12.88
224.338	-3.88
224.573	-3.88
224.808	-24.88
225.042	-2.88
225.277	-10.88
225.511	2.12
225.746	-8.88
225.98	9.12
226.215	-0.88
226.449	16.12
226.683	17.12
226.918	34.12
227.152	27.12
227.387	31.12
227.621	53.12
227.856	51.12
228.09	49.12
228.324	59.12
228.559	49.12
228.793	68.12
229.027	65.12
229.262	63.12
229.496	77.12
229.73	72.12
229.964	59.12
230.199	74.12
230.433	74.12
230.667	75.12
230.901	86.12
231.136	85.12
231.37	79.12
231.604	82.12
231.838	86.12
232.072	81.12
232.306	81.12
232.541	84.12
232.775	79.12
233.009	78.12
233.243	86.12
233.477	92.12
233.711	85.12
233.945	80.12
234.179	75.12
234.413	86.12
234.647	71.12
234.881	66.12
235.115	93.12
235.349	85.12
235.583	77.12
235.817	80.12
236.051	71.12
236.285	65.12
236.519	83.12
236.753	86.12
236.987	75.12
237.221	73.12
237.455	65.12
237.689	77.12
237.922	71.12
238.156	68.12
238.39	77.12
238.624	77.12
238.858	84.12
239.091	85.12
239.325	87.12
239.559	82.12
239.793	79.12
240.027	85.12
240.26	73.12
240.494	83.12
240.728	61.12
240.961	88.12
241.195	65.12
241.429	77.12
241.662	93.12
241.896	71.12
242.13	72.12
242.363	81.12
242.597	84.12
242.83	85.12
243.064	66.12
243.298	81.12
243.531	85.12
243.765	79.12
243.998	84.12
244.232	76.12
244.465	81.12
244.699	89.12
244.932	77.12
245.166	60.12
245.399	73.12
245.633	77.12
245.866	63.12
246.099	76.12
246.333	81.12
246.566	72.12
246.8	69.12
247.033	85.12
247.266	72.12
247.5	74.12
247.733	83.12
247.966	84.12
248.2	72.12
248.433	83.12
248.666	85.12
248.899	88.12
249.133	86.12
249.366	75.12
249.599	67.12
249.832	73.12
250.066	81.12
250.299	70.12
250.532	79.12
250.765	85.12
250.998	85.12
251.231	65.12
251.465	78.12
251.698	88.12
251.931	72.12
252.164	87.12
252.397	88.12
252.63	91.12
252.863	71.12
253.096	82.12
253.329	85.12
253.562	77.12
253.795	80.12
254.028	88.12
254.261	67.12
254.494	67.12
254.727	81.12
254.96	72.12
255.193	76.12
255.426	76.12
255.659	76.12
255.892	82.12
256.124	81.12
256.357	81.12
256.59	78.12
256.823	87.12
257.056	88.12
257.289	87.12
257.521	88.12
257.754	70.12
257.987	91.12
258.22	91.12
258.452	84.12
258.685	67.12
258.918	76.12
259.151	75.12
259.383	79.12
259.616	77.12
259.849	87.12
260.081	78.12
260.314	77.12
260.547	76.12
260.779	85.12
261.012	95.12
261.244	70.12
261.477	89.12
261.71	75.12
261.942	76.12
262.175	65.12
262.407	64.12
262.64	90.12
262.872	78.12
263.105	77.12
263.337	83.12
263.57	79.12
263.802	64.12
264.035	85.12
264.267	74.12
264.499	79.12
264.732	90.12
264.964	71.12
265.197	77.12
265.429	90.12
265.661	74.12
265.894	74.12
266.126	90.12
266.358	90.12
266.591	87.12
266.823	86.12
267.055	90.12
267.287	60.12
267.52	74.12
267.752	72.12
267.984	77.12
268.216	81.12
268.448	87.12
268.681	86.12
268.913	91.12
269.145	79.12
269.377	82.12
269.609	85.12
269.841	86.12
270.073	77.12
270.306	93.12
270.538	79.12
270.77	85.12
271.002	88.12
271.234	78.12
271.466	84.12
271.698	67.12
271.93	87.12
272.162	76.12
272.394	89.12
272.626	88.12
272.858	82.12
273.09	96.12
273.322	74.12
273.553	84.12
273.785	86.12
274.017	75.12
274.249	76.12
274.481	72.12
274.713	71.12
274.945	72.12
275.176	78.12
275.408	100.12
275.64	95.12
275.872	84.12
276.104	79.12
276.335	71.12
276.567	73.12
276.799	80.12
277.031	77.12
277.262	79.12
277.494	84.12
277.726	85.12
277.957	87.12
278.189	81.12
278.421	82.12
278.652	73.12
278.884	93.12
279.115	88.12
279.347	86.12
279.579	91.12
279.81	99.12
280.042	86.12
280.273	87.12
280.505	85.12
280.736	87.12
280.968	88.12
281.199	77.12
281.431	96.12
281.662	87.12
281.894	86.12
282.125	88.12
282.356	78.12
282.588	90.12
282.819	97.12
283.051	84.12
283.282	73.12
283.513	88.12
283.745	82.12
283.976	93.12
284.207	86.12
284.439	76.12
284.67	85.12
284.901	107.12
285.132	88.12
285.364	86.12
285.595	84.12
285.826	78.12
286.057	92.12
286.288	79.12
286.52	89.12
286.751	85.12
286.982	83.12
287.213	83.12
287.444	92.12
287.675	85.12
287.906	96.12
288.138	96.12
288.369	84.12
288.6	89.12
288.831	95.12
289.062	83.12
289.293	88.12
289.524	97.12
289.755	96.12
289.986	80.12
290.217	81.12
290.448	87.12
290.679	78.12
290.91	87.12
291.141	95.12
291.371	85.12
291.602	95.12
291.833	87.12
292.064	83.12
292.295	72.12
292.526	95.12
292.757	90.12
292.987	92.12
293.218	87.12
293.449	89.12
293.68	76.12
293.91	84.12
294.141	85.12
294.372	93.12
294.603	94.12
294.833	87.12
295.064	79.12
295.295	92.12
295.525	91.12
295.756	95.12
295.987	79.12
296.217	83.12
296.448	95.12
296.679	83.12
296.909	84.12
297.14	99.12
297.37	84.12
297.601	76.12
297.831	85.12
298.062	98.12
298.292	91.12
298.523	93.12
298.753	89.12
298.984	74.12
299.214	89.12
299.445	78.12
299.675	85.12
299.905	100.12
300.136	92.12
300.366	88.12
300.597	81.12
300.827	87.12
301.057	83.12
301.288	86.12
301.518	79.12
301.748	80.12
301.979	94.12
302.209	98.12
302.439	86.12
302.669	76.12
302.9	71.12
303.13	105.12
303.36	84.12
303.59	82.12
303.82	91.12
304.051	85.12
304.281	95.12
304.511	96.12
304.741	94.12
304.971	88.12
305.201	100.12
305.431	89.12
305.661	88.12
305.891	86.12
306.121	85.12
306.352	93.12
306.582	84.12
306.812	89.12
307.042	88.12
307.272	80.12
307.502	91.12
307.731	72.12
307.961	95.12
308.191	98.12
308.421	92.12
308.651	107.12
308.881	78.12
309.111	84.12
309.341	87.12
309.571	97.12
309.8	80.12
310.03	83.12
310.26	93.12
310.49	87.12
310.72	98.12
310.949	86.12
311.179	86.12
311.409	72.12
311.639	81.12
311.868	89.12
312.098	88.12
312.328	88.12
312.557	86.12
312.787	68.12
313.017	73.12
313.246	77.12
313.476	103.12
313.706	92.12
313.935	68.12
314.165	99.12
314.394	92.12
314.624	78.12
314.853	91.12
315.083	84.12
315.312	90.12
315.542	83.12
315.771	90.12
316.001	101.12
316.23	86.12
316.46	85.12
316.689	85.12
316.919	98.12
317.148	87.12
317.377	90.12
317.607	99.12
317.836	104.12
318.065	112.12
318.295	87.12
318.524	71.12
318.753	86.12
318.983	103.12
319.212	99.12
319.441	88.12
319.67	96.12
319.9	92.12
320.129	89.12
320.358	98.12
320.587	93.12
320.816	78.12
321.046	97.12
321.275	83.12
321.504	91.12
321.733	92.12
321.962	85.12
322.191	95.12
322.42	92.12
322.649	93.12
322.878	88.12
323.108	113.12
323.337	94.12
323.566	91.12
323.795	94.12
324.024	84.12
324.253	96.12
324.482	84.12
324.71	86.12
324.939	97.12
325.168	91.12
325.397	79.12
325.626	87.12
325.855	85.12
326.084	77.12
326.313	92.12
326.542	98.12
326.77	79.12
326.999	86.12
327.228	72.12
327.457	91.12
327.686	81.12
327.914	89.12
328.143	81.12
328.372	94.12
328.6	86.12
328.829	82.12
329.058	93.12
329.287	89.12
329.515	84.12
329.744	86.12
329.972	89.12
330.201	97.12
330.43	86.12
330.658	80.12
330.887	68.12
331.115	84.12
331.344	83.12
331.572	105.12
331.801	88.12
332.03	77.12
332.258	83.12
332.486	83.12
332.715	89.12
332.943	85.12
333.172	84.12
333.4	93.12
333.629	94.12
333.857	94.12
334.085	98.12
334.314	96.12
334.542	102.12
334.771	85.12
334.999	93.12
335.227	94.12
335.455	95.12
335.684	101.12
335.912	110.12
336.14	102.12
336.369	97.12
336.597	84.12
336.825	88.12
337.053	91.12
337.281	91.12
337.51	87.12
337.738	85.12
337.966	88.12
338.194	82.12
338.422	93.12
338.65	94.12
338.878	95.12
339.106	76.12
339.334	91.12
339.562	90.12
339.79	91.12
340.018	88.12
340.246	101.12
340.474	89.12
340.702	74.12
340.93	94.12
341.158	82.12
341.386	88.12
341.614	84.12
341.842	109.12
342.07	92.12
342.298	85.12
342.526	96.12
342.754	80.12
342.981	91.12
343.209	88.12
343.437	111.12
343.665	77.12
343.893	93.12
344.12	108.12
344.348	92.12
344.576	95.12
344.804	88.12
345.031	87.12
345.259	85.12
345.487	79.12
345.714	85.12
345.942	79.12
346.17	88.12
346.397	89.12
346.625	105.12
346.853	96.12
347.08	81.12
347.308	90.12
347.535	86.12
347.763	94.12
347.99	94.12
348.218	94.12
348.445	92.12
348.673	75.12
348.9	94.12
349.128	100.12
349.355	86.12
349.583	92.12
349.81	80.12
350.037	89.12
350.265	111.12
350.492	85.12
350.72	81.12
350.947	72.12
351.174	81.12
351.402	83.12
351.629	84.12
351.856	91.12
352.083	86.12
352.311	88.12
352.538	98.12
352.765	91.12
352.992	114.12
353.22	84.12
353.447	88.12
353.674	101.12
353.901	87.12
354.128	74.12
354.355	86.12
354.583	83.12
354.81	87.12
355.037	94.12
355.264	96.12
355.491	75.12
355.718	83.12
355.945	95.12
356.172	94.12
356.399	79.12
356.626	92.12
356.853	96.12
357.08	100.12
357.307	95.12
357.534	102.12
357.761	90.12
357.988	99.12
358.215	102.12
358.441	107.12
358.668	89.12
358.895	87.12
359.122	89.12
359.349	73.12
359.576	92.12
359.802	81.12
360.029	101.12
360.256	97.12
360.483	90.12
360.709	105.12
360.936	94.12
361.163	94.12
361.39	86.12
361.616	97.12
361.843	92.12
362.07	91.12
362.296	119.12
362.523	111.12
362.749	135.12
362.976	139.12
363.203	164.12
363.429	117.12
363.656	109.12
363.882	117.12
364.109	131.12
364.335	178.12
364.562	187.12
364.788	127.12
365.015	107.12
365.241	101.12
365.468	98.12
365.694	82.12
365.92	98.12
366.147	88.12
366.373	95.12
366.599	86.12
366.826	79.12
367.052	97.12
367.278	104.12
367.505	87.12
367.731	109.12
367.957	84.12
368.184	82.12
368.41	90.12
368.636	97.12
368.862	87.12
369.089	88.12
369.315	86.12
369.541	96.12
369.767	99.12
369.993	93.12
370.219	96.12
370.445	111.12
370.672	91.12
370.898	83.12
371.124	77.12
371.35	89.12
371.576	101.12
371.802	107.12
372.028	75.12
372.254	102.12
372.48	93.12
372.706	100.12
372.932	79.12
373.158	102.12
373.384	114.12
373.61	98.12
373.835	121.12
374.061	109.12
374.287	93.12
374.513	120.12
374.739	101.12
374.965	107.12
375.191	107.12
375.416	103.12
375.642	102.12
375.868	97.12
376.094	103.12
376.319	100.12
376.545	101.12
376.771	84.12
376.997	94.12
377.222	87.12
377.448	92.12
377.674	74.12
377.899	100.12
378.125	87.12
378.35	85.12
378.576	84.12
378.802	83.12
379.027	87.12
379.253	93.12
379.478	83.12
379.704	77.12
379.929	96.12
380.155	96.12
380.38	72.12
380.606	78.12
380.831	97.12
381.057	84.12
381.282	85.12
381.507	88.12
381.733	100.12
381.958	110.12
382.184	107.12
382.409	100.12
382.634	101.12
382.86	108.12
383.085	93.12
383.31	103.12
383.535	102.12
383.761	103.12
383.986	121.12
384.211	96.12
384.436	95.12
384.662	96.12
384.887	86.12
385.112	107.12
385.337	95.12
385.562	94.12
385.787	103.12
386.013	95.12
386.238	97.12
386.463	92.12
386.688	103.12
386.913	94.12
387.138	81.12
387.363	106.12
387.588	103.12
387.813	93.12
388.038	103.12
388.263	113.12
388.488	102.12
388.713	103.12
388.938	102.12
389.163	102.12
389.387	105.12
389.612	95.12
389.837	91.12
390.062	89.12
390.287	98.12
390.512	109.12
390.736	95.12
390.961	107.12
391.186	95.12
391.411	96.12
391.636	93.12
391.86	92.12
392.085	109.12
392.31	103.12
392.534	132.12
392.759	136.12
392.984	176.12
393.208	286.12
393.433	365.12
393.658	317.12
393.882	162.12
394.107	130.12
394.331	142.12
394.556	129.12
394.78	120.12
395.005	94.12
395.229	99.12
395.454	115.12
395.678	117.12
395.903	136.12
396.127	156.12
396.352	204.12
396.576	197.12
396.801	285.12
397.025	310.12
397.249	221.12
397.474	150.12
397.698	119.12
397.922	114.12
398.147	103.12
398.371	105.12
398.595	79.12
398.82	91.12
399.044	81.12
399.268	81.12
399.492	79.12
399.717	96.12
399.941	95.12
400.165	105.12
400.389	95.12
400.613	93.12
400.837	95.12
401.062	93.12
401.286	86.12
401.51	87.12
401.734	84.12
401.958	99.12
402.182	101.12
402.406	94.12
402.63	77.12
402.854	90.12
403.078	85.12
403.302	97.12
403.526	80.12
403.75	93.12
403.974	89.12
404.198	97.12
404.422	126.12
404.645	109.12
404.869	109.12
405.093	104.12
405.317	97.12
405.541	88.12
405.765	91.12
405.988	93.12
406.212	116.12
406.436	109.12
406.66	97.12
406.883	100.12
407.107	100.12
407.331	93.12
407.555	98.12
407.778	115.12
408.002	119.12
408.226	107.12
408.449	102.12
408.673	95.12
408.896	108.12
409.12	75.12
409.344	106.12
409.567	118.12
409.791	119.12
410.014	119.12
410.238	103.12
410.461	97.12
410.685	94.12
410.908	103.12
411.132	95.12
411.355	96.12
411.578	89.12
411.802	84.12
412.025	81.12
412.249	83.12
412.472	85.12
412.695	89.12
412.919	97.12
413.142	65.12
413.365	92.12
413.589	81.12
413.812	90.12
414.035	76.12
414.258	90.12
414.482	81.12
414.705	95.12
414.928	85.12
415.151	79.12
415.374	87.12
415.597	76.12
415.821	64.12
416.044	68.12
416.267	87.12
416.49	87.12
416.713	93.12
416.936	87.12
417.159	73.12
417.382	88.12
417.605	92.12
417.828	87.12
418.051	99.12
418.274	103.12
418.497	99.12
418.72	71.12
418.943	91.12
419.166	83.12
419.389	96.12
419.611	93.12
419.834	103.12
420.057	85.12
420.28	95.12
420.503	87.12
420.726	89.12
420.948	94.12
421.171	95.12
421.394	110.12
421.617	136.12
421.839	139.12
422.062	185.12
422.285	236.12
422.507	374.12
422.73	468.12
422.953	430.12
423.175	311.12
423.398	189.12
423.621	149.12
423.843	116.12
424.066	123.12
424.288	107.12
424.511	99.12
424.733	127.12
424.956	102.12
425.178	96.12
425.401	97.12
425.623	99.12
425.846	91.12
426.068	81.12
426.291	88.12
426.513	83.12
426.735	87.12
426.958	98.12
427.18	97.12
427.402	124.12
427.625	103.12
427.847	97.12
428.069	111.12
428.292	165.12
428.514	167.12
428.736	131.12
428.958	152.12
429.181	163.12
429.403	110.12
429.625	116.12
429.847	150.12
430.069	209.12
430.292	260.12
430.514	217.12
430.736	183.12
430.958	172.12
431.18	113.12
431.402	91.12
431.624	107.12
431.846	134.12
432.068	165.12
432.29	101.12
432.512	97.12
432.734	95.12
432.956	89.12
433.178	96.12
433.4	83.12
433.622	83.12
433.844	97.12
434.066	101.12
434.287	88.12
434.509	83.12
434.731	82.12
434.953	85.12
435.175	91.12
435.397	101.12
435.618	93.12
435.84	92.12
436.062	109.12
436.284	76.12
436.505	87.12
436.727	90.12
436.949	100.12
437.17	81.12
437.392	85.12
437.614	83.12
437.835	95.12
438.057	95.12
438.278	91.12
438.5	84.12
438.721	88.12
438.943	96.12
439.165	84.12
439.386	83.12
439.608	77.12
439.829	87.12
440.05	77.12
440.272	85.12
440.493	96.12
440.715	107.12
440.936	91.12
441.158	90.12
441.379	99.12
441.6	79.12
441.822	86.12
442.043	110.12
442.264	111.12
442.486	161.12
442.707	247.12
442.928	176.12
443.149	146.12
443.371	200.12
443.592	332.12
443.813	299.12
444.034	135.12
444.255	100.12
444.476	102.12
444.698	104.12
444.919	106.12
445.14	231.12
445.361	281.12
445.582	416.12
445.803	363.12
446.024	173.12
446.245	95.12
446.466	98.12
446.687	81.12
446.908	95.12
447.129	86.12
447.35	81.12
447.571	86.12
447.792	79.12
448.013	76.12
448.234	85.12
448.455	91.12
448.675	111.12
448.896	83.12
449.117	97.12
449.338	93.12
449.559	80.12
449.779	89.12
450	83.12
450.221	88.12
450.442	83.12
450.662	81.12
450.883	71.12
451.104	85.12
451.324	90.12
451.545	86.12
451.766	83.12
451.986	77.12
452.207	95.12
452.428	89.12
452.648	112.12
452.869	107.12
453.089	111.12
453.31	101.12
453.53	109.12
453.751	107.12
453.971	91.12
454.192	87.12
454.412	92.12
454.633	101.12
454.853	103.12
455.073	81.12
455.294	93.12
455.514	102.12
455.734	102.12
455.955	86.12
456.175	90.12
456.395	84.12
456.616	81.12
456.836	92.12
457.056	87.12
457.276	96.12
457.497	89.12
457.717	107.12
457.937	159.12
458.157	178.12
458.377	179.12
458.598	182.12
458.818	197.12
459.038	129.12
459.258	99.12
459.478	63.12
459.698	83.12
459.918	86.12
460.138	97.12
460.358	89.12
460.578	111.12
460.798	121.12
461.018	133.12
461.238	77.12
461.458	69.12
461.678	84.12
461.898	90.12
462.118	108.12
462.338	106.12
462.558	74.12
462.777	90.12
462.997	87.12
463.217	83.12
463.437	90.12
463.657	73.12
463.876	89.12
464.096	98.12
464.316	95.12
464.536	101.12
464.755	81.12
464.975	85.12
465.195	85.12
465.414	81.12
465.634	91.12
465.854	80.12
466.073	72.12
466.293	88.12
466.512	90.12
466.732	81.12
466.951	80.12
467.171	81.12
467.391	98.12
467.61	97.12
467.829	77.12
468.049	95.12
468.268	88.12
468.488	94.12
468.707	85.12
468.927	95.12
469.146	89.12
469.365	93.12
469.585	94.12
469.804	92.12
470.023	82.12
470.243	90.12
470.462	93.12
470.681	100.12
470.901	98.12
471.12	95.12
471.339	73.12
471.558	78.12
471.777	98.12
471.997	79.12
472.216	88.12
472.435	79.12
472.654	90.12
472.873	85.12
473.092	79.12
473.311	81.12
473.53	94.12
473.749	69.12
473.968	98.12
474.187	98.12
474.406	98.12
474.625	97.12
474.844	87.12
475.063	69.12
475.282	74.12
475.501	86.12
475.72	95.12
475.939	90.12
476.158	93.12
476.377	77.12
476.596	87.12
476.814	89.12
477.033	91.12
477.252	107.12
477.471	94.12
477.69	103.12
477.908	76.12
478.127	95.12
478.346	77.12
478.564	92.12
478.783	81.12
479.002	85.12
479.22	96.12
479.439	96.12
479.658	87.12
479.876	87.12
480.095	81.12
480.313	78.12
480.532	95.12
480.751	104.12
480.969	92.12
481.188	73.12
481.406	104.12
481.624	80.12
481.843	89.12
482.061	97.12
482.28	88.12
482.498	94.12
482.717	101.12
482.935	101.12
483.153	110.12
483.372	81.12
483.59	94.12
483.808	93.12
484.027	111.12
484.245	102.12
484.463	102.12
484.681	99.12
484.9	84.12
485.118	87.12
485.336	81.12
485.554	98.12
485.772	97.12
485.99	99.12
486.209	94.12
486.427	90.12
486.645	85.12
486.863	95.12
487.081	102.12
487.299	116.12
487.517	125.12
487.735	135.12
487.953	258.12
488.171	231.12
488.389	131.12
488.607	105.12
488.825	103.12
489.043	76.12
489.261	91.12
489.479	77.12
489.696	87.12
489.914	82.12
490.132	91.12
490.35	86.12
490.568	87.12
490.786	82.12
491.003	86.12
491.221	91.12
491.439	86.12
491.657	97.12
491.874	95.12
492.092	89.12
492.31	99.12
492.527	94.12
492.745	88.12
492.963	95.12
493.18	103.12
493.398	85.12
493.615	110.12
493.833	86.12
494.05	90.12
494.268	97.12
494.485	85.12
494.703	89.12
494.92	82.12
495.138	78.12
495.355	86.12
495.573	98.12
495.79	100.12
496.008	92.12
496.225	92.12
496.442	110.12
496.66	104.12
496.877	88.12
497.094	96.12
497.312	82.12
497.529	87.12
497.746	92.12
497.963	98.12
498.181	93.12
498.398	111.12
498.615	107.12
498.832	89.12
499.049	87.12
499.267	116.12
499.484	102.12
499.701	95.12
499.918	106.12
500.135	107.12
500.352	98.12
500.569	83.12
500.786	87.12
501.003	97.12
501.22	94.12
501.437	96.12
501.654	115.12
501.871	80.12
502.088	93.12
502.305	113.12
502.522	89.12
502.739	89.12
502.956	91.12
503.172	87.12
503.389	81.12
503.606	93.12
503.823	113.12
504.04	148.12
504.256	190.12
504.473	183.12
504.69	125.12
504.907	99.12
505.123	80.12
505.34	100.12
505.557	96.12
505.773	94.12
505.99	102.12
506.207	95.12
506.423	92.12
506.64	105.12
506.856	95.12
507.073	95.12
507.289	76.12
507.506	86.12
507.722	93.12
507.939	100.12
508.155	100.12
508.372	84.12
508.588	103.12
508.805	87.12
509.021	101.12
509.238	82.12
509.454	84.12
509.67	88.12
509.887	84.12
510.103	100.12
510.319	86.12
510.536	92.12
510.752	96.12
510.968	83.12
511.184	96.12
511.401	83.12
511.617	84.12
511.833	98.12
512.049	87.12
512.265	97.12
512.481	93.12
512.698	88.12
512.914	91.12
513.13	86.12
513.346	91.12
513.562	99.12
513.778	95.12
513.994	90.12
514.21	87.12
514.426	97.12
514.642	84.12
514.858	104.12
515.074	98.12
515.29	82.12
515.506	91.12
515.721	83.12
515.937	107.12
516.153	93.12
516.369	96.12
