Data from 10100_3_HRD10591_00020.txt Node
Date: Mon Jan 19 14:02:32 EST 2026
User: Yrep
Spectrometer: HR+D1059
Trigger mode: 1
Integration Time (sec): 1.000000E-1
Scans to average: 1
Electric dark correction enabled: true
Nonlinearity correction enabled: false
Boxcar width: 0
XAxis mode: Wavelengths
Number of Pixels in Spectrum: 2048
>>>>>Begin Spectral Data<<<<<
223.165	-15.31
223.4	-15.31
223.635	-15.31
223.869	-29.31
224.104	-16.31
224.338	-9.31
224.573	-16.31
224.808	-5.31
225.042	-18.31
225.277	-4.31
225.511	-3.31
225.746	-3.31
225.98	7.69
226.215	15.69
226.449	8.69
226.683	20.69
226.918	34.69
227.152	33.69
227.387	27.69
227.621	47.69
227.856	24.69
228.09	40.69
228.324	47.69
228.559	47.69
228.793	56.69
229.027	54.69
229.262	69.69
229.496	64.69
229.73	70.69
229.964	70.69
230.199	65.69
230.433	81.69
230.667	79.69
230.901	79.69
231.136	71.69
231.37	77.69
231.604	72.69
231.838	81.69
232.072	67.69
232.306	87.69
232.541	73.69
232.775	86.69
233.009	79.69
233.243	87.69
233.477	84.69
233.711	69.69
233.945	82.69
234.179	73.69
234.413	87.69
234.647	72.69
234.881	80.69
235.115	86.69
235.349	72.69
235.583	78.69
235.817	67.69
236.051	68.69
236.285	90.69
236.519	71.69
236.753	84.69
236.987	71.69
237.221	68.69
237.455	71.69
237.689	73.69
237.922	82.69
238.156	56.69
238.39	80.69
238.624	81.69
238.858	73.69
239.091	71.69
239.325	78.69
239.559	76.69
239.793	72.69
240.027	77.69
240.26	88.69
240.494	63.69
240.728	78.69
240.961	67.69
241.195	75.69
241.429	63.69
241.662	82.69
241.896	71.69
242.13	80.69
242.363	74.69
242.597	79.69
242.83	71.69
243.064	62.69
243.298	72.69
243.531	82.69
243.765	74.69
243.998	65.69
244.232	73.69
244.465	74.69
244.699	72.69
244.932	71.69
245.166	81.69
245.399	79.69
245.633	93.69
245.866	73.69
246.099	76.69
246.333	66.69
246.566	75.69
246.8	65.69
247.033	61.69
247.266	70.69
247.5	85.69
247.733	83.69
247.966	80.69
248.2	68.69
248.433	79.69
248.666	81.69
248.899	79.69
249.133	92.69
249.366	83.69
249.599	69.69
249.832	68.69
250.066	79.69
250.299	71.69
250.532	93.69
250.765	77.69
250.998	82.69
251.231	59.69
251.465	74.69
251.698	70.69
251.931	77.69
252.164	64.69
252.397	75.69
252.63	74.69
252.863	68.69
253.096	73.69
253.329	89.69
253.562	64.69
253.795	65.69
254.028	79.69
254.261	77.69
254.494	84.69
254.727	78.69
254.96	80.69
255.193	86.69
255.426	87.69
255.659	77.69
255.892	81.69
256.124	88.69
256.357	76.69
256.59	87.69
256.823	73.69
257.056	67.69
257.289	79.69
257.521	68.69
257.754	76.69
257.987	69.69
258.22	91.69
258.452	80.69
258.685	63.69
258.918	76.69
259.151	77.69
259.383	81.69
259.616	81.69
259.849	73.69
260.081	87.69
260.314	64.69
260.547	75.69
260.779	79.69
261.012	77.69
261.244	88.69
261.477	83.69
261.71	89.69
261.942	76.69
262.175	74.69
262.407	79.69
262.64	75.69
262.872	85.69
263.105	82.69
263.337	79.69
263.57	71.69
263.802	83.69
264.035	80.69
264.267	99.69
264.499	74.69
264.732	78.69
264.964	79.69
265.197	90.69
265.429	80.69
265.661	90.69
265.894	79.69
266.126	81.69
266.358	79.69
266.591	89.69
266.823	80.69
267.055	77.69
267.287	105.69
267.52	84.69
267.752	79.69
267.984	71.69
268.216	79.69
268.448	89.69
268.681	82.69
268.913	74.69
269.145	75.69
269.377	101.69
269.609	83.69
269.841	83.69
270.073	92.69
270.306	79.69
270.538	79.69
270.77	95.69
271.002	84.69
271.234	91.69
271.466	68.69
271.698	78.69
271.93	95.69
272.162	84.69
272.394	71.69
272.626	88.69
272.858	70.69
273.09	82.69
273.322	77.69
273.553	72.69
273.785	94.69
274.017	85.69
274.249	86.69
274.481	66.69
274.713	75.69
274.945	91.69
275.176	70.69
275.408	90.69
275.64	87.69
275.872	74.69
276.104	86.69
276.335	83.69
276.567	77.69
276.799	73.69
277.031	71.69
277.262	83.69
277.494	91.69
277.726	87.69
277.957	91.69
278.189	76.69
278.421	79.69
278.652	79.69
278.884	94.69
279.115	77.69
279.347	77.69
279.579	90.69
279.81	73.69
280.042	84.69
280.273	91.69
280.505	73.69
280.736	69.69
280.968	88.69
281.199	85.69
281.431	83.69
281.662	90.69
281.894	102.69
282.125	92.69
282.356	98.69
282.588	76.69
282.819	84.69
283.051	92.69
283.282	73.69
283.513	86.69
283.745	86.69
283.976	84.69
284.207	87.69
284.439	78.69
284.67	77.69
284.901	65.69
285.132	91.69
285.364	94.69
285.595	75.69
285.826	80.69
286.057	90.69
286.288	77.69
286.52	81.69
286.751	95.69
286.982	82.69
287.213	99.69
287.444	79.69
287.675	71.69
287.906	98.69
288.138	81.69
288.369	97.69
288.6	78.69
288.831	72.69
289.062	83.69
289.293	73.69
289.524	76.69
289.755	89.69
289.986	69.69
290.217	79.69
290.448	74.69
290.679	91.69
290.91	102.69
291.141	91.69
291.371	93.69
291.602	76.69
291.833	82.69
292.064	74.69
292.295	76.69
292.526	83.69
292.757	79.69
292.987	76.69
293.218	73.69
293.449	74.69
293.68	71.69
293.91	84.69
294.141	81.69
294.372	79.69
294.603	72.69
294.833	88.69
295.064	87.69
295.295	74.69
295.525	93.69
295.756	64.69
295.987	76.69
296.217	78.69
296.448	83.69
296.679	69.69
296.909	86.69
297.14	73.69
297.37	80.69
297.601	87.69
297.831	84.69
298.062	94.69
298.292	86.69
298.523	77.69
298.753	76.69
298.984	88.69
299.214	90.69
299.445	76.69
299.675	69.69
299.905	92.69
300.136	80.69
300.366	83.69
300.597	94.69
300.827	72.69
301.057	92.69
301.288	73.69
301.518	79.69
301.748	78.69
301.979	101.69
302.209	74.69
302.439	81.69
302.669	77.69
302.9	92.69
303.13	89.69
303.36	83.69
303.59	83.69
303.82	87.69
304.051	77.69
304.281	84.69
304.511	75.69
304.741	82.69
304.971	70.69
305.201	88.69
305.431	85.69
305.661	99.69
305.891	85.69
306.121	80.69
306.352	103.69
306.582	94.69
306.812	72.69
307.042	74.69
307.272	83.69
307.502	95.69
307.731	70.69
307.961	100.69
308.191	88.69
308.421	78.69
308.651	90.69
308.881	88.69
309.111	85.69
309.341	90.69
309.571	76.69
309.8	77.69
310.03	93.69
310.26	92.69
310.49	79.69
310.72	79.69
310.949	88.69
311.179	85.69
311.409	81.69
311.639	92.69
311.868	83.69
312.098	84.69
312.328	78.69
312.557	96.69
312.787	85.69
313.017	83.69
313.246	92.69
313.476	71.69
313.706	72.69
313.935	82.69
314.165	81.69
314.394	79.69
314.624	87.69
314.853	85.69
315.083	81.69
315.312	95.69
315.542	84.69
315.771	91.69
316.001	89.69
316.23	79.69
316.46	83.69
316.689	85.69
316.919	89.69
317.148	83.69
317.377	93.69
317.607	85.69
317.836	83.69
318.065	77.69
318.295	80.69
318.524	85.69
318.753	81.69
318.983	83.69
319.212	86.69
319.441	84.69
319.67	79.69
319.9	78.69
320.129	87.69
320.358	84.69
320.587	86.69
320.816	65.69
321.046	84.69
321.275	80.69
321.504	86.69
321.733	87.69
321.962	79.69
322.191	78.69
322.42	79.69
322.649	85.69
322.878	85.69
323.108	81.69
323.337	79.69
323.566	80.69
323.795	80.69
324.024	71.69
324.253	87.69
324.482	87.69
324.71	91.69
324.939	79.69
325.168	80.69
325.397	90.69
325.626	89.69
325.855	92.69
326.084	93.69
326.313	79.69
326.542	79.69
326.77	71.69
326.999	100.69
327.228	87.69
327.457	83.69
327.686	80.69
327.914	88.69
328.143	87.69
328.372	83.69
328.6	88.69
328.829	79.69
329.058	81.69
329.287	81.69
329.515	94.69
329.744	93.69
329.972	85.69
330.201	91.69
330.43	87.69
330.658	75.69
330.887	83.69
331.115	85.69
331.344	73.69
331.572	85.69
331.801	94.69
332.03	91.69
332.258	94.69
332.486	84.69
332.715	80.69
332.943	95.69
333.172	90.69
333.4	87.69
333.629	81.69
333.857	97.69
334.085	84.69
334.314	81.69
334.542	91.69
334.771	82.69
334.999	86.69
335.227	72.69
335.455	82.69
335.684	91.69
335.912	89.69
336.14	88.69
336.369	92.69
336.597	93.69
336.825	76.69
337.053	75.69
337.281	90.69
337.51	83.69
337.738	84.69
337.966	79.69
338.194	78.69
338.422	87.69
338.65	85.69
338.878	93.69
339.106	77.69
339.334	95.69
339.562	60.69
339.79	95.69
340.018	79.69
340.246	88.69
340.474	91.69
340.702	81.69
340.93	73.69
341.158	83.69
341.386	95.69
341.614	65.69
341.842	82.69
342.07	77.69
342.298	85.69
342.526	86.69
342.754	81.69
342.981	76.69
343.209	93.69
343.437	113.69
343.665	68.69
343.893	81.69
344.12	90.69
344.348	79.69
344.576	101.69
344.804	81.69
345.031	81.69
345.259	92.69
345.487	72.69
345.714	77.69
345.942	83.69
346.17	73.69
346.397	93.69
346.625	76.69
346.853	101.69
347.08	87.69
347.308	87.69
347.535	70.69
347.763	87.69
347.99	89.69
348.218	85.69
348.445	69.69
348.673	85.69
348.9	99.69
349.128	87.69
349.355	85.69
349.583	80.69
349.81	92.69
350.037	73.69
350.265	88.69
350.492	81.69
350.72	94.69
350.947	85.69
351.174	100.69
351.402	80.69
351.629	86.69
351.856	81.69
352.083	77.69
352.311	102.69
352.538	81.69
352.765	80.69
352.992	107.69
353.22	86.69
353.447	87.69
353.674	89.69
353.901	92.69
354.128	86.69
354.355	69.69
354.583	78.69
354.81	75.69
355.037	84.69
355.264	87.69
355.491	89.69
355.718	70.69
355.945	79.69
356.172	83.69
356.399	99.69
356.626	84.69
356.853	87.69
357.08	78.69
357.307	77.69
357.534	96.69
357.761	84.69
357.988	103.69
358.215	86.69
358.441	74.69
358.668	100.69
358.895	81.69
359.122	77.69
359.349	92.69
359.576	93.69
359.802	99.69
360.029	88.69
360.256	76.69
360.483	77.69
360.709	66.69
360.936	84.69
361.163	92.69
361.39	93.69
361.616	79.69
361.843	87.69
362.07	93.69
362.296	89.69
362.523	90.69
362.749	79.69
362.976	92.69
363.203	103.69
363.429	83.69
363.656	95.69
363.882	80.69
364.109	103.69
364.335	107.69
364.562	93.69
364.788	92.69
365.015	79.69
365.241	88.69
365.468	86.69
365.694	76.69
365.92	98.69
366.147	81.69
366.373	96.69
366.599	81.69
366.826	78.69
367.052	77.69
367.278	91.69
367.505	99.69
367.731	83.69
367.957	81.69
368.184	78.69
368.41	71.69
368.636	76.69
368.862	79.69
369.089	83.69
369.315	84.69
369.541	88.69
369.767	78.69
369.993	84.69
370.219	79.69
370.445	86.69
370.672	65.69
370.898	86.69
371.124	77.69
371.35	74.69
371.576	88.69
371.802	85.69
372.028	82.69
372.254	95.69
372.48	86.69
372.706	80.69
372.932	98.69
373.158	93.69
373.384	90.69
373.61	94.69
373.835	88.69
374.061	87.69
374.287	72.69
374.513	90.69
374.739	59.69
374.965	81.69
375.191	99.69
375.416	73.69
375.642	93.69
375.868	89.69
376.094	95.69
376.319	96.69
376.545	93.69
376.771	81.69
376.997	85.69
377.222	81.69
377.448	91.69
377.674	95.69
377.899	87.69
378.125	78.69
378.35	81.69
378.576	83.69
378.802	86.69
379.027	82.69
379.253	85.69
379.478	80.69
379.704	76.69
379.929	93.69
380.155	74.69
380.38	85.69
380.606	92.69
380.831	77.69
381.057	91.69
381.282	83.69
381.507	82.69
381.733	104.69
381.958	84.69
382.184	89.69
382.409	74.69
382.634	85.69
382.86	92.69
383.085	71.69
383.31	79.69
383.535	83.69
383.761	90.69
383.986	83.69
384.211	82.69
384.436	72.69
384.662	74.69
384.887	76.69
385.112	83.69
385.337	80.69
385.562	77.69
385.787	79.69
386.013	90.69
386.238	93.69
386.463	81.69
386.688	88.69
386.913	91.69
387.138	80.69
387.363	95.69
387.588	95.69
387.813	78.69
388.038	90.69
388.263	93.69
388.488	84.69
388.713	81.69
388.938	75.69
389.163	93.69
389.387	87.69
389.612	77.69
389.837	76.69
390.062	92.69
390.287	91.69
390.512	93.69
390.736	71.69
390.961	87.69
391.186	77.69
391.411	70.69
391.636	68.69
391.86	87.69
392.085	79.69
392.31	77.69
392.534	91.69
392.759	103.69
392.984	100.69
393.208	125.69
393.433	160.69
393.658	128.69
393.882	104.69
394.107	94.69
394.331	91.69
394.556	92.69
394.78	91.69
395.005	100.69
395.229	88.69
395.454	86.69
395.678	90.69
395.903	85.69
396.127	107.69
396.352	89.69
396.576	103.69
396.801	119.69
397.025	146.69
397.249	108.69
397.474	110.69
397.698	75.69
397.922	88.69
398.147	79.69
398.371	93.69
398.595	89.69
398.82	77.69
399.044	84.69
399.268	88.69
399.492	78.69
399.717	92.69
399.941	85.69
400.165	72.69
400.389	93.69
400.613	82.69
400.837	95.69
401.062	80.69
401.286	82.69
401.51	74.69
401.734	76.69
401.958	88.69
402.182	80.69
402.406	70.69
402.63	87.69
402.854	83.69
403.078	71.69
403.302	99.69
403.526	80.69
403.75	74.69
403.974	83.69
404.198	83.69
404.422	91.69
404.645	87.69
404.869	88.69
405.093	83.69
405.317	84.69
405.541	83.69
405.765	70.69
405.988	89.69
406.212	80.69
406.436	83.69
406.66	96.69
406.883	83.69
407.107	84.69
407.331	81.69
407.555	73.69
407.778	93.69
408.002	82.69
408.226	85.69
408.449	81.69
408.673	82.69
408.896	75.69
409.12	80.69
409.344	90.69
409.567	73.69
409.791	88.69
410.014	79.69
410.238	98.69
410.461	87.69
410.685	74.69
410.908	87.69
411.132	98.69
411.355	93.69
411.578	79.69
411.802	68.69
412.025	87.69
412.249	93.69
412.472	97.69
412.695	91.69
412.919	87.69
413.142	84.69
413.365	85.69
413.589	78.69
413.812	87.69
414.035	84.69
414.258	94.69
414.482	83.69
414.705	91.69
414.928	82.69
415.151	78.69
415.374	91.69
415.597	92.69
415.821	81.69
416.044	74.69
416.267	81.69
416.49	97.69
416.713	78.69
416.936	85.69
417.159	85.69
417.382	91.69
417.605	85.69
417.828	89.69
418.051	78.69
418.274	72.69
418.497	75.69
418.72	74.69
418.943	76.69
419.166	84.69
419.389	86.69
419.611	97.69
419.834	77.69
420.057	76.69
420.28	79.69
420.503	95.69
420.726	84.69
420.948	81.69
421.171	84.69
421.394	109.69
421.617	86.69
421.839	88.69
422.062	99.69
422.285	119.69
422.507	146.69
422.73	203.69
422.953	193.69
423.175	138.69
423.398	119.69
423.621	97.69
423.843	77.69
424.066	88.69
424.288	87.69
424.511	84.69
424.733	78.69
424.956	91.69
425.178	89.69
425.401	76.69
425.623	78.69
425.846	93.69
426.068	79.69
426.291	85.69
426.513	96.69
426.735	86.69
426.958	81.69
427.18	75.69
427.402	73.69
427.625	86.69
427.847	99.69
428.069	94.69
428.292	82.69
428.514	96.69
428.736	88.69
428.958	97.69
429.181	100.69
429.403	104.69
429.625	101.69
429.847	91.69
430.069	103.69
430.292	112.69
430.514	107.69
430.736	75.69
430.958	86.69
431.18	97.69
431.402	86.69
431.624	85.69
431.846	91.69
432.068	85.69
432.29	81.69
432.512	91.69
432.734	85.69
432.956	84.69
433.178	82.69
433.4	90.69
433.622	83.69
433.844	86.69
434.066	92.69
434.287	83.69
434.509	83.69
434.731	69.69
434.953	87.69
435.175	82.69
435.397	78.69
435.618	88.69
435.84	90.69
436.062	88.69
436.284	81.69
436.505	80.69
436.727	77.69
436.949	83.69
437.17	78.69
437.392	81.69
437.614	79.69
437.835	79.69
438.057	93.69
438.278	87.69
438.5	98.69
438.721	95.69
438.943	95.69
439.165	79.69
439.386	82.69
439.608	93.69
439.829	81.69
440.05	80.69
440.272	95.69
440.493	75.69
440.715	73.69
440.936	77.69
441.158	87.69
441.379	83.69
441.6	83.69
441.822	92.69
442.043	89.69
442.264	85.69
442.486	89.69
442.707	112.69
442.928	91.69
443.149	100.69
443.371	107.69
443.592	132.69
443.813	146.69
444.034	77.69
444.255	79.69
444.476	80.69
444.698	74.69
444.919	84.69
445.14	182.69
445.361	146.69
445.582	146.69
445.803	152.69
446.024	99.69
446.245	88.69
446.466	83.69
446.687	89.69
446.908	81.69
447.129	92.69
447.35	79.69
447.571	75.69
447.792	81.69
448.013	73.69
448.234	79.69
448.455	76.69
448.675	79.69
448.896	74.69
449.117	89.69
449.338	95.69
449.559	86.69
449.779	74.69
450	93.69
450.221	77.69
450.442	79.69
450.662	79.69
450.883	95.69
451.104	85.69
451.324	71.69
451.545	91.69
451.766	81.69
451.986	85.69
452.207	90.69
452.428	83.69
452.648	88.69
452.869	84.69
453.089	84.69
453.31	77.69
453.53	90.69
453.751	68.69
453.971	87.69
454.192	89.69
454.412	88.69
454.633	71.69
454.853	76.69
455.073	74.69
455.294	80.69
455.514	84.69
455.734	81.69
455.955	76.69
456.175	83.69
456.395	72.69
456.616	83.69
456.836	85.69
457.056	83.69
457.276	88.69
457.497	98.69
457.717	81.69
457.937	87.69
458.157	106.69
458.377	99.69
458.598	85.69
458.818	95.69
459.038	83.69
459.258	85.69
459.478	80.69
459.698	81.69
459.918	71.69
460.138	80.69
460.358	83.69
460.578	81.69
460.798	98.69
461.018	103.69
461.238	83.69
461.458	74.69
461.678	80.69
461.898	91.69
462.118	96.69
462.338	73.69
462.558	90.69
462.777	83.69
462.997	78.69
463.217	76.69
463.437	79.69
463.657	74.69
463.876	79.69
464.096	65.69
464.316	84.69
464.536	67.69
464.755	84.69
464.975	61.69
465.195	71.69
465.414	82.69
465.634	86.69
465.854	81.69
466.073	89.69
466.293	80.69
466.512	94.69
466.732	76.69
466.951	83.69
467.171	80.69
467.391	80.69
467.61	85.69
467.829	72.69
468.049	87.69
468.268	78.69
468.488	87.69
468.707	83.69
468.927	91.69
469.146	96.69
469.365	87.69
469.585	78.69
469.804	74.69
470.023	96.69
470.243	77.69
470.462	77.69
470.681	89.69
470.901	85.69
471.12	84.69
471.339	80.69
471.558	84.69
471.777	95.69
471.997	87.69
472.216	69.69
472.435	76.69
472.654	79.69
472.873	77.69
473.092	63.69
473.311	87.69
473.53	103.69
473.749	94.69
473.968	97.69
474.187	82.69
474.406	67.69
474.625	80.69
474.844	97.69
475.063	81.69
475.282	91.69
475.501	76.69
475.72	97.69
475.939	82.69
476.158	75.69
476.377	87.69
476.596	71.69
476.814	76.69
477.033	89.69
477.252	81.69
477.471	67.69
477.69	70.69
477.908	92.69
478.127	88.69
478.346	93.69
478.564	90.69
478.783	79.69
479.002	96.69
479.22	73.69
479.439	73.69
479.658	69.69
479.876	86.69
480.095	73.69
480.313	72.69
480.532	83.69
480.751	77.69
480.969	91.69
481.188	81.69
481.406	91.69
481.624	80.69
481.843	80.69
482.061	76.69
482.28	99.69
482.498	77.69
482.717	71.69
482.935	88.69
483.153	79.69
483.372	78.69
483.59	70.69
483.808	80.69
484.027	79.69
484.245	71.69
484.463	98.69
484.681	84.69
484.9	87.69
485.118	84.69
485.336	80.69
485.554	79.69
485.772	80.69
485.99	86.69
486.209	80.69
486.427	98.69
486.645	79.69
486.863	85.69
487.081	81.69
487.299	77.69
487.517	80.69
487.735	84.69
487.953	123.69
488.171	109.69
488.389	83.69
488.607	82.69
488.825	89.69
489.043	91.69
489.261	99.69
489.479	81.69
489.696	87.69
489.914	80.69
490.132	89.69
490.35	80.69
490.568	77.69
490.786	87.69
491.003	76.69
491.221	79.69
491.439	76.69
491.657	91.69
491.874	82.69
492.092	95.69
492.31	79.69
492.527	79.69
492.745	83.69
492.963	85.69
493.18	86.69
493.398	96.69
493.615	79.69
493.833	90.69
494.05	95.69
494.268	73.69
494.485	86.69
494.703	101.69
494.92	81.69
495.138	69.69
495.355	72.69
495.573	90.69
495.79	88.69
496.008	94.69
496.225	91.69
496.442	83.69
496.66	95.69
496.877	81.69
497.094	100.69
497.312	102.69
497.529	82.69
497.746	94.69
497.963	90.69
498.181	83.69
498.398	85.69
498.615	94.69
498.832	79.69
499.049	77.69
499.267	89.69
499.484	93.69
499.701	102.69
499.918	88.69
500.135	81.69
500.352	90.69
500.569	86.69
500.786	76.69
501.003	70.69
501.22	95.69
501.437	76.69
501.654	74.69
501.871	85.69
502.088	79.69
502.305	84.69
502.522	89.69
502.739	84.69
502.956	82.69
503.172	80.69
503.389	82.69
503.606	84.69
503.823	83.69
504.04	98.69
504.256	108.69
504.473	95.69
504.69	72.69
504.907	93.69
505.123	101.69
505.34	89.69
505.557	92.69
505.773	96.69
505.99	86.69
506.207	81.69
506.423	97.69
506.64	80.69
506.856	79.69
507.073	82.69
507.289	100.69
507.506	80.69
507.722	92.69
507.939	77.69
508.155	76.69
508.372	94.69
508.588	95.69
508.805	72.69
509.021	72.69
509.238	78.69
509.454	95.69
509.67	78.69
509.887	88.69
510.103	77.69
510.319	92.69
510.536	93.69
510.752	81.69
510.968	85.69
511.184	92.69
511.401	78.69
511.617	91.69
511.833	56.69
512.049	89.69
512.265	86.69
512.481	80.69
512.698	89.69
512.914	107.69
513.13	79.69
513.346	76.69
513.562	79.69
513.778	87.69
513.994	86.69
514.21	79.69
514.426	93.69
514.642	87.69
514.858	81.69
515.074	84.69
515.29	87.69
515.506	89.69
515.721	72.69
515.937	95.69
516.153	77.69
516.369	91.69
516.585	91.69
516.801	88.69
517.016	93.69
517.232	86.69
517.448	84.69
517.664	75.69
517.879	81.69
518.095	87.69
518.311	93.69
518.527	102.69
518.742	96.69
518.958	108.69
519.173	120.69
