Data from 10100_3_HRD10591_00032.txt Node
Date: Mon Jan 19 14:02:38 EST 2026
User: Yrep
Spectrometer: HR+D1059
Trigger mode: 1
Integration Time (sec): 1.000000E-1
Scans to average: 1
Electric dark correction enabled: true
Nonlinearity correction enabled: false
Boxcar width: 0
XAxis mode: Wavelengths
Number of Pixels in Spectrum: 2048
>>>>>Begin Spectral Data<<<<<
223.165	-15.75
223.4	-15.75
223.635	-15.75
223.869	-30.75
224.104	-17.75
224.338	-1.75
224.573	-6.75
224.808	-14.75
225.042	-10.75
225.277	-5.75
225.511	7.25
225.746	1.25
225.98	3.25
226.215	18.25
226.449	10.25
226.683	18.25
226.918	25.25
227.152	20.25
227.387	23.25
227.621	35.25
227.856	36.25
228.09	46.25
228.324	59.25
228.559	53.25
228.793	55.25
229.027	56.25
229.262	75.25
229.496	61.25
229.73	58.25
229.964	70.25
230.199	73.25
230.433	79.25
230.667	73.25
230.901	75.25
231.136	80.25
231.37	91.25
231.604	87.25
231.838	85.25
232.072	70.25
232.306	76.25
232.541	91.25
232.775	83.25
233.009	80.25
233.243	87.25
233.477	78.25
233.711	76.25
233.945	78.25
234.179	78.25
234.413	87.25
234.647	77.25
234.881	88.25
235.115	81.25
235.349	81.25
235.583	82.25
235.817	73.25
236.051	69.25
236.285	85.25
236.519	74.25
236.753	76.25
236.987	95.25
237.221	74.25
237.455	74.25
237.689	72.25
237.922	84.25
238.156	74.25
238.39	74.25
238.624	83.25
238.858	82.25
239.091	73.25
239.325	73.25
239.559	89.25
239.793	78.25
240.027	64.25
240.26	90.25
240.494	84.25
240.728	74.25
240.961	74.25
241.195	59.25
241.429	80.25
241.662	77.25
241.896	77.25
242.13	81.25
242.363	76.25
242.597	70.25
242.83	81.25
243.064	100.25
243.298	89.25
243.531	86.25
243.765	77.25
243.998	79.25
244.232	72.25
244.465	68.25
244.699	95.25
244.932	79.25
245.166	72.25
245.399	89.25
245.633	87.25
245.866	87.25
246.099	80.25
246.333	69.25
246.566	79.25
246.8	66.25
247.033	75.25
247.266	79.25
247.5	87.25
247.733	64.25
247.966	74.25
248.2	73.25
248.433	90.25
248.666	75.25
248.899	79.25
249.133	78.25
249.366	79.25
249.599	86.25
249.832	71.25
250.066	76.25
250.299	72.25
250.532	71.25
250.765	63.25
250.998	79.25
251.231	75.25
251.465	84.25
251.698	65.25
251.931	76.25
252.164	85.25
252.397	83.25
252.63	80.25
252.863	69.25
253.096	83.25
253.329	74.25
253.562	79.25
253.795	68.25
254.028	98.25
254.261	93.25
254.494	90.25
254.727	75.25
254.96	73.25
255.193	84.25
255.426	72.25
255.659	98.25
255.892	88.25
256.124	74.25
256.357	77.25
256.59	69.25
256.823	67.25
257.056	72.25
257.289	62.25
257.521	74.25
257.754	89.25
257.987	80.25
258.22	74.25
258.452	82.25
258.685	82.25
258.918	71.25
259.151	82.25
259.383	78.25
259.616	72.25
259.849	83.25
260.081	86.25
260.314	81.25
260.547	76.25
260.779	84.25
261.012	79.25
261.244	80.25
261.477	93.25
261.71	79.25
261.942	79.25
262.175	82.25
262.407	90.25
262.64	91.25
262.872	82.25
263.105	80.25
263.337	97.25
263.57	80.25
263.802	85.25
264.035	69.25
264.267	79.25
264.499	72.25
264.732	83.25
264.964	77.25
265.197	93.25
265.429	79.25
265.661	71.25
265.894	90.25
266.126	86.25
266.358	81.25
266.591	75.25
266.823	89.25
267.055	102.25
267.287	57.25
267.52	80.25
267.752	79.25
267.984	97.25
268.216	79.25
268.448	67.25
268.681	70.25
268.913	80.25
269.145	77.25
269.377	82.25
269.609	80.25
269.841	74.25
270.073	78.25
270.306	76.25
270.538	77.25
270.77	77.25
271.002	82.25
271.234	82.25
271.466	76.25
271.698	70.25
271.93	87.25
272.162	82.25
272.394	75.25
272.626	91.25
272.858	81.25
273.09	78.25
273.322	84.25
273.553	94.25
273.785	77.25
274.017	85.25
274.249	73.25
274.481	88.25
274.713	83.25
274.945	88.25
275.176	88.25
275.408	69.25
275.64	89.25
275.872	67.25
276.104	79.25
276.335	76.25
276.567	86.25
276.799	89.25
277.031	74.25
277.262	104.25
277.494	80.25
277.726	88.25
277.957	77.25
278.189	77.25
278.421	86.25
278.652	83.25
278.884	90.25
279.115	93.25
279.347	75.25
279.579	85.25
279.81	89.25
280.042	72.25
280.273	74.25
280.505	78.25
280.736	82.25
280.968	75.25
281.199	83.25
281.431	82.25
281.662	101.25
281.894	95.25
282.125	102.25
282.356	90.25
282.588	87.25
282.819	84.25
283.051	85.25
283.282	82.25
283.513	76.25
283.745	72.25
283.976	82.25
284.207	95.25
284.439	78.25
284.67	82.25
284.901	88.25
285.132	91.25
285.364	87.25
285.595	89.25
285.826	107.25
286.057	80.25
286.288	89.25
286.52	72.25
286.751	89.25
286.982	72.25
287.213	85.25
287.444	88.25
287.675	77.25
287.906	87.25
288.138	98.25
288.369	72.25
288.6	90.25
288.831	67.25
289.062	86.25
289.293	95.25
289.524	84.25
289.755	85.25
289.986	70.25
290.217	80.25
290.448	90.25
290.679	79.25
290.91	88.25
291.141	74.25
291.371	83.25
291.602	88.25
291.833	77.25
292.064	91.25
292.295	74.25
292.526	88.25
292.757	89.25
292.987	94.25
293.218	102.25
293.449	78.25
293.68	92.25
293.91	91.25
294.141	91.25
294.372	73.25
294.603	78.25
294.833	76.25
295.064	89.25
295.295	95.25
295.525	92.25
295.756	91.25
295.987	93.25
296.217	81.25
296.448	83.25
296.679	74.25
296.909	85.25
297.14	89.25
297.37	88.25
297.601	87.25
297.831	81.25
298.062	76.25
298.292	78.25
298.523	90.25
298.753	80.25
298.984	75.25
299.214	81.25
299.445	83.25
299.675	94.25
299.905	93.25
300.136	95.25
300.366	94.25
300.597	93.25
300.827	89.25
301.057	90.25
301.288	84.25
301.518	78.25
301.748	86.25
301.979	104.25
302.209	86.25
302.439	85.25
302.669	109.25
302.9	71.25
303.13	88.25
303.36	89.25
303.59	88.25
303.82	90.25
304.051	86.25
304.281	77.25
304.511	74.25
304.741	96.25
304.971	88.25
305.201	71.25
305.431	90.25
305.661	92.25
305.891	83.25
306.121	82.25
306.352	102.25
306.582	81.25
306.812	69.25
307.042	83.25
307.272	90.25
307.502	74.25
307.731	89.25
307.961	90.25
308.191	93.25
308.421	88.25
308.651	97.25
308.881	97.25
309.111	84.25
309.341	86.25
309.571	86.25
309.8	89.25
310.03	74.25
310.26	87.25
310.49	86.25
310.72	98.25
310.949	87.25
311.179	83.25
311.409	81.25
311.639	66.25
311.868	86.25
312.098	85.25
312.328	87.25
312.557	96.25
312.787	89.25
313.017	100.25
313.246	95.25
313.476	78.25
313.706	80.25
313.935	85.25
314.165	81.25
314.394	81.25
314.624	81.25
314.853	92.25
315.083	75.25
315.312	94.25
315.542	65.25
315.771	98.25
316.001	94.25
316.23	95.25
316.46	81.25
316.689	92.25
316.919	74.25
317.148	85.25
317.377	82.25
317.607	91.25
317.836	86.25
318.065	97.25
318.295	81.25
318.524	89.25
318.753	90.25
318.983	80.25
319.212	85.25
319.441	81.25
319.67	87.25
319.9	88.25
320.129	90.25
320.358	72.25
320.587	97.25
320.816	89.25
321.046	96.25
321.275	76.25
321.504	86.25
321.733	80.25
321.962	86.25
322.191	62.25
322.42	79.25
322.649	93.25
322.878	99.25
323.108	96.25
323.337	87.25
323.566	87.25
323.795	85.25
324.024	89.25
324.253	74.25
324.482	82.25
324.71	103.25
324.939	81.25
325.168	80.25
325.397	83.25
325.626	87.25
325.855	94.25
326.084	87.25
326.313	87.25
326.542	88.25
326.77	83.25
326.999	90.25
327.228	88.25
327.457	91.25
327.686	89.25
327.914	86.25
328.143	85.25
328.372	86.25
328.6	83.25
328.829	79.25
329.058	84.25
329.287	98.25
329.515	75.25
329.744	80.25
329.972	83.25
330.201	73.25
330.43	88.25
330.658	89.25
330.887	86.25
331.115	88.25
331.344	89.25
331.572	86.25
331.801	62.25
332.03	92.25
332.258	86.25
332.486	76.25
332.715	88.25
332.943	82.25
333.172	81.25
333.4	89.25
333.629	82.25
333.857	72.25
334.085	86.25
334.314	97.25
334.542	76.25
334.771	101.25
334.999	95.25
335.227	99.25
335.455	80.25
335.684	84.25
335.912	89.25
336.14	99.25
336.369	94.25
336.597	81.25
336.825	81.25
337.053	81.25
337.281	91.25
337.51	85.25
337.738	82.25
337.966	90.25
338.194	85.25
338.422	91.25
338.65	91.25
338.878	90.25
339.106	92.25
339.334	85.25
339.562	86.25
339.79	89.25
340.018	83.25
340.246	81.25
340.474	88.25
340.702	76.25
340.93	88.25
341.158	90.25
341.386	76.25
341.614	83.25
341.842	72.25
342.07	80.25
342.298	90.25
342.526	83.25
342.754	65.25
342.981	88.25
343.209	82.25
343.437	99.25
343.665	91.25
343.893	85.25
344.12	97.25
344.348	103.25
344.576	87.25
344.804	72.25
345.031	88.25
345.259	77.25
345.487	81.25
345.714	82.25
345.942	90.25
346.17	94.25
346.397	94.25
346.625	74.25
346.853	86.25
347.08	89.25
347.308	91.25
347.535	91.25
347.763	88.25
347.99	87.25
348.218	89.25
348.445	74.25
348.673	95.25
348.9	71.25
349.128	90.25
349.355	82.25
349.583	88.25
349.81	82.25
350.037	86.25
350.265	87.25
350.492	77.25
350.72	89.25
350.947	78.25
351.174	91.25
351.402	84.25
351.629	92.25
351.856	93.25
352.083	87.25
352.311	82.25
352.538	110.25
352.765	72.25
352.992	75.25
353.22	91.25
353.447	72.25
353.674	100.25
353.901	78.25
354.128	79.25
354.355	92.25
354.583	75.25
354.81	85.25
355.037	85.25
355.264	91.25
355.491	101.25
355.718	82.25
355.945	91.25
356.172	88.25
356.399	87.25
356.626	91.25
356.853	99.25
357.08	96.25
357.307	87.25
357.534	81.25
357.761	89.25
357.988	104.25
358.215	95.25
358.441	85.25
358.668	84.25
358.895	85.25
359.122	86.25
359.349	82.25
359.576	87.25
359.802	92.25
360.029	82.25
360.256	79.25
360.483	93.25
360.709	87.25
360.936	86.25
361.163	109.25
361.39	89.25
361.616	63.25
361.843	93.25
362.07	89.25
362.296	105.25
362.523	92.25
362.749	102.25
362.976	116.25
363.203	125.25
363.429	104.25
363.656	76.25
363.882	94.25
364.109	106.25
364.335	114.25
364.562	133.25
364.788	115.25
365.015	83.25
365.241	95.25
365.468	98.25
365.694	81.25
365.92	79.25
366.147	85.25
366.373	85.25
366.599	90.25
366.826	93.25
367.052	88.25
367.278	87.25
367.505	82.25
367.731	69.25
367.957	75.25
368.184	71.25
368.41	82.25
368.636	89.25
368.862	72.25
369.089	99.25
369.315	96.25
369.541	85.25
369.767	78.25
369.993	93.25
370.219	80.25
370.445	84.25
370.672	88.25
370.898	94.25
371.124	88.25
371.35	80.25
371.576	89.25
371.802	85.25
372.028	74.25
372.254	81.25
372.48	87.25
372.706	104.25
372.932	87.25
373.158	98.25
373.384	89.25
373.61	102.25
373.835	100.25
374.061	87.25
374.287	79.25
374.513	91.25
374.739	76.25
374.965	114.25
375.191	93.25
375.416	102.25
375.642	91.25
375.868	86.25
376.094	81.25
376.319	88.25
376.545	85.25
376.771	88.25
376.997	83.25
377.222	81.25
377.448	82.25
377.674	89.25
377.899	85.25
378.125	86.25
378.35	80.25
378.576	75.25
378.802	87.25
379.027	88.25
379.253	76.25
379.478	85.25
379.704	90.25
379.929	89.25
380.155	81.25
380.38	81.25
380.606	71.25
380.831	87.25
381.057	102.25
381.282	81.25
381.507	103.25
381.733	102.25
381.958	86.25
382.184	94.25
382.409	83.25
382.634	80.25
382.86	114.25
383.085	89.25
383.31	97.25
383.535	102.25
383.761	98.25
383.986	92.25
384.211	96.25
384.436	83.25
384.662	99.25
384.887	112.25
385.112	81.25
385.337	99.25
385.562	96.25
385.787	90.25
386.013	94.25
386.238	86.25
386.463	93.25
386.688	95.25
386.913	97.25
387.138	88.25
387.363	83.25
387.588	105.25
387.813	98.25
388.038	82.25
388.263	88.25
388.488	89.25
388.713	82.25
388.938	98.25
389.163	97.25
389.387	93.25
389.612	89.25
389.837	92.25
390.062	86.25
390.287	89.25
390.512	98.25
390.736	92.25
390.961	88.25
391.186	83.25
391.411	95.25
391.636	111.25
391.86	89.25
392.085	79.25
392.31	93.25
392.534	90.25
392.759	110.25
392.984	164.25
393.208	224.25
393.433	269.25
393.658	225.25
393.882	128.25
394.107	103.25
394.331	105.25
394.556	106.25
394.78	98.25
395.005	89.25
395.229	95.25
395.454	97.25
395.678	99.25
395.903	114.25
396.127	107.25
396.352	129.25
396.576	152.25
396.801	223.25
397.025	228.25
397.249	169.25
397.474	126.25
397.698	102.25
397.922	92.25
398.147	89.25
398.371	94.25
398.595	86.25
398.82	92.25
399.044	92.25
399.268	92.25
399.492	88.25
399.717	93.25
399.941	95.25
400.165	86.25
400.389	89.25
400.613	67.25
400.837	87.25
401.062	92.25
401.286	73.25
401.51	79.25
401.734	90.25
401.958	88.25
402.182	83.25
402.406	93.25
402.63	83.25
402.854	88.25
403.078	94.25
403.302	97.25
403.526	91.25
403.75	83.25
403.974	91.25
404.198	89.25
404.422	98.25
404.645	79.25
404.869	88.25
405.093	95.25
405.317	81.25
405.541	110.25
405.765	75.25
405.988	93.25
406.212	94.25
406.436	93.25
406.66	86.25
406.883	92.25
407.107	87.25
407.331	85.25
407.555	91.25
407.778	103.25
408.002	114.25
408.226	95.25
408.449	81.25
408.673	82.25
408.896	88.25
409.12	82.25
409.344	101.25
409.567	92.25
409.791	96.25
410.014	87.25
410.238	99.25
410.461	94.25
410.685	79.25
410.908	85.25
411.132	95.25
411.355	87.25
411.578	91.25
411.802	94.25
412.025	83.25
412.249	97.25
412.472	82.25
412.695	81.25
412.919	89.25
413.142	93.25
413.365	82.25
413.589	90.25
413.812	88.25
414.035	89.25
414.258	73.25
414.482	93.25
414.705	94.25
414.928	92.25
415.151	78.25
415.374	96.25
415.597	94.25
415.821	93.25
416.044	79.25
416.267	89.25
416.49	75.25
416.713	81.25
416.936	81.25
417.159	70.25
417.382	91.25
417.605	89.25
417.828	82.25
418.051	82.25
418.274	90.25
418.497	84.25
418.72	74.25
418.943	98.25
419.166	78.25
419.389	101.25
419.611	93.25
419.834	75.25
420.057	74.25
420.28	90.25
420.503	105.25
420.726	89.25
420.948	98.25
421.171	86.25
421.394	103.25
421.617	113.25
421.839	119.25
422.062	128.25
422.285	173.25
422.507	263.25
422.73	346.25
422.953	320.25
423.175	196.25
423.398	145.25
423.621	104.25
423.843	102.25
424.066	97.25
424.288	89.25
424.511	93.25
424.733	89.25
424.956	111.25
425.178	86.25
425.401	100.25
425.623	94.25
425.846	95.25
426.068	90.25
426.291	99.25
426.513	77.25
426.735	83.25
426.958	98.25
427.18	87.25
427.402	97.25
427.625	101.25
427.847	95.25
428.069	101.25
428.292	134.25
428.514	119.25
428.736	102.25
428.958	123.25
429.181	125.25
429.403	93.25
429.625	108.25
429.847	117.25
430.069	145.25
430.292	171.25
430.514	160.25
430.736	137.25
430.958	135.25
431.18	87.25
431.402	92.25
431.624	85.25
431.846	109.25
432.068	143.25
432.29	99.25
432.512	84.25
432.734	81.25
432.956	97.25
433.178	98.25
433.4	71.25
433.622	97.25
433.844	105.25
434.066	84.25
434.287	96.25
434.509	86.25
434.731	87.25
434.953	80.25
435.175	69.25
435.397	98.25
435.618	97.25
435.84	93.25
436.062	86.25
436.284	83.25
436.505	93.25
436.727	94.25
436.949	80.25
437.17	73.25
437.392	69.25
437.614	76.25
437.835	85.25
438.057	81.25
438.278	103.25
438.5	91.25
438.721	95.25
438.943	93.25
439.165	77.25
439.386	81.25
439.608	87.25
439.829	82.25
440.05	89.25
440.272	85.25
440.493	92.25
440.715	94.25
440.936	81.25
441.158	98.25
441.379	101.25
441.6	88.25
441.822	90.25
442.043	93.25
442.264	97.25
442.486	133.25
442.707	166.25
442.928	109.25
443.149	95.25
443.371	153.25
443.592	231.25
443.813	201.25
444.034	104.25
444.255	97.25
444.476	87.25
444.698	101.25
444.919	96.25
445.14	175.25
445.361	184.25
445.582	263.25
445.803	225.25
446.024	119.25
446.245	105.25
446.466	86.25
446.687	82.25
446.908	85.25
447.129	87.25
447.35	89.25
447.571	78.25
447.792	95.25
448.013	79.25
448.234	85.25
448.455	83.25
448.675	92.25
448.896	78.25
449.117	89.25
449.338	86.25
449.559	86.25
449.779	75.25
450	73.25
450.221	71.25
450.442	86.25
450.662	94.25
450.883	78.25
451.104	86.25
451.324	74.25
451.545	81.25
451.766	76.25
451.986	84.25
452.207	100.25
452.428	78.25
452.648	104.25
452.869	97.25
453.089	104.25
453.31	94.25
453.53	84.25
453.751	97.25
453.971	91.25
454.192	90.25
454.412	99.25
454.633	83.25
454.853	93.25
455.073	88.25
455.294	87.25
455.514	81.25
455.734	96.25
455.955	87.25
456.175	94.25
456.395	89.25
456.616	81.25
456.836	80.25
457.056	86.25
457.276	69.25
457.497	93.25
457.717	93.25
457.937	121.25
458.157	115.25
458.377	134.25
458.598	122.25
458.818	130.25
459.038	103.25
459.258	82.25
459.478	99.25
459.698	83.25
459.918	82.25
460.138	82.25
460.358	83.25
460.578	95.25
460.798	112.25
461.018	103.25
461.238	100.25
461.458	66.25
461.678	87.25
461.898	89.25
462.118	86.25
462.338	93.25
462.558	85.25
462.777	85.25
462.997	84.25
463.217	67.25
463.437	81.25
463.657	89.25
463.876	74.25
464.096	97.25
464.316	92.25
464.536	84.25
464.755	83.25
464.975	87.25
465.195	73.25
465.414	74.25
465.634	78.25
465.854	81.25
466.073	86.25
466.293	87.25
466.512	88.25
466.732	71.25
466.951	89.25
467.171	81.25
467.391	93.25
467.61	82.25
467.829	82.25
468.049	93.25
468.268	81.25
468.488	99.25
468.707	93.25
468.927	85.25
469.146	81.25
469.365	100.25
469.585	95.25
469.804	93.25
470.023	90.25
470.243	97.25
470.462	78.25
470.681	77.25
470.901	82.25
471.12	84.25
471.339	99.25
471.558	89.25
471.777	94.25
471.997	86.25
472.216	88.25
472.435	94.25
472.654	87.25
472.873	105.25
473.092	89.25
473.311	95.25
473.53	85.25
473.749	90.25
473.968	95.25
474.187	101.25
474.406	91.25
474.625	74.25
474.844	73.25
475.063	82.25
475.282	82.25
475.501	94.25
475.72	112.25
475.939	93.25
476.158	79.25
476.377	81.25
476.596	76.25
476.814	74.25
477.033	85.25
477.252	99.25
477.471	102.25
477.69	101.25
477.908	81.25
478.127	76.25
478.346	76.25
478.564	84.25
478.783	86.25
479.002	91.25
479.22	82.25
479.439	88.25
479.658	82.25
479.876	84.25
480.095	81.25
480.313	83.25
480.532	81.25
480.751	86.25
480.969	87.25
481.188	97.25
481.406	85.25
481.624	96.25
481.843	83.25
482.061	79.25
482.28	77.25
482.498	76.25
482.717	89.25
482.935	91.25
483.153	86.25
483.372	96.25
483.59	94.25
483.808	89.25
484.027	88.25
484.245	78.25
484.463	83.25
484.681	95.25
484.9	80.25
485.118	86.25
485.336	94.25
485.554	95.25
485.772	83.25
485.99	96.25
486.209	87.25
486.427	77.25
486.645	81.25
486.863	96.25
487.081	86.25
487.299	97.25
487.517	99.25
487.735	113.25
487.953	167.25
488.171	140.25
488.389	104.25
488.607	96.25
488.825	81.25
489.043	74.25
489.261	96.25
489.479	95.25
489.696	79.25
489.914	87.25
490.132	69.25
490.35	80.25
490.568	90.25
490.786	85.25
491.003	81.25
491.221	99.25
491.439	72.25
491.657	74.25
491.874	89.25
492.092	85.25
492.31	91.25
492.527	94.25
492.745	91.25
492.963	89.25
493.18	90.25
493.398	97.25
493.615	90.25
493.833	77.25
494.05	89.25
494.268	87.25
494.485	96.25
494.703	89.25
494.92	77.25
495.138	96.25
495.355	88.25
495.573	81.25
495.79	89.25
496.008	78.25
496.225	80.25
496.442	92.25
496.66	87.25
496.877	93.25
497.094	98.25
497.312	95.25
497.529	78.25
497.746	84.25
497.963	78.25
498.181	90.25
498.398	95.25
498.615	95.25
498.832	82.25
499.049	85.25
499.267	93.25
499.484	88.25
499.701	95.25
499.918	90.25
500.135	102.25
500.352	94.25
500.569	74.25
500.786	86.25
501.003	89.25
501.22	89.25
501.437	90.25
501.654	94.25
501.871	89.25
502.088	87.25
502.305	96.25
502.522	104.25
502.739	98.25
502.956	85.25
503.172	97.25
503.389	98.25
503.606	81.25
503.823	89.25
504.04	113.25
504.256	146.25
504.473	145.25
504.69	105.25
504.907	89.25
505.123	86.25
505.34	92.25
505.557	83.25
505.773	101.25
505.99	82.25
506.207	87.25
506.423	86.25
506.64	93.25
506.856	73.25
507.073	86.25
507.289	85.25
507.506	86.25
507.722	82.25
507.939	90.25
508.155	75.25
508.372	78.25
508.588	91.25
508.805	77.25
509.021	77.25
509.238	91.25
509.454	69.25
509.67	91.25
509.887	90.25
510.103	97.25
510.319	82.25
510.536	81.25
510.752	90.25
510.968	69.25
511.184	90.25
511.401	80.25
511.617	83.25
511.833	88.25
512.049	74.25
512.265	105.25
512.481	80.25
512.698	96.25
512.914	86.25
513.13	98.25
513.346	95.25
513.562	84.25
513.778	85.25
513.994	80.25
514.21	89.25
514.426	88.25
514.642	100.25
514.858	81.25
515.074	86.25
515.29	87.25
515.506	86.25
515.721	94.25
515.937	97.25
516.153	98.25
516.369	98.25
516.585	88.25
516.801	103.25
517.016	89.25
517.232	97.25
517.448	101.25
517.664	107.25
517.879	92.25
518.095	90.25
518.311	99.25
