Data from 10100_3_HRD10591_00033.txt Node
Date: Mon Jan 19 14:02:39 EST 2026
User: Yrep
Spectrometer: HR+D1059
Trigger mode: 1
Integration Time (sec): 1.000000E-1
Scans to average: 1
Electric dark correction enabled: true
Nonlinearity correction enabled: false
Boxcar width: 0
XAxis mode: Wavelengths
Number of Pixels in Spectrum: 2048
>>>>>Begin Spectral Data<<<<<
223.165	-11.94
223.4	-11.94
223.635	-11.94
223.869	-12.94
224.104	-15.94
224.338	-10.94
224.573	-18.94
224.808	-7.94
225.042	-4.94
225.277	2.06
225.511	2.06
225.746	1.06
225.98	-1.94
226.215	-0.94
226.449	17.06
226.683	11.06
226.918	30.06
227.152	23.06
227.387	20.06
227.621	40.06
227.856	41.06
228.09	45.06
228.324	47.06
228.559	45.06
228.793	51.06
229.027	61.06
229.262	55.06
229.496	64.06
229.73	75.06
229.964	68.06
230.199	70.06
230.433	80.06
230.667	71.06
230.901	82.06
231.136	90.06
231.37	78.06
231.604	100.06
231.838	81.06
232.072	90.06
232.306	68.06
232.541	67.06
232.775	75.06
233.009	73.06
233.243	77.06
233.477	75.06
233.711	71.06
233.945	79.06
234.179	80.06
234.413	74.06
234.647	78.06
234.881	68.06
235.115	88.06
235.349	84.06
235.583	82.06
235.817	83.06
236.051	78.06
236.285	72.06
236.519	71.06
236.753	86.06
236.987	85.06
237.221	66.06
237.455	67.06
237.689	65.06
237.922	88.06
238.156	64.06
238.39	70.06
238.624	73.06
238.858	77.06
239.091	65.06
239.325	66.06
239.559	73.06
239.793	69.06
240.027	84.06
240.26	76.06
240.494	64.06
240.728	74.06
240.961	73.06
241.195	74.06
241.429	89.06
241.662	69.06
241.896	73.06
242.13	73.06
242.363	86.06
242.597	79.06
242.83	65.06
243.064	74.06
243.298	70.06
243.531	83.06
243.765	73.06
243.998	74.06
244.232	72.06
244.465	77.06
244.699	84.06
244.932	60.06
245.166	84.06
245.399	80.06
245.633	68.06
245.866	81.06
246.099	74.06
246.333	86.06
246.566	94.06
246.8	87.06
247.033	71.06
247.266	69.06
247.5	71.06
247.733	73.06
247.966	80.06
248.2	79.06
248.433	86.06
248.666	68.06
248.899	75.06
249.133	88.06
249.366	72.06
249.599	69.06
249.832	78.06
250.066	87.06
250.299	79.06
250.532	68.06
250.765	85.06
250.998	86.06
251.231	66.06
251.465	86.06
251.698	69.06
251.931	84.06
252.164	84.06
252.397	73.06
252.63	82.06
252.863	76.06
253.096	86.06
253.329	85.06
253.562	73.06
253.795	81.06
254.028	79.06
254.261	72.06
254.494	73.06
254.727	75.06
254.96	69.06
255.193	81.06
255.426	85.06
255.659	73.06
255.892	70.06
256.124	67.06
256.357	85.06
256.59	78.06
256.823	82.06
257.056	82.06
257.289	82.06
257.521	74.06
257.754	79.06
257.987	76.06
258.22	85.06
258.452	74.06
258.685	75.06
258.918	67.06
259.151	79.06
259.383	94.06
259.616	83.06
259.849	72.06
260.081	72.06
260.314	77.06
260.547	90.06
260.779	66.06
261.012	73.06
261.244	82.06
261.477	73.06
261.71	92.06
261.942	84.06
262.175	78.06
262.407	89.06
262.64	84.06
262.872	74.06
263.105	99.06
263.337	86.06
263.57	94.06
263.802	83.06
264.035	80.06
264.267	85.06
264.499	83.06
264.732	78.06
264.964	87.06
265.197	80.06
265.429	72.06
265.661	84.06
265.894	93.06
266.126	90.06
266.358	73.06
266.591	76.06
266.823	77.06
267.055	73.06
267.287	87.06
267.52	82.06
267.752	80.06
267.984	76.06
268.216	94.06
268.448	90.06
268.681	80.06
268.913	77.06
269.145	73.06
269.377	95.06
269.609	80.06
269.841	92.06
270.073	86.06
270.306	76.06
270.538	85.06
270.77	85.06
271.002	74.06
271.234	79.06
271.466	72.06
271.698	78.06
271.93	89.06
272.162	81.06
272.394	72.06
272.626	69.06
272.858	72.06
273.09	75.06
273.322	84.06
273.553	72.06
273.785	80.06
274.017	64.06
274.249	101.06
274.481	78.06
274.713	67.06
274.945	82.06
275.176	69.06
275.408	78.06
275.64	79.06
275.872	92.06
276.104	84.06
276.335	84.06
276.567	78.06
276.799	62.06
277.031	69.06
277.262	78.06
277.494	65.06
277.726	88.06
277.957	75.06
278.189	74.06
278.421	78.06
278.652	92.06
278.884	84.06
279.115	95.06
279.347	75.06
279.579	86.06
279.81	82.06
280.042	80.06
280.273	85.06
280.505	84.06
280.736	72.06
280.968	98.06
281.199	73.06
281.431	71.06
281.662	83.06
281.894	96.06
282.125	93.06
282.356	96.06
282.588	77.06
282.819	82.06
283.051	73.06
283.282	77.06
283.513	88.06
283.745	73.06
283.976	80.06
284.207	69.06
284.439	84.06
284.67	86.06
284.901	85.06
285.132	96.06
285.364	84.06
285.595	98.06
285.826	89.06
286.057	79.06
286.288	71.06
286.52	81.06
286.751	87.06
286.982	101.06
287.213	79.06
287.444	86.06
287.675	71.06
287.906	88.06
288.138	96.06
288.369	96.06
288.6	72.06
288.831	102.06
289.062	85.06
289.293	87.06
289.524	90.06
289.755	73.06
289.986	74.06
290.217	74.06
290.448	72.06
290.679	98.06
290.91	90.06
291.141	80.06
291.371	89.06
291.602	91.06
291.833	70.06
292.064	86.06
292.295	92.06
292.526	99.06
292.757	86.06
292.987	75.06
293.218	74.06
293.449	90.06
293.68	83.06
293.91	81.06
294.141	80.06
294.372	78.06
294.603	76.06
294.833	68.06
295.064	76.06
295.295	95.06
295.525	80.06
295.756	77.06
295.987	77.06
296.217	79.06
296.448	81.06
296.679	80.06
296.909	82.06
297.14	83.06
297.37	73.06
297.601	83.06
297.831	87.06
298.062	89.06
298.292	73.06
298.523	67.06
298.753	82.06
298.984	72.06
299.214	95.06
299.445	90.06
299.675	87.06
299.905	74.06
300.136	74.06
300.366	73.06
300.597	75.06
300.827	88.06
301.057	92.06
301.288	78.06
301.518	80.06
301.748	74.06
301.979	88.06
302.209	83.06
302.439	74.06
302.669	78.06
302.9	93.06
303.13	95.06
303.36	79.06
303.59	82.06
303.82	83.06
304.051	93.06
304.281	87.06
304.511	101.06
304.741	75.06
304.971	79.06
305.201	90.06
305.431	86.06
305.661	89.06
305.891	94.06
306.121	78.06
306.352	85.06
306.582	82.06
306.812	77.06
307.042	76.06
307.272	77.06
307.502	69.06
307.731	94.06
307.961	80.06
308.191	78.06
308.421	88.06
308.651	73.06
308.881	85.06
309.111	84.06
309.341	87.06
309.571	84.06
309.8	88.06
310.03	73.06
310.26	74.06
310.49	93.06
310.72	69.06
310.949	81.06
311.179	85.06
311.409	88.06
311.639	69.06
311.868	87.06
312.098	80.06
312.328	90.06
312.557	90.06
312.787	68.06
313.017	78.06
313.246	97.06
313.476	89.06
313.706	84.06
313.935	66.06
314.165	85.06
314.394	81.06
314.624	74.06
314.853	102.06
315.083	83.06
315.312	106.06
315.542	92.06
315.771	75.06
316.001	85.06
316.23	77.06
316.46	76.06
316.689	87.06
316.919	82.06
317.148	86.06
317.377	88.06
317.607	88.06
317.836	86.06
318.065	75.06
318.295	84.06
318.524	88.06
318.753	93.06
318.983	70.06
319.212	77.06
319.441	78.06
319.67	84.06
319.9	87.06
320.129	97.06
320.358	80.06
320.587	67.06
320.816	88.06
321.046	82.06
321.275	82.06
321.504	84.06
321.733	81.06
321.962	92.06
322.191	86.06
322.42	82.06
322.649	77.06
322.878	86.06
323.108	99.06
323.337	71.06
323.566	85.06
323.795	67.06
324.024	72.06
324.253	72.06
324.482	80.06
324.71	66.06
324.939	78.06
325.168	88.06
325.397	87.06
325.626	84.06
325.855	74.06
326.084	84.06
326.313	69.06
326.542	80.06
326.77	88.06
326.999	96.06
327.228	94.06
327.457	70.06
327.686	84.06
327.914	69.06
328.143	92.06
328.372	77.06
328.6	78.06
328.829	87.06
329.058	73.06
329.287	86.06
329.515	85.06
329.744	88.06
329.972	75.06
330.201	76.06
330.43	64.06
330.658	92.06
330.887	81.06
331.115	87.06
331.344	78.06
331.572	79.06
331.801	80.06
332.03	89.06
332.258	84.06
332.486	80.06
332.715	72.06
332.943	78.06
333.172	87.06
333.4	89.06
333.629	74.06
333.857	84.06
334.085	87.06
334.314	88.06
334.542	70.06
334.771	81.06
334.999	87.06
335.227	90.06
335.455	91.06
335.684	83.06
335.912	81.06
336.14	78.06
336.369	84.06
336.597	88.06
336.825	80.06
337.053	83.06
337.281	82.06
337.51	83.06
337.738	86.06
337.966	90.06
338.194	79.06
338.422	73.06
338.65	84.06
338.878	74.06
339.106	85.06
339.334	71.06
339.562	78.06
339.79	84.06
340.018	75.06
340.246	99.06
340.474	86.06
340.702	104.06
340.93	89.06
341.158	89.06
341.386	91.06
341.614	90.06
341.842	66.06
342.07	79.06
342.298	86.06
342.526	84.06
342.754	85.06
342.981	92.06
343.209	75.06
343.437	84.06
343.665	77.06
343.893	71.06
344.12	82.06
344.348	71.06
344.576	79.06
344.804	87.06
345.031	84.06
345.259	73.06
345.487	80.06
345.714	87.06
345.942	78.06
346.17	70.06
346.397	81.06
346.625	84.06
346.853	93.06
347.08	78.06
347.308	84.06
347.535	89.06
347.763	83.06
347.99	72.06
348.218	89.06
348.445	82.06
348.673	81.06
348.9	87.06
349.128	81.06
349.355	85.06
349.583	84.06
349.81	74.06
350.037	62.06
350.265	87.06
350.492	85.06
350.72	97.06
350.947	80.06
351.174	93.06
351.402	92.06
351.629	85.06
351.856	90.06
352.083	80.06
352.311	81.06
352.538	81.06
352.765	77.06
352.992	98.06
353.22	96.06
353.447	77.06
353.674	77.06
353.901	82.06
354.128	87.06
354.355	87.06
354.583	77.06
354.81	75.06
355.037	80.06
355.264	81.06
355.491	94.06
355.718	81.06
355.945	82.06
356.172	80.06
356.399	80.06
356.626	71.06
356.853	72.06
357.08	88.06
357.307	81.06
357.534	79.06
357.761	82.06
357.988	88.06
358.215	94.06
358.441	84.06
358.668	77.06
358.895	79.06
359.122	88.06
359.349	78.06
359.576	85.06
359.802	86.06
360.029	85.06
360.256	73.06
360.483	82.06
360.709	74.06
360.936	84.06
361.163	66.06
361.39	83.06
361.616	80.06
361.843	83.06
362.07	80.06
362.296	64.06
362.523	84.06
362.749	83.06
362.976	72.06
363.203	93.06
363.429	73.06
363.656	74.06
363.882	82.06
364.109	83.06
364.335	94.06
364.562	94.06
364.788	98.06
365.015	90.06
365.241	84.06
365.468	87.06
365.694	72.06
365.92	82.06
366.147	77.06
366.373	93.06
366.599	91.06
366.826	67.06
367.052	75.06
367.278	80.06
367.505	89.06
367.731	90.06
367.957	65.06
368.184	87.06
368.41	81.06
368.636	66.06
368.862	74.06
369.089	72.06
369.315	96.06
369.541	96.06
369.767	79.06
369.993	94.06
370.219	79.06
370.445	80.06
370.672	85.06
370.898	73.06
371.124	85.06
371.35	73.06
371.576	82.06
371.802	74.06
372.028	82.06
372.254	68.06
372.48	82.06
372.706	81.06
372.932	84.06
373.158	81.06
373.384	80.06
373.61	84.06
373.835	73.06
374.061	86.06
374.287	56.06
374.513	75.06
374.739	86.06
374.965	77.06
375.191	86.06
375.416	77.06
375.642	91.06
375.868	90.06
376.094	71.06
376.319	74.06
376.545	84.06
376.771	81.06
376.997	74.06
377.222	82.06
377.448	81.06
377.674	78.06
377.899	98.06
378.125	85.06
378.35	84.06
378.576	74.06
378.802	82.06
379.027	84.06
379.253	90.06
379.478	81.06
379.704	78.06
379.929	82.06
380.155	87.06
380.38	85.06
380.606	79.06
380.831	77.06
381.057	79.06
381.282	78.06
381.507	73.06
381.733	83.06
381.958	86.06
382.184	75.06
382.409	81.06
382.634	94.06
382.86	81.06
383.085	81.06
383.31	87.06
383.535	90.06
383.761	93.06
383.986	84.06
384.211	86.06
384.436	82.06
384.662	79.06
384.887	80.06
385.112	92.06
385.337	86.06
385.562	78.06
385.787	77.06
386.013	84.06
386.238	80.06
386.463	78.06
386.688	78.06
386.913	96.06
387.138	64.06
387.363	85.06
387.588	91.06
387.813	75.06
388.038	68.06
388.263	84.06
388.488	66.06
388.713	99.06
388.938	90.06
389.163	96.06
389.387	82.06
389.612	86.06
389.837	74.06
390.062	69.06
390.287	94.06
390.512	76.06
390.736	76.06
390.961	81.06
391.186	82.06
391.411	79.06
391.636	71.06
391.86	80.06
392.085	85.06
392.31	70.06
392.534	85.06
392.759	86.06
392.984	92.06
393.208	112.06
393.433	128.06
393.658	110.06
393.882	84.06
394.107	89.06
394.331	74.06
394.556	91.06
394.78	78.06
395.005	82.06
395.229	95.06
395.454	86.06
395.678	71.06
395.903	80.06
396.127	108.06
396.352	95.06
396.576	94.06
396.801	105.06
397.025	132.06
397.249	103.06
397.474	102.06
397.698	93.06
397.922	81.06
398.147	85.06
398.371	90.06
398.595	64.06
398.82	69.06
399.044	92.06
399.268	96.06
399.492	74.06
399.717	81.06
399.941	68.06
400.165	72.06
400.389	71.06
400.613	77.06
400.837	89.06
401.062	87.06
401.286	81.06
401.51	94.06
401.734	76.06
401.958	92.06
402.182	79.06
402.406	83.06
402.63	79.06
402.854	86.06
403.078	87.06
403.302	76.06
403.526	68.06
403.75	77.06
403.974	75.06
404.198	80.06
404.422	73.06
404.645	77.06
404.869	86.06
405.093	81.06
405.317	74.06
405.541	79.06
405.765	67.06
405.988	80.06
406.212	82.06
406.436	75.06
406.66	81.06
406.883	63.06
407.107	70.06
407.331	86.06
407.555	74.06
407.778	83.06
408.002	86.06
408.226	85.06
408.449	73.06
408.673	67.06
408.896	80.06
409.12	81.06
409.344	87.06
409.567	73.06
409.791	82.06
410.014	92.06
410.238	88.06
410.461	76.06
410.685	86.06
410.908	80.06
411.132	82.06
411.355	70.06
411.578	84.06
411.802	92.06
412.025	81.06
412.249	78.06
412.472	79.06
412.695	95.06
412.919	85.06
413.142	78.06
413.365	95.06
413.589	76.06
413.812	73.06
414.035	76.06
414.258	84.06
414.482	93.06
414.705	96.06
414.928	86.06
415.151	68.06
415.374	74.06
415.597	79.06
415.821	78.06
416.044	85.06
416.267	78.06
416.49	89.06
416.713	81.06
416.936	79.06
417.159	69.06
417.382	84.06
417.605	78.06
417.828	83.06
418.051	72.06
418.274	80.06
418.497	72.06
418.72	80.06
418.943	78.06
419.166	83.06
419.389	86.06
419.611	81.06
419.834	83.06
420.057	92.06
420.28	80.06
420.503	70.06
420.726	68.06
420.948	88.06
421.171	96.06
421.394	84.06
421.617	90.06
421.839	100.06
422.062	89.06
422.285	91.06
422.507	115.06
422.73	129.06
422.953	129.06
423.175	99.06
423.398	73.06
423.621	82.06
423.843	72.06
424.066	77.06
424.288	78.06
424.511	78.06
424.733	77.06
424.956	77.06
425.178	89.06
425.401	82.06
425.623	74.06
425.846	88.06
426.068	92.06
426.291	75.06
426.513	87.06
426.735	87.06
426.958	89.06
427.18	92.06
427.402	84.06
427.625	75.06
427.847	81.06
428.069	90.06
428.292	97.06
428.514	94.06
428.736	80.06
428.958	95.06
429.181	80.06
429.403	95.06
429.625	73.06
429.847	84.06
430.069	89.06
430.292	99.06
430.514	99.06
430.736	90.06
430.958	105.06
431.18	66.06
431.402	76.06
431.624	87.06
431.846	92.06
432.068	90.06
432.29	82.06
432.512	64.06
432.734	72.06
432.956	75.06
433.178	92.06
433.4	80.06
433.622	85.06
433.844	64.06
434.066	80.06
434.287	78.06
434.509	70.06
434.731	75.06
434.953	66.06
435.175	80.06
435.397	80.06
435.618	91.06
435.84	80.06
436.062	80.06
436.284	69.06
436.505	76.06
436.727	78.06
436.949	65.06
437.17	92.06
437.392	92.06
437.614	75.06
437.835	65.06
438.057	80.06
438.278	67.06
438.5	92.06
438.721	85.06
438.943	87.06
439.165	88.06
439.386	77.06
439.608	89.06
439.829	81.06
440.05	86.06
440.272	83.06
440.493	73.06
440.715	83.06
440.936	76.06
441.158	84.06
441.379	65.06
441.6	68.06
441.822	81.06
442.043	80.06
442.264	83.06
442.486	88.06
442.707	85.06
442.928	104.06
443.149	90.06
443.371	98.06
443.592	111.06
443.813	97.06
444.034	94.06
444.255	85.06
444.476	95.06
444.698	75.06
444.919	88.06
445.14	140.06
445.361	131.06
445.582	100.06
445.803	98.06
446.024	85.06
446.245	75.06
446.466	78.06
446.687	73.06
446.908	72.06
447.129	93.06
447.35	94.06
447.571	77.06
447.792	78.06
448.013	68.06
448.234	85.06
448.455	93.06
448.675	79.06
448.896	72.06
449.117	82.06
449.338	89.06
449.559	90.06
449.779	67.06
450	84.06
450.221	76.06
450.442	79.06
450.662	68.06
450.883	66.06
451.104	92.06
451.324	86.06
451.545	86.06
451.766	89.06
451.986	74.06
452.207	69.06
452.428	95.06
452.648	72.06
452.869	88.06
453.089	80.06
453.31	76.06
453.53	73.06
453.751	82.06
453.971	89.06
454.192	91.06
454.412	76.06
454.633	84.06
454.853	93.06
455.073	80.06
455.294	84.06
455.514	70.06
455.734	87.06
455.955	80.06
456.175	75.06
456.395	77.06
456.616	81.06
456.836	80.06
457.056	69.06
457.276	74.06
457.497	75.06
457.717	90.06
457.937	98.06
458.157	84.06
458.377	73.06
458.598	87.06
458.818	80.06
459.038	85.06
459.258	85.06
459.478	96.06
459.698	88.06
459.918	83.06
460.138	84.06
460.358	93.06
460.578	87.06
460.798	87.06
461.018	97.06
461.238	75.06
461.458	80.06
461.678	81.06
461.898	78.06
462.118	92.06
462.338	83.06
462.558	93.06
462.777	78.06
462.997	78.06
463.217	84.06
463.437	81.06
463.657	76.06
463.876	87.06
464.096	72.06
464.316	82.06
464.536	77.06
464.755	86.06
464.975	72.06
465.195	84.06
465.414	88.06
465.634	86.06
465.854	75.06
466.073	82.06
466.293	97.06
466.512	74.06
466.732	74.06
466.951	77.06
467.171	76.06
467.391	65.06
467.61	82.06
467.829	78.06
468.049	79.06
468.268	74.06
468.488	73.06
468.707	82.06
468.927	84.06
469.146	89.06
469.365	80.06
469.585	99.06
469.804	94.06
470.023	89.06
470.243	76.06
470.462	85.06
470.681	77.06
470.901	89.06
471.12	69.06
471.339	74.06
471.558	84.06
471.777	62.06
471.997	71.06
472.216	74.06
472.435	73.06
472.654	94.06
472.873	88.06
473.092	83.06
473.311	80.06
473.53	87.06
473.749	84.06
473.968	90.06
474.187	87.06
474.406	77.06
474.625	89.06
474.844	82.06
475.063	82.06
475.282	87.06
475.501	79.06
475.72	79.06
475.939	87.06
476.158	80.06
476.377	66.06
476.596	68.06
476.814	89.06
477.033	80.06
477.252	88.06
477.471	96.06
477.69	101.06
477.908	93.06
478.127	81.06
478.346	64.06
478.564	80.06
478.783	83.06
479.002	77.06
479.22	91.06
479.439	72.06
479.658	77.06
479.876	84.06
480.095	83.06
480.313	81.06
480.532	102.06
480.751	87.06
480.969	89.06
481.188	79.06
481.406	86.06
481.624	74.06
481.843	81.06
482.061	90.06
482.28	93.06
482.498	84.06
482.717	84.06
482.935	80.06
483.153	101.06
483.372	82.06
483.59	77.06
483.808	98.06
484.027	89.06
484.245	94.06
484.463	83.06
484.681	89.06
484.9	82.06
485.118	80.06
485.336	86.06
485.554	86.06
485.772	69.06
485.99	65.06
486.209	82.06
486.427	78.06
486.645	79.06
486.863	83.06
487.081	80.06
487.299	79.06
487.517	76.06
487.735	94.06
487.953	90.06
488.171	87.06
488.389	73.06
488.607	97.06
488.825	80.06
489.043	73.06
489.261	89.06
489.479	77.06
489.696	89.06
489.914	89.06
490.132	72.06
490.35	80.06
490.568	98.06
490.786	72.06
491.003	80.06
491.221	86.06
491.439	88.06
491.657	89.06
491.874	78.06
492.092	89.06
492.31	81.06
492.527	78.06
492.745	83.06
492.963	85.06
493.18	100.06
493.398	101.06
493.615	82.06
493.833	71.06
494.05	83.06
494.268	96.06
494.485	84.06
494.703	83.06
494.92	80.06
495.138	80.06
495.355	86.06
495.573	93.06
495.79	76.06
496.008	94.06
496.225	80.06
496.442	73.06
496.66	74.06
496.877	76.06
497.094	77.06
497.312	77.06
497.529	93.06
497.746	92.06
497.963	80.06
498.181	93.06
498.398	93.06
498.615	86.06
498.832	68.06
499.049	81.06
499.267	86.06
499.484	86.06
499.701	82.06
499.918	83.06
500.135	98.06
500.352	103.06
500.569	82.06
500.786	91.06
501.003	84.06
501.22	80.06
501.437	93.06
501.654	68.06
501.871	84.06
502.088	86.06
502.305	82.06
502.522	68.06
502.739	73.06
502.956	84.06
503.172	86.06
503.389	77.06
503.606	90.06
503.823	83.06
504.04	80.06
504.256	87.06
504.473	78.06
504.69	75.06
504.907	81.06
505.123	95.06
505.34	79.06
505.557	82.06
505.773	89.06
505.99	101.06
506.207	95.06
506.423	83.06
506.64	74.06
506.856	82.06
507.073	82.06
507.289	91.06
507.506	81.06
507.722	70.06
507.939	80.06
508.155	80.06
508.372	89.06
508.588	74.06
508.805	70.06
509.021	93.06
509.238	91.06
509.454	83.06
509.67	88.06
509.887	77.06
510.103	76.06
510.319	81.06
510.536	71.06
510.752	75.06
510.968	81.06
511.184	77.06
511.401	79.06
511.617	86.06
511.833	72.06
512.049	77.06
512.265	78.06
512.481	103.06
512.698	78.06
512.914	81.06
513.13	89.06
513.346	87.06
513.562	82.06
513.778	88.06
513.994	83.06
514.21	79.06
514.426	87.06
514.642	89.06
514.858	83.06
515.074	78.06
515.29	89.06
515.506	87.06
515.721	84.06
515.937	76.06
516.153	81.06
516.369	77.06
516.585	79.06
516.801	83.06
517.016	94.06
517.232	86.06
517.448	89.06
517.664	95.06
517.879	86.06
518.095	98.06
518.311	90.06
518.527	85.06
518.742	80.06
518.958	92.06
519.173	89.06
519.389	80.06
519.605	70.06
519.82	84.06
