Data from 10100_3_HRD10591_00045.txt Node
Date: Mon Jan 19 14:02:45 EST 2026
User: Yrep
Spectrometer: HR+D1059
Trigger mode: 1
Integration Time (sec): 1.000000E-1
Scans to average: 1
Electric dark correction enabled: true
Nonlinearity correction enabled: false
Boxcar width: 0
XAxis mode: Wavelengths
Number of Pixels in Spectrum: 2048
>>>>>Begin Spectral Data<<<<<
223.165	-9.38
223.4	-9.38
223.635	-9.38
223.869	-12.38
224.104	-13.38
224.338	-14.38
224.573	-12.38
224.808	-16.38
225.042	-5.38
225.277	-2.38
225.511	-20.38
225.746	10.62
225.98	-4.38
226.215	13.62
226.449	15.62
226.683	20.62
226.918	21.62
227.152	28.62
227.387	30.62
227.621	32.62
227.856	37.62
228.09	48.62
228.324	57.62
228.559	47.62
228.793	45.62
229.027	60.62
229.262	67.62
229.496	67.62
229.73	71.62
229.964	67.62
230.199	72.62
230.433	75.62
230.667	63.62
230.901	74.62
231.136	72.62
231.37	80.62
231.604	87.62
231.838	81.62
232.072	84.62
232.306	69.62
232.541	75.62
232.775	73.62
233.009	81.62
233.243	70.62
233.477	79.62
233.711	73.62
233.945	90.62
234.179	87.62
234.413	85.62
234.647	83.62
234.881	93.62
235.115	80.62
235.349	72.62
235.583	87.62
235.817	71.62
236.051	88.62
236.285	90.62
236.519	76.62
236.753	73.62
236.987	74.62
237.221	68.62
237.455	79.62
237.689	91.62
237.922	78.62
238.156	69.62
238.39	79.62
238.624	76.62
238.858	80.62
239.091	56.62
239.325	83.62
239.559	48.62
239.793	86.62
240.027	74.62
240.26	66.62
240.494	82.62
240.728	72.62
240.961	77.62
241.195	67.62
241.429	69.62
241.662	75.62
241.896	77.62
242.13	64.62
242.363	71.62
242.597	78.62
242.83	73.62
243.064	82.62
243.298	71.62
243.531	75.62
243.765	83.62
243.998	87.62
244.232	76.62
244.465	81.62
244.699	77.62
244.932	73.62
245.166	85.62
245.399	73.62
245.633	79.62
245.866	71.62
246.099	86.62
246.333	79.62
246.566	67.62
246.8	71.62
247.033	68.62
247.266	84.62
247.5	72.62
247.733	72.62
247.966	78.62
248.2	71.62
248.433	69.62
248.666	80.62
248.899	79.62
249.133	92.62
249.366	79.62
249.599	62.62
249.832	66.62
250.066	90.62
250.299	83.62
250.532	85.62
250.765	62.62
250.998	73.62
251.231	64.62
251.465	72.62
251.698	89.62
251.931	70.62
252.164	91.62
252.397	81.62
252.63	73.62
252.863	74.62
253.096	81.62
253.329	83.62
253.562	72.62
253.795	79.62
254.028	80.62
254.261	80.62
254.494	62.62
254.727	77.62
254.96	68.62
255.193	77.62
255.426	79.62
255.659	77.62
255.892	64.62
256.124	76.62
256.357	94.62
256.59	82.62
256.823	89.62
257.056	100.62
257.289	77.62
257.521	80.62
257.754	83.62
257.987	83.62
258.22	72.62
258.452	71.62
258.685	84.62
258.918	71.62
259.151	72.62
259.383	79.62
259.616	77.62
259.849	88.62
260.081	87.62
260.314	74.62
260.547	65.62
260.779	71.62
261.012	84.62
261.244	75.62
261.477	83.62
261.71	85.62
261.942	86.62
262.175	83.62
262.407	75.62
262.64	71.62
262.872	90.62
263.105	77.62
263.337	79.62
263.57	65.62
263.802	72.62
264.035	85.62
264.267	83.62
264.499	80.62
264.732	91.62
264.964	83.62
265.197	86.62
265.429	73.62
265.661	70.62
265.894	74.62
266.126	69.62
266.358	77.62
266.591	76.62
266.823	67.62
267.055	82.62
267.287	92.62
267.52	85.62
267.752	76.62
267.984	89.62
268.216	78.62
268.448	73.62
268.681	87.62
268.913	78.62
269.145	77.62
269.377	83.62
269.609	89.62
269.841	78.62
270.073	69.62
270.306	77.62
270.538	87.62
270.77	77.62
271.002	76.62
271.234	79.62
271.466	87.62
271.698	76.62
271.93	92.62
272.162	83.62
272.394	90.62
272.626	81.62
272.858	71.62
273.09	72.62
273.322	82.62
273.553	92.62
273.785	65.62
274.017	76.62
274.249	91.62
274.481	73.62
274.713	81.62
274.945	82.62
275.176	77.62
275.408	87.62
275.64	77.62
275.872	67.62
276.104	79.62
276.335	93.62
276.567	93.62
276.799	76.62
277.031	75.62
277.262	87.62
277.494	79.62
277.726	68.62
277.957	72.62
278.189	78.62
278.421	86.62
278.652	85.62
278.884	97.62
279.115	77.62
279.347	76.62
279.579	87.62
279.81	79.62
280.042	76.62
280.273	80.62
280.505	74.62
280.736	83.62
280.968	90.62
281.199	90.62
281.431	81.62
281.662	92.62
281.894	96.62
282.125	88.62
282.356	89.62
282.588	87.62
282.819	81.62
283.051	73.62
283.282	74.62
283.513	92.62
283.745	83.62
283.976	69.62
284.207	94.62
284.439	73.62
284.67	79.62
284.901	78.62
285.132	82.62
285.364	79.62
285.595	86.62
285.826	72.62
286.057	85.62
286.288	85.62
286.52	96.62
286.751	86.62
286.982	80.62
287.213	93.62
287.444	76.62
287.675	94.62
287.906	90.62
288.138	88.62
288.369	79.62
288.6	72.62
288.831	84.62
289.062	84.62
289.293	83.62
289.524	88.62
289.755	83.62
289.986	79.62
290.217	71.62
290.448	79.62
290.679	76.62
290.91	75.62
291.141	92.62
291.371	85.62
291.602	80.62
291.833	79.62
292.064	94.62
292.295	81.62
292.526	69.62
292.757	79.62
292.987	83.62
293.218	75.62
293.449	83.62
293.68	83.62
293.91	78.62
294.141	79.62
294.372	92.62
294.603	88.62
294.833	71.62
295.064	70.62
295.295	87.62
295.525	85.62
295.756	77.62
295.987	85.62
296.217	71.62
296.448	84.62
296.679	86.62
296.909	89.62
297.14	81.62
297.37	77.62
297.601	82.62
297.831	73.62
298.062	72.62
298.292	101.62
298.523	99.62
298.753	83.62
298.984	79.62
299.214	88.62
299.445	79.62
299.675	79.62
299.905	93.62
300.136	87.62
300.366	70.62
300.597	76.62
300.827	98.62
301.057	99.62
301.288	92.62
301.518	95.62
301.748	90.62
301.979	90.62
302.209	85.62
302.439	72.62
302.669	80.62
302.9	92.62
303.13	102.62
303.36	84.62
303.59	82.62
303.82	96.62
304.051	91.62
304.281	81.62
304.511	88.62
304.741	85.62
304.971	73.62
305.201	84.62
305.431	88.62
305.661	77.62
305.891	84.62
306.121	75.62
306.352	87.62
306.582	83.62
306.812	71.62
307.042	82.62
307.272	89.62
307.502	81.62
307.731	70.62
307.961	81.62
308.191	85.62
308.421	95.62
308.651	77.62
308.881	74.62
309.111	68.62
309.341	87.62
309.571	85.62
309.8	75.62
310.03	78.62
310.26	79.62
310.49	74.62
310.72	78.62
310.949	72.62
311.179	79.62
311.409	102.62
311.639	83.62
311.868	81.62
312.098	86.62
312.328	75.62
312.557	82.62
312.787	77.62
313.017	82.62
313.246	79.62
313.476	80.62
313.706	85.62
313.935	83.62
314.165	91.62
314.394	78.62
314.624	90.62
314.853	91.62
315.083	75.62
315.312	83.62
315.542	78.62
315.771	84.62
316.001	91.62
316.23	79.62
316.46	104.62
316.689	84.62
316.919	87.62
317.148	70.62
317.377	89.62
317.607	80.62
317.836	74.62
318.065	86.62
318.295	88.62
318.524	96.62
318.753	82.62
318.983	77.62
319.212	92.62
319.441	96.62
319.67	82.62
319.9	83.62
320.129	84.62
320.358	81.62
320.587	79.62
320.816	64.62
321.046	73.62
321.275	73.62
321.504	87.62
321.733	80.62
321.962	70.62
322.191	80.62
322.42	83.62
322.649	77.62
322.878	82.62
323.108	86.62
323.337	78.62
323.566	88.62
323.795	83.62
324.024	69.62
324.253	80.62
324.482	75.62
324.71	73.62
324.939	76.62
325.168	83.62
325.397	74.62
325.626	86.62
325.855	85.62
326.084	99.62
326.313	89.62
326.542	83.62
326.77	74.62
326.999	86.62
327.228	77.62
327.457	88.62
327.686	87.62
327.914	89.62
328.143	80.62
328.372	93.62
328.6	83.62
328.829	74.62
329.058	87.62
329.287	77.62
329.515	87.62
329.744	79.62
329.972	79.62
330.201	80.62
330.43	88.62
330.658	88.62
330.887	87.62
331.115	94.62
331.344	83.62
331.572	76.62
331.801	78.62
332.03	81.62
332.258	86.62
332.486	88.62
332.715	83.62
332.943	92.62
333.172	80.62
333.4	76.62
333.629	82.62
333.857	93.62
334.085	91.62
334.314	86.62
334.542	88.62
334.771	73.62
334.999	82.62
335.227	69.62
335.455	86.62
335.684	80.62
335.912	92.62
336.14	90.62
336.369	75.62
336.597	63.62
336.825	71.62
337.053	59.62
337.281	97.62
337.51	77.62
337.738	76.62
337.966	87.62
338.194	65.62
338.422	73.62
338.65	88.62
338.878	79.62
339.106	96.62
339.334	80.62
339.562	90.62
339.79	85.62
340.018	85.62
340.246	84.62
340.474	76.62
340.702	85.62
340.93	80.62
341.158	76.62
341.386	75.62
341.614	72.62
341.842	71.62
342.07	86.62
342.298	84.62
342.526	92.62
342.754	89.62
342.981	80.62
343.209	78.62
343.437	97.62
343.665	84.62
343.893	81.62
344.12	89.62
344.348	76.62
344.576	80.62
344.804	82.62
345.031	81.62
345.259	83.62
345.487	82.62
345.714	73.62
345.942	83.62
346.17	75.62
346.397	73.62
346.625	77.62
346.853	78.62
347.08	85.62
347.308	94.62
347.535	82.62
347.763	81.62
347.99	67.62
348.218	88.62
348.445	79.62
348.673	77.62
348.9	84.62
349.128	79.62
349.355	81.62
349.583	84.62
349.81	81.62
350.037	74.62
350.265	79.62
350.492	92.62
350.72	83.62
350.947	81.62
351.174	78.62
351.402	98.62
351.629	77.62
351.856	78.62
352.083	77.62
352.311	83.62
352.538	83.62
352.765	79.62
352.992	83.62
353.22	90.62
353.447	88.62
353.674	80.62
353.901	79.62
354.128	85.62
354.355	83.62
354.583	84.62
354.81	87.62
355.037	83.62
355.264	89.62
355.491	71.62
355.718	79.62
355.945	72.62
356.172	66.62
356.399	81.62
356.626	72.62
356.853	82.62
357.08	89.62
357.307	78.62
357.534	82.62
357.761	81.62
357.988	82.62
358.215	82.62
358.441	80.62
358.668	75.62
358.895	78.62
359.122	85.62
359.349	79.62
359.576	78.62
359.802	80.62
360.029	79.62
360.256	65.62
360.483	87.62
360.709	67.62
360.936	80.62
361.163	75.62
361.39	79.62
361.616	77.62
361.843	84.62
362.07	78.62
362.296	77.62
362.523	84.62
362.749	78.62
362.976	81.62
363.203	88.62
363.429	75.62
363.656	89.62
363.882	74.62
364.109	81.62
364.335	84.62
364.562	75.62
364.788	70.62
365.015	99.62
365.241	73.62
365.468	77.62
365.694	85.62
365.92	91.62
366.147	88.62
366.373	85.62
366.599	70.62
366.826	75.62
367.052	83.62
367.278	93.62
367.505	77.62
367.731	99.62
367.957	91.62
368.184	82.62
368.41	89.62
368.636	81.62
368.862	98.62
369.089	93.62
369.315	79.62
369.541	87.62
369.767	84.62
369.993	73.62
370.219	62.62
370.445	79.62
370.672	83.62
370.898	89.62
371.124	81.62
371.35	83.62
371.576	73.62
371.802	86.62
372.028	75.62
372.254	91.62
372.48	90.62
372.706	90.62
372.932	93.62
373.158	84.62
373.384	92.62
373.61	87.62
373.835	96.62
374.061	80.62
374.287	87.62
374.513	82.62
374.739	65.62
374.965	81.62
375.191	71.62
375.416	85.62
375.642	77.62
375.868	84.62
376.094	79.62
376.319	79.62
376.545	79.62
376.771	72.62
376.997	88.62
377.222	76.62
377.448	84.62
377.674	75.62
377.899	85.62
378.125	93.62
378.35	72.62
378.576	76.62
378.802	76.62
379.027	79.62
379.253	87.62
379.478	74.62
379.704	75.62
379.929	82.62
380.155	77.62
380.38	86.62
380.606	80.62
380.831	79.62
381.057	86.62
381.282	66.62
381.507	92.62
381.733	81.62
381.958	92.62
382.184	77.62
382.409	77.62
382.634	86.62
382.86	94.62
383.085	94.62
383.31	81.62
383.535	81.62
383.761	87.62
383.986	79.62
384.211	88.62
384.436	93.62
384.662	83.62
384.887	76.62
385.112	79.62
385.337	94.62
385.562	76.62
385.787	78.62
386.013	78.62
386.238	84.62
386.463	82.62
386.688	76.62
386.913	73.62
387.138	71.62
387.363	67.62
387.588	88.62
387.813	72.62
388.038	92.62
388.263	73.62
388.488	75.62
388.713	79.62
388.938	71.62
389.163	76.62
389.387	83.62
389.612	78.62
389.837	82.62
390.062	79.62
390.287	71.62
390.512	73.62
390.736	74.62
390.961	77.62
391.186	61.62
391.411	83.62
391.636	78.62
391.86	84.62
392.085	91.62
392.31	78.62
392.534	74.62
392.759	79.62
392.984	100.62
393.208	102.62
393.433	138.62
393.658	107.62
393.882	100.62
394.107	95.62
394.331	85.62
394.556	95.62
394.78	95.62
395.005	85.62
395.229	75.62
395.454	87.62
395.678	62.62
395.903	85.62
396.127	90.62
396.352	90.62
396.576	104.62
396.801	111.62
397.025	123.62
397.249	112.62
397.474	91.62
397.698	90.62
397.922	81.62
398.147	80.62
398.371	83.62
398.595	91.62
398.82	77.62
399.044	82.62
399.268	75.62
399.492	87.62
399.717	83.62
399.941	86.62
400.165	73.62
400.389	81.62
400.613	90.62
400.837	97.62
401.062	78.62
401.286	78.62
401.51	98.62
401.734	72.62
401.958	95.62
402.182	71.62
402.406	74.62
402.63	96.62
402.854	85.62
403.078	79.62
403.302	66.62
403.526	79.62
403.75	83.62
403.974	74.62
404.198	85.62
404.422	91.62
404.645	83.62
404.869	82.62
405.093	71.62
405.317	78.62
405.541	63.62
405.765	64.62
405.988	75.62
406.212	88.62
406.436	77.62
406.66	82.62
406.883	73.62
407.107	72.62
407.331	84.62
407.555	78.62
407.778	82.62
408.002	76.62
408.226	81.62
408.449	73.62
408.673	68.62
408.896	97.62
409.12	80.62
409.344	88.62
409.567	77.62
409.791	72.62
410.014	65.62
410.238	64.62
410.461	86.62
410.685	71.62
410.908	77.62
411.132	79.62
411.355	87.62
411.578	79.62
411.802	92.62
412.025	77.62
412.249	80.62
412.472	89.62
412.695	81.62
412.919	79.62
413.142	78.62
413.365	74.62
413.589	83.62
413.812	73.62
414.035	88.62
414.258	71.62
414.482	76.62
414.705	83.62
414.928	77.62
415.151	88.62
415.374	87.62
415.597	81.62
415.821	87.62
416.044	85.62
416.267	73.62
416.49	90.62
416.713	94.62
416.936	76.62
417.159	80.62
417.382	83.62
417.605	81.62
417.828	83.62
418.051	71.62
418.274	81.62
418.497	84.62
418.72	72.62
418.943	76.62
419.166	93.62
419.389	97.62
419.611	81.62
419.834	76.62
420.057	75.62
420.28	82.62
420.503	91.62
420.726	80.62
420.948	84.62
421.171	69.62
421.394	84.62
421.617	84.62
421.839	78.62
422.062	84.62
422.285	91.62
422.507	119.62
422.73	164.62
422.953	151.62
423.175	96.62
423.398	77.62
423.621	99.62
423.843	80.62
424.066	83.62
424.288	87.62
424.511	68.62
424.733	91.62
424.956	81.62
425.178	73.62
425.401	75.62
425.623	77.62
425.846	76.62
426.068	83.62
426.291	72.62
426.513	77.62
426.735	87.62
426.958	95.62
427.18	91.62
427.402	77.62
427.625	76.62
427.847	74.62
428.069	91.62
428.292	90.62
428.514	95.62
428.736	75.62
428.958	99.62
429.181	92.62
429.403	79.62
429.625	79.62
429.847	99.62
430.069	91.62
430.292	106.62
430.514	99.62
430.736	83.62
430.958	89.62
431.18	80.62
431.402	76.62
431.624	83.62
431.846	87.62
432.068	87.62
432.29	75.62
432.512	88.62
432.734	79.62
432.956	67.62
433.178	96.62
433.4	82.62
433.622	97.62
433.844	81.62
434.066	69.62
434.287	78.62
434.509	79.62
434.731	68.62
434.953	81.62
435.175	74.62
435.397	89.62
435.618	85.62
435.84	82.62
436.062	87.62
436.284	84.62
436.505	75.62
436.727	69.62
436.949	76.62
437.17	86.62
437.392	78.62
437.614	91.62
437.835	88.62
438.057	71.62
438.278	71.62
438.5	75.62
438.721	93.62
438.943	95.62
439.165	71.62
439.386	86.62
439.608	89.62
439.829	63.62
440.05	73.62
440.272	89.62
440.493	83.62
440.715	82.62
440.936	69.62
441.158	83.62
441.379	84.62
441.6	83.62
441.822	86.62
442.043	87.62
442.264	77.62
442.486	83.62
442.707	88.62
442.928	97.62
443.149	93.62
443.371	97.62
443.592	96.62
443.813	111.62
444.034	89.62
444.255	80.62
444.476	78.62
444.698	88.62
444.919	80.62
445.14	147.62
445.361	125.62
445.582	112.62
445.803	113.62
446.024	94.62
446.245	81.62
446.466	77.62
446.687	69.62
446.908	89.62
447.129	86.62
447.35	83.62
447.571	81.62
447.792	80.62
448.013	76.62
448.234	84.62
448.455	93.62
448.675	87.62
448.896	79.62
449.117	81.62
449.338	90.62
449.559	89.62
449.779	73.62
450	81.62
450.221	72.62
450.442	77.62
450.662	79.62
450.883	83.62
451.104	81.62
451.324	72.62
451.545	82.62
451.766	71.62
451.986	69.62
452.207	72.62
452.428	79.62
452.648	87.62
452.869	76.62
453.089	75.62
453.31	88.62
453.53	81.62
453.751	85.62
453.971	67.62
454.192	73.62
454.412	82.62
454.633	67.62
454.853	78.62
455.073	81.62
455.294	79.62
455.514	95.62
455.734	84.62
455.955	89.62
456.175	70.62
456.395	77.62
456.616	72.62
456.836	92.62
457.056	81.62
457.276	80.62
457.497	85.62
457.717	76.62
457.937	84.62
458.157	88.62
458.377	78.62
458.598	93.62
458.818	97.62
459.038	67.62
459.258	63.62
459.478	72.62
459.698	89.62
459.918	84.62
460.138	77.62
460.358	70.62
460.578	77.62
460.798	73.62
461.018	81.62
461.238	92.62
461.458	91.62
461.678	87.62
461.898	84.62
462.118	89.62
462.338	80.62
462.558	83.62
462.777	90.62
462.997	79.62
463.217	84.62
463.437	84.62
463.657	77.62
463.876	84.62
464.096	74.62
464.316	81.62
464.536	62.62
464.755	93.62
464.975	77.62
465.195	82.62
465.414	91.62
465.634	84.62
465.854	71.62
466.073	63.62
466.293	77.62
466.512	82.62
466.732	80.62
466.951	92.62
467.171	71.62
467.391	74.62
467.61	79.62
467.829	87.62
468.049	83.62
468.268	92.62
468.488	69.62
468.707	70.62
468.927	71.62
469.146	86.62
469.365	95.62
469.585	101.62
469.804	84.62
470.023	80.62
470.243	76.62
470.462	75.62
470.681	87.62
470.901	74.62
471.12	71.62
471.339	91.62
471.558	79.62
471.777	83.62
471.997	78.62
472.216	75.62
472.435	82.62
472.654	69.62
472.873	87.62
473.092	84.62
473.311	79.62
473.53	90.62
473.749	79.62
473.968	83.62
474.187	86.62
474.406	88.62
474.625	81.62
474.844	92.62
475.063	62.62
475.282	85.62
475.501	95.62
475.72	83.62
475.939	87.62
476.158	79.62
476.377	78.62
476.596	71.62
476.814	87.62
477.033	74.62
477.252	88.62
477.471	73.62
477.69	72.62
477.908	84.62
478.127	89.62
478.346	72.62
478.564	80.62
478.783	84.62
479.002	75.62
479.22	66.62
479.439	92.62
479.658	91.62
479.876	77.62
480.095	90.62
480.313	83.62
480.532	84.62
480.751	67.62
480.969	69.62
481.188	93.62
481.406	85.62
481.624	65.62
481.843	80.62
482.061	87.62
482.28	81.62
482.498	73.62
482.717	89.62
482.935	95.62
483.153	71.62
483.372	79.62
483.59	84.62
483.808	78.62
484.027	91.62
484.245	78.62
484.463	83.62
484.681	79.62
484.9	83.62
485.118	80.62
485.336	91.62
485.554	73.62
485.772	95.62
485.99	91.62
486.209	73.62
486.427	87.62
486.645	79.62
486.863	80.62
487.081	70.62
487.299	77.62
487.517	83.62
487.735	86.62
487.953	85.62
488.171	91.62
488.389	76.62
488.607	85.62
488.825	68.62
489.043	85.62
489.261	93.62
489.479	84.62
489.696	73.62
489.914	81.62
490.132	85.62
490.35	69.62
490.568	96.62
490.786	86.62
491.003	77.62
491.221	95.62
491.439	79.62
491.657	76.62
491.874	92.62
492.092	85.62
492.31	103.62
492.527	87.62
492.745	64.62
492.963	87.62
493.18	81.62
493.398	76.62
493.615	77.62
493.833	91.62
494.05	79.62
494.268	79.62
494.485	78.62
494.703	84.62
494.92	86.62
495.138	79.62
495.355	72.62
495.573	75.62
495.79	78.62
496.008	92.62
496.225	85.62
496.442	81.62
496.66	76.62
496.877	78.62
497.094	88.62
497.312	84.62
497.529	70.62
497.746	87.62
497.963	77.62
498.181	95.62
498.398	69.62
498.615	89.62
498.832	89.62
499.049	81.62
499.267	90.62
499.484	94.62
499.701	83.62
499.918	82.62
500.135	72.62
500.352	76.62
500.569	90.62
500.786	93.62
501.003	92.62
501.22	92.62
501.437	72.62
501.654	85.62
501.871	83.62
502.088	87.62
502.305	71.62
502.522	79.62
502.739	80.62
502.956	73.62
503.172	77.62
503.389	90.62
503.606	76.62
503.823	92.62
504.04	85.62
504.256	80.62
504.473	102.62
504.69	91.62
504.907	81.62
505.123	76.62
505.34	65.62
505.557	86.62
505.773	77.62
505.99	77.62
506.207	76.62
506.423	88.62
506.64	99.62
506.856	83.62
507.073	74.62
507.289	84.62
507.506	71.62
507.722	79.62
507.939	88.62
508.155	91.62
508.372	83.62
508.588	75.62
508.805	84.62
509.021	81.62
509.238	77.62
509.454	68.62
509.67	81.62
509.887	85.62
510.103	77.62
510.319	83.62
510.536	79.62
510.752	88.62
510.968	75.62
511.184	87.62
511.401	76.62
511.617	99.62
511.833	85.62
512.049	66.62
512.265	83.62
512.481	80.62
512.698	79.62
512.914	73.62
513.13	77.62
513.346	88.62
513.562	79.62
513.778	65.62
513.994	88.62
514.21	96.62
514.426	81.62
514.642	82.62
514.858	84.62
515.074	77.62
515.29	82.62
515.506	77.62
515.721	91.62
515.937	77.62
516.153	91.62
516.369	76.62
516.585	88.62
516.801	82.62
517.016	80.62
517.232	73.62
517.448	84.62
517.664	77.62
517.879	86.62
518.095	86.62
518.311	94.62
518.527	92.62
518.742	89.62
518.958	99.62
519.173	95.62
519.389	97.62
519.605	77.62
519.82	88.62
520.036	84.62
