Data from 10100_3_HRD10591_00034.txt Node
Date: Mon Jan 19 14:02:39 EST 2026
User: Yrep
Spectrometer: HR+D1059
Trigger mode: 1
Integration Time (sec): 1.000000E-1
Scans to average: 1
Electric dark correction enabled: true
Nonlinearity correction enabled: false
Boxcar width: 0
XAxis mode: Wavelengths
Number of Pixels in Spectrum: 2048
>>>>>Begin Spectral Data<<<<<
223.165	-32.44
223.4	-32.44
223.635	-32.44
223.869	-39.44
224.104	-19.44
224.338	-11.44
224.573	-13.44
224.808	-0.44
225.042	-7.44
225.277	-11.44
225.511	7.56
225.746	9.56
225.98	6.56
226.215	7.56
226.449	27.56
226.683	18.56
226.918	22.56
227.152	35.56
227.387	37.56
227.621	37.56
227.856	33.56
228.09	38.56
228.324	54.56
228.559	53.56
228.793	62.56
229.027	63.56
229.262	52.56
229.496	72.56
229.73	79.56
229.964	69.56
230.199	60.56
230.433	70.56
230.667	81.56
230.901	79.56
231.136	74.56
231.37	69.56
231.604	75.56
231.838	77.56
232.072	79.56
232.306	66.56
232.541	97.56
232.775	79.56
233.009	78.56
233.243	96.56
233.477	70.56
233.711	94.56
233.945	87.56
234.179	80.56
234.413	74.56
234.647	79.56
234.881	82.56
235.115	62.56
235.349	88.56
235.583	79.56
235.817	76.56
236.051	78.56
236.285	80.56
236.519	86.56
236.753	80.56
236.987	86.56
237.221	71.56
237.455	88.56
237.689	94.56
237.922	73.56
238.156	71.56
238.39	86.56
238.624	80.56
238.858	93.56
239.091	73.56
239.325	81.56
239.559	72.56
239.793	73.56
240.027	74.56
240.26	71.56
240.494	84.56
240.728	73.56
240.961	66.56
241.195	97.56
241.429	90.56
241.662	72.56
241.896	80.56
242.13	66.56
242.363	80.56
242.597	78.56
242.83	85.56
243.064	81.56
243.298	60.56
243.531	68.56
243.765	78.56
243.998	74.56
244.232	95.56
244.465	84.56
244.699	84.56
244.932	80.56
245.166	99.56
245.399	75.56
245.633	84.56
245.866	80.56
246.099	75.56
246.333	81.56
246.566	63.56
246.8	69.56
247.033	80.56
247.266	80.56
247.5	74.56
247.733	72.56
247.966	74.56
248.2	87.56
248.433	72.56
248.666	77.56
248.899	80.56
249.133	76.56
249.366	73.56
249.599	72.56
249.832	76.56
250.066	85.56
250.299	88.56
250.532	77.56
250.765	85.56
250.998	74.56
251.231	69.56
251.465	81.56
251.698	73.56
251.931	80.56
252.164	63.56
252.397	82.56
252.63	94.56
252.863	89.56
253.096	66.56
253.329	87.56
253.562	75.56
253.795	82.56
254.028	81.56
254.261	80.56
254.494	68.56
254.727	76.56
254.96	73.56
255.193	69.56
255.426	98.56
255.659	85.56
255.892	86.56
256.124	80.56
256.357	78.56
256.59	70.56
256.823	82.56
257.056	84.56
257.289	75.56
257.521	72.56
257.754	76.56
257.987	90.56
258.22	82.56
258.452	78.56
258.685	84.56
258.918	68.56
259.151	72.56
259.383	87.56
259.616	78.56
259.849	82.56
260.081	66.56
260.314	84.56
260.547	81.56
260.779	94.56
261.012	84.56
261.244	91.56
261.477	88.56
261.71	71.56
261.942	83.56
262.175	80.56
262.407	86.56
262.64	69.56
262.872	82.56
263.105	86.56
263.337	82.56
263.57	74.56
263.802	75.56
264.035	88.56
264.267	78.56
264.499	92.56
264.732	78.56
264.964	79.56
265.197	84.56
265.429	78.56
265.661	79.56
265.894	84.56
266.126	93.56
266.358	92.56
266.591	83.56
266.823	77.56
267.055	72.56
267.287	96.56
267.52	81.56
267.752	92.56
267.984	89.56
268.216	86.56
268.448	82.56
268.681	83.56
268.913	92.56
269.145	86.56
269.377	94.56
269.609	70.56
269.841	90.56
270.073	74.56
270.306	79.56
270.538	90.56
270.77	88.56
271.002	89.56
271.234	88.56
271.466	92.56
271.698	80.56
271.93	74.56
272.162	94.56
272.394	67.56
272.626	86.56
272.858	83.56
273.09	75.56
273.322	79.56
273.553	79.56
273.785	85.56
274.017	87.56
274.249	70.56
274.481	88.56
274.713	84.56
274.945	83.56
275.176	80.56
275.408	88.56
275.64	73.56
275.872	83.56
276.104	83.56
276.335	92.56
276.567	78.56
276.799	86.56
277.031	84.56
277.262	77.56
277.494	91.56
277.726	92.56
277.957	80.56
278.189	79.56
278.421	69.56
278.652	85.56
278.884	87.56
279.115	76.56
279.347	85.56
279.579	86.56
279.81	90.56
280.042	82.56
280.273	101.56
280.505	90.56
280.736	79.56
280.968	77.56
281.199	94.56
281.431	81.56
281.662	93.56
281.894	91.56
282.125	81.56
282.356	82.56
282.588	82.56
282.819	87.56
283.051	92.56
283.282	96.56
283.513	89.56
283.745	84.56
283.976	82.56
284.207	85.56
284.439	82.56
284.67	92.56
284.901	76.56
285.132	81.56
285.364	82.56
285.595	81.56
285.826	97.56
286.057	87.56
286.288	81.56
286.52	86.56
286.751	92.56
286.982	89.56
287.213	76.56
287.444	77.56
287.675	97.56
287.906	84.56
288.138	87.56
288.369	68.56
288.6	80.56
288.831	93.56
289.062	81.56
289.293	74.56
289.524	81.56
289.755	96.56
289.986	84.56
290.217	86.56
290.448	87.56
290.679	90.56
290.91	93.56
291.141	90.56
291.371	92.56
291.602	86.56
291.833	77.56
292.064	80.56
292.295	88.56
292.526	96.56
292.757	78.56
292.987	83.56
293.218	87.56
293.449	95.56
293.68	80.56
293.91	88.56
294.141	92.56
294.372	89.56
294.603	84.56
294.833	75.56
295.064	80.56
295.295	80.56
295.525	80.56
295.756	90.56
295.987	74.56
296.217	83.56
296.448	78.56
296.679	94.56
296.909	96.56
297.14	86.56
297.37	86.56
297.601	82.56
297.831	98.56
298.062	88.56
298.292	84.56
298.523	96.56
298.753	74.56
298.984	84.56
299.214	91.56
299.445	83.56
299.675	95.56
299.905	93.56
300.136	75.56
300.366	83.56
300.597	71.56
300.827	85.56
301.057	80.56
301.288	90.56
301.518	88.56
301.748	81.56
301.979	98.56
302.209	89.56
302.439	94.56
302.669	83.56
302.9	87.56
303.13	87.56
303.36	92.56
303.59	98.56
303.82	97.56
304.051	86.56
304.281	65.56
304.511	87.56
304.741	72.56
304.971	81.56
305.201	94.56
305.431	94.56
305.661	71.56
305.891	88.56
306.121	79.56
306.352	86.56
306.582	88.56
306.812	92.56
307.042	100.56
307.272	87.56
307.502	80.56
307.731	93.56
307.961	88.56
308.191	91.56
308.421	91.56
308.651	92.56
308.881	86.56
309.111	95.56
309.341	105.56
309.571	101.56
309.8	77.56
310.03	88.56
310.26	84.56
310.49	87.56
310.72	74.56
310.949	69.56
311.179	79.56
311.409	98.56
311.639	88.56
311.868	84.56
312.098	92.56
312.328	72.56
312.557	76.56
312.787	68.56
313.017	88.56
313.246	81.56
313.476	92.56
313.706	85.56
313.935	88.56
314.165	101.56
314.394	97.56
314.624	80.56
314.853	93.56
315.083	102.56
315.312	77.56
315.542	93.56
315.771	100.56
316.001	99.56
316.23	83.56
316.46	95.56
316.689	80.56
316.919	97.56
317.148	96.56
317.377	92.56
317.607	92.56
317.836	91.56
318.065	92.56
318.295	104.56
318.524	90.56
318.753	91.56
318.983	83.56
319.212	102.56
319.441	84.56
319.67	92.56
319.9	79.56
320.129	91.56
320.358	85.56
320.587	94.56
320.816	77.56
321.046	92.56
321.275	82.56
321.504	81.56
321.733	80.56
321.962	83.56
322.191	75.56
322.42	102.56
322.649	73.56
322.878	95.56
323.108	81.56
323.337	100.56
323.566	86.56
323.795	88.56
324.024	84.56
324.253	87.56
324.482	93.56
324.71	90.56
324.939	92.56
325.168	94.56
325.397	89.56
325.626	96.56
325.855	77.56
326.084	82.56
326.313	75.56
326.542	95.56
326.77	83.56
326.999	71.56
327.228	82.56
327.457	80.56
327.686	87.56
327.914	75.56
328.143	89.56
328.372	75.56
328.6	89.56
328.829	93.56
329.058	82.56
329.287	82.56
329.515	91.56
329.744	89.56
329.972	80.56
330.201	89.56
330.43	70.56
330.658	80.56
330.887	77.56
331.115	92.56
331.344	63.56
331.572	81.56
331.801	84.56
332.03	82.56
332.258	81.56
332.486	93.56
332.715	94.56
332.943	92.56
333.172	87.56
333.4	88.56
333.629	86.56
333.857	86.56
334.085	81.56
334.314	90.56
334.542	95.56
334.771	86.56
334.999	79.56
335.227	74.56
335.455	98.56
335.684	84.56
335.912	85.56
336.14	94.56
336.369	93.56
336.597	93.56
336.825	97.56
337.053	102.56
337.281	80.56
337.51	87.56
337.738	78.56
337.966	87.56
338.194	89.56
338.422	86.56
338.65	84.56
338.878	85.56
339.106	86.56
339.334	92.56
339.562	94.56
339.79	81.56
340.018	80.56
340.246	84.56
340.474	89.56
340.702	89.56
340.93	86.56
341.158	75.56
341.386	66.56
341.614	74.56
341.842	92.56
342.07	81.56
342.298	99.56
342.526	69.56
342.754	96.56
342.981	92.56
343.209	93.56
343.437	91.56
343.665	73.56
343.893	96.56
344.12	92.56
344.348	81.56
344.576	85.56
344.804	80.56
345.031	89.56
345.259	84.56
345.487	89.56
345.714	74.56
345.942	79.56
346.17	88.56
346.397	88.56
346.625	83.56
346.853	83.56
347.08	83.56
347.308	90.56
347.535	87.56
347.763	83.56
347.99	87.56
348.218	84.56
348.445	78.56
348.673	81.56
348.9	80.56
349.128	86.56
349.355	79.56
349.583	75.56
349.81	93.56
350.037	89.56
350.265	89.56
350.492	86.56
350.72	87.56
350.947	76.56
351.174	85.56
351.402	82.56
351.629	90.56
351.856	85.56
352.083	81.56
352.311	86.56
352.538	84.56
352.765	86.56
352.992	91.56
353.22	84.56
353.447	85.56
353.674	93.56
353.901	87.56
354.128	92.56
354.355	90.56
354.583	73.56
354.81	78.56
355.037	102.56
355.264	86.56
355.491	71.56
355.718	93.56
355.945	91.56
356.172	85.56
356.399	87.56
356.626	75.56
356.853	94.56
357.08	88.56
357.307	88.56
357.534	101.56
357.761	98.56
357.988	83.56
358.215	107.56
358.441	95.56
358.668	90.56
358.895	91.56
359.122	81.56
359.349	71.56
359.576	88.56
359.802	79.56
360.029	84.56
360.256	86.56
360.483	89.56
360.709	88.56
360.936	84.56
361.163	95.56
361.39	102.56
361.616	90.56
361.843	80.56
362.07	100.56
362.296	97.56
362.523	101.56
362.749	126.56
362.976	92.56
363.203	126.56
363.429	91.56
363.656	82.56
363.882	77.56
364.109	117.56
364.335	112.56
364.562	138.56
364.788	97.56
365.015	86.56
365.241	88.56
365.468	98.56
365.694	97.56
365.92	80.56
366.147	88.56
366.373	69.56
366.599	84.56
366.826	82.56
367.052	79.56
367.278	88.56
367.505	74.56
367.731	89.56
367.957	86.56
368.184	89.56
368.41	85.56
368.636	85.56
368.862	88.56
369.089	87.56
369.315	88.56
369.541	91.56
369.767	72.56
369.993	99.56
370.219	80.56
370.445	88.56
370.672	88.56
370.898	80.56
371.124	90.56
371.35	94.56
371.576	88.56
371.802	91.56
372.028	88.56
372.254	99.56
372.48	78.56
372.706	98.56
372.932	79.56
373.158	89.56
373.384	111.56
373.61	113.56
373.835	120.56
374.061	104.56
374.287	91.56
374.513	100.56
374.739	101.56
374.965	83.56
375.191	106.56
375.416	92.56
375.642	94.56
375.868	99.56
376.094	87.56
376.319	77.56
376.545	88.56
376.771	86.56
376.997	95.56
377.222	96.56
377.448	84.56
377.674	76.56
377.899	88.56
378.125	89.56
378.35	78.56
378.576	89.56
378.802	77.56
379.027	72.56
379.253	75.56
379.478	86.56
379.704	97.56
379.929	93.56
380.155	86.56
380.38	97.56
380.606	96.56
380.831	98.56
381.057	87.56
381.282	94.56
381.507	100.56
381.733	86.56
381.958	98.56
382.184	100.56
382.409	92.56
382.634	109.56
382.86	104.56
383.085	74.56
383.31	90.56
383.535	94.56
383.761	102.56
383.986	94.56
384.211	90.56
384.436	88.56
384.662	88.56
384.887	83.56
385.112	77.56
385.337	99.56
385.562	104.56
385.787	90.56
386.013	103.56
386.238	97.56
386.463	85.56
386.688	96.56
386.913	91.56
387.138	94.56
387.363	97.56
387.588	99.56
387.813	89.56
388.038	88.56
388.263	108.56
388.488	92.56
388.713	83.56
388.938	85.56
389.163	90.56
389.387	86.56
389.612	74.56
389.837	93.56
390.062	90.56
390.287	84.56
390.512	95.56
390.736	82.56
390.961	82.56
391.186	95.56
391.411	78.56
391.636	90.56
391.86	94.56
392.085	98.56
392.31	95.56
392.534	124.56
392.759	118.56
392.984	161.56
393.208	315.56
393.433	490.56
393.658	371.56
393.882	156.56
394.107	110.56
394.331	109.56
394.556	116.56
394.78	101.56
395.005	90.56
395.229	94.56
395.454	96.56
395.678	97.56
395.903	123.56
396.127	126.56
396.352	143.56
396.576	192.56
396.801	332.56
397.025	380.56
397.249	193.56
397.474	123.56
397.698	102.56
397.922	112.56
398.147	88.56
398.371	80.56
398.595	87.56
398.82	95.56
399.044	82.56
399.268	78.56
399.492	74.56
399.717	92.56
399.941	90.56
400.165	79.56
400.389	86.56
400.613	84.56
400.837	76.56
401.062	82.56
401.286	80.56
401.51	86.56
401.734	80.56
401.958	65.56
402.182	78.56
402.406	82.56
402.63	88.56
402.854	93.56
403.078	89.56
403.302	86.56
403.526	82.56
403.75	73.56
403.974	79.56
404.198	93.56
404.422	85.56
404.645	88.56
404.869	92.56
405.093	68.56
405.317	90.56
405.541	76.56
405.765	96.56
405.988	88.56
406.212	95.56
406.436	84.56
406.66	101.56
406.883	93.56
407.107	95.56
407.331	96.56
407.555	93.56
407.778	124.56
408.002	114.56
408.226	79.56
408.449	76.56
408.673	88.56
408.896	78.56
409.12	87.56
409.344	92.56
409.567	98.56
409.791	101.56
410.014	100.56
410.238	100.56
410.461	84.56
410.685	88.56
410.908	93.56
411.132	89.56
411.355	79.56
411.578	90.56
411.802	85.56
412.025	82.56
412.249	88.56
412.472	73.56
412.695	74.56
412.919	88.56
413.142	72.56
413.365	98.56
413.589	72.56
413.812	80.56
414.035	84.56
414.258	76.56
414.482	73.56
414.705	84.56
414.928	92.56
415.151	77.56
415.374	79.56
415.597	72.56
415.821	94.56
416.044	85.56
416.267	89.56
416.49	74.56
416.713	88.56
416.936	90.56
417.159	77.56
417.382	91.56
417.605	94.56
417.828	63.56
418.051	81.56
418.274	87.56
418.497	74.56
418.72	89.56
418.943	74.56
419.166	97.56
419.389	91.56
419.611	76.56
419.834	82.56
420.057	88.56
420.28	94.56
420.503	104.56
420.726	95.56
420.948	90.56
421.171	95.56
421.394	117.56
421.617	120.56
421.839	110.56
422.062	116.56
422.285	149.56
422.507	258.56
422.73	397.56
422.953	378.56
423.175	181.56
423.398	109.56
423.621	102.56
423.843	98.56
424.066	87.56
424.288	100.56
424.511	99.56
424.733	96.56
424.956	105.56
425.178	79.56
425.401	73.56
425.623	80.56
425.846	81.56
426.068	92.56
426.291	76.56
426.513	84.56
426.735	88.56
426.958	78.56
427.18	86.56
427.402	85.56
427.625	82.56
427.847	80.56
428.069	112.56
428.292	132.56
428.514	126.56
428.736	101.56
428.958	115.56
429.181	112.56
429.403	100.56
429.625	84.56
429.847	110.56
430.069	155.56
430.292	170.56
430.514	183.56
430.736	146.56
430.958	143.56
431.18	107.56
431.402	102.56
431.624	99.56
431.846	120.56
432.068	142.56
432.29	84.56
432.512	85.56
432.734	86.56
432.956	85.56
433.178	77.56
433.4	86.56
433.622	90.56
433.844	87.56
434.066	80.56
434.287	79.56
434.509	88.56
434.731	84.56
434.953	70.56
435.175	75.56
435.397	98.56
435.618	92.56
435.84	97.56
436.062	85.56
436.284	82.56
436.505	95.56
436.727	94.56
436.949	81.56
437.17	96.56
437.392	81.56
437.614	97.56
437.835	85.56
438.057	91.56
438.278	83.56
438.5	93.56
438.721	84.56
438.943	91.56
439.165	86.56
439.386	87.56
439.608	91.56
439.829	87.56
440.05	72.56
440.272	86.56
440.493	90.56
440.715	81.56
440.936	87.56
441.158	90.56
441.379	87.56
441.6	98.56
441.822	100.56
442.043	66.56
442.264	100.56
442.486	119.56
442.707	144.56
442.928	117.56
443.149	96.56
443.371	146.56
443.592	231.56
443.813	206.56
444.034	102.56
444.255	87.56
444.476	96.56
444.698	68.56
444.919	101.56
445.14	155.56
445.361	202.56
445.582	281.56
445.803	236.56
446.024	126.56
446.245	89.56
446.466	72.56
446.687	69.56
446.908	73.56
447.129	77.56
447.35	79.56
447.571	78.56
447.792	80.56
448.013	93.56
448.234	84.56
448.455	66.56
448.675	88.56
448.896	88.56
449.117	84.56
449.338	84.56
449.559	91.56
449.779	92.56
450	80.56
450.221	80.56
450.442	84.56
450.662	76.56
450.883	66.56
451.104	88.56
451.324	78.56
451.545	78.56
451.766	93.56
451.986	90.56
452.207	94.56
452.428	89.56
452.648	98.56
452.869	98.56
453.089	85.56
453.31	88.56
453.53	84.56
453.751	89.56
453.971	69.56
454.192	76.56
454.412	86.56
454.633	76.56
454.853	87.56
455.073	102.56
455.294	90.56
455.514	87.56
455.734	103.56
455.955	80.56
456.175	79.56
456.395	85.56
456.616	75.56
456.836	85.56
457.056	91.56
457.276	96.56
457.497	96.56
457.717	82.56
457.937	101.56
458.157	124.56
458.377	118.56
458.598	112.56
458.818	115.56
459.038	95.56
459.258	85.56
459.478	89.56
459.698	101.56
459.918	75.56
460.138	81.56
460.358	82.56
460.578	92.56
460.798	117.56
461.018	106.56
461.238	83.56
461.458	82.56
461.678	69.56
461.898	87.56
462.118	87.56
462.338	88.56
462.558	93.56
462.777	80.56
462.997	88.56
463.217	80.56
463.437	84.56
463.657	98.56
463.876	77.56
464.096	81.56
464.316	87.56
464.536	79.56
464.755	73.56
464.975	74.56
465.195	98.56
465.414	83.56
465.634	87.56
465.854	88.56
466.073	73.56
466.293	77.56
466.512	64.56
466.732	88.56
466.951	101.56
467.171	90.56
467.391	68.56
467.61	80.56
467.829	84.56
468.049	73.56
468.268	81.56
468.488	80.56
468.707	86.56
468.927	87.56
469.146	85.56
469.365	96.56
469.585	80.56
469.804	84.56
470.023	84.56
470.243	97.56
470.462	83.56
470.681	79.56
470.901	84.56
471.12	85.56
471.339	93.56
471.558	91.56
471.777	74.56
471.997	84.56
472.216	94.56
472.435	91.56
472.654	85.56
472.873	83.56
473.092	69.56
473.311	93.56
473.53	85.56
473.749	80.56
473.968	88.56
474.187	93.56
474.406	73.56
474.625	88.56
474.844	89.56
475.063	92.56
475.282	94.56
475.501	84.56
475.72	95.56
475.939	87.56
476.158	86.56
476.377	90.56
476.596	86.56
476.814	85.56
477.033	76.56
477.252	106.56
477.471	96.56
477.69	100.56
477.908	90.56
478.127	92.56
478.346	74.56
478.564	85.56
478.783	87.56
479.002	89.56
479.22	84.56
479.439	95.56
479.658	97.56
479.876	89.56
480.095	80.56
480.313	93.56
480.532	91.56
480.751	79.56
480.969	70.56
481.188	81.56
481.406	95.56
481.624	71.56
481.843	92.56
482.061	80.56
482.28	87.56
482.498	88.56
482.717	88.56
482.935	80.56
483.153	80.56
483.372	81.56
483.59	93.56
483.808	92.56
484.027	96.56
484.245	95.56
484.463	72.56
484.681	97.56
484.9	87.56
485.118	96.56
485.336	73.56
485.554	79.56
485.772	88.56
485.99	80.56
486.209	75.56
486.427	68.56
486.645	87.56
486.863	88.56
487.081	96.56
487.299	80.56
487.517	109.56
487.735	99.56
487.953	152.56
488.171	112.56
488.389	94.56
488.607	104.56
488.825	93.56
489.043	98.56
489.261	99.56
489.479	88.56
489.696	71.56
489.914	78.56
490.132	66.56
490.35	80.56
490.568	83.56
490.786	98.56
491.003	101.56
491.221	92.56
491.439	78.56
491.657	91.56
491.874	88.56
492.092	79.56
492.31	86.56
492.527	79.56
492.745	82.56
492.963	90.56
493.18	99.56
493.398	90.56
493.615	101.56
493.833	92.56
494.05	72.56
494.268	90.56
494.485	82.56
494.703	83.56
494.92	81.56
495.138	82.56
495.355	75.56
495.573	79.56
495.79	102.56
496.008	95.56
496.225	88.56
496.442	70.56
496.66	87.56
496.877	88.56
497.094	80.56
497.312	97.56
497.529	103.56
497.746	81.56
497.963	88.56
498.181	81.56
498.398	87.56
498.615	88.56
498.832	78.56
499.049	85.56
499.267	97.56
499.484	86.56
499.701	94.56
499.918	83.56
500.135	82.56
500.352	84.56
500.569	90.56
500.786	88.56
501.003	85.56
501.22	82.56
501.437	82.56
501.654	102.56
501.871	94.56
502.088	89.56
502.305	83.56
502.522	97.56
502.739	97.56
502.956	94.56
503.172	77.56
503.389	101.56
503.606	92.56
503.823	98.56
504.04	95.56
504.256	134.56
504.473	124.56
504.69	87.56
504.907	93.56
505.123	81.56
505.34	84.56
505.557	84.56
505.773	81.56
505.99	84.56
506.207	88.56
506.423	90.56
506.64	96.56
506.856	84.56
507.073	91.56
507.289	99.56
507.506	69.56
507.722	90.56
507.939	79.56
508.155	81.56
508.372	80.56
508.588	82.56
508.805	76.56
509.021	92.56
509.238	93.56
509.454	80.56
509.67	89.56
509.887	86.56
510.103	83.56
510.319	96.56
510.536	89.56
510.752	79.56
510.968	86.56
511.184	99.56
511.401	96.56
511.617	90.56
511.833	85.56
512.049	81.56
512.265	76.56
512.481	84.56
512.698	96.56
512.914	83.56
513.13	98.56
513.346	84.56
513.562	104.56
513.778	77.56
513.994	89.56
514.21	87.56
514.426	86.56
514.642	90.56
514.858	94.56
515.074	95.56
515.29	91.56
515.506	90.56
515.721	94.56
515.937	79.56
516.153	86.56
516.369	93.56
516.585	97.56
516.801	91.56
517.016	94.56
517.232	92.56
517.448	100.56
517.664	93.56
517.879	79.56
518.095	98.56
518.311	85.56
