Data from 10100_3_HRD10591_00049.txt Node
Date: Mon Jan 19 14:02:47 EST 2026
User: Yrep
Spectrometer: HR+D1059
Trigger mode: 1
Integration Time (sec): 1.000000E-1
Scans to average: 1
Electric dark correction enabled: true
Nonlinearity correction enabled: false
Boxcar width: 0
XAxis mode: Wavelengths
Number of Pixels in Spectrum: 2048
>>>>>Begin Spectral Data<<<<<
223.165	-27.38
223.4	-27.38
223.635	-27.38
223.869	-10.38
224.104	-28.38
224.338	-14.38
224.573	-20.38
224.808	-20.38
225.042	-3.38
225.277	5.62
225.511	-6.38
225.746	7.62
225.98	6.62
226.215	8.62
226.449	16.62
226.683	21.62
226.918	35.62
227.152	28.62
227.387	31.62
227.621	40.62
227.856	56.62
228.09	41.62
228.324	38.62
228.559	65.62
228.793	63.62
229.027	59.62
229.262	65.62
229.496	64.62
229.73	60.62
229.964	68.62
230.199	61.62
230.433	69.62
230.667	81.62
230.901	68.62
231.136	81.62
231.37	81.62
231.604	81.62
231.838	83.62
232.072	81.62
232.306	83.62
232.541	74.62
232.775	86.62
233.009	83.62
233.243	88.62
233.477	89.62
233.711	95.62
233.945	74.62
234.179	89.62
234.413	83.62
234.647	90.62
234.881	92.62
235.115	87.62
235.349	75.62
235.583	79.62
235.817	78.62
236.051	89.62
236.285	75.62
236.519	59.62
236.753	76.62
236.987	82.62
237.221	65.62
237.455	79.62
237.689	80.62
237.922	83.62
238.156	70.62
238.39	85.62
238.624	95.62
238.858	86.62
239.091	81.62
239.325	73.62
239.559	76.62
239.793	75.62
240.027	97.62
240.26	84.62
240.494	79.62
240.728	63.62
240.961	68.62
241.195	74.62
241.429	69.62
241.662	73.62
241.896	78.62
242.13	76.62
242.363	81.62
242.597	81.62
242.83	63.62
243.064	81.62
243.298	88.62
243.531	70.62
243.765	70.62
243.998	84.62
244.232	79.62
244.465	79.62
244.699	81.62
244.932	75.62
245.166	81.62
245.399	68.62
245.633	80.62
245.866	78.62
246.099	73.62
246.333	79.62
246.566	71.62
246.8	79.62
247.033	68.62
247.266	79.62
247.5	79.62
247.733	74.62
247.966	83.62
248.2	72.62
248.433	75.62
248.666	80.62
248.899	89.62
249.133	71.62
249.366	84.62
249.599	77.62
249.832	81.62
250.066	84.62
250.299	83.62
250.532	99.62
250.765	89.62
250.998	79.62
251.231	67.62
251.465	79.62
251.698	85.62
251.931	84.62
252.164	69.62
252.397	91.62
252.63	83.62
252.863	75.62
253.096	91.62
253.329	75.62
253.562	93.62
253.795	88.62
254.028	72.62
254.261	82.62
254.494	87.62
254.727	73.62
254.96	83.62
255.193	86.62
255.426	96.62
255.659	85.62
255.892	76.62
256.124	79.62
256.357	81.62
256.59	94.62
256.823	76.62
257.056	73.62
257.289	80.62
257.521	83.62
257.754	101.62
257.987	85.62
258.22	72.62
258.452	73.62
258.685	73.62
258.918	79.62
259.151	80.62
259.383	81.62
259.616	90.62
259.849	77.62
260.081	86.62
260.314	80.62
260.547	89.62
260.779	92.62
261.012	86.62
261.244	86.62
261.477	87.62
261.71	79.62
261.942	78.62
262.175	67.62
262.407	81.62
262.64	83.62
262.872	90.62
263.105	78.62
263.337	80.62
263.57	89.62
263.802	87.62
264.035	71.62
264.267	66.62
264.499	92.62
264.732	84.62
264.964	79.62
265.197	73.62
265.429	85.62
265.661	84.62
265.894	83.62
266.126	75.62
266.358	75.62
266.591	78.62
266.823	85.62
267.055	90.62
267.287	82.62
267.52	88.62
267.752	87.62
267.984	85.62
268.216	90.62
268.448	74.62
268.681	83.62
268.913	71.62
269.145	73.62
269.377	80.62
269.609	85.62
269.841	74.62
270.073	81.62
270.306	73.62
270.538	89.62
270.77	97.62
271.002	75.62
271.234	90.62
271.466	85.62
271.698	77.62
271.93	73.62
272.162	69.62
272.394	94.62
272.626	77.62
272.858	80.62
273.09	84.62
273.322	93.62
273.553	106.62
273.785	98.62
274.017	66.62
274.249	95.62
274.481	82.62
274.713	81.62
274.945	87.62
275.176	77.62
275.408	74.62
275.64	69.62
275.872	89.62
276.104	93.62
276.335	85.62
276.567	96.62
276.799	85.62
277.031	79.62
277.262	75.62
277.494	85.62
277.726	81.62
277.957	82.62
278.189	77.62
278.421	70.62
278.652	80.62
278.884	90.62
279.115	104.62
279.347	90.62
279.579	83.62
279.81	95.62
280.042	74.62
280.273	79.62
280.505	93.62
280.736	81.62
280.968	79.62
281.199	85.62
281.431	85.62
281.662	72.62
281.894	85.62
282.125	97.62
282.356	87.62
282.588	81.62
282.819	85.62
283.051	75.62
283.282	84.62
283.513	90.62
283.745	74.62
283.976	97.62
284.207	90.62
284.439	101.62
284.67	91.62
284.901	59.62
285.132	95.62
285.364	85.62
285.595	86.62
285.826	84.62
286.057	89.62
286.288	79.62
286.52	96.62
286.751	71.62
286.982	74.62
287.213	77.62
287.444	88.62
287.675	74.62
287.906	76.62
288.138	87.62
288.369	83.62
288.6	79.62
288.831	85.62
289.062	87.62
289.293	75.62
289.524	83.62
289.755	82.62
289.986	90.62
290.217	82.62
290.448	75.62
290.679	79.62
290.91	74.62
291.141	76.62
291.371	92.62
291.602	86.62
291.833	85.62
292.064	88.62
292.295	89.62
292.526	86.62
292.757	87.62
292.987	93.62
293.218	82.62
293.449	85.62
293.68	79.62
293.91	83.62
294.141	83.62
294.372	94.62
294.603	85.62
294.833	79.62
295.064	95.62
295.295	76.62
295.525	79.62
295.756	100.62
295.987	87.62
296.217	81.62
296.448	84.62
296.679	89.62
296.909	86.62
297.14	83.62
297.37	75.62
297.601	81.62
297.831	85.62
298.062	83.62
298.292	86.62
298.523	100.62
298.753	76.62
298.984	74.62
299.214	81.62
299.445	86.62
299.675	87.62
299.905	78.62
300.136	69.62
300.366	82.62
300.597	88.62
300.827	92.62
301.057	78.62
301.288	76.62
301.518	72.62
301.748	89.62
301.979	92.62
302.209	85.62
302.439	88.62
302.669	91.62
302.9	79.62
303.13	76.62
303.36	79.62
303.59	92.62
303.82	88.62
304.051	92.62
304.281	73.62
304.511	91.62
304.741	92.62
304.971	72.62
305.201	88.62
305.431	87.62
305.661	79.62
305.891	97.62
306.121	93.62
306.352	86.62
306.582	90.62
306.812	98.62
307.042	78.62
307.272	67.62
307.502	78.62
307.731	95.62
307.961	93.62
308.191	89.62
308.421	66.62
308.651	80.62
308.881	82.62
309.111	90.62
309.341	93.62
309.571	81.62
309.8	76.62
310.03	93.62
310.26	76.62
310.49	88.62
310.72	76.62
310.949	76.62
311.179	87.62
311.409	79.62
311.639	94.62
311.868	79.62
312.098	77.62
312.328	83.62
312.557	69.62
312.787	87.62
313.017	78.62
313.246	89.62
313.476	81.62
313.706	83.62
313.935	76.62
314.165	95.62
314.394	85.62
314.624	98.62
314.853	99.62
315.083	86.62
315.312	76.62
315.542	75.62
315.771	81.62
316.001	76.62
316.23	81.62
316.46	76.62
316.689	89.62
316.919	81.62
317.148	78.62
317.377	90.62
317.607	87.62
317.836	83.62
318.065	96.62
318.295	82.62
318.524	86.62
318.753	83.62
318.983	78.62
319.212	100.62
319.441	85.62
319.67	97.62
319.9	81.62
320.129	96.62
320.358	83.62
320.587	84.62
320.816	85.62
321.046	80.62
321.275	91.62
321.504	77.62
321.733	82.62
321.962	86.62
322.191	83.62
322.42	81.62
322.649	83.62
322.878	87.62
323.108	95.62
323.337	86.62
323.566	89.62
323.795	81.62
324.024	102.62
324.253	93.62
324.482	88.62
324.71	83.62
324.939	80.62
325.168	89.62
325.397	75.62
325.626	84.62
325.855	97.62
326.084	93.62
326.313	88.62
326.542	87.62
326.77	85.62
326.999	85.62
327.228	93.62
327.457	86.62
327.686	86.62
327.914	81.62
328.143	96.62
328.372	89.62
328.6	91.62
328.829	63.62
329.058	87.62
329.287	91.62
329.515	85.62
329.744	87.62
329.972	85.62
330.201	79.62
330.43	91.62
330.658	88.62
330.887	83.62
331.115	72.62
331.344	86.62
331.572	86.62
331.801	92.62
332.03	98.62
332.258	94.62
332.486	73.62
332.715	79.62
332.943	92.62
333.172	82.62
333.4	82.62
333.629	87.62
333.857	91.62
334.085	105.62
334.314	83.62
334.542	88.62
334.771	101.62
334.999	86.62
335.227	85.62
335.455	85.62
335.684	87.62
335.912	83.62
336.14	76.62
336.369	101.62
336.597	83.62
336.825	78.62
337.053	89.62
337.281	77.62
337.51	83.62
337.738	72.62
337.966	73.62
338.194	68.62
338.422	85.62
338.65	81.62
338.878	81.62
339.106	78.62
339.334	93.62
339.562	69.62
339.79	82.62
340.018	82.62
340.246	81.62
340.474	85.62
340.702	79.62
340.93	83.62
341.158	82.62
341.386	74.62
341.614	90.62
341.842	77.62
342.07	76.62
342.298	82.62
342.526	78.62
342.754	70.62
342.981	83.62
343.209	75.62
343.437	102.62
343.665	94.62
343.893	81.62
344.12	87.62
344.348	81.62
344.576	90.62
344.804	79.62
345.031	74.62
345.259	81.62
345.487	76.62
345.714	83.62
345.942	75.62
346.17	81.62
346.397	65.62
346.625	76.62
346.853	99.62
347.08	84.62
347.308	73.62
347.535	81.62
347.763	84.62
347.99	89.62
348.218	90.62
348.445	93.62
348.673	86.62
348.9	83.62
349.128	82.62
349.355	70.62
349.583	81.62
349.81	96.62
350.037	79.62
350.265	93.62
350.492	87.62
350.72	89.62
350.947	90.62
351.174	85.62
351.402	93.62
351.629	90.62
351.856	77.62
352.083	93.62
352.311	92.62
352.538	79.62
352.765	92.62
352.992	92.62
353.22	94.62
353.447	87.62
353.674	98.62
353.901	97.62
354.128	85.62
354.355	81.62
354.583	85.62
354.81	80.62
355.037	88.62
355.264	91.62
355.491	86.62
355.718	89.62
355.945	97.62
356.172	87.62
356.399	91.62
356.626	79.62
356.853	89.62
357.08	81.62
357.307	92.62
357.534	77.62
357.761	95.62
357.988	74.62
358.215	81.62
358.441	85.62
358.668	87.62
358.895	87.62
359.122	92.62
359.349	85.62
359.576	82.62
359.802	85.62
360.029	96.62
360.256	73.62
360.483	84.62
360.709	79.62
360.936	86.62
361.163	90.62
361.39	87.62
361.616	89.62
361.843	85.62
362.07	83.62
362.296	95.62
362.523	85.62
362.749	89.62
362.976	88.62
363.203	85.62
363.429	76.62
363.656	93.62
363.882	104.62
364.109	83.62
364.335	101.62
364.562	88.62
364.788	91.62
365.015	85.62
365.241	82.62
365.468	84.62
365.694	72.62
365.92	91.62
366.147	81.62
366.373	77.62
366.599	90.62
366.826	87.62
367.052	88.62
367.278	89.62
367.505	98.62
367.731	95.62
367.957	76.62
368.184	71.62
368.41	81.62
368.636	85.62
368.862	76.62
369.089	86.62
369.315	99.62
369.541	85.62
369.767	92.62
369.993	70.62
370.219	84.62
370.445	79.62
370.672	89.62
370.898	95.62
371.124	75.62
371.35	78.62
371.576	95.62
371.802	77.62
372.028	93.62
372.254	80.62
372.48	71.62
372.706	88.62
372.932	79.62
373.158	86.62
373.384	103.62
373.61	98.62
373.835	97.62
374.061	103.62
374.287	90.62
374.513	90.62
374.739	82.62
374.965	88.62
375.191	94.62
375.416	93.62
375.642	80.62
375.868	95.62
376.094	105.62
376.319	89.62
376.545	78.62
376.771	82.62
376.997	76.62
377.222	84.62
377.448	84.62
377.674	78.62
377.899	90.62
378.125	78.62
378.35	90.62
378.576	74.62
378.802	85.62
379.027	84.62
379.253	80.62
379.478	81.62
379.704	70.62
379.929	81.62
380.155	89.62
380.38	80.62
380.606	79.62
380.831	96.62
381.057	76.62
381.282	83.62
381.507	91.62
381.733	88.62
381.958	75.62
382.184	83.62
382.409	87.62
382.634	94.62
382.86	81.62
383.085	85.62
383.31	82.62
383.535	87.62
383.761	94.62
383.986	76.62
384.211	86.62
384.436	77.62
384.662	76.62
384.887	90.62
385.112	87.62
385.337	94.62
385.562	71.62
385.787	90.62
386.013	90.62
386.238	86.62
386.463	85.62
386.688	80.62
386.913	81.62
387.138	75.62
387.363	83.62
387.588	77.62
387.813	91.62
388.038	85.62
388.263	79.62
388.488	79.62
388.713	68.62
388.938	75.62
389.163	89.62
389.387	85.62
389.612	75.62
389.837	82.62
390.062	90.62
390.287	82.62
390.512	96.62
390.736	68.62
390.961	82.62
391.186	76.62
391.411	72.62
391.636	83.62
391.86	87.62
392.085	101.62
392.31	88.62
392.534	95.62
392.759	93.62
392.984	96.62
393.208	128.62
393.433	161.62
393.658	134.62
393.882	105.62
394.107	97.62
394.331	96.62
394.556	106.62
394.78	87.62
395.005	80.62
395.229	83.62
395.454	86.62
395.678	89.62
395.903	101.62
396.127	89.62
396.352	97.62
396.576	122.62
396.801	129.62
397.025	129.62
397.249	101.62
397.474	96.62
397.698	89.62
397.922	81.62
398.147	90.62
398.371	86.62
398.595	92.62
398.82	94.62
399.044	90.62
399.268	90.62
399.492	101.62
399.717	79.62
399.941	80.62
400.165	85.62
400.389	80.62
400.613	78.62
400.837	85.62
401.062	90.62
401.286	86.62
401.51	81.62
401.734	93.62
401.958	94.62
402.182	85.62
402.406	76.62
402.63	74.62
402.854	88.62
403.078	93.62
403.302	66.62
403.526	85.62
403.75	85.62
403.974	72.62
404.198	79.62
404.422	81.62
404.645	82.62
404.869	92.62
405.093	96.62
405.317	72.62
405.541	86.62
405.765	95.62
405.988	82.62
406.212	87.62
406.436	86.62
406.66	86.62
406.883	82.62
407.107	81.62
407.331	88.62
407.555	86.62
407.778	69.62
408.002	81.62
408.226	79.62
408.449	93.62
408.673	63.62
408.896	81.62
409.12	90.62
409.344	81.62
409.567	80.62
409.791	81.62
410.014	95.62
410.238	77.62
410.461	81.62
410.685	76.62
410.908	90.62
411.132	71.62
411.355	79.62
411.578	81.62
411.802	75.62
412.025	96.62
412.249	80.62
412.472	77.62
412.695	80.62
412.919	76.62
413.142	82.62
413.365	82.62
413.589	91.62
413.812	81.62
414.035	101.62
414.258	90.62
414.482	81.62
414.705	79.62
414.928	82.62
415.151	71.62
415.374	81.62
415.597	97.62
415.821	81.62
416.044	79.62
416.267	96.62
416.49	81.62
416.713	69.62
416.936	73.62
417.159	92.62
417.382	66.62
417.605	93.62
417.828	79.62
418.051	76.62
418.274	83.62
418.497	78.62
418.72	87.62
418.943	90.62
419.166	72.62
419.389	85.62
419.611	90.62
419.834	84.62
420.057	95.62
420.28	83.62
420.503	96.62
420.726	94.62
420.948	90.62
421.171	83.62
421.394	76.62
421.617	85.62
421.839	78.62
422.062	90.62
422.285	96.62
422.507	133.62
422.73	173.62
422.953	158.62
423.175	119.62
423.398	93.62
423.621	96.62
423.843	84.62
424.066	83.62
424.288	85.62
424.511	86.62
424.733	79.62
424.956	81.62
425.178	77.62
425.401	92.62
425.623	83.62
425.846	79.62
426.068	90.62
426.291	80.62
426.513	78.62
426.735	89.62
426.958	74.62
427.18	99.62
427.402	97.62
427.625	88.62
427.847	95.62
428.069	104.62
428.292	96.62
428.514	103.62
428.736	85.62
428.958	85.62
429.181	97.62
429.403	100.62
429.625	88.62
429.847	87.62
430.069	95.62
430.292	111.62
430.514	110.62
430.736	94.62
430.958	106.62
431.18	89.62
431.402	82.62
431.624	88.62
431.846	90.62
432.068	95.62
432.29	85.62
432.512	94.62
432.734	86.62
432.956	84.62
433.178	85.62
433.4	88.62
433.622	86.62
433.844	81.62
434.066	76.62
434.287	86.62
434.509	85.62
434.731	83.62
434.953	88.62
435.175	97.62
435.397	91.62
435.618	81.62
435.84	93.62
436.062	100.62
436.284	86.62
436.505	75.62
436.727	88.62
436.949	81.62
437.17	90.62
437.392	83.62
437.614	75.62
437.835	86.62
438.057	89.62
438.278	85.62
438.5	84.62
438.721	89.62
438.943	99.62
439.165	83.62
439.386	79.62
439.608	74.62
439.829	85.62
440.05	81.62
440.272	78.62
440.493	85.62
440.715	101.62
440.936	90.62
441.158	81.62
441.379	84.62
441.6	95.62
441.822	87.62
442.043	90.62
442.264	84.62
442.486	87.62
442.707	97.62
442.928	86.62
443.149	80.62
443.371	87.62
443.592	130.62
443.813	109.62
444.034	85.62
444.255	93.62
444.476	62.62
444.698	81.62
444.919	80.62
445.14	156.62
445.361	120.62
445.582	126.62
445.803	114.62
446.024	88.62
446.245	91.62
446.466	94.62
446.687	82.62
446.908	85.62
447.129	81.62
447.35	87.62
447.571	81.62
447.792	78.62
448.013	75.62
448.234	83.62
448.455	80.62
448.675	60.62
448.896	85.62
449.117	80.62
449.338	89.62
449.559	97.62
449.779	83.62
450	87.62
450.221	85.62
450.442	79.62
450.662	84.62
450.883	73.62
451.104	78.62
451.324	74.62
451.545	81.62
451.766	57.62
451.986	78.62
452.207	84.62
452.428	81.62
452.648	86.62
452.869	70.62
453.089	72.62
453.31	82.62
453.53	70.62
453.751	97.62
453.971	70.62
454.192	81.62
454.412	72.62
454.633	76.62
454.853	76.62
455.073	65.62
455.294	92.62
455.514	90.62
455.734	86.62
455.955	83.62
456.175	61.62
456.395	84.62
456.616	81.62
456.836	70.62
457.056	76.62
457.276	92.62
457.497	77.62
457.717	78.62
457.937	83.62
458.157	92.62
458.377	87.62
458.598	95.62
458.818	86.62
459.038	75.62
459.258	93.62
459.478	86.62
459.698	85.62
459.918	91.62
460.138	81.62
460.358	83.62
460.578	76.62
460.798	89.62
461.018	98.62
461.238	78.62
461.458	72.62
461.678	99.62
461.898	83.62
462.118	69.62
462.338	95.62
462.558	86.62
462.777	67.62
462.997	69.62
463.217	85.62
463.437	85.62
463.657	73.62
463.876	81.62
464.096	91.62
464.316	81.62
464.536	70.62
464.755	93.62
464.975	86.62
465.195	85.62
465.414	78.62
465.634	82.62
465.854	81.62
466.073	89.62
466.293	93.62
466.512	88.62
466.732	93.62
466.951	93.62
467.171	71.62
467.391	81.62
467.61	73.62
467.829	87.62
468.049	90.62
468.268	82.62
468.488	72.62
468.707	86.62
468.927	103.62
469.146	85.62
469.365	81.62
469.585	86.62
469.804	89.62
470.023	77.62
470.243	89.62
470.462	74.62
470.681	83.62
470.901	88.62
471.12	87.62
471.339	84.62
471.558	93.62
471.777	89.62
471.997	75.62
472.216	77.62
472.435	87.62
472.654	74.62
472.873	83.62
473.092	71.62
473.311	87.62
473.53	93.62
473.749	84.62
473.968	83.62
474.187	82.62
474.406	71.62
474.625	73.62
474.844	88.62
475.063	81.62
475.282	84.62
475.501	86.62
475.72	86.62
475.939	89.62
476.158	83.62
476.377	72.62
476.596	88.62
476.814	73.62
477.033	80.62
477.252	86.62
477.471	91.62
477.69	67.62
477.908	73.62
478.127	76.62
478.346	82.62
478.564	76.62
478.783	72.62
479.002	83.62
479.22	85.62
479.439	83.62
479.658	74.62
479.876	83.62
480.095	86.62
480.313	79.62
480.532	86.62
480.751	85.62
480.969	82.62
481.188	87.62
481.406	81.62
481.624	102.62
481.843	94.62
482.061	87.62
482.28	86.62
482.498	98.62
482.717	83.62
482.935	82.62
483.153	95.62
483.372	88.62
483.59	96.62
483.808	77.62
484.027	83.62
484.245	90.62
484.463	89.62
484.681	80.62
484.9	89.62
485.118	67.62
485.336	82.62
485.554	78.62
485.772	80.62
485.99	88.62
486.209	101.62
486.427	74.62
486.645	81.62
486.863	94.62
487.081	86.62
487.299	90.62
487.517	85.62
487.735	89.62
487.953	106.62
488.171	94.62
488.389	76.62
488.607	68.62
488.825	80.62
489.043	92.62
489.261	92.62
489.479	84.62
489.696	89.62
489.914	77.62
490.132	75.62
490.35	89.62
490.568	84.62
490.786	91.62
491.003	99.62
491.221	69.62
491.439	73.62
491.657	90.62
491.874	89.62
492.092	86.62
492.31	85.62
492.527	88.62
492.745	77.62
492.963	94.62
493.18	80.62
493.398	94.62
493.615	88.62
493.833	89.62
494.05	68.62
494.268	86.62
494.485	79.62
494.703	81.62
494.92	86.62
495.138	76.62
495.355	75.62
495.573	98.62
495.79	75.62
496.008	73.62
496.225	75.62
496.442	94.62
496.66	87.62
496.877	89.62
497.094	85.62
497.312	82.62
497.529	81.62
497.746	81.62
497.963	67.62
498.181	93.62
498.398	79.62
498.615	85.62
498.832	73.62
499.049	75.62
499.267	105.62
499.484	83.62
499.701	94.62
499.918	95.62
500.135	90.62
500.352	87.62
500.569	99.62
500.786	83.62
501.003	75.62
501.22	73.62
501.437	84.62
501.654	78.62
501.871	61.62
502.088	69.62
502.305	72.62
502.522	91.62
502.739	88.62
502.956	79.62
503.172	88.62
503.389	91.62
503.606	82.62
503.823	75.62
504.04	85.62
504.256	101.62
504.473	103.62
504.69	89.62
504.907	81.62
505.123	81.62
505.34	84.62
505.557	80.62
505.773	75.62
505.99	90.62
506.207	87.62
506.423	85.62
506.64	78.62
506.856	76.62
507.073	85.62
507.289	87.62
507.506	92.62
507.722	83.62
507.939	75.62
508.155	89.62
508.372	89.62
508.588	87.62
508.805	101.62
509.021	89.62
509.238	82.62
509.454	82.62
509.67	73.62
509.887	70.62
510.103	66.62
510.319	85.62
510.536	105.62
510.752	88.62
510.968	70.62
511.184	91.62
511.401	70.62
511.617	72.62
511.833	81.62
512.049	81.62
512.265	81.62
512.481	88.62
512.698	95.62
512.914	82.62
513.13	91.62
513.346	70.62
513.562	70.62
513.778	71.62
513.994	73.62
514.21	83.62
514.426	81.62
514.642	109.62
514.858	82.62
515.074	79.62
515.29	83.62
515.506	82.62
515.721	106.62
515.937	84.62
516.153	82.62
516.369	86.62
516.585	89.62
516.801	90.62
517.016	84.62
517.232	82.62
517.448	92.62
517.664	86.62
517.879	74.62
518.095	96.62
518.311	93.62
518.527	90.62
518.742	85.62
518.958	109.62
519.173	110.62
519.389	79.62
