Data from 10100_3_HRD10591_00015.txt Node
Date: Mon Jan 19 14:02:30 EST 2026
User: Yrep
Spectrometer: HR+D1059
Trigger mode: 1
Integration Time (sec): 1.000000E-1
Scans to average: 1
Electric dark correction enabled: true
Nonlinearity correction enabled: false
Boxcar width: 0
XAxis mode: Wavelengths
Number of Pixels in Spectrum: 2048
>>>>>Begin Spectral Data<<<<<
223.165	-22.19
223.4	-22.19
223.635	-22.19
223.869	-19.19
224.104	-22.19
224.338	-14.19
224.573	-6.19
224.808	-9.19
225.042	-11.19
225.277	-1.19
225.511	-9.19
225.746	0.81
225.98	-6.19
226.215	18.81
226.449	10.81
226.683	28.81
226.918	23.81
227.152	37.81
227.387	29.81
227.621	38.81
227.856	54.81
228.09	46.81
228.324	49.81
228.559	62.81
228.793	68.81
229.027	60.81
229.262	49.81
229.496	75.81
229.73	73.81
229.964	66.81
230.199	73.81
230.433	57.81
230.667	82.81
230.901	78.81
231.136	86.81
231.37	81.81
231.604	89.81
231.838	74.81
232.072	74.81
232.306	74.81
232.541	72.81
232.775	72.81
233.009	74.81
233.243	78.81
233.477	79.81
233.711	80.81
233.945	84.81
234.179	82.81
234.413	69.81
234.647	82.81
234.881	82.81
235.115	76.81
235.349	88.81
235.583	68.81
235.817	68.81
236.051	92.81
236.285	83.81
236.519	86.81
236.753	57.81
236.987	69.81
237.221	70.81
237.455	84.81
237.689	73.81
237.922	73.81
238.156	73.81
238.39	63.81
238.624	87.81
238.858	78.81
239.091	79.81
239.325	80.81
239.559	77.81
239.793	64.81
240.027	71.81
240.26	85.81
240.494	68.81
240.728	81.81
240.961	78.81
241.195	66.81
241.429	62.81
241.662	68.81
241.896	86.81
242.13	68.81
242.363	69.81
242.597	80.81
242.83	70.81
243.064	87.81
243.298	72.81
243.531	78.81
243.765	74.81
243.998	72.81
244.232	74.81
244.465	72.81
244.699	75.81
244.932	75.81
245.166	68.81
245.399	67.81
245.633	53.81
245.866	81.81
246.099	80.81
246.333	64.81
246.566	74.81
246.8	101.81
247.033	94.81
247.266	80.81
247.5	90.81
247.733	67.81
247.966	87.81
248.2	67.81
248.433	81.81
248.666	81.81
248.899	66.81
249.133	69.81
249.366	87.81
249.599	94.81
249.832	68.81
250.066	82.81
250.299	78.81
250.532	76.81
250.765	79.81
250.998	78.81
251.231	72.81
251.465	76.81
251.698	64.81
251.931	74.81
252.164	74.81
252.397	74.81
252.63	76.81
252.863	72.81
253.096	78.81
253.329	100.81
253.562	70.81
253.795	98.81
254.028	71.81
254.261	78.81
254.494	74.81
254.727	82.81
254.96	81.81
255.193	77.81
255.426	78.81
255.659	88.81
255.892	75.81
256.124	86.81
256.357	97.81
256.59	84.81
256.823	62.81
257.056	89.81
257.289	82.81
257.521	78.81
257.754	75.81
257.987	73.81
258.22	84.81
258.452	88.81
258.685	80.81
258.918	67.81
259.151	83.81
259.383	78.81
259.616	75.81
259.849	70.81
260.081	80.81
260.314	70.81
260.547	85.81
260.779	83.81
261.012	85.81
261.244	80.81
261.477	81.81
261.71	93.81
261.942	78.81
262.175	91.81
262.407	78.81
262.64	68.81
262.872	98.81
263.105	86.81
263.337	77.81
263.57	80.81
263.802	97.81
264.035	77.81
264.267	80.81
264.499	74.81
264.732	92.81
264.964	79.81
265.197	72.81
265.429	74.81
265.661	80.81
265.894	64.81
266.126	88.81
266.358	71.81
266.591	74.81
266.823	94.81
267.055	79.81
267.287	87.81
267.52	81.81
267.752	72.81
267.984	74.81
268.216	64.81
268.448	80.81
268.681	72.81
268.913	77.81
269.145	80.81
269.377	93.81
269.609	85.81
269.841	91.81
270.073	76.81
270.306	80.81
270.538	87.81
270.77	76.81
271.002	80.81
271.234	82.81
271.466	81.81
271.698	86.81
271.93	72.81
272.162	75.81
272.394	82.81
272.626	91.81
272.858	73.81
273.09	75.81
273.322	80.81
273.553	86.81
273.785	83.81
274.017	82.81
274.249	70.81
274.481	80.81
274.713	75.81
274.945	72.81
275.176	75.81
275.408	74.81
275.64	75.81
275.872	80.81
276.104	67.81
276.335	63.81
276.567	77.81
276.799	88.81
277.031	83.81
277.262	89.81
277.494	74.81
277.726	70.81
277.957	73.81
278.189	86.81
278.421	82.81
278.652	77.81
278.884	82.81
279.115	98.81
279.347	94.81
279.579	80.81
279.81	82.81
280.042	82.81
280.273	70.81
280.505	81.81
280.736	87.81
280.968	70.81
281.199	75.81
281.431	87.81
281.662	80.81
281.894	92.81
282.125	87.81
282.356	82.81
282.588	82.81
282.819	69.81
283.051	80.81
283.282	78.81
283.513	85.81
283.745	82.81
283.976	73.81
284.207	77.81
284.439	82.81
284.67	81.81
284.901	85.81
285.132	95.81
285.364	85.81
285.595	78.81
285.826	79.81
286.057	92.81
286.288	94.81
286.52	72.81
286.751	80.81
286.982	87.81
287.213	78.81
287.444	75.81
287.675	87.81
287.906	82.81
288.138	97.81
288.369	73.81
288.6	85.81
288.831	87.81
289.062	68.81
289.293	76.81
289.524	89.81
289.755	82.81
289.986	69.81
290.217	78.81
290.448	83.81
290.679	88.81
290.91	82.81
291.141	62.81
291.371	97.81
291.602	88.81
291.833	80.81
292.064	89.81
292.295	84.81
292.526	80.81
292.757	89.81
292.987	95.81
293.218	80.81
293.449	87.81
293.68	92.81
293.91	74.81
294.141	99.81
294.372	86.81
294.603	80.81
294.833	84.81
295.064	97.81
295.295	89.81
295.525	94.81
295.756	83.81
295.987	90.81
296.217	84.81
296.448	91.81
296.679	94.81
296.909	92.81
297.14	79.81
297.37	87.81
297.601	86.81
297.831	84.81
298.062	97.81
298.292	93.81
298.523	93.81
298.753	91.81
298.984	84.81
299.214	84.81
299.445	73.81
299.675	96.81
299.905	74.81
300.136	96.81
300.366	85.81
300.597	96.81
300.827	93.81
301.057	95.81
301.288	76.81
301.518	77.81
301.748	92.81
301.979	105.81
302.209	84.81
302.439	96.81
302.669	85.81
302.9	90.81
303.13	85.81
303.36	77.81
303.59	81.81
303.82	93.81
304.051	79.81
304.281	93.81
304.511	92.81
304.741	95.81
304.971	96.81
305.201	74.81
305.431	80.81
305.661	87.81
305.891	86.81
306.121	85.81
306.352	91.81
306.582	78.81
306.812	96.81
307.042	81.81
307.272	88.81
307.502	105.81
307.731	82.81
307.961	88.81
308.191	87.81
308.421	94.81
308.651	83.81
308.881	100.81
309.111	75.81
309.341	92.81
309.571	86.81
309.8	69.81
310.03	92.81
310.26	93.81
310.49	78.81
310.72	89.81
310.949	94.81
311.179	75.81
311.409	90.81
311.639	86.81
311.868	80.81
312.098	82.81
312.328	84.81
312.557	76.81
312.787	92.81
313.017	97.81
313.246	79.81
313.476	97.81
313.706	93.81
313.935	84.81
314.165	100.81
314.394	97.81
314.624	83.81
314.853	87.81
315.083	97.81
315.312	85.81
315.542	70.81
315.771	81.81
316.001	83.81
316.23	84.81
316.46	108.81
316.689	92.81
316.919	80.81
317.148	84.81
317.377	84.81
317.607	88.81
317.836	106.81
318.065	97.81
318.295	100.81
318.524	96.81
318.753	97.81
318.983	91.81
319.212	98.81
319.441	66.81
319.67	87.81
319.9	74.81
320.129	89.81
320.358	82.81
320.587	81.81
320.816	70.81
321.046	82.81
321.275	75.81
321.504	79.81
321.733	97.81
321.962	97.81
322.191	84.81
322.42	94.81
322.649	86.81
322.878	84.81
323.108	92.81
323.337	94.81
323.566	88.81
323.795	97.81
324.024	95.81
324.253	86.81
324.482	84.81
324.71	89.81
324.939	80.81
325.168	80.81
325.397	102.81
325.626	80.81
325.855	80.81
326.084	88.81
326.313	96.81
326.542	83.81
326.77	92.81
326.999	90.81
327.228	93.81
327.457	82.81
327.686	101.81
327.914	84.81
328.143	88.81
328.372	92.81
328.6	92.81
328.829	97.81
329.058	99.81
329.287	97.81
329.515	82.81
329.744	93.81
329.972	94.81
330.201	97.81
330.43	92.81
330.658	95.81
330.887	78.81
331.115	91.81
331.344	95.81
331.572	86.81
331.801	80.81
332.03	90.81
332.258	99.81
332.486	101.81
332.715	87.81
332.943	77.81
333.172	90.81
333.4	79.81
333.629	85.81
333.857	82.81
334.085	94.81
334.314	92.81
334.542	100.81
334.771	96.81
334.999	98.81
335.227	86.81
335.455	93.81
335.684	89.81
335.912	96.81
336.14	107.81
336.369	109.81
336.597	92.81
336.825	92.81
337.053	87.81
337.281	89.81
337.51	99.81
337.738	96.81
337.966	82.81
338.194	69.81
338.422	84.81
338.65	100.81
338.878	86.81
339.106	80.81
339.334	80.81
339.562	75.81
339.79	92.81
340.018	89.81
340.246	93.81
340.474	83.81
340.702	95.81
340.93	86.81
341.158	84.81
341.386	98.81
341.614	87.81
341.842	92.81
342.07	77.81
342.298	92.81
342.526	87.81
342.754	94.81
342.981	92.81
343.209	86.81
343.437	92.81
343.665	78.81
343.893	88.81
344.12	101.81
344.348	103.81
344.576	96.81
344.804	88.81
345.031	91.81
345.259	92.81
345.487	92.81
345.714	80.81
345.942	93.81
346.17	84.81
346.397	84.81
346.625	79.81
346.853	82.81
347.08	84.81
347.308	74.81
347.535	88.81
347.763	74.81
347.99	93.81
348.218	95.81
348.445	82.81
348.673	89.81
348.9	87.81
349.128	98.81
349.355	84.81
349.583	84.81
349.81	86.81
350.037	94.81
350.265	103.81
350.492	97.81
350.72	84.81
350.947	90.81
351.174	79.81
351.402	68.81
351.629	81.81
351.856	67.81
352.083	82.81
352.311	80.81
352.538	95.81
352.765	82.81
352.992	94.81
353.22	105.81
353.447	93.81
353.674	93.81
353.901	90.81
354.128	75.81
354.355	96.81
354.583	83.81
354.81	88.81
355.037	85.81
355.264	80.81
355.491	87.81
355.718	99.81
355.945	89.81
356.172	90.81
356.399	105.81
356.626	81.81
356.853	92.81
357.08	99.81
357.307	93.81
357.534	79.81
357.761	100.81
357.988	94.81
358.215	82.81
358.441	96.81
358.668	101.81
358.895	89.81
359.122	87.81
359.349	88.81
359.576	77.81
359.802	92.81
360.029	91.81
360.256	89.81
360.483	96.81
360.709	77.81
360.936	93.81
361.163	104.81
361.39	100.81
361.616	85.81
361.843	89.81
362.07	103.81
362.296	88.81
362.523	99.81
362.749	124.81
362.976	114.81
363.203	142.81
363.429	117.81
363.656	91.81
363.882	96.81
364.109	104.81
364.335	132.81
364.562	139.81
364.788	117.81
365.015	99.81
365.241	80.81
365.468	86.81
365.694	98.81
365.92	88.81
366.147	78.81
366.373	83.81
366.599	89.81
366.826	95.81
367.052	89.81
367.278	100.81
367.505	83.81
367.731	92.81
367.957	83.81
368.184	77.81
368.41	85.81
368.636	98.81
368.862	101.81
369.089	95.81
369.315	88.81
369.541	79.81
369.767	87.81
369.993	113.81
370.219	110.81
370.445	93.81
370.672	110.81
370.898	113.81
371.124	72.81
371.35	99.81
371.576	85.81
371.802	97.81
372.028	108.81
372.254	111.81
372.48	83.81
372.706	94.81
372.932	97.81
373.158	89.81
373.384	104.81
373.61	100.81
373.835	93.81
374.061	94.81
374.287	87.81
374.513	93.81
374.739	113.81
374.965	118.81
375.191	95.81
375.416	92.81
375.642	106.81
375.868	92.81
376.094	114.81
376.319	94.81
376.545	105.81
376.771	103.81
376.997	83.81
377.222	95.81
377.448	88.81
377.674	85.81
377.899	99.81
378.125	91.81
378.35	77.81
378.576	103.81
378.802	90.81
379.027	90.81
379.253	92.81
379.478	104.81
379.704	97.81
379.929	90.81
380.155	87.81
380.38	90.81
380.606	95.81
380.831	86.81
381.057	100.81
381.282	94.81
381.507	81.81
381.733	105.81
381.958	110.81
382.184	105.81
382.409	99.81
382.634	116.81
382.86	99.81
383.085	94.81
383.31	108.81
383.535	100.81
383.761	98.81
383.986	108.81
384.211	87.81
384.436	96.81
384.662	106.81
384.887	100.81
385.112	93.81
385.337	79.81
385.562	78.81
385.787	109.81
386.013	104.81
386.238	94.81
386.463	101.81
386.688	102.81
386.913	88.81
387.138	113.81
387.363	102.81
387.588	102.81
387.813	101.81
388.038	93.81
388.263	115.81
388.488	98.81
388.713	108.81
388.938	105.81
389.163	105.81
389.387	108.81
389.612	86.81
389.837	98.81
390.062	96.81
390.287	94.81
390.512	80.81
390.736	80.81
390.961	95.81
391.186	89.81
391.411	115.81
391.636	99.81
391.86	90.81
392.085	104.81
392.31	107.81
392.534	97.81
392.759	134.81
392.984	151.81
393.208	224.81
393.433	304.81
393.658	253.81
393.882	136.81
394.107	110.81
394.331	116.81
394.556	132.81
394.78	104.81
395.005	105.81
395.229	102.81
395.454	100.81
395.678	97.81
395.903	124.81
396.127	137.81
396.352	137.81
396.576	154.81
396.801	217.81
397.025	252.81
397.249	156.81
397.474	131.81
397.698	102.81
397.922	99.81
398.147	111.81
398.371	106.81
398.595	86.81
398.82	91.81
399.044	92.81
399.268	96.81
399.492	94.81
399.717	93.81
399.941	105.81
400.165	97.81
400.389	85.81
400.613	76.81
400.837	94.81
401.062	92.81
401.286	105.81
401.51	84.81
401.734	84.81
401.958	106.81
402.182	84.81
402.406	81.81
402.63	86.81
402.854	93.81
403.078	94.81
403.302	93.81
403.526	92.81
403.75	95.81
403.974	96.81
404.198	104.81
404.422	120.81
404.645	136.81
404.869	119.81
405.093	92.81
405.317	96.81
405.541	86.81
405.765	93.81
405.988	94.81
406.212	90.81
406.436	99.81
406.66	94.81
406.883	100.81
407.107	86.81
407.331	85.81
407.555	95.81
407.778	103.81
408.002	109.81
408.226	109.81
408.449	110.81
408.673	102.81
408.896	109.81
409.12	98.81
409.344	99.81
409.567	98.81
409.791	105.81
410.014	117.81
410.238	90.81
410.461	100.81
410.685	86.81
410.908	101.81
411.132	96.81
411.355	109.81
411.578	105.81
411.802	97.81
412.025	89.81
412.249	87.81
412.472	97.81
412.695	101.81
412.919	92.81
413.142	66.81
413.365	103.81
413.589	97.81
413.812	82.81
414.035	78.81
414.258	95.81
414.482	96.81
414.705	100.81
414.928	103.81
415.151	92.81
415.374	88.81
415.597	101.81
415.821	101.81
416.044	90.81
416.267	97.81
416.49	108.81
416.713	94.81
416.936	93.81
417.159	69.81
417.382	102.81
417.605	97.81
417.828	93.81
418.051	83.81
418.274	87.81
418.497	87.81
418.72	80.81
418.943	99.81
419.166	94.81
419.389	90.81
419.611	104.81
419.834	87.81
420.057	105.81
420.28	104.81
420.503	97.81
420.726	95.81
420.948	104.81
421.171	124.81
421.394	122.81
421.617	125.81
421.839	143.81
422.062	161.81
422.285	232.81
422.507	346.81
422.73	471.81
422.953	449.81
423.175	302.81
423.398	197.81
423.621	150.81
423.843	129.81
424.066	133.81
424.288	115.81
424.511	109.81
424.733	110.81
424.956	88.81
425.178	98.81
425.401	89.81
425.623	94.81
425.846	90.81
426.068	104.81
426.291	93.81
426.513	97.81
426.735	98.81
426.958	111.81
427.18	108.81
427.402	100.81
427.625	90.81
427.847	101.81
428.069	131.81
428.292	131.81
428.514	157.81
428.736	113.81
428.958	142.81
429.181	134.81
429.403	116.81
429.625	115.81
429.847	124.81
430.069	188.81
430.292	206.81
430.514	181.81
430.736	158.81
430.958	146.81
431.18	100.81
431.402	105.81
431.624	108.81
431.846	112.81
432.068	127.81
432.29	106.81
432.512	110.81
432.734	117.81
432.956	103.81
433.178	93.81
433.4	82.81
433.622	89.81
433.844	97.81
434.066	91.81
434.287	95.81
434.509	82.81
434.731	94.81
434.953	82.81
435.175	91.81
435.397	92.81
435.618	105.81
435.84	124.81
436.062	91.81
436.284	98.81
436.505	97.81
436.727	106.81
436.949	88.81
437.17	88.81
437.392	86.81
437.614	93.81
437.835	85.81
438.057	74.81
438.278	80.81
438.5	103.81
438.721	100.81
438.943	88.81
439.165	95.81
439.386	85.81
439.608	94.81
439.829	78.81
440.05	96.81
440.272	87.81
440.493	85.81
440.715	93.81
440.936	94.81
441.158	87.81
441.379	81.81
441.6	90.81
441.822	89.81
442.043	103.81
442.264	103.81
442.486	150.81
442.707	180.81
442.928	144.81
443.149	126.81
443.371	145.81
443.592	263.81
443.813	240.81
444.034	127.81
444.255	94.81
444.476	100.81
444.698	113.81
444.919	114.81
445.14	199.81
445.361	210.81
445.582	312.81
445.803	272.81
446.024	134.81
446.245	102.81
446.466	98.81
446.687	101.81
446.908	105.81
447.129	96.81
447.35	89.81
447.571	95.81
447.792	78.81
448.013	88.81
448.234	71.81
448.455	110.81
448.675	97.81
448.896	92.81
449.117	87.81
449.338	78.81
449.559	93.81
449.779	89.81
450	96.81
450.221	84.81
450.442	81.81
450.662	82.81
450.883	103.81
451.104	91.81
451.324	112.81
451.545	100.81
451.766	100.81
451.986	87.81
452.207	98.81
452.428	102.81
452.648	104.81
452.869	112.81
453.089	99.81
453.31	102.81
453.53	96.81
453.751	90.81
453.971	120.81
454.192	79.81
454.412	82.81
454.633	78.81
454.853	102.81
455.073	95.81
455.294	86.81
455.514	92.81
455.734	86.81
455.955	96.81
456.175	100.81
456.395	91.81
456.616	88.81
456.836	94.81
457.056	83.81
457.276	87.81
457.497	86.81
457.717	111.81
457.937	128.81
458.157	153.81
458.377	133.81
458.598	122.81
458.818	149.81
459.038	105.81
459.258	96.81
459.478	96.81
459.698	93.81
459.918	85.81
460.138	98.81
460.358	96.81
460.578	96.81
460.798	137.81
461.018	151.81
461.238	80.81
461.458	90.81
461.678	85.81
461.898	110.81
462.118	101.81
462.338	97.81
462.558	97.81
462.777	93.81
462.997	99.81
463.217	93.81
463.437	87.81
463.657	82.81
463.876	94.81
464.096	83.81
464.316	73.81
464.536	81.81
464.755	93.81
464.975	96.81
465.195	92.81
465.414	86.81
465.634	87.81
465.854	84.81
466.073	83.81
466.293	100.81
466.512	92.81
466.732	86.81
466.951	105.81
467.171	98.81
467.391	98.81
467.61	93.81
467.829	86.81
468.049	99.81
468.268	100.81
468.488	102.81
468.707	99.81
468.927	94.81
469.146	96.81
469.365	86.81
469.585	82.81
469.804	73.81
470.023	78.81
470.243	96.81
470.462	95.81
470.681	90.81
470.901	92.81
471.12	80.81
471.339	83.81
471.558	95.81
471.777	81.81
471.997	95.81
472.216	101.81
472.435	90.81
472.654	106.81
472.873	104.81
473.092	95.81
473.311	89.81
473.53	89.81
473.749	94.81
473.968	108.81
474.187	92.81
474.406	91.81
474.625	93.81
474.844	88.81
475.063	92.81
475.282	93.81
475.501	82.81
475.72	89.81
475.939	105.81
476.158	104.81
476.377	88.81
476.596	73.81
476.814	101.81
477.033	95.81
477.252	94.81
477.471	84.81
477.69	90.81
477.908	100.81
478.127	103.81
478.346	90.81
478.564	82.81
478.783	81.81
479.002	82.81
479.22	95.81
479.439	100.81
479.658	96.81
479.876	78.81
480.095	91.81
480.313	96.81
480.532	95.81
480.751	93.81
480.969	90.81
481.188	89.81
481.406	112.81
481.624	95.81
481.843	97.81
482.061	101.81
482.28	103.81
482.498	96.81
482.717	101.81
482.935	103.81
483.153	93.81
483.372	111.81
483.59	98.81
483.808	106.81
484.027	98.81
484.245	111.81
484.463	110.81
484.681	101.81
484.9	104.81
485.118	112.81
485.336	101.81
485.554	99.81
485.772	101.81
485.99	105.81
486.209	92.81
486.427	100.81
486.645	105.81
486.863	92.81
487.081	114.81
487.299	114.81
487.517	115.81
487.735	137.81
487.953	206.81
488.171	167.81
488.389	108.81
488.607	93.81
488.825	94.81
489.043	100.81
489.261	116.81
489.479	96.81
489.696	88.81
489.914	91.81
490.132	97.81
490.35	100.81
490.568	102.81
490.786	93.81
491.003	102.81
491.221	106.81
491.439	109.81
491.657	104.81
491.874	91.81
492.092	108.81
492.31	109.81
492.527	99.81
492.745	101.81
492.963	100.81
493.18	106.81
493.398	101.81
493.615	109.81
493.833	92.81
494.05	108.81
494.268	97.81
494.485	102.81
494.703	93.81
494.92	99.81
495.138	102.81
495.355	112.81
495.573	98.81
495.79	114.81
496.008	125.81
496.225	122.81
496.442	112.81
496.66	103.81
496.877	100.81
497.094	101.81
497.312	92.81
497.529	95.81
497.746	114.81
497.963	117.81
498.181	115.81
498.398	109.81
498.615	103.81
498.832	92.81
499.049	104.81
499.267	114.81
499.484	108.81
499.701	113.81
499.918	112.81
500.135	114.81
500.352	95.81
500.569	90.81
500.786	104.81
501.003	92.81
501.22	98.81
501.437	94.81
501.654	84.81
501.871	106.81
502.088	112.81
502.305	102.81
502.522	100.81
502.739	116.81
502.956	108.81
503.172	101.81
503.389	101.81
503.606	105.81
503.823	85.81
504.04	123.81
504.256	174.81
504.473	165.81
504.69	117.81
504.907	106.81
505.123	91.81
505.34	111.81
505.557	106.81
505.773	112.81
505.99	100.81
506.207	106.81
506.423	90.81
506.64	102.81
506.856	95.81
507.073	100.81
507.289	96.81
507.506	90.81
507.722	93.81
507.939	88.81
508.155	107.81
508.372	100.81
508.588	112.81
508.805	90.81
509.021	84.81
509.238	102.81
509.454	85.81
509.67	100.81
509.887	100.81
510.103	104.81
510.319	98.81
510.536	95.81
510.752	82.81
510.968	110.81
511.184	102.81
511.401	93.81
511.617	101.81
511.833	105.81
512.049	94.81
512.265	99.81
512.481	99.81
512.698	100.81
512.914	98.81
513.13	97.81
513.346	101.81
513.562	95.81
513.778	110.81
513.994	103.81
514.21	105.81
514.426	112.81
514.642	102.81
514.858	102.81
515.074	96.81
515.29	111.81
