Data from 10100_3_HRD10591_00002.txt Node
Date: Mon Jan 19 14:02:23 EST 2026
User: Yrep
Spectrometer: HR+D1059
Trigger mode: 1
Integration Time (sec): 1.000000E-1
Scans to average: 1
Electric dark correction enabled: true
Nonlinearity correction enabled: false
Boxcar width: 0
XAxis mode: Wavelengths
Number of Pixels in Spectrum: 2048
>>>>>Begin Spectral Data<<<<<
223.165	-23.38
223.4	-23.38
223.635	-23.38
223.869	-18.38
224.104	-16.38
224.338	-26.38
224.573	-21.38
224.808	-24.38
225.042	5.62
225.277	3.62
225.511	-6.38
225.746	1.62
225.98	6.62
226.215	8.62
226.449	13.62
226.683	21.62
226.918	37.62
227.152	37.62
227.387	29.62
227.621	33.62
227.856	45.62
228.09	31.62
228.324	51.62
228.559	48.62
228.793	57.62
229.027	57.62
229.262	68.62
229.496	70.62
229.73	73.62
229.964	78.62
230.199	71.62
230.433	77.62
230.667	77.62
230.901	78.62
231.136	98.62
231.37	66.62
231.604	92.62
231.838	82.62
232.072	81.62
232.306	85.62
232.541	74.62
232.775	66.62
233.009	71.62
233.243	80.62
233.477	81.62
233.711	78.62
233.945	93.62
234.179	84.62
234.413	62.62
234.647	83.62
234.881	87.62
235.115	86.62
235.349	75.62
235.583	73.62
235.817	84.62
236.051	84.62
236.285	75.62
236.519	87.62
236.753	76.62
236.987	70.62
237.221	77.62
237.455	75.62
237.689	64.62
237.922	79.62
238.156	65.62
238.39	73.62
238.624	88.62
238.858	86.62
239.091	62.62
239.325	69.62
239.559	84.62
239.793	82.62
240.027	71.62
240.26	64.62
240.494	77.62
240.728	70.62
240.961	66.62
241.195	72.62
241.429	73.62
241.662	82.62
241.896	79.62
242.13	56.62
242.363	66.62
242.597	79.62
242.83	82.62
243.064	87.62
243.298	60.62
243.531	80.62
243.765	69.62
243.998	72.62
244.232	91.62
244.465	71.62
244.699	74.62
244.932	78.62
245.166	78.62
245.399	70.62
245.633	71.62
245.866	93.62
246.099	72.62
246.333	89.62
246.566	70.62
246.8	80.62
247.033	84.62
247.266	74.62
247.5	77.62
247.733	82.62
247.966	71.62
248.2	80.62
248.433	81.62
248.666	84.62
248.899	79.62
249.133	64.62
249.366	77.62
249.599	95.62
249.832	83.62
250.066	78.62
250.299	79.62
250.532	70.62
250.765	69.62
250.998	70.62
251.231	86.62
251.465	89.62
251.698	68.62
251.931	87.62
252.164	79.62
252.397	74.62
252.63	81.62
252.863	81.62
253.096	76.62
253.329	78.62
253.562	73.62
253.795	93.62
254.028	83.62
254.261	75.62
254.494	77.62
254.727	85.62
254.96	61.62
255.193	83.62
255.426	78.62
255.659	66.62
255.892	91.62
256.124	82.62
256.357	81.62
256.59	72.62
256.823	85.62
257.056	83.62
257.289	79.62
257.521	82.62
257.754	73.62
257.987	74.62
258.22	92.62
258.452	89.62
258.685	81.62
258.918	81.62
259.151	87.62
259.383	90.62
259.616	73.62
259.849	73.62
260.081	88.62
260.314	81.62
260.547	80.62
260.779	81.62
261.012	85.62
261.244	75.62
261.477	87.62
261.71	91.62
261.942	96.62
262.175	75.62
262.407	87.62
262.64	85.62
262.872	73.62
263.105	82.62
263.337	82.62
263.57	88.62
263.802	72.62
264.035	75.62
264.267	96.62
264.499	76.62
264.732	71.62
264.964	91.62
265.197	88.62
265.429	90.62
265.661	79.62
265.894	89.62
266.126	95.62
266.358	104.62
266.591	82.62
266.823	99.62
267.055	86.62
267.287	76.62
267.52	74.62
267.752	86.62
267.984	89.62
268.216	81.62
268.448	81.62
268.681	84.62
268.913	88.62
269.145	77.62
269.377	87.62
269.609	85.62
269.841	78.62
270.073	69.62
270.306	90.62
270.538	97.62
270.77	76.62
271.002	77.62
271.234	80.62
271.466	81.62
271.698	80.62
271.93	68.62
272.162	95.62
272.394	85.62
272.626	77.62
272.858	70.62
273.09	89.62
273.322	72.62
273.553	74.62
273.785	96.62
274.017	94.62
274.249	82.62
274.481	86.62
274.713	81.62
274.945	71.62
275.176	75.62
275.408	73.62
275.64	92.62
275.872	86.62
276.104	87.62
276.335	83.62
276.567	96.62
276.799	97.62
277.031	75.62
277.262	80.62
277.494	84.62
277.726	87.62
277.957	83.62
278.189	95.62
278.421	82.62
278.652	81.62
278.884	93.62
279.115	87.62
279.347	91.62
279.579	84.62
279.81	65.62
280.042	95.62
280.273	91.62
280.505	81.62
280.736	86.62
280.968	79.62
281.199	85.62
281.431	83.62
281.662	101.62
281.894	91.62
282.125	81.62
282.356	78.62
282.588	70.62
282.819	83.62
283.051	88.62
283.282	95.62
283.513	68.62
283.745	84.62
283.976	91.62
284.207	96.62
284.439	91.62
284.67	94.62
284.901	83.62
285.132	95.62
285.364	86.62
285.595	81.62
285.826	83.62
286.057	100.62
286.288	80.62
286.52	80.62
286.751	83.62
286.982	90.62
287.213	75.62
287.444	92.62
287.675	91.62
287.906	81.62
288.138	85.62
288.369	92.62
288.6	80.62
288.831	82.62
289.062	76.62
289.293	99.62
289.524	87.62
289.755	88.62
289.986	102.62
290.217	96.62
290.448	85.62
290.679	81.62
290.91	66.62
291.141	76.62
291.371	96.62
291.602	91.62
291.833	85.62
292.064	102.62
292.295	75.62
292.526	86.62
292.757	82.62
292.987	72.62
293.218	79.62
293.449	87.62
293.68	91.62
293.91	82.62
294.141	88.62
294.372	83.62
294.603	78.62
294.833	95.62
295.064	73.62
295.295	88.62
295.525	86.62
295.756	83.62
295.987	83.62
296.217	92.62
296.448	90.62
296.679	87.62
296.909	89.62
297.14	85.62
297.37	74.62
297.601	82.62
297.831	81.62
298.062	73.62
298.292	84.62
298.523	86.62
298.753	94.62
298.984	83.62
299.214	86.62
299.445	82.62
299.675	101.62
299.905	89.62
300.136	99.62
300.366	93.62
300.597	80.62
300.827	93.62
301.057	99.62
301.288	89.62
301.518	95.62
301.748	87.62
301.979	106.62
302.209	96.62
302.439	94.62
302.669	87.62
302.9	83.62
303.13	90.62
303.36	81.62
303.59	85.62
303.82	84.62
304.051	87.62
304.281	89.62
304.511	76.62
304.741	87.62
304.971	79.62
305.201	78.62
305.431	74.62
305.661	85.62
305.891	91.62
306.121	96.62
306.352	93.62
306.582	87.62
306.812	90.62
307.042	97.62
307.272	83.62
307.502	87.62
307.731	88.62
307.961	91.62
308.191	89.62
308.421	81.62
308.651	87.62
308.881	96.62
309.111	85.62
309.341	90.62
309.571	91.62
309.8	88.62
310.03	91.62
310.26	75.62
310.49	79.62
310.72	83.62
310.949	97.62
311.179	73.62
311.409	91.62
311.639	93.62
311.868	95.62
312.098	80.62
312.328	85.62
312.557	89.62
312.787	97.62
313.017	76.62
313.246	74.62
313.476	81.62
313.706	74.62
313.935	81.62
314.165	91.62
314.394	91.62
314.624	103.62
314.853	89.62
315.083	82.62
315.312	93.62
315.542	89.62
315.771	101.62
316.001	104.62
316.23	86.62
316.46	95.62
316.689	87.62
316.919	79.62
317.148	74.62
317.377	96.62
317.607	86.62
317.836	94.62
318.065	100.62
318.295	109.62
318.524	107.62
318.753	90.62
318.983	83.62
319.212	71.62
319.441	83.62
319.67	86.62
319.9	93.62
320.129	81.62
320.358	79.62
320.587	96.62
320.816	89.62
321.046	73.62
321.275	94.62
321.504	91.62
321.733	83.62
321.962	100.62
322.191	88.62
322.42	91.62
322.649	92.62
322.878	87.62
323.108	87.62
323.337	82.62
323.566	86.62
323.795	98.62
324.024	81.62
324.253	85.62
324.482	82.62
324.71	93.62
324.939	79.62
325.168	84.62
325.397	92.62
325.626	87.62
325.855	94.62
326.084	85.62
326.313	77.62
326.542	86.62
326.77	82.62
326.999	84.62
327.228	98.62
327.457	69.62
327.686	88.62
327.914	75.62
328.143	90.62
328.372	91.62
328.6	86.62
328.829	83.62
329.058	88.62
329.287	89.62
329.515	89.62
329.744	95.62
329.972	87.62
330.201	101.62
330.43	86.62
330.658	87.62
330.887	100.62
331.115	74.62
331.344	94.62
331.572	80.62
331.801	101.62
332.03	82.62
332.258	85.62
332.486	78.62
332.715	94.62
332.943	88.62
333.172	97.62
333.4	89.62
333.629	93.62
333.857	85.62
334.085	100.62
334.314	85.62
334.542	83.62
334.771	103.62
334.999	111.62
335.227	97.62
335.455	93.62
335.684	84.62
335.912	93.62
336.14	112.62
336.369	114.62
336.597	87.62
336.825	91.62
337.053	93.62
337.281	83.62
337.51	91.62
337.738	90.62
337.966	80.62
338.194	77.62
338.422	77.62
338.65	82.62
338.878	89.62
339.106	93.62
339.334	84.62
339.562	76.62
339.79	67.62
340.018	87.62
340.246	88.62
340.474	93.62
340.702	84.62
340.93	89.62
341.158	85.62
341.386	94.62
341.614	84.62
341.842	93.62
342.07	95.62
342.298	96.62
342.526	89.62
342.754	80.62
342.981	74.62
343.209	90.62
343.437	111.62
343.665	93.62
343.893	88.62
344.12	100.62
344.348	79.62
344.576	95.62
344.804	96.62
345.031	79.62
345.259	70.62
345.487	77.62
345.714	84.62
345.942	95.62
346.17	85.62
346.397	88.62
346.625	91.62
346.853	78.62
347.08	82.62
347.308	94.62
347.535	94.62
347.763	90.62
347.99	90.62
348.218	78.62
348.445	74.62
348.673	87.62
348.9	92.62
349.128	91.62
349.355	85.62
349.583	93.62
349.81	91.62
350.037	80.62
350.265	75.62
350.492	79.62
350.72	75.62
350.947	74.62
351.174	76.62
351.402	81.62
351.629	86.62
351.856	76.62
352.083	82.62
352.311	84.62
352.538	83.62
352.765	96.62
352.992	97.62
353.22	79.62
353.447	104.62
353.674	84.62
353.901	94.62
354.128	85.62
354.355	67.62
354.583	83.62
354.81	76.62
355.037	73.62
355.264	93.62
355.491	83.62
355.718	86.62
355.945	83.62
356.172	88.62
356.399	98.62
356.626	90.62
356.853	96.62
357.08	99.62
357.307	99.62
357.534	99.62
357.761	82.62
357.988	96.62
358.215	88.62
358.441	101.62
358.668	95.62
358.895	109.62
359.122	92.62
359.349	87.62
359.576	84.62
359.802	96.62
360.029	91.62
360.256	96.62
360.483	96.62
360.709	98.62
360.936	101.62
361.163	100.62
361.39	97.62
361.616	76.62
361.843	87.62
362.07	101.62
362.296	106.62
362.523	117.62
362.749	107.62
362.976	137.62
363.203	135.62
363.429	109.62
363.656	80.62
363.882	101.62
364.109	109.62
364.335	139.62
364.562	151.62
364.788	109.62
365.015	112.62
365.241	104.62
365.468	79.62
365.694	97.62
365.92	98.62
366.147	90.62
366.373	81.62
366.599	95.62
366.826	86.62
367.052	74.62
367.278	91.62
367.505	92.62
367.731	97.62
367.957	87.62
368.184	89.62
368.41	98.62
368.636	87.62
368.862	95.62
369.089	92.62
369.315	93.62
369.541	91.62
369.767	88.62
369.993	95.62
370.219	93.62
370.445	107.62
370.672	86.62
370.898	94.62
371.124	93.62
371.35	83.62
371.576	90.62
371.802	97.62
372.028	109.62
372.254	81.62
372.48	88.62
372.706	95.62
372.932	82.62
373.158	109.62
373.384	113.62
373.61	119.62
373.835	109.62
374.061	93.62
374.287	97.62
374.513	97.62
374.739	96.62
374.965	109.62
375.191	82.62
375.416	91.62
375.642	99.62
375.868	106.62
376.094	100.62
376.319	99.62
376.545	97.62
376.771	96.62
376.997	96.62
377.222	72.62
377.448	91.62
377.674	81.62
377.899	88.62
378.125	88.62
378.35	81.62
378.576	86.62
378.802	91.62
379.027	90.62
379.253	95.62
379.478	93.62
379.704	80.62
379.929	101.62
380.155	98.62
380.38	77.62
380.606	93.62
380.831	85.62
381.057	97.62
381.282	90.62
381.507	93.62
381.733	87.62
381.958	79.62
382.184	99.62
382.409	105.62
382.634	115.62
382.86	103.62
383.085	99.62
383.31	102.62
383.535	105.62
383.761	102.62
383.986	116.62
384.211	111.62
384.436	94.62
384.662	97.62
384.887	98.62
385.112	91.62
385.337	92.62
385.562	95.62
385.787	99.62
386.013	90.62
386.238	108.62
386.463	94.62
386.688	113.62
386.913	102.62
387.138	88.62
387.363	97.62
387.588	119.62
387.813	105.62
388.038	101.62
388.263	101.62
388.488	104.62
388.713	94.62
388.938	93.62
389.163	84.62
389.387	89.62
389.612	82.62
389.837	102.62
390.062	96.62
390.287	93.62
390.512	94.62
390.736	84.62
390.961	91.62
391.186	91.62
391.411	103.62
391.636	95.62
391.86	105.62
392.085	111.62
392.31	113.62
392.534	123.62
392.759	105.62
392.984	177.62
393.208	280.62
393.433	407.62
393.658	314.62
393.882	170.62
394.107	131.62
394.331	120.62
394.556	121.62
394.78	115.62
395.005	109.62
395.229	110.62
395.454	111.62
395.678	112.62
395.903	115.62
396.127	142.62
396.352	159.62
396.576	173.62
396.801	278.62
397.025	316.62
397.249	208.62
397.474	122.62
397.698	127.62
397.922	101.62
398.147	104.62
398.371	98.62
398.595	106.62
398.82	103.62
399.044	95.62
399.268	98.62
399.492	77.62
399.717	98.62
399.941	90.62
400.165	87.62
400.389	86.62
400.613	93.62
400.837	97.62
401.062	94.62
401.286	82.62
401.51	88.62
401.734	83.62
401.958	72.62
402.182	83.62
402.406	93.62
402.63	85.62
402.854	91.62
403.078	86.62
403.302	103.62
403.526	86.62
403.75	78.62
403.974	96.62
404.198	84.62
404.422	99.62
404.645	90.62
404.869	105.62
405.093	96.62
405.317	85.62
405.541	90.62
405.765	75.62
405.988	89.62
406.212	91.62
406.436	106.62
406.66	105.62
406.883	89.62
407.107	75.62
407.331	97.62
407.555	105.62
407.778	120.62
408.002	111.62
408.226	100.62
408.449	90.62
408.673	83.62
408.896	88.62
409.12	106.62
409.344	94.62
409.567	112.62
409.791	107.62
410.014	119.62
410.238	99.62
410.461	109.62
410.685	98.62
410.908	99.62
411.132	100.62
411.355	96.62
411.578	94.62
411.802	86.62
412.025	93.62
412.249	88.62
412.472	82.62
412.695	97.62
412.919	97.62
413.142	102.62
413.365	91.62
413.589	80.62
413.812	82.62
414.035	102.62
414.258	93.62
414.482	98.62
414.705	93.62
414.928	85.62
415.151	75.62
415.374	95.62
415.597	98.62
415.821	102.62
416.044	94.62
416.267	90.62
416.49	84.62
416.713	92.62
416.936	97.62
417.159	93.62
417.382	78.62
417.605	85.62
417.828	87.62
418.051	84.62
418.274	80.62
418.497	82.62
418.72	86.62
418.943	97.62
419.166	91.62
419.389	82.62
419.611	100.62
419.834	97.62
420.057	100.62
420.28	112.62
420.503	102.62
420.726	113.62
420.948	103.62
421.171	104.62
421.394	119.62
421.617	137.62
421.839	126.62
422.062	150.62
422.285	170.62
422.507	276.62
422.73	361.62
422.953	332.62
423.175	240.62
423.398	169.62
423.621	135.62
423.843	121.62
424.066	107.62
424.288	121.62
424.511	110.62
424.733	122.62
424.956	100.62
425.178	89.62
425.401	88.62
425.623	113.62
425.846	86.62
426.068	94.62
426.291	93.62
426.513	95.62
426.735	99.62
426.958	81.62
427.18	93.62
427.402	112.62
427.625	103.62
427.847	99.62
428.069	98.62
428.292	127.62
428.514	154.62
428.736	133.62
428.958	141.62
429.181	150.62
429.403	121.62
429.625	95.62
429.847	125.62
430.069	176.62
430.292	202.62
430.514	171.62
430.736	143.62
430.958	158.62
431.18	113.62
431.402	108.62
431.624	110.62
431.846	123.62
432.068	150.62
432.29	106.62
432.512	101.62
432.734	97.62
432.956	78.62
433.178	89.62
433.4	86.62
433.622	93.62
433.844	96.62
434.066	89.62
434.287	84.62
434.509	73.62
434.731	90.62
434.953	75.62
435.175	95.62
435.397	97.62
435.618	101.62
435.84	105.62
436.062	79.62
436.284	83.62
436.505	94.62
436.727	82.62
436.949	83.62
437.17	94.62
437.392	91.62
437.614	89.62
437.835	90.62
438.057	96.62
438.278	87.62
438.5	101.62
438.721	86.62
438.943	82.62
439.165	89.62
439.386	84.62
439.608	87.62
439.829	83.62
440.05	83.62
440.272	85.62
440.493	98.62
440.715	88.62
440.936	77.62
441.158	97.62
441.379	87.62
441.6	84.62
441.822	90.62
442.043	93.62
442.264	113.62
442.486	157.62
442.707	199.62
442.928	137.62
443.149	127.62
443.371	168.62
443.592	273.62
443.813	250.62
444.034	130.62
444.255	96.62
444.476	104.62
444.698	101.62
444.919	107.62
445.14	202.62
445.361	233.62
445.582	314.62
445.803	298.62
446.024	138.62
446.245	99.62
446.466	97.62
446.687	90.62
446.908	79.62
447.129	82.62
447.35	88.62
447.571	90.62
447.792	80.62
448.013	88.62
448.234	93.62
448.455	83.62
448.675	74.62
448.896	79.62
449.117	88.62
449.338	69.62
449.559	93.62
449.779	81.62
450	82.62
450.221	83.62
450.442	86.62
450.662	90.62
450.883	91.62
451.104	92.62
451.324	95.62
451.545	80.62
451.766	90.62
451.986	100.62
452.207	90.62
452.428	70.62
452.648	98.62
452.869	123.62
453.089	111.62
453.31	99.62
453.53	97.62
453.751	96.62
453.971	74.62
454.192	89.62
454.412	85.62
454.633	85.62
454.853	93.62
455.073	93.62
455.294	101.62
455.514	107.62
455.734	93.62
455.955	86.62
456.175	89.62
456.395	95.62
456.616	79.62
456.836	74.62
457.056	80.62
457.276	77.62
457.497	83.62
457.717	102.62
457.937	115.62
458.157	139.62
458.377	153.62
458.598	121.62
458.818	153.62
459.038	102.62
459.258	97.62
459.478	83.62
459.698	79.62
459.918	90.62
460.138	100.62
460.358	79.62
460.578	91.62
460.798	117.62
461.018	141.62
461.238	88.62
461.458	87.62
461.678	84.62
461.898	96.62
462.118	100.62
462.338	68.62
462.558	90.62
462.777	79.62
462.997	81.62
463.217	86.62
463.437	94.62
463.657	87.62
463.876	94.62
464.096	90.62
464.316	91.62
464.536	93.62
464.755	92.62
464.975	80.62
465.195	80.62
465.414	94.62
465.634	71.62
465.854	79.62
466.073	82.62
466.293	88.62
466.512	93.62
466.732	93.62
466.951	81.62
467.171	86.62
467.391	78.62
467.61	95.62
467.829	88.62
468.049	96.62
468.268	95.62
468.488	99.62
468.707	74.62
468.927	80.62
469.146	80.62
469.365	77.62
469.585	79.62
469.804	86.62
470.023	83.62
470.243	98.62
470.462	69.62
470.681	86.62
470.901	77.62
471.12	87.62
471.339	94.62
471.558	83.62
471.777	99.62
471.997	86.62
472.216	98.62
472.435	94.62
472.654	85.62
472.873	94.62
473.092	86.62
473.311	93.62
473.53	97.62
473.749	93.62
473.968	91.62
474.187	91.62
474.406	76.62
474.625	81.62
474.844	87.62
475.063	96.62
475.282	84.62
475.501	90.62
475.72	92.62
475.939	86.62
476.158	94.62
476.377	76.62
476.596	91.62
476.814	99.62
477.033	78.62
477.252	89.62
477.471	83.62
477.69	77.62
477.908	92.62
478.127	93.62
478.346	96.62
478.564	74.62
478.783	82.62
479.002	97.62
479.22	109.62
479.439	84.62
479.658	85.62
479.876	93.62
480.095	83.62
480.313	85.62
480.532	87.62
480.751	64.62
480.969	72.62
481.188	103.62
481.406	94.62
481.624	85.62
481.843	91.62
482.061	92.62
482.28	95.62
482.498	86.62
482.717	96.62
482.935	89.62
483.153	96.62
483.372	85.62
483.59	81.62
483.808	83.62
484.027	106.62
484.245	85.62
484.463	101.62
484.681	113.62
484.9	97.62
485.118	97.62
485.336	85.62
485.554	93.62
485.772	91.62
485.99	93.62
486.209	102.62
486.427	84.62
486.645	87.62
486.863	104.62
487.081	99.62
487.299	117.62
487.517	115.62
487.735	132.62
487.953	234.62
488.171	197.62
488.389	111.62
488.607	93.62
488.825	90.62
489.043	94.62
489.261	99.62
489.479	96.62
489.696	91.62
489.914	83.62
490.132	100.62
490.35	97.62
490.568	87.62
490.786	101.62
491.003	82.62
491.221	68.62
491.439	89.62
491.657	98.62
491.874	95.62
492.092	105.62
492.31	104.62
492.527	97.62
492.745	79.62
492.963	87.62
493.18	89.62
493.398	91.62
493.615	105.62
493.833	86.62
494.05	84.62
494.268	95.62
494.485	93.62
494.703	92.62
494.92	93.62
495.138	83.62
495.355	92.62
495.573	104.62
495.79	98.62
496.008	123.62
496.225	91.62
496.442	91.62
496.66	95.62
496.877	97.62
497.094	105.62
497.312	79.62
497.529	87.62
497.746	92.62
497.963	102.62
498.181	98.62
498.398	108.62
498.615	101.62
498.832	89.62
499.049	93.62
499.267	106.62
499.484	89.62
499.701	99.62
499.918	109.62
500.135	109.62
500.352	100.62
500.569	92.62
500.786	99.62
501.003	106.62
501.22	92.62
501.437	89.62
501.654	106.62
501.871	108.62
502.088	95.62
502.305	105.62
502.522	88.62
502.739	78.62
502.956	98.62
503.172	110.62
503.389	99.62
503.606	112.62
503.823	110.62
504.04	126.62
504.256	165.62
504.473	176.62
504.69	109.62
504.907	107.62
505.123	95.62
505.34	82.62
505.557	74.62
505.773	95.62
505.99	97.62
506.207	89.62
506.423	97.62
506.64	94.62
506.856	95.62
507.073	104.62
507.289	87.62
507.506	94.62
507.722	97.62
507.939	81.62
508.155	103.62
508.372	96.62
508.588	103.62
508.805	96.62
509.021	96.62
509.238	93.62
509.454	95.62
509.67	85.62
509.887	93.62
510.103	87.62
510.319	102.62
510.536	91.62
510.752	79.62
510.968	82.62
511.184	92.62
511.401	91.62
511.617	87.62
511.833	92.62
512.049	89.62
512.265	81.62
512.481	95.62
512.698	90.62
512.914	101.62
513.13	91.62
513.346	91.62
513.562	99.62
513.778	107.62
513.994	89.62
514.21	103.62
514.426	101.62
514.642	102.62
514.858	99.62
515.074	109.62
515.29	93.62
515.506	107.62
515.721	96.62
515.937	86.62
516.153	101.62
516.369	89.62
516.585	90.62
516.801	75.62
