Data from 10100_3_HRD10591_00016.txt Node
Date: Mon Jan 19 14:02:30 EST 2026
User: Yrep
Spectrometer: HR+D1059
Trigger mode: 1
Integration Time (sec): 1.000000E-1
Scans to average: 1
Electric dark correction enabled: true
Nonlinearity correction enabled: false
Boxcar width: 0
XAxis mode: Wavelengths
Number of Pixels in Spectrum: 2048
>>>>>Begin Spectral Data<<<<<
223.165	-23.19
223.4	-23.19
223.635	-23.19
223.869	-18.19
224.104	-20.19
224.338	-24.19
224.573	-11.19
224.808	-8.19
225.042	2.81
225.277	-2.19
225.511	-3.19
225.746	12.81
225.98	8.81
226.215	13.81
226.449	20.81
226.683	0.81
226.918	24.81
227.152	25.81
227.387	52.81
227.621	41.81
227.856	43.81
228.09	51.81
228.324	58.81
228.559	57.81
228.793	53.81
229.027	62.81
229.262	59.81
229.496	55.81
229.73	62.81
229.964	70.81
230.199	57.81
230.433	83.81
230.667	78.81
230.901	84.81
231.136	72.81
231.37	73.81
231.604	83.81
231.838	85.81
232.072	88.81
232.306	84.81
232.541	73.81
232.775	89.81
233.009	73.81
233.243	61.81
233.477	83.81
233.711	97.81
233.945	79.81
234.179	79.81
234.413	70.81
234.647	88.81
234.881	72.81
235.115	88.81
235.349	87.81
235.583	83.81
235.817	71.81
236.051	73.81
236.285	75.81
236.519	77.81
236.753	70.81
236.987	71.81
237.221	68.81
237.455	90.81
237.689	84.81
237.922	74.81
238.156	67.81
238.39	70.81
238.624	84.81
238.858	77.81
239.091	73.81
239.325	75.81
239.559	68.81
239.793	78.81
240.027	78.81
240.26	71.81
240.494	65.81
240.728	61.81
240.961	65.81
241.195	75.81
241.429	80.81
241.662	83.81
241.896	81.81
242.13	83.81
242.363	84.81
242.597	77.81
242.83	85.81
243.064	85.81
243.298	78.81
243.531	65.81
243.765	71.81
243.998	81.81
244.232	80.81
244.465	74.81
244.699	86.81
244.932	72.81
245.166	79.81
245.399	65.81
245.633	59.81
245.866	80.81
246.099	76.81
246.333	70.81
246.566	83.81
246.8	87.81
247.033	81.81
247.266	73.81
247.5	72.81
247.733	84.81
247.966	83.81
248.2	73.81
248.433	73.81
248.666	83.81
248.899	82.81
249.133	81.81
249.366	72.81
249.599	74.81
249.832	66.81
250.066	74.81
250.299	84.81
250.532	70.81
250.765	95.81
250.998	80.81
251.231	82.81
251.465	80.81
251.698	76.81
251.931	92.81
252.164	85.81
252.397	81.81
252.63	69.81
252.863	73.81
253.096	77.81
253.329	79.81
253.562	87.81
253.795	86.81
254.028	70.81
254.261	79.81
254.494	78.81
254.727	63.81
254.96	80.81
255.193	87.81
255.426	79.81
255.659	77.81
255.892	73.81
256.124	84.81
256.357	83.81
256.59	80.81
256.823	81.81
257.056	85.81
257.289	76.81
257.521	84.81
257.754	76.81
257.987	72.81
258.22	87.81
258.452	80.81
258.685	84.81
258.918	85.81
259.151	87.81
259.383	76.81
259.616	69.81
259.849	88.81
260.081	93.81
260.314	95.81
260.547	92.81
260.779	70.81
261.012	77.81
261.244	81.81
261.477	84.81
261.71	80.81
261.942	78.81
262.175	83.81
262.407	74.81
262.64	94.81
262.872	85.81
263.105	79.81
263.337	88.81
263.57	71.81
263.802	93.81
264.035	91.81
264.267	85.81
264.499	79.81
264.732	71.81
264.964	74.81
265.197	95.81
265.429	95.81
265.661	73.81
265.894	73.81
266.126	75.81
266.358	91.81
266.591	82.81
266.823	79.81
267.055	72.81
267.287	74.81
267.52	79.81
267.752	87.81
267.984	89.81
268.216	89.81
268.448	75.81
268.681	77.81
268.913	76.81
269.145	81.81
269.377	78.81
269.609	72.81
269.841	70.81
270.073	94.81
270.306	77.81
270.538	88.81
270.77	69.81
271.002	74.81
271.234	76.81
271.466	80.81
271.698	97.81
271.93	91.81
272.162	96.81
272.394	100.81
272.626	86.81
272.858	79.81
273.09	69.81
273.322	79.81
273.553	79.81
273.785	85.81
274.017	80.81
274.249	80.81
274.481	87.81
274.713	87.81
274.945	92.81
275.176	82.81
275.408	74.81
275.64	79.81
275.872	73.81
276.104	86.81
276.335	86.81
276.567	68.81
276.799	86.81
277.031	78.81
277.262	87.81
277.494	80.81
277.726	94.81
277.957	83.81
278.189	77.81
278.421	92.81
278.652	76.81
278.884	81.81
279.115	94.81
279.347	70.81
279.579	86.81
279.81	95.81
280.042	82.81
280.273	109.81
280.505	88.81
280.736	78.81
280.968	75.81
281.199	84.81
281.431	85.81
281.662	66.81
281.894	77.81
282.125	89.81
282.356	83.81
282.588	91.81
282.819	95.81
283.051	88.81
283.282	103.81
283.513	73.81
283.745	76.81
283.976	81.81
284.207	80.81
284.439	97.81
284.67	94.81
284.901	84.81
285.132	93.81
285.364	101.81
285.595	97.81
285.826	88.81
286.057	87.81
286.288	88.81
286.52	65.81
286.751	91.81
286.982	71.81
287.213	88.81
287.444	91.81
287.675	79.81
287.906	84.81
288.138	91.81
288.369	87.81
288.6	99.81
288.831	99.81
289.062	88.81
289.293	78.81
289.524	87.81
289.755	69.81
289.986	77.81
290.217	89.81
290.448	88.81
290.679	89.81
290.91	84.81
291.141	90.81
291.371	87.81
291.602	83.81
291.833	86.81
292.064	89.81
292.295	73.81
292.526	90.81
292.757	87.81
292.987	83.81
293.218	87.81
293.449	95.81
293.68	92.81
293.91	109.81
294.141	92.81
294.372	88.81
294.603	94.81
294.833	94.81
295.064	86.81
295.295	88.81
295.525	88.81
295.756	92.81
295.987	99.81
296.217	92.81
296.448	81.81
296.679	81.81
296.909	94.81
297.14	89.81
297.37	100.81
297.601	81.81
297.831	87.81
298.062	96.81
298.292	82.81
298.523	97.81
298.753	70.81
298.984	86.81
299.214	86.81
299.445	86.81
299.675	107.81
299.905	103.81
300.136	92.81
300.366	93.81
300.597	109.81
300.827	105.81
301.057	94.81
301.288	87.81
301.518	74.81
301.748	95.81
301.979	119.81
302.209	104.81
302.439	91.81
302.669	99.81
302.9	78.81
303.13	84.81
303.36	91.81
303.59	101.81
303.82	95.81
304.051	88.81
304.281	80.81
304.511	103.81
304.741	92.81
304.971	94.81
305.201	90.81
305.431	86.81
305.661	94.81
305.891	93.81
306.121	92.81
306.352	92.81
306.582	101.81
306.812	87.81
307.042	85.81
307.272	90.81
307.502	83.81
307.731	85.81
307.961	105.81
308.191	102.81
308.421	104.81
308.651	98.81
308.881	87.81
309.111	103.81
309.341	120.81
309.571	121.81
309.8	80.81
310.03	90.81
310.26	95.81
310.49	95.81
310.72	86.81
310.949	98.81
311.179	86.81
311.409	71.81
311.639	85.81
311.868	93.81
312.098	85.81
312.328	89.81
312.557	88.81
312.787	88.81
313.017	79.81
313.246	88.81
313.476	87.81
313.706	99.81
313.935	74.81
314.165	111.81
314.394	95.81
314.624	93.81
314.853	94.81
315.083	83.81
315.312	95.81
315.542	100.81
315.771	99.81
316.001	92.81
316.23	99.81
316.46	92.81
316.689	87.81
316.919	98.81
317.148	85.81
317.377	102.81
317.607	97.81
317.836	107.81
318.065	119.81
318.295	104.81
318.524	94.81
318.753	91.81
318.983	98.81
319.212	87.81
319.441	89.81
319.67	90.81
319.9	102.81
320.129	79.81
320.358	82.81
320.587	95.81
320.816	91.81
321.046	98.81
321.275	101.81
321.504	111.81
321.733	103.81
321.962	95.81
322.191	89.81
322.42	101.81
322.649	110.81
322.878	107.81
323.108	108.81
323.337	95.81
323.566	88.81
323.795	85.81
324.024	88.81
324.253	82.81
324.482	87.81
324.71	87.81
324.939	78.81
325.168	79.81
325.397	84.81
325.626	96.81
325.855	81.81
326.084	83.81
326.313	81.81
326.542	89.81
326.77	75.81
326.999	83.81
327.228	88.81
327.457	85.81
327.686	92.81
327.914	98.81
328.143	74.81
328.372	79.81
328.6	87.81
328.829	77.81
329.058	83.81
329.287	101.81
329.515	93.81
329.744	82.81
329.972	85.81
330.201	92.81
330.43	97.81
330.658	77.81
330.887	92.81
331.115	84.81
331.344	89.81
331.572	96.81
331.801	94.81
332.03	81.81
332.258	96.81
332.486	80.81
332.715	100.81
332.943	88.81
333.172	84.81
333.4	85.81
333.629	88.81
333.857	83.81
334.085	94.81
334.314	94.81
334.542	95.81
334.771	105.81
334.999	114.81
335.227	111.81
335.455	113.81
335.684	113.81
335.912	126.81
336.14	123.81
336.369	119.81
336.597	105.81
336.825	99.81
337.053	90.81
337.281	98.81
337.51	97.81
337.738	89.81
337.966	97.81
338.194	93.81
338.422	86.81
338.65	83.81
338.878	100.81
339.106	88.81
339.334	98.81
339.562	92.81
339.79	94.81
340.018	90.81
340.246	99.81
340.474	89.81
340.702	81.81
340.93	74.81
341.158	89.81
341.386	85.81
341.614	92.81
341.842	83.81
342.07	85.81
342.298	89.81
342.526	81.81
342.754	81.81
342.981	91.81
343.209	86.81
343.437	107.81
343.665	88.81
343.893	93.81
344.12	102.81
344.348	91.81
344.576	93.81
344.804	96.81
345.031	98.81
345.259	93.81
345.487	91.81
345.714	103.81
345.942	99.81
346.17	86.81
346.397	103.81
346.625	98.81
346.853	107.81
347.08	85.81
347.308	96.81
347.535	88.81
347.763	99.81
347.99	103.81
348.218	98.81
348.445	99.81
348.673	96.81
348.9	101.81
349.128	107.81
349.355	99.81
349.583	104.81
349.81	90.81
350.037	95.81
350.265	96.81
350.492	76.81
350.72	99.81
350.947	82.81
351.174	89.81
351.402	92.81
351.629	98.81
351.856	92.81
352.083	88.81
352.311	94.81
352.538	85.81
352.765	90.81
352.992	85.81
353.22	83.81
353.447	95.81
353.674	99.81
353.901	101.81
354.128	92.81
354.355	107.81
354.583	94.81
354.81	95.81
355.037	86.81
355.264	86.81
355.491	96.81
355.718	94.81
355.945	103.81
356.172	104.81
356.399	98.81
356.626	111.81
356.853	95.81
357.08	112.81
357.307	109.81
357.534	108.81
357.761	91.81
357.988	101.81
358.215	113.81
358.441	113.81
358.668	98.81
358.895	99.81
359.122	99.81
359.349	99.81
359.576	102.81
359.802	93.81
360.029	87.81
360.256	104.81
360.483	118.81
360.709	115.81
360.936	93.81
361.163	105.81
361.39	88.81
361.616	97.81
361.843	105.81
362.07	118.81
362.296	126.81
362.523	144.81
362.749	157.81
362.976	209.81
363.203	211.81
363.429	153.81
363.656	128.81
363.882	123.81
364.109	158.81
364.335	211.81
364.562	245.81
364.788	160.81
365.015	115.81
365.241	109.81
365.468	115.81
365.694	99.81
365.92	80.81
366.147	102.81
366.373	86.81
366.599	98.81
366.826	87.81
367.052	87.81
367.278	86.81
367.505	85.81
367.731	89.81
367.957	104.81
368.184	97.81
368.41	96.81
368.636	108.81
368.862	100.81
369.089	88.81
369.315	85.81
369.541	98.81
369.767	95.81
369.993	85.81
370.219	95.81
370.445	101.81
370.672	96.81
370.898	109.81
371.124	105.81
371.35	82.81
371.576	95.81
371.802	95.81
372.028	104.81
372.254	119.81
372.48	101.81
372.706	100.81
372.932	112.81
373.158	104.81
373.384	129.81
373.61	145.81
373.835	147.81
374.061	128.81
374.287	120.81
374.513	115.81
374.739	122.81
374.965	125.81
375.191	120.81
375.416	127.81
375.642	125.81
375.868	109.81
376.094	118.81
376.319	123.81
376.545	109.81
376.771	101.81
376.997	103.81
377.222	86.81
377.448	92.81
377.674	80.81
377.899	85.81
378.125	88.81
378.35	87.81
378.576	86.81
378.802	109.81
379.027	97.81
379.253	105.81
379.478	115.81
379.704	98.81
379.929	95.81
380.155	101.81
380.38	96.81
380.606	104.81
380.831	91.81
381.057	109.81
381.282	100.81
381.507	111.81
381.733	107.81
381.958	117.81
382.184	129.81
382.409	117.81
382.634	141.81
382.86	126.81
383.085	119.81
383.31	118.81
383.535	143.81
383.761	142.81
383.986	146.81
384.211	126.81
384.436	112.81
384.662	120.81
384.887	113.81
385.112	99.81
385.337	103.81
385.562	113.81
385.787	119.81
386.013	128.81
386.238	129.81
386.463	117.81
386.688	133.81
386.913	117.81
387.138	110.81
387.363	127.81
387.588	117.81
387.813	135.81
388.038	113.81
388.263	109.81
388.488	122.81
388.713	133.81
388.938	113.81
389.163	95.81
389.387	106.81
389.612	102.81
389.837	99.81
390.062	110.81
390.287	104.81
390.512	99.81
390.736	108.81
390.961	89.81
391.186	90.81
391.411	101.81
391.636	107.81
391.86	114.81
392.085	135.81
392.31	135.81
392.534	135.81
392.759	166.81
392.984	243.81
393.208	433.81
393.433	621.81
393.658	487.81
393.882	247.81
394.107	167.81
394.331	150.81
394.556	183.81
394.78	153.81
395.005	133.81
395.229	125.81
395.454	135.81
395.678	152.81
395.903	162.81
396.127	205.81
396.352	239.81
396.576	264.81
396.801	431.81
397.025	515.81
397.249	288.81
397.474	198.81
397.698	139.81
397.922	111.81
398.147	120.81
398.371	113.81
398.595	115.81
398.82	94.81
399.044	108.81
399.268	108.81
399.492	100.81
399.717	116.81
399.941	108.81
400.165	95.81
400.389	105.81
400.613	95.81
400.837	93.81
401.062	110.81
401.286	94.81
401.51	100.81
401.734	91.81
401.958	89.81
402.182	94.81
402.406	84.81
402.63	103.81
402.854	112.81
403.078	103.81
403.302	109.81
403.526	117.81
403.75	114.81
403.974	97.81
404.198	115.81
404.422	141.81
404.645	183.81
404.869	154.81
405.093	104.81
405.317	93.81
405.541	87.81
405.765	79.81
405.988	95.81
406.212	113.81
406.436	100.81
406.66	115.81
406.883	105.81
407.107	100.81
407.331	117.81
407.555	116.81
407.778	138.81
408.002	139.81
408.226	109.81
408.449	87.81
408.673	103.81
408.896	115.81
409.12	113.81
409.344	125.81
409.567	128.81
409.791	140.81
410.014	166.81
410.238	139.81
410.461	103.81
410.685	103.81
410.908	109.81
411.132	102.81
411.355	111.81
411.578	102.81
411.802	107.81
412.025	101.81
412.249	82.81
412.472	95.81
412.695	103.81
412.919	88.81
413.142	93.81
413.365	95.81
413.589	104.81
413.812	85.81
414.035	103.81
414.258	107.81
414.482	96.81
414.705	71.81
414.928	88.81
415.151	95.81
415.374	89.81
415.597	101.81
415.821	96.81
416.044	97.81
416.267	93.81
416.49	94.81
416.713	93.81
416.936	99.81
417.159	100.81
417.382	94.81
417.605	100.81
417.828	97.81
418.051	80.81
418.274	83.81
418.497	83.81
418.72	100.81
418.943	93.81
419.166	96.81
419.389	100.81
419.611	108.81
419.834	100.81
420.057	113.81
420.28	97.81
420.503	115.81
420.726	115.81
420.948	120.81
421.171	119.81
421.394	143.81
421.617	183.81
421.839	226.81
422.062	227.81
422.285	349.81
422.507	584.81
422.73	764.81
422.953	704.81
423.175	500.81
423.398	292.81
423.621	207.81
423.843	180.81
424.066	163.81
424.288	125.81
424.511	127.81
424.733	132.81
424.956	108.81
425.178	118.81
425.401	107.81
425.623	111.81
425.846	111.81
426.068	115.81
426.291	122.81
426.513	92.81
426.735	109.81
426.958	107.81
427.18	127.81
427.402	126.81
427.625	109.81
427.847	108.81
428.069	119.81
428.292	181.81
428.514	222.81
428.736	187.81
428.958	208.81
429.181	200.81
429.403	134.81
429.625	137.81
429.847	191.81
430.069	288.81
430.292	327.81
430.514	319.81
430.736	253.81
430.958	247.81
431.18	141.81
431.402	115.81
431.624	113.81
431.846	189.81
432.068	221.81
432.29	135.81
432.512	99.81
432.734	109.81
432.956	97.81
433.178	86.81
433.4	93.81
433.622	84.81
433.844	93.81
434.066	97.81
434.287	70.81
434.509	107.81
434.731	87.81
434.953	94.81
435.175	108.81
435.397	89.81
435.618	104.81
435.84	125.81
436.062	107.81
436.284	79.81
436.505	85.81
436.727	92.81
436.949	96.81
437.17	81.81
437.392	100.81
437.614	85.81
437.835	84.81
438.057	100.81
438.278	101.81
438.5	118.81
438.721	101.81
438.943	89.81
439.165	87.81
439.386	94.81
439.608	112.81
439.829	103.81
440.05	91.81
440.272	107.81
440.493	111.81
440.715	102.81
440.936	111.81
441.158	96.81
441.379	104.81
441.6	100.81
441.822	102.81
442.043	102.81
442.264	147.81
442.486	231.81
442.707	305.81
442.928	193.81
443.149	156.81
443.371	277.81
443.592	537.81
443.813	447.81
444.034	192.81
444.255	128.81
444.476	107.81
444.698	123.81
444.919	128.81
445.14	258.81
445.361	352.81
445.582	629.81
445.803	560.81
446.024	233.81
446.245	132.81
446.466	113.81
446.687	113.81
446.908	87.81
447.129	89.81
447.35	88.81
447.571	90.81
447.792	93.81
448.013	79.81
448.234	72.81
448.455	108.81
448.675	105.81
448.896	93.81
449.117	86.81
449.338	91.81
449.559	99.81
449.779	98.81
450	81.81
450.221	93.81
450.442	85.81
450.662	83.81
450.883	67.81
451.104	81.81
451.324	89.81
451.545	111.81
451.766	102.81
451.986	97.81
452.207	100.81
452.428	104.81
452.648	115.81
452.869	149.81
453.089	144.81
453.31	103.81
453.53	110.81
453.751	116.81
453.971	102.81
454.192	88.81
454.412	89.81
454.633	82.81
454.853	89.81
455.073	85.81
455.294	104.81
455.514	111.81
455.734	105.81
455.955	94.81
456.175	82.81
456.395	84.81
456.616	93.81
456.836	94.81
457.056	95.81
457.276	93.81
457.497	107.81
457.717	112.81
457.937	171.81
458.157	213.81
458.377	229.81
458.598	209.81
458.818	238.81
459.038	134.81
459.258	97.81
459.478	107.81
459.698	85.81
459.918	101.81
460.138	101.81
460.358	115.81
460.578	125.81
460.798	175.81
461.018	191.81
461.238	109.81
461.458	96.81
461.678	95.81
461.898	96.81
462.118	95.81
462.338	92.81
462.558	104.81
462.777	85.81
462.997	89.81
463.217	88.81
463.437	84.81
463.657	102.81
463.876	85.81
464.096	97.81
464.316	93.81
464.536	92.81
464.755	96.81
464.975	92.81
465.195	84.81
465.414	100.81
465.634	92.81
465.854	95.81
466.073	104.81
466.293	79.81
466.512	75.81
466.732	89.81
466.951	92.81
467.171	98.81
467.391	96.81
467.61	85.81
467.829	91.81
468.049	95.81
468.268	93.81
468.488	104.81
468.707	102.81
468.927	99.81
469.146	94.81
469.365	98.81
469.585	100.81
469.804	85.81
470.023	79.81
470.243	96.81
470.462	87.81
470.681	90.81
470.901	79.81
471.12	99.81
471.339	94.81
471.558	91.81
471.777	88.81
471.997	89.81
472.216	101.81
472.435	96.81
472.654	92.81
472.873	102.81
473.092	88.81
473.311	105.81
473.53	93.81
473.749	88.81
473.968	109.81
474.187	102.81
474.406	107.81
474.625	106.81
474.844	85.81
475.063	85.81
475.282	110.81
475.501	97.81
475.72	96.81
475.939	101.81
476.158	91.81
476.377	116.81
476.596	100.81
476.814	99.81
477.033	83.81
477.252	86.81
477.471	85.81
477.69	91.81
477.908	97.81
478.127	104.81
478.346	89.81
478.564	101.81
478.783	101.81
479.002	83.81
479.22	87.81
479.439	96.81
479.658	84.81
479.876	102.81
480.095	94.81
480.313	91.81
480.532	104.81
480.751	95.81
480.969	77.81
481.188	114.81
481.406	112.81
481.624	97.81
481.843	102.81
482.061	96.81
482.28	89.81
482.498	99.81
482.717	99.81
482.935	86.81
483.153	95.81
483.372	119.81
483.59	110.81
483.808	111.81
484.027	92.81
484.245	115.81
484.463	109.81
484.681	121.81
484.9	100.81
485.118	89.81
485.336	92.81
485.554	90.81
485.772	104.81
485.99	109.81
486.209	107.81
486.427	115.81
486.645	103.81
486.863	110.81
487.081	101.81
487.299	121.81
487.517	136.81
487.735	201.81
487.953	382.81
488.171	311.81
488.389	155.81
488.607	102.81
488.825	84.81
489.043	95.81
489.261	112.81
489.479	108.81
489.696	107.81
489.914	115.81
490.132	110.81
490.35	102.81
490.568	99.81
490.786	108.81
491.003	98.81
491.221	113.81
491.439	105.81
491.657	104.81
491.874	105.81
492.092	107.81
492.31	98.81
492.527	93.81
492.745	84.81
492.963	96.81
493.18	89.81
493.398	104.81
493.615	122.81
493.833	107.81
494.05	102.81
494.268	113.81
494.485	105.81
494.703	100.81
494.92	96.81
495.138	104.81
495.355	94.81
495.573	98.81
495.79	111.81
496.008	116.81
496.225	99.81
496.442	109.81
496.66	104.81
496.877	95.81
497.094	99.81
497.312	101.81
497.529	92.81
497.746	108.81
497.963	94.81
498.181	111.81
498.398	119.81
498.615	107.81
498.832	93.81
499.049	113.81
499.267	125.81
499.484	109.81
499.701	110.81
499.918	105.81
500.135	127.81
500.352	118.81
500.569	91.81
500.786	107.81
501.003	115.81
501.22	93.81
501.437	118.81
501.654	113.81
501.871	111.81
502.088	104.81
502.305	125.81
502.522	112.81
502.739	124.81
502.956	116.81
503.172	103.81
503.389	104.81
503.606	118.81
503.823	131.81
504.04	145.81
504.256	272.81
504.473	282.81
504.69	148.81
504.907	120.81
505.123	107.81
505.34	90.81
505.557	113.81
505.773	91.81
505.99	98.81
506.207	108.81
506.423	95.81
506.64	112.81
506.856	104.81
507.073	89.81
507.289	109.81
507.506	101.81
507.722	87.81
507.939	91.81
508.155	99.81
508.372	110.81
508.588	107.81
508.805	94.81
509.021	111.81
509.238	102.81
509.454	99.81
509.67	108.81
509.887	94.81
510.103	88.81
510.319	101.81
510.536	97.81
510.752	91.81
510.968	114.81
511.184	96.81
511.401	107.81
511.617	100.81
511.833	89.81
512.049	91.81
512.265	107.81
512.481	98.81
512.698	83.81
512.914	118.81
513.13	111.81
