Data from 10100_3_HRD10591_00021.txt Node
Date: Mon Jan 19 14:02:33 EST 2026
User: Yrep
Spectrometer: HR+D1059
Trigger mode: 1
Integration Time (sec): 1.000000E-1
Scans to average: 1
Electric dark correction enabled: true
Nonlinearity correction enabled: false
Boxcar width: 0
XAxis mode: Wavelengths
Number of Pixels in Spectrum: 2048
>>>>>Begin Spectral Data<<<<<
223.165	-18.12
223.4	-18.12
223.635	-18.12
223.869	-11.12
224.104	-20.12
224.338	-11.12
224.573	-18.12
224.808	-2.12
225.042	-1.12
225.277	-17.12
225.511	-8.12
225.746	19.88
225.98	2.88
226.215	6.88
226.449	12.88
226.683	14.88
226.918	26.88
227.152	22.88
227.387	28.88
227.621	32.88
227.856	27.88
228.09	41.88
228.324	50.88
228.559	54.88
228.793	54.88
229.027	62.88
229.262	55.88
229.496	57.88
229.73	74.88
229.964	76.88
230.199	66.88
230.433	66.88
230.667	67.88
230.901	68.88
231.136	75.88
231.37	52.88
231.604	84.88
231.838	69.88
232.072	74.88
232.306	62.88
232.541	71.88
232.775	89.88
233.009	77.88
233.243	85.88
233.477	84.88
233.711	68.88
233.945	81.88
234.179	77.88
234.413	70.88
234.647	79.88
234.881	67.88
235.115	79.88
235.349	76.88
235.583	65.88
235.817	70.88
236.051	74.88
236.285	77.88
236.519	68.88
236.753	61.88
236.987	84.88
237.221	77.88
237.455	67.88
237.689	76.88
237.922	84.88
238.156	70.88
238.39	77.88
238.624	55.88
238.858	68.88
239.091	81.88
239.325	76.88
239.559	69.88
239.793	65.88
240.027	72.88
240.26	83.88
240.494	88.88
240.728	65.88
240.961	70.88
241.195	81.88
241.429	79.88
241.662	73.88
241.896	67.88
242.13	79.88
242.363	63.88
242.597	63.88
242.83	83.88
243.064	74.88
243.298	63.88
243.531	72.88
243.765	79.88
243.998	88.88
244.232	62.88
244.465	75.88
244.699	83.88
244.932	61.88
245.166	76.88
245.399	74.88
245.633	69.88
245.866	73.88
246.099	61.88
246.333	84.88
246.566	77.88
246.8	61.88
247.033	86.88
247.266	65.88
247.5	66.88
247.733	63.88
247.966	79.88
248.2	77.88
248.433	72.88
248.666	77.88
248.899	68.88
249.133	71.88
249.366	71.88
249.599	76.88
249.832	77.88
250.066	76.88
250.299	67.88
250.532	82.88
250.765	65.88
250.998	71.88
251.231	61.88
251.465	82.88
251.698	79.88
251.931	69.88
252.164	79.88
252.397	65.88
252.63	60.88
252.863	73.88
253.096	84.88
253.329	79.88
253.562	75.88
253.795	69.88
254.028	78.88
254.261	75.88
254.494	73.88
254.727	77.88
254.96	83.88
255.193	72.88
255.426	77.88
255.659	87.88
255.892	61.88
256.124	63.88
256.357	68.88
256.59	81.88
256.823	73.88
257.056	82.88
257.289	72.88
257.521	70.88
257.754	95.88
257.987	72.88
258.22	80.88
258.452	83.88
258.685	73.88
258.918	60.88
259.151	73.88
259.383	77.88
259.616	81.88
259.849	78.88
260.081	72.88
260.314	78.88
260.547	84.88
260.779	77.88
261.012	75.88
261.244	76.88
261.477	72.88
261.71	61.88
261.942	76.88
262.175	79.88
262.407	79.88
262.64	78.88
262.872	76.88
263.105	79.88
263.337	82.88
263.57	57.88
263.802	67.88
264.035	82.88
264.267	91.88
264.499	77.88
264.732	65.88
264.964	88.88
265.197	56.88
265.429	77.88
265.661	86.88
265.894	84.88
266.126	97.88
266.358	86.88
266.591	70.88
266.823	80.88
267.055	77.88
267.287	78.88
267.52	70.88
267.752	78.88
267.984	79.88
268.216	73.88
268.448	83.88
268.681	69.88
268.913	79.88
269.145	81.88
269.377	89.88
269.609	87.88
269.841	77.88
270.073	74.88
270.306	81.88
270.538	77.88
270.77	84.88
271.002	96.88
271.234	75.88
271.466	89.88
271.698	73.88
271.93	61.88
272.162	73.88
272.394	90.88
272.626	83.88
272.858	89.88
273.09	78.88
273.322	86.88
273.553	84.88
273.785	89.88
274.017	79.88
274.249	70.88
274.481	93.88
274.713	75.88
274.945	88.88
275.176	82.88
275.408	74.88
275.64	83.88
275.872	81.88
276.104	90.88
276.335	77.88
276.567	82.88
276.799	86.88
277.031	82.88
277.262	94.88
277.494	86.88
277.726	81.88
277.957	75.88
278.189	82.88
278.421	79.88
278.652	66.88
278.884	66.88
279.115	73.88
279.347	65.88
279.579	71.88
279.81	80.88
280.042	85.88
280.273	71.88
280.505	77.88
280.736	82.88
280.968	87.88
281.199	86.88
281.431	83.88
281.662	76.88
281.894	76.88
282.125	79.88
282.356	67.88
282.588	77.88
282.819	85.88
283.051	75.88
283.282	80.88
283.513	83.88
283.745	99.88
283.976	74.88
284.207	82.88
284.439	89.88
284.67	90.88
284.901	77.88
285.132	78.88
285.364	81.88
285.595	83.88
285.826	78.88
286.057	81.88
286.288	81.88
286.52	81.88
286.751	82.88
286.982	87.88
287.213	72.88
287.444	81.88
287.675	72.88
287.906	92.88
288.138	94.88
288.369	95.88
288.6	88.88
288.831	82.88
289.062	74.88
289.293	90.88
289.524	68.88
289.755	77.88
289.986	73.88
290.217	74.88
290.448	79.88
290.679	84.88
290.91	80.88
291.141	69.88
291.371	77.88
291.602	85.88
291.833	94.88
292.064	90.88
292.295	87.88
292.526	86.88
292.757	73.88
292.987	91.88
293.218	83.88
293.449	69.88
293.68	75.88
293.91	85.88
294.141	90.88
294.372	79.88
294.603	85.88
294.833	82.88
295.064	78.88
295.295	68.88
295.525	73.88
295.756	88.88
295.987	60.88
296.217	82.88
296.448	89.88
296.679	79.88
296.909	79.88
297.14	71.88
297.37	82.88
297.601	78.88
297.831	86.88
298.062	77.88
298.292	85.88
298.523	84.88
298.753	66.88
298.984	81.88
299.214	77.88
299.445	76.88
299.675	71.88
299.905	78.88
300.136	71.88
300.366	73.88
300.597	73.88
300.827	74.88
301.057	83.88
301.288	78.88
301.518	98.88
301.748	82.88
301.979	105.88
302.209	85.88
302.439	95.88
302.669	99.88
302.9	97.88
303.13	94.88
303.36	79.88
303.59	92.88
303.82	83.88
304.051	80.88
304.281	89.88
304.511	87.88
304.741	75.88
304.971	65.88
305.201	82.88
305.431	65.88
305.661	73.88
305.891	87.88
306.121	85.88
306.352	76.88
306.582	88.88
306.812	84.88
307.042	94.88
307.272	76.88
307.502	78.88
307.731	86.88
307.961	79.88
308.191	84.88
308.421	75.88
308.651	85.88
308.881	76.88
309.111	68.88
309.341	68.88
309.571	86.88
309.8	77.88
310.03	90.88
310.26	77.88
310.49	80.88
310.72	80.88
310.949	96.88
311.179	76.88
311.409	75.88
311.639	75.88
311.868	69.88
312.098	97.88
312.328	71.88
312.557	96.88
312.787	83.88
313.017	85.88
313.246	91.88
313.476	100.88
313.706	83.88
313.935	65.88
314.165	90.88
314.394	66.88
314.624	85.88
314.853	81.88
315.083	77.88
315.312	103.88
315.542	85.88
315.771	75.88
316.001	81.88
316.23	70.88
316.46	86.88
316.689	85.88
316.919	79.88
317.148	81.88
317.377	81.88
317.607	92.88
317.836	97.88
318.065	71.88
318.295	83.88
318.524	81.88
318.753	78.88
318.983	83.88
319.212	81.88
319.441	71.88
319.67	80.88
319.9	79.88
320.129	77.88
320.358	69.88
320.587	75.88
320.816	77.88
321.046	78.88
321.275	89.88
321.504	57.88
321.733	79.88
321.962	97.88
322.191	80.88
322.42	83.88
322.649	69.88
322.878	79.88
323.108	78.88
323.337	77.88
323.566	72.88
323.795	71.88
324.024	77.88
324.253	96.88
324.482	84.88
324.71	75.88
324.939	86.88
325.168	105.88
325.397	81.88
325.626	71.88
325.855	87.88
326.084	86.88
326.313	82.88
326.542	88.88
326.77	70.88
326.999	71.88
327.228	82.88
327.457	90.88
327.686	85.88
327.914	86.88
328.143	86.88
328.372	78.88
328.6	75.88
328.829	69.88
329.058	93.88
329.287	74.88
329.515	67.88
329.744	79.88
329.972	70.88
330.201	71.88
330.43	77.88
330.658	71.88
330.887	68.88
331.115	70.88
331.344	81.88
331.572	83.88
331.801	94.88
332.03	93.88
332.258	74.88
332.486	85.88
332.715	84.88
332.943	74.88
333.172	86.88
333.4	77.88
333.629	89.88
333.857	70.88
334.085	86.88
334.314	84.88
334.542	82.88
334.771	78.88
334.999	77.88
335.227	84.88
335.455	100.88
335.684	95.88
335.912	85.88
336.14	93.88
336.369	80.88
336.597	97.88
336.825	89.88
337.053	83.88
337.281	84.88
337.51	77.88
337.738	87.88
337.966	85.88
338.194	74.88
338.422	81.88
338.65	75.88
338.878	85.88
339.106	76.88
339.334	83.88
339.562	68.88
339.79	73.88
340.018	87.88
340.246	89.88
340.474	76.88
340.702	69.88
340.93	83.88
341.158	71.88
341.386	71.88
341.614	88.88
341.842	77.88
342.07	86.88
342.298	78.88
342.526	76.88
342.754	80.88
342.981	88.88
343.209	68.88
343.437	91.88
343.665	65.88
343.893	78.88
344.12	89.88
344.348	73.88
344.576	75.88
344.804	79.88
345.031	92.88
345.259	69.88
345.487	72.88
345.714	71.88
345.942	67.88
346.17	83.88
346.397	90.88
346.625	85.88
346.853	85.88
347.08	79.88
347.308	85.88
347.535	72.88
347.763	79.88
347.99	96.88
348.218	75.88
348.445	81.88
348.673	80.88
348.9	71.88
349.128	65.88
349.355	66.88
349.583	97.88
349.81	68.88
350.037	78.88
350.265	78.88
350.492	96.88
350.72	82.88
350.947	95.88
351.174	79.88
351.402	80.88
351.629	75.88
351.856	87.88
352.083	78.88
352.311	76.88
352.538	81.88
352.765	69.88
352.992	75.88
353.22	90.88
353.447	69.88
353.674	67.88
353.901	74.88
354.128	82.88
354.355	80.88
354.583	95.88
354.81	82.88
355.037	69.88
355.264	81.88
355.491	82.88
355.718	81.88
355.945	73.88
356.172	83.88
356.399	98.88
356.626	83.88
356.853	85.88
357.08	89.88
357.307	75.88
357.534	79.88
357.761	86.88
357.988	94.88
358.215	80.88
358.441	61.88
358.668	87.88
358.895	90.88
359.122	79.88
359.349	87.88
359.576	90.88
359.802	66.88
360.029	89.88
360.256	69.88
360.483	83.88
360.709	69.88
360.936	92.88
361.163	92.88
361.39	88.88
361.616	65.88
361.843	85.88
362.07	77.88
362.296	96.88
362.523	75.88
362.749	79.88
362.976	75.88
363.203	94.88
363.429	77.88
363.656	84.88
363.882	82.88
364.109	85.88
364.335	87.88
364.562	82.88
364.788	75.88
365.015	75.88
365.241	84.88
365.468	75.88
365.694	81.88
365.92	90.88
366.147	74.88
366.373	78.88
366.599	79.88
366.826	85.88
367.052	87.88
367.278	83.88
367.505	79.88
367.731	96.88
367.957	71.88
368.184	79.88
368.41	70.88
368.636	76.88
368.862	81.88
369.089	70.88
369.315	92.88
369.541	81.88
369.767	92.88
369.993	72.88
370.219	69.88
370.445	69.88
370.672	84.88
370.898	80.88
371.124	77.88
371.35	84.88
371.576	79.88
371.802	91.88
372.028	84.88
372.254	70.88
372.48	71.88
372.706	71.88
372.932	91.88
373.158	85.88
373.384	84.88
373.61	84.88
373.835	87.88
374.061	71.88
374.287	86.88
374.513	80.88
374.739	80.88
374.965	85.88
375.191	73.88
375.416	92.88
375.642	69.88
375.868	82.88
376.094	89.88
376.319	77.88
376.545	77.88
376.771	90.88
376.997	84.88
377.222	92.88
377.448	78.88
377.674	89.88
377.899	95.88
378.125	59.88
378.35	71.88
378.576	71.88
378.802	82.88
379.027	86.88
379.253	83.88
379.478	87.88
379.704	71.88
379.929	70.88
380.155	82.88
380.38	85.88
380.606	68.88
380.831	70.88
381.057	74.88
381.282	91.88
381.507	82.88
381.733	88.88
381.958	90.88
382.184	88.88
382.409	89.88
382.634	75.88
382.86	76.88
383.085	79.88
383.31	65.88
383.535	74.88
383.761	78.88
383.986	83.88
384.211	71.88
384.436	73.88
384.662	62.88
384.887	78.88
385.112	79.88
385.337	80.88
385.562	83.88
385.787	82.88
386.013	89.88
386.238	76.88
386.463	84.88
386.688	84.88
386.913	73.88
387.138	79.88
387.363	71.88
387.588	81.88
387.813	72.88
388.038	83.88
388.263	73.88
388.488	81.88
388.713	72.88
388.938	64.88
389.163	80.88
389.387	78.88
389.612	71.88
389.837	93.88
390.062	79.88
390.287	80.88
390.512	89.88
390.736	87.88
390.961	70.88
391.186	75.88
391.411	75.88
391.636	93.88
391.86	65.88
392.085	92.88
392.31	100.88
392.534	78.88
392.759	85.88
392.984	78.88
393.208	101.88
393.433	101.88
393.658	90.88
393.882	89.88
394.107	92.88
394.331	90.88
394.556	85.88
394.78	78.88
395.005	85.88
395.229	81.88
395.454	90.88
395.678	78.88
395.903	88.88
396.127	92.88
396.352	72.88
396.576	85.88
396.801	90.88
397.025	95.88
397.249	95.88
397.474	88.88
397.698	77.88
397.922	74.88
398.147	75.88
398.371	93.88
398.595	89.88
398.82	76.88
399.044	81.88
399.268	72.88
399.492	66.88
399.717	69.88
399.941	96.88
400.165	76.88
400.389	82.88
400.613	69.88
400.837	82.88
401.062	84.88
401.286	85.88
401.51	78.88
401.734	64.88
401.958	79.88
402.182	71.88
402.406	82.88
402.63	70.88
402.854	72.88
403.078	90.88
403.302	93.88
403.526	93.88
403.75	81.88
403.974	85.88
404.198	85.88
404.422	82.88
404.645	69.88
404.869	71.88
405.093	53.88
405.317	90.88
405.541	71.88
405.765	85.88
405.988	93.88
406.212	83.88
406.436	84.88
406.66	77.88
406.883	88.88
407.107	85.88
407.331	62.88
407.555	77.88
407.778	80.88
408.002	85.88
408.226	78.88
408.449	86.88
408.673	78.88
408.896	87.88
409.12	73.88
409.344	88.88
409.567	77.88
409.791	88.88
410.014	84.88
410.238	85.88
410.461	67.88
410.685	85.88
410.908	66.88
411.132	75.88
411.355	85.88
411.578	75.88
411.802	84.88
412.025	89.88
412.249	81.88
412.472	78.88
412.695	79.88
412.919	80.88
413.142	71.88
413.365	70.88
413.589	76.88
413.812	81.88
414.035	91.88
414.258	92.88
414.482	89.88
414.705	82.88
414.928	69.88
415.151	81.88
415.374	72.88
415.597	86.88
415.821	77.88
416.044	86.88
416.267	62.88
416.49	73.88
416.713	60.88
416.936	76.88
417.159	72.88
417.382	89.88
417.605	65.88
417.828	66.88
418.051	91.88
418.274	80.88
418.497	73.88
418.72	76.88
418.943	93.88
419.166	81.88
419.389	65.88
419.611	81.88
419.834	83.88
420.057	77.88
420.28	73.88
420.503	82.88
420.726	79.88
420.948	94.88
421.171	76.88
421.394	77.88
421.617	86.88
421.839	73.88
422.062	83.88
422.285	93.88
422.507	107.88
422.73	130.88
422.953	111.88
423.175	107.88
423.398	86.88
423.621	85.88
423.843	81.88
424.066	81.88
424.288	75.88
424.511	96.88
424.733	96.88
424.956	81.88
425.178	83.88
425.401	85.88
425.623	69.88
425.846	76.88
426.068	77.88
426.291	96.88
426.513	68.88
426.735	75.88
426.958	73.88
427.18	83.88
427.402	90.88
427.625	67.88
427.847	81.88
428.069	84.88
428.292	83.88
428.514	91.88
428.736	88.88
428.958	85.88
429.181	80.88
429.403	85.88
429.625	91.88
429.847	73.88
430.069	90.88
430.292	101.88
430.514	93.88
430.736	84.88
430.958	77.88
431.18	67.88
431.402	69.88
431.624	77.88
431.846	77.88
432.068	76.88
432.29	71.88
432.512	69.88
432.734	81.88
432.956	74.88
433.178	91.88
433.4	75.88
433.622	74.88
433.844	70.88
434.066	79.88
434.287	77.88
434.509	70.88
434.731	81.88
434.953	89.88
435.175	91.88
435.397	77.88
435.618	79.88
435.84	79.88
436.062	72.88
436.284	76.88
436.505	71.88
436.727	85.88
436.949	81.88
437.17	72.88
437.392	86.88
437.614	72.88
437.835	78.88
438.057	76.88
438.278	75.88
438.5	82.88
438.721	77.88
438.943	91.88
439.165	93.88
439.386	74.88
439.608	75.88
439.829	63.88
440.05	67.88
440.272	90.88
440.493	74.88
440.715	91.88
440.936	75.88
441.158	82.88
441.379	71.88
441.6	70.88
441.822	81.88
442.043	75.88
442.264	82.88
442.486	85.88
442.707	99.88
442.928	83.88
443.149	84.88
443.371	84.88
443.592	98.88
443.813	103.88
444.034	86.88
444.255	77.88
444.476	81.88
444.698	95.88
444.919	75.88
445.14	176.88
445.361	142.88
445.582	118.88
445.803	110.88
446.024	92.88
446.245	86.88
446.466	89.88
446.687	77.88
446.908	79.88
447.129	82.88
447.35	73.88
447.571	71.88
447.792	85.88
448.013	69.88
448.234	71.88
448.455	78.88
448.675	76.88
448.896	76.88
449.117	83.88
449.338	87.88
449.559	88.88
449.779	71.88
450	77.88
450.221	87.88
450.442	97.88
450.662	77.88
450.883	65.88
451.104	82.88
451.324	72.88
451.545	62.88
451.766	85.88
451.986	72.88
452.207	76.88
452.428	78.88
452.648	87.88
452.869	75.88
453.089	75.88
453.31	76.88
453.53	82.88
453.751	78.88
453.971	81.88
454.192	76.88
454.412	72.88
454.633	76.88
454.853	87.88
455.073	85.88
455.294	77.88
455.514	72.88
455.734	78.88
455.955	76.88
456.175	60.88
456.395	70.88
456.616	83.88
456.836	73.88
457.056	65.88
457.276	79.88
457.497	77.88
457.717	78.88
457.937	82.88
458.157	84.88
458.377	81.88
458.598	81.88
458.818	74.88
459.038	81.88
459.258	79.88
459.478	72.88
459.698	85.88
459.918	67.88
460.138	79.88
460.358	87.88
460.578	87.88
460.798	83.88
461.018	91.88
461.238	80.88
461.458	72.88
461.678	93.88
461.898	74.88
462.118	89.88
462.338	88.88
462.558	87.88
462.777	87.88
462.997	86.88
463.217	65.88
463.437	69.88
463.657	82.88
463.876	77.88
464.096	75.88
464.316	80.88
464.536	68.88
464.755	78.88
464.975	78.88
465.195	89.88
465.414	83.88
465.634	80.88
465.854	75.88
466.073	69.88
466.293	91.88
466.512	73.88
466.732	79.88
466.951	85.88
467.171	87.88
467.391	84.88
467.61	74.88
467.829	85.88
468.049	59.88
468.268	80.88
468.488	89.88
468.707	77.88
468.927	69.88
469.146	71.88
469.365	89.88
469.585	84.88
469.804	79.88
470.023	80.88
470.243	74.88
470.462	90.88
470.681	69.88
470.901	77.88
471.12	65.88
471.339	77.88
471.558	69.88
471.777	80.88
471.997	68.88
472.216	87.88
472.435	85.88
472.654	83.88
472.873	88.88
473.092	79.88
473.311	83.88
473.53	79.88
473.749	71.88
473.968	77.88
474.187	79.88
474.406	88.88
474.625	84.88
474.844	91.88
475.063	67.88
475.282	85.88
475.501	63.88
475.72	86.88
475.939	82.88
476.158	77.88
476.377	85.88
476.596	88.88
476.814	79.88
477.033	87.88
477.252	97.88
477.471	66.88
477.69	74.88
477.908	79.88
478.127	93.88
478.346	84.88
478.564	85.88
478.783	81.88
479.002	68.88
479.22	79.88
479.439	73.88
479.658	84.88
479.876	77.88
480.095	69.88
480.313	79.88
480.532	87.88
480.751	88.88
480.969	78.88
481.188	68.88
481.406	86.88
481.624	89.88
481.843	71.88
482.061	75.88
482.28	86.88
482.498	90.88
482.717	77.88
482.935	79.88
483.153	89.88
483.372	77.88
483.59	82.88
483.808	84.88
484.027	76.88
484.245	94.88
484.463	97.88
484.681	73.88
484.9	85.88
485.118	77.88
485.336	83.88
485.554	93.88
485.772	90.88
485.99	62.88
486.209	78.88
486.427	79.88
486.645	76.88
486.863	73.88
487.081	71.88
487.299	81.88
487.517	79.88
487.735	79.88
487.953	84.88
488.171	86.88
488.389	80.88
488.607	74.88
488.825	79.88
489.043	77.88
489.261	93.88
489.479	74.88
489.696	94.88
489.914	82.88
490.132	83.88
490.35	73.88
490.568	77.88
490.786	90.88
491.003	83.88
491.221	79.88
491.439	75.88
491.657	63.88
491.874	79.88
492.092	69.88
492.31	84.88
492.527	79.88
492.745	85.88
492.963	78.88
493.18	65.88
493.398	68.88
493.615	81.88
493.833	80.88
494.05	96.88
494.268	93.88
494.485	68.88
494.703	82.88
494.92	81.88
495.138	96.88
495.355	73.88
495.573	79.88
495.79	75.88
496.008	82.88
496.225	75.88
496.442	83.88
496.66	83.88
496.877	84.88
497.094	79.88
497.312	77.88
497.529	76.88
497.746	75.88
497.963	74.88
498.181	79.88
498.398	86.88
498.615	85.88
498.832	71.88
499.049	80.88
499.267	77.88
499.484	78.88
499.701	78.88
499.918	95.88
500.135	82.88
500.352	79.88
500.569	89.88
500.786	83.88
501.003	84.88
501.22	84.88
501.437	75.88
501.654	85.88
501.871	69.88
502.088	75.88
502.305	72.88
502.522	82.88
502.739	69.88
502.956	85.88
503.172	89.88
503.389	81.88
503.606	78.88
503.823	82.88
504.04	86.88
504.256	86.88
504.473	92.88
504.69	75.88
504.907	93.88
505.123	83.88
505.34	71.88
505.557	93.88
505.773	94.88
505.99	70.88
506.207	76.88
506.423	88.88
506.64	99.88
506.856	84.88
507.073	82.88
507.289	76.88
507.506	65.88
507.722	66.88
507.939	78.88
508.155	96.88
508.372	71.88
508.588	68.88
508.805	93.88
509.021	67.88
509.238	73.88
509.454	78.88
509.67	73.88
509.887	65.88
510.103	78.88
510.319	90.88
510.536	91.88
510.752	73.88
510.968	87.88
511.184	89.88
511.401	62.88
511.617	77.88
511.833	80.88
512.049	73.88
512.265	87.88
512.481	76.88
512.698	89.88
512.914	93.88
513.13	91.88
513.346	83.88
513.562	82.88
513.778	88.88
513.994	72.88
514.21	85.88
514.426	77.88
514.642	88.88
514.858	92.88
515.074	80.88
515.29	83.88
515.506	65.88
515.721	86.88
515.937	78.88
516.153	81.88
516.369	86.88
516.585	87.88
516.801	87.88
517.016	79.88
517.232	83.88
517.448	81.88
517.664	81.88
517.879	76.88
518.095	79.88
518.311	75.88
518.527	77.88
518.742	71.88
518.958	91.88
519.173	92.88
519.389	94.88
519.605	78.88
519.82	77.88
520.036	91.88
