Data from 10100_3_HRD10591_00014.txt Node
Date: Mon Jan 19 14:02:29 EST 2026
User: Yrep
Spectrometer: HR+D1059
Trigger mode: 1
Integration Time (sec): 1.000000E-1
Scans to average: 1
Electric dark correction enabled: true
Nonlinearity correction enabled: false
Boxcar width: 0
XAxis mode: Wavelengths
Number of Pixels in Spectrum: 2048
>>>>>Begin Spectral Data<<<<<
223.165	-11.25
223.4	-11.25
223.635	-11.25
223.869	-24.25
224.104	-19.25
224.338	-24.25
224.573	-13.25
224.808	-10.25
225.042	-15.25
225.277	-0.25
225.511	5.75
225.746	13.75
225.98	-7.25
226.215	20.75
226.449	2.75
226.683	19.75
226.918	31.75
227.152	30.75
227.387	34.75
227.621	40.75
227.856	52.75
228.09	48.75
228.324	47.75
228.559	64.75
228.793	58.75
229.027	63.75
229.262	50.75
229.496	65.75
229.73	73.75
229.964	63.75
230.199	65.75
230.433	82.75
230.667	77.75
230.901	85.75
231.136	74.75
231.37	70.75
231.604	84.75
231.838	86.75
232.072	85.75
232.306	77.75
232.541	79.75
232.775	72.75
233.009	66.75
233.243	73.75
233.477	81.75
233.711	80.75
233.945	79.75
234.179	81.75
234.413	79.75
234.647	72.75
234.881	74.75
235.115	80.75
235.349	82.75
235.583	71.75
235.817	71.75
236.051	80.75
236.285	75.75
236.519	80.75
236.753	68.75
236.987	70.75
237.221	85.75
237.455	80.75
237.689	80.75
237.922	62.75
238.156	91.75
238.39	82.75
238.624	83.75
238.858	61.75
239.091	75.75
239.325	67.75
239.559	69.75
239.793	85.75
240.027	68.75
240.26	80.75
240.494	69.75
240.728	78.75
240.961	82.75
241.195	73.75
241.429	72.75
241.662	79.75
241.896	73.75
242.13	73.75
242.363	84.75
242.597	72.75
242.83	73.75
243.064	73.75
243.298	83.75
243.531	92.75
243.765	64.75
243.998	68.75
244.232	93.75
244.465	78.75
244.699	72.75
244.932	86.75
245.166	76.75
245.399	80.75
245.633	85.75
245.866	80.75
246.099	70.75
246.333	80.75
246.566	73.75
246.8	74.75
247.033	84.75
247.266	73.75
247.5	88.75
247.733	86.75
247.966	80.75
248.2	78.75
248.433	88.75
248.666	95.75
248.899	84.75
249.133	75.75
249.366	73.75
249.599	73.75
249.832	95.75
250.066	78.75
250.299	80.75
250.532	95.75
250.765	86.75
250.998	85.75
251.231	90.75
251.465	86.75
251.698	96.75
251.931	82.75
252.164	85.75
252.397	74.75
252.63	73.75
252.863	93.75
253.096	75.75
253.329	86.75
253.562	77.75
253.795	80.75
254.028	70.75
254.261	78.75
254.494	76.75
254.727	84.75
254.96	72.75
255.193	63.75
255.426	79.75
255.659	73.75
255.892	90.75
256.124	96.75
256.357	71.75
256.59	78.75
256.823	76.75
257.056	71.75
257.289	84.75
257.521	75.75
257.754	71.75
257.987	83.75
258.22	70.75
258.452	70.75
258.685	74.75
258.918	81.75
259.151	100.75
259.383	79.75
259.616	64.75
259.849	75.75
260.081	84.75
260.314	83.75
260.547	88.75
260.779	74.75
261.012	86.75
261.244	83.75
261.477	88.75
261.71	81.75
261.942	72.75
262.175	57.75
262.407	78.75
262.64	73.75
262.872	87.75
263.105	88.75
263.337	94.75
263.57	74.75
263.802	76.75
264.035	89.75
264.267	72.75
264.499	76.75
264.732	94.75
264.964	77.75
265.197	77.75
265.429	71.75
265.661	89.75
265.894	74.75
266.126	78.75
266.358	81.75
266.591	72.75
266.823	87.75
267.055	81.75
267.287	76.75
267.52	56.75
267.752	64.75
267.984	88.75
268.216	71.75
268.448	81.75
268.681	84.75
268.913	74.75
269.145	85.75
269.377	82.75
269.609	73.75
269.841	78.75
270.073	88.75
270.306	92.75
270.538	86.75
270.77	87.75
271.002	85.75
271.234	91.75
271.466	86.75
271.698	87.75
271.93	80.75
272.162	77.75
272.394	91.75
272.626	78.75
272.858	86.75
273.09	90.75
273.322	80.75
273.553	73.75
273.785	70.75
274.017	81.75
274.249	76.75
274.481	83.75
274.713	80.75
274.945	87.75
275.176	78.75
275.408	93.75
275.64	64.75
275.872	82.75
276.104	78.75
276.335	77.75
276.567	73.75
276.799	74.75
277.031	78.75
277.262	93.75
277.494	90.75
277.726	81.75
277.957	77.75
278.189	86.75
278.421	92.75
278.652	82.75
278.884	91.75
279.115	71.75
279.347	84.75
279.579	92.75
279.81	66.75
280.042	81.75
280.273	79.75
280.505	89.75
280.736	92.75
280.968	87.75
281.199	84.75
281.431	84.75
281.662	87.75
281.894	87.75
282.125	82.75
282.356	86.75
282.588	87.75
282.819	87.75
283.051	83.75
283.282	90.75
283.513	79.75
283.745	79.75
283.976	87.75
284.207	78.75
284.439	92.75
284.67	88.75
284.901	87.75
285.132	72.75
285.364	82.75
285.595	85.75
285.826	78.75
286.057	87.75
286.288	87.75
286.52	83.75
286.751	79.75
286.982	81.75
287.213	86.75
287.444	72.75
287.675	85.75
287.906	82.75
288.138	84.75
288.369	77.75
288.6	91.75
288.831	70.75
289.062	86.75
289.293	88.75
289.524	93.75
289.755	73.75
289.986	93.75
290.217	77.75
290.448	87.75
290.679	88.75
290.91	77.75
291.141	91.75
291.371	84.75
291.602	71.75
291.833	87.75
292.064	98.75
292.295	78.75
292.526	71.75
292.757	88.75
292.987	98.75
293.218	84.75
293.449	86.75
293.68	94.75
293.91	80.75
294.141	84.75
294.372	101.75
294.603	73.75
294.833	82.75
295.064	95.75
295.295	79.75
295.525	80.75
295.756	89.75
295.987	86.75
296.217	84.75
296.448	83.75
296.679	86.75
296.909	89.75
297.14	88.75
297.37	72.75
297.601	84.75
297.831	79.75
298.062	90.75
298.292	103.75
298.523	103.75
298.753	92.75
298.984	94.75
299.214	91.75
299.445	92.75
299.675	91.75
299.905	93.75
300.136	70.75
300.366	81.75
300.597	82.75
300.827	95.75
301.057	88.75
301.288	80.75
301.518	89.75
301.748	91.75
301.979	98.75
302.209	94.75
302.439	93.75
302.669	79.75
302.9	68.75
303.13	92.75
303.36	79.75
303.59	103.75
303.82	89.75
304.051	73.75
304.281	89.75
304.511	99.75
304.741	81.75
304.971	82.75
305.201	80.75
305.431	85.75
305.661	76.75
305.891	82.75
306.121	85.75
306.352	90.75
306.582	83.75
306.812	98.75
307.042	89.75
307.272	78.75
307.502	73.75
307.731	75.75
307.961	86.75
308.191	92.75
308.421	99.75
308.651	83.75
308.881	95.75
309.111	112.75
309.341	105.75
309.571	93.75
309.8	88.75
310.03	77.75
310.26	87.75
310.49	98.75
310.72	79.75
310.949	86.75
311.179	102.75
311.409	83.75
311.639	84.75
311.868	75.75
312.098	93.75
312.328	96.75
312.557	86.75
312.787	84.75
313.017	93.75
313.246	80.75
313.476	88.75
313.706	85.75
313.935	88.75
314.165	87.75
314.394	93.75
314.624	95.75
314.853	77.75
315.083	99.75
315.312	97.75
315.542	92.75
315.771	81.75
316.001	101.75
316.23	81.75
316.46	85.75
316.689	94.75
316.919	85.75
317.148	74.75
317.377	101.75
317.607	88.75
317.836	119.75
318.065	115.75
318.295	92.75
318.524	89.75
318.753	80.75
318.983	87.75
319.212	85.75
319.441	83.75
319.67	75.75
319.9	85.75
320.129	78.75
320.358	95.75
320.587	85.75
320.816	78.75
321.046	95.75
321.275	80.75
321.504	95.75
321.733	100.75
321.962	89.75
322.191	87.75
322.42	91.75
322.649	81.75
322.878	82.75
323.108	90.75
323.337	100.75
323.566	85.75
323.795	89.75
324.024	89.75
324.253	95.75
324.482	96.75
324.71	67.75
324.939	84.75
325.168	80.75
325.397	92.75
325.626	104.75
325.855	96.75
326.084	85.75
326.313	93.75
326.542	93.75
326.77	98.75
326.999	86.75
327.228	100.75
327.457	85.75
327.686	109.75
327.914	90.75
328.143	84.75
328.372	88.75
328.6	82.75
328.829	99.75
329.058	94.75
329.287	93.75
329.515	83.75
329.744	91.75
329.972	88.75
330.201	101.75
330.43	88.75
330.658	95.75
330.887	88.75
331.115	86.75
331.344	91.75
331.572	95.75
331.801	97.75
332.03	89.75
332.258	84.75
332.486	96.75
332.715	95.75
332.943	94.75
333.172	91.75
333.4	87.75
333.629	80.75
333.857	92.75
334.085	84.75
334.314	89.75
334.542	101.75
334.771	109.75
334.999	112.75
335.227	102.75
335.455	90.75
335.684	105.75
335.912	116.75
336.14	116.75
336.369	106.75
336.597	96.75
336.825	101.75
337.053	94.75
337.281	86.75
337.51	85.75
337.738	93.75
337.966	95.75
338.194	77.75
338.422	84.75
338.65	116.75
338.878	80.75
339.106	84.75
339.334	100.75
339.562	86.75
339.79	95.75
340.018	82.75
340.246	88.75
340.474	93.75
340.702	84.75
340.93	96.75
341.158	96.75
341.386	100.75
341.614	81.75
341.842	80.75
342.07	85.75
342.298	83.75
342.526	82.75
342.754	93.75
342.981	89.75
343.209	96.75
343.437	94.75
343.665	83.75
343.893	108.75
344.12	106.75
344.348	88.75
344.576	93.75
344.804	85.75
345.031	85.75
345.259	96.75
345.487	96.75
345.714	78.75
345.942	71.75
346.17	94.75
346.397	92.75
346.625	87.75
346.853	96.75
347.08	85.75
347.308	105.75
347.535	103.75
347.763	87.75
347.99	83.75
348.218	89.75
348.445	91.75
348.673	111.75
348.9	89.75
349.128	104.75
349.355	80.75
349.583	91.75
349.81	81.75
350.037	88.75
350.265	92.75
350.492	94.75
350.72	89.75
350.947	101.75
351.174	99.75
351.402	106.75
351.629	84.75
351.856	84.75
352.083	90.75
352.311	88.75
352.538	96.75
352.765	92.75
352.992	86.75
353.22	91.75
353.447	69.75
353.674	94.75
353.901	90.75
354.128	104.75
354.355	92.75
354.583	93.75
354.81	80.75
355.037	95.75
355.264	88.75
355.491	95.75
355.718	88.75
355.945	101.75
356.172	88.75
356.399	96.75
356.626	88.75
356.853	113.75
357.08	92.75
357.307	98.75
357.534	97.75
357.761	88.75
357.988	94.75
358.215	103.75
358.441	90.75
358.668	102.75
358.895	117.75
359.122	93.75
359.349	102.75
359.576	98.75
359.802	85.75
360.029	93.75
360.256	98.75
360.483	92.75
360.709	96.75
360.936	86.75
361.163	92.75
361.39	105.75
361.616	82.75
361.843	97.75
362.07	101.75
362.296	117.75
362.523	126.75
362.749	113.75
362.976	136.75
363.203	146.75
363.429	132.75
363.656	109.75
363.882	103.75
364.109	132.75
364.335	154.75
364.562	171.75
364.788	132.75
365.015	109.75
365.241	92.75
365.468	96.75
365.694	88.75
365.92	101.75
366.147	109.75
366.373	96.75
366.599	92.75
366.826	108.75
367.052	85.75
367.278	81.75
367.505	102.75
367.731	105.75
367.957	88.75
368.184	97.75
368.41	100.75
368.636	98.75
368.862	108.75
369.089	99.75
369.315	103.75
369.541	104.75
369.767	96.75
369.993	90.75
370.219	102.75
370.445	100.75
370.672	105.75
370.898	116.75
371.124	101.75
371.35	82.75
371.576	98.75
371.802	104.75
372.028	113.75
372.254	103.75
372.48	88.75
372.706	98.75
372.932	94.75
373.158	96.75
373.384	121.75
373.61	122.75
373.835	119.75
374.061	97.75
374.287	102.75
374.513	108.75
374.739	122.75
374.965	100.75
375.191	110.75
375.416	105.75
375.642	117.75
375.868	117.75
376.094	109.75
376.319	104.75
376.545	104.75
376.771	82.75
376.997	105.75
377.222	89.75
377.448	87.75
377.674	88.75
377.899	115.75
378.125	84.75
378.35	88.75
378.576	80.75
378.802	86.75
379.027	97.75
379.253	105.75
379.478	92.75
379.704	95.75
379.929	93.75
380.155	100.75
380.38	100.75
380.606	104.75
380.831	93.75
381.057	96.75
381.282	100.75
381.507	96.75
381.733	98.75
381.958	113.75
382.184	117.75
382.409	100.75
382.634	102.75
382.86	105.75
383.085	103.75
383.31	112.75
383.535	92.75
383.761	101.75
383.986	109.75
384.211	108.75
384.436	106.75
384.662	103.75
384.887	102.75
385.112	102.75
385.337	91.75
385.562	111.75
385.787	112.75
386.013	115.75
386.238	99.75
386.463	95.75
386.688	108.75
386.913	112.75
387.138	109.75
387.363	96.75
387.588	112.75
387.813	121.75
388.038	105.75
388.263	112.75
388.488	97.75
388.713	109.75
388.938	89.75
389.163	104.75
389.387	95.75
389.612	106.75
389.837	95.75
390.062	101.75
390.287	106.75
390.512	80.75
390.736	88.75
390.961	92.75
391.186	96.75
391.411	97.75
391.636	111.75
391.86	105.75
392.085	110.75
392.31	114.75
392.534	126.75
392.759	162.75
392.984	221.75
393.208	397.75
393.433	562.75
393.658	439.75
393.882	204.75
394.107	143.75
394.331	138.75
394.556	148.75
394.78	123.75
395.005	110.75
395.229	100.75
395.454	100.75
395.678	121.75
395.903	153.75
396.127	189.75
396.352	222.75
396.576	242.75
396.801	389.75
397.025	445.75
397.249	261.75
397.474	173.75
397.698	124.75
397.922	116.75
398.147	102.75
398.371	110.75
398.595	89.75
398.82	97.75
399.044	96.75
399.268	114.75
399.492	100.75
399.717	87.75
399.941	108.75
400.165	91.75
400.389	98.75
400.613	97.75
400.837	98.75
401.062	84.75
401.286	104.75
401.51	97.75
401.734	100.75
401.958	92.75
402.182	85.75
402.406	82.75
402.63	92.75
402.854	98.75
403.078	100.75
403.302	86.75
403.526	94.75
403.75	75.75
403.974	95.75
404.198	102.75
404.422	111.75
404.645	124.75
404.869	119.75
405.093	94.75
405.317	89.75
405.541	88.75
405.765	86.75
405.988	99.75
406.212	100.75
406.436	100.75
406.66	93.75
406.883	89.75
407.107	106.75
407.331	94.75
407.555	116.75
407.778	114.75
408.002	133.75
408.226	120.75
408.449	88.75
408.673	93.75
408.896	94.75
409.12	93.75
409.344	111.75
409.567	125.75
409.791	140.75
410.014	122.75
410.238	98.75
410.461	114.75
410.685	108.75
410.908	101.75
411.132	114.75
411.355	95.75
411.578	97.75
411.802	81.75
412.025	104.75
412.249	100.75
412.472	88.75
412.695	85.75
412.919	78.75
413.142	97.75
413.365	106.75
413.589	97.75
413.812	96.75
414.035	100.75
414.258	104.75
414.482	98.75
414.705	86.75
414.928	88.75
415.151	104.75
415.374	97.75
415.597	95.75
415.821	97.75
416.044	93.75
416.267	97.75
416.49	97.75
416.713	94.75
416.936	90.75
417.159	99.75
417.382	89.75
417.605	98.75
417.828	100.75
418.051	92.75
418.274	97.75
418.497	99.75
418.72	91.75
418.943	97.75
419.166	99.75
419.389	98.75
419.611	91.75
419.834	98.75
420.057	102.75
420.28	100.75
420.503	110.75
420.726	86.75
420.948	96.75
421.171	118.75
421.394	135.75
421.617	174.75
421.839	186.75
422.062	186.75
422.285	288.75
422.507	491.75
422.73	721.75
422.953	647.75
423.175	377.75
423.398	208.75
423.621	161.75
423.843	144.75
424.066	126.75
424.288	126.75
424.511	109.75
424.733	102.75
424.956	117.75
425.178	97.75
425.401	102.75
425.623	107.75
425.846	102.75
426.068	114.75
426.291	102.75
426.513	114.75
426.735	103.75
426.958	102.75
427.18	110.75
427.402	112.75
427.625	104.75
427.847	99.75
428.069	119.75
428.292	156.75
428.514	198.75
428.736	136.75
428.958	160.75
429.181	190.75
429.403	128.75
429.625	129.75
429.847	180.75
430.069	226.75
430.292	278.75
430.514	247.75
430.736	191.75
430.958	191.75
431.18	122.75
431.402	100.75
431.624	115.75
431.846	157.75
432.068	186.75
432.29	115.75
432.512	105.75
432.734	94.75
432.956	92.75
433.178	98.75
433.4	89.75
433.622	98.75
433.844	94.75
434.066	75.75
434.287	89.75
434.509	102.75
434.731	81.75
434.953	99.75
435.175	103.75
435.397	93.75
435.618	96.75
435.84	103.75
436.062	93.75
436.284	97.75
436.505	101.75
436.727	95.75
436.949	91.75
437.17	91.75
437.392	90.75
437.614	79.75
437.835	86.75
438.057	100.75
438.278	108.75
438.5	108.75
438.721	94.75
438.943	103.75
439.165	102.75
439.386	91.75
439.608	86.75
439.829	91.75
440.05	94.75
440.272	84.75
440.493	108.75
440.715	92.75
440.936	90.75
441.158	98.75
441.379	99.75
441.6	111.75
441.822	111.75
442.043	121.75
442.264	120.75
442.486	180.75
442.707	251.75
442.928	169.75
443.149	137.75
443.371	210.75
443.592	370.75
443.813	351.75
444.034	141.75
444.255	84.75
444.476	109.75
444.698	103.75
444.919	116.75
445.14	236.75
445.361	290.75
445.582	470.75
445.803	410.75
446.024	156.75
446.245	108.75
446.466	87.75
446.687	88.75
446.908	94.75
447.129	91.75
447.35	73.75
447.571	89.75
447.792	98.75
448.013	98.75
448.234	100.75
448.455	101.75
448.675	92.75
448.896	89.75
449.117	92.75
449.338	92.75
449.559	81.75
449.779	77.75
450	87.75
450.221	89.75
450.442	96.75
450.662	98.75
450.883	81.75
451.104	88.75
451.324	80.75
451.545	95.75
451.766	85.75
451.986	92.75
452.207	93.75
452.428	102.75
452.648	99.75
452.869	114.75
453.089	120.75
453.31	102.75
453.53	101.75
453.751	100.75
453.971	105.75
454.192	85.75
454.412	82.75
454.633	97.75
454.853	109.75
455.073	94.75
455.294	99.75
455.514	103.75
455.734	85.75
455.955	102.75
456.175	90.75
456.395	81.75
456.616	93.75
456.836	82.75
457.056	85.75
457.276	96.75
457.497	106.75
457.717	108.75
457.937	133.75
458.157	167.75
458.377	175.75
458.598	166.75
458.818	188.75
459.038	122.75
459.258	98.75
459.478	94.75
459.698	85.75
459.918	81.75
460.138	104.75
460.358	111.75
460.578	99.75
460.798	163.75
461.018	156.75
461.238	89.75
461.458	93.75
461.678	73.75
461.898	86.75
462.118	92.75
462.338	88.75
462.558	93.75
462.777	90.75
462.997	82.75
463.217	87.75
463.437	112.75
463.657	97.75
463.876	89.75
464.096	78.75
464.316	78.75
464.536	83.75
464.755	81.75
464.975	84.75
465.195	93.75
465.414	91.75
465.634	86.75
465.854	83.75
466.073	102.75
466.293	98.75
466.512	100.75
466.732	90.75
466.951	80.75
467.171	92.75
467.391	79.75
467.61	97.75
467.829	88.75
468.049	83.75
468.268	98.75
468.488	110.75
468.707	101.75
468.927	96.75
469.146	96.75
469.365	104.75
469.585	84.75
469.804	84.75
470.023	87.75
470.243	96.75
470.462	100.75
470.681	84.75
470.901	97.75
471.12	94.75
471.339	92.75
471.558	82.75
471.777	79.75
471.997	96.75
472.216	77.75
472.435	86.75
472.654	102.75
472.873	97.75
473.092	81.75
473.311	80.75
473.53	89.75
473.749	97.75
473.968	87.75
474.187	87.75
474.406	79.75
474.625	109.75
474.844	86.75
475.063	86.75
475.282	77.75
475.501	77.75
475.72	114.75
475.939	108.75
476.158	89.75
476.377	99.75
476.596	79.75
476.814	97.75
477.033	86.75
477.252	88.75
477.471	90.75
477.69	103.75
477.908	88.75
478.127	107.75
478.346	90.75
478.564	94.75
478.783	94.75
479.002	85.75
479.22	100.75
479.439	101.75
479.658	84.75
479.876	106.75
480.095	95.75
480.313	86.75
480.532	108.75
480.751	90.75
480.969	96.75
481.188	102.75
481.406	97.75
481.624	100.75
481.843	102.75
482.061	104.75
482.28	104.75
482.498	95.75
482.717	83.75
482.935	106.75
483.153	96.75
483.372	105.75
483.59	99.75
483.808	101.75
484.027	107.75
484.245	92.75
484.463	110.75
484.681	116.75
484.9	114.75
485.118	104.75
485.336	108.75
485.554	89.75
485.772	108.75
485.99	106.75
486.209	93.75
486.427	84.75
486.645	84.75
486.863	108.75
487.081	126.75
487.299	116.75
487.517	129.75
487.735	158.75
487.953	276.75
488.171	237.75
488.389	126.75
488.607	104.75
488.825	101.75
489.043	108.75
489.261	100.75
489.479	86.75
489.696	95.75
489.914	99.75
490.132	89.75
490.35	100.75
490.568	90.75
490.786	96.75
491.003	93.75
491.221	91.75
491.439	114.75
491.657	99.75
491.874	100.75
492.092	104.75
492.31	112.75
492.527	100.75
492.745	103.75
492.963	94.75
493.18	111.75
493.398	114.75
493.615	105.75
493.833	95.75
494.05	88.75
494.268	113.75
494.485	104.75
494.703	100.75
494.92	98.75
495.138	100.75
495.355	94.75
495.573	84.75
495.79	101.75
496.008	97.75
496.225	101.75
496.442	111.75
496.66	116.75
496.877	98.75
497.094	101.75
497.312	100.75
497.529	98.75
497.746	100.75
497.963	100.75
498.181	115.75
498.398	113.75
498.615	103.75
498.832	86.75
499.049	79.75
499.267	100.75
499.484	101.75
499.701	96.75
499.918	108.75
500.135	126.75
500.352	110.75
500.569	97.75
500.786	91.75
501.003	103.75
501.22	94.75
501.437	104.75
501.654	104.75
501.871	90.75
502.088	109.75
502.305	95.75
502.522	112.75
502.739	110.75
502.956	94.75
503.172	107.75
503.389	92.75
503.606	94.75
503.823	110.75
504.04	133.75
504.256	182.75
504.473	212.75
504.69	129.75
504.907	86.75
505.123	101.75
505.34	89.75
505.557	109.75
505.773	102.75
505.99	90.75
506.207	91.75
506.423	96.75
506.64	111.75
506.856	98.75
507.073	96.75
507.289	90.75
507.506	93.75
507.722	84.75
507.939	116.75
508.155	110.75
508.372	112.75
508.588	91.75
508.805	84.75
509.021	96.75
509.238	88.75
509.454	94.75
509.67	96.75
509.887	93.75
510.103	89.75
510.319	85.75
510.536	80.75
510.752	103.75
510.968	103.75
511.184	99.75
511.401	110.75
511.617	97.75
511.833	94.75
512.049	110.75
512.265	100.75
512.481	104.75
512.698	110.75
512.914	80.75
513.13	102.75
513.346	94.75
513.562	105.75
513.778	86.75
513.994	94.75
514.21	94.75
514.426	99.75
