Data from 10100_3_HRD10591_00039.txt Node
Date: Mon Jan 19 14:02:42 EST 2026
User: Yrep
Spectrometer: HR+D1059
Trigger mode: 1
Integration Time (sec): 1.000000E-1
Scans to average: 1
Electric dark correction enabled: true
Nonlinearity correction enabled: false
Boxcar width: 0
XAxis mode: Wavelengths
Number of Pixels in Spectrum: 2048
>>>>>Begin Spectral Data<<<<<
223.165	-23.38
223.4	-23.38
223.635	-23.38
223.869	-19.38
224.104	-11.38
224.338	-13.38
224.573	-8.38
224.808	-4.38
225.042	-11.38
225.277	5.62
225.511	-10.38
225.746	-3.38
225.98	11.62
226.215	9.62
226.449	5.62
226.683	17.62
226.918	17.62
227.152	37.62
227.387	54.62
227.621	39.62
227.856	44.62
228.09	28.62
228.324	48.62
228.559	62.62
228.793	54.62
229.027	69.62
229.262	57.62
229.496	65.62
229.73	72.62
229.964	81.62
230.199	71.62
230.433	82.62
230.667	68.62
230.901	88.62
231.136	80.62
231.37	80.62
231.604	67.62
231.838	78.62
232.072	79.62
232.306	82.62
232.541	80.62
232.775	71.62
233.009	91.62
233.243	81.62
233.477	64.62
233.711	75.62
233.945	76.62
234.179	77.62
234.413	85.62
234.647	83.62
234.881	79.62
235.115	63.62
235.349	73.62
235.583	72.62
235.817	83.62
236.051	70.62
236.285	78.62
236.519	82.62
236.753	91.62
236.987	90.62
237.221	66.62
237.455	90.62
237.689	80.62
237.922	62.62
238.156	69.62
238.39	81.62
238.624	70.62
238.858	84.62
239.091	73.62
239.325	81.62
239.559	69.62
239.793	60.62
240.027	82.62
240.26	72.62
240.494	81.62
240.728	80.62
240.961	67.62
241.195	74.62
241.429	77.62
241.662	74.62
241.896	82.62
242.13	74.62
242.363	81.62
242.597	73.62
242.83	89.62
243.064	76.62
243.298	72.62
243.531	79.62
243.765	80.62
243.998	86.62
244.232	56.62
244.465	80.62
244.699	60.62
244.932	74.62
245.166	77.62
245.399	73.62
245.633	89.62
245.866	72.62
246.099	75.62
246.333	68.62
246.566	82.62
246.8	65.62
247.033	84.62
247.266	72.62
247.5	90.62
247.733	82.62
247.966	79.62
248.2	61.62
248.433	71.62
248.666	78.62
248.899	83.62
249.133	83.62
249.366	85.62
249.599	64.62
249.832	92.62
250.066	74.62
250.299	74.62
250.532	86.62
250.765	84.62
250.998	62.62
251.231	75.62
251.465	83.62
251.698	81.62
251.931	74.62
252.164	70.62
252.397	79.62
252.63	85.62
252.863	78.62
253.096	62.62
253.329	78.62
253.562	70.62
253.795	78.62
254.028	76.62
254.261	79.62
254.494	68.62
254.727	83.62
254.96	91.62
255.193	81.62
255.426	69.62
255.659	70.62
255.892	88.62
256.124	88.62
256.357	84.62
256.59	85.62
256.823	76.62
257.056	77.62
257.289	65.62
257.521	82.62
257.754	78.62
257.987	64.62
258.22	93.62
258.452	77.62
258.685	85.62
258.918	92.62
259.151	71.62
259.383	88.62
259.616	90.62
259.849	96.62
260.081	74.62
260.314	90.62
260.547	75.62
260.779	83.62
261.012	69.62
261.244	79.62
261.477	73.62
261.71	68.62
261.942	73.62
262.175	87.62
262.407	88.62
262.64	71.62
262.872	81.62
263.105	86.62
263.337	75.62
263.57	91.62
263.802	85.62
264.035	86.62
264.267	94.62
264.499	78.62
264.732	92.62
264.964	88.62
265.197	75.62
265.429	85.62
265.661	79.62
265.894	84.62
266.126	80.62
266.358	75.62
266.591	86.62
266.823	77.62
267.055	81.62
267.287	73.62
267.52	88.62
267.752	84.62
267.984	72.62
268.216	74.62
268.448	85.62
268.681	71.62
268.913	84.62
269.145	78.62
269.377	79.62
269.609	84.62
269.841	69.62
270.073	79.62
270.306	88.62
270.538	90.62
270.77	81.62
271.002	82.62
271.234	92.62
271.466	77.62
271.698	71.62
271.93	88.62
272.162	84.62
272.394	69.62
272.626	88.62
272.858	92.62
273.09	72.62
273.322	70.62
273.553	78.62
273.785	72.62
274.017	87.62
274.249	91.62
274.481	76.62
274.713	79.62
274.945	74.62
275.176	76.62
275.408	84.62
275.64	71.62
275.872	86.62
276.104	88.62
276.335	93.62
276.567	67.62
276.799	89.62
277.031	80.62
277.262	80.62
277.494	90.62
277.726	81.62
277.957	82.62
278.189	88.62
278.421	83.62
278.652	84.62
278.884	74.62
279.115	71.62
279.347	77.62
279.579	83.62
279.81	70.62
280.042	62.62
280.273	84.62
280.505	72.62
280.736	82.62
280.968	90.62
281.199	72.62
281.431	79.62
281.662	84.62
281.894	83.62
282.125	82.62
282.356	82.62
282.588	90.62
282.819	89.62
283.051	87.62
283.282	91.62
283.513	93.62
283.745	94.62
283.976	87.62
284.207	78.62
284.439	78.62
284.67	94.62
284.901	83.62
285.132	86.62
285.364	74.62
285.595	92.62
285.826	89.62
286.057	84.62
286.288	76.62
286.52	68.62
286.751	77.62
286.982	82.62
287.213	80.62
287.444	93.62
287.675	81.62
287.906	85.62
288.138	89.62
288.369	96.62
288.6	85.62
288.831	89.62
289.062	61.62
289.293	86.62
289.524	70.62
289.755	96.62
289.986	84.62
290.217	88.62
290.448	79.62
290.679	72.62
290.91	75.62
291.141	100.62
291.371	90.62
291.602	82.62
291.833	74.62
292.064	79.62
292.295	90.62
292.526	88.62
292.757	82.62
292.987	87.62
293.218	78.62
293.449	87.62
293.68	82.62
293.91	97.62
294.141	88.62
294.372	87.62
294.603	80.62
294.833	85.62
295.064	72.62
295.295	80.62
295.525	81.62
295.756	85.62
295.987	72.62
296.217	88.62
296.448	83.62
296.679	77.62
296.909	90.62
297.14	81.62
297.37	81.62
297.601	83.62
297.831	97.62
298.062	86.62
298.292	89.62
298.523	85.62
298.753	69.62
298.984	69.62
299.214	79.62
299.445	88.62
299.675	94.62
299.905	76.62
300.136	73.62
300.366	80.62
300.597	84.62
300.827	92.62
301.057	83.62
301.288	78.62
301.518	85.62
301.748	77.62
301.979	90.62
302.209	77.62
302.439	74.62
302.669	80.62
302.9	79.62
303.13	88.62
303.36	79.62
303.59	90.62
303.82	83.62
304.051	81.62
304.281	91.62
304.511	86.62
304.741	83.62
304.971	96.62
305.201	87.62
305.431	93.62
305.661	81.62
305.891	77.62
306.121	80.62
306.352	83.62
306.582	92.62
306.812	76.62
307.042	84.62
307.272	99.62
307.502	89.62
307.731	81.62
307.961	84.62
308.191	89.62
308.421	96.62
308.651	86.62
308.881	89.62
309.111	86.62
309.341	81.62
309.571	80.62
309.8	72.62
310.03	80.62
310.26	79.62
310.49	94.62
310.72	78.62
310.949	93.62
311.179	77.62
311.409	80.62
311.639	75.62
311.868	91.62
312.098	87.62
312.328	86.62
312.557	74.62
312.787	80.62
313.017	94.62
313.246	80.62
313.476	84.62
313.706	78.62
313.935	96.62
314.165	87.62
314.394	94.62
314.624	89.62
314.853	90.62
315.083	74.62
315.312	70.62
315.542	88.62
315.771	92.62
316.001	93.62
316.23	89.62
316.46	88.62
316.689	103.62
316.919	86.62
317.148	90.62
317.377	94.62
317.607	116.62
317.836	85.62
318.065	88.62
318.295	84.62
318.524	92.62
318.753	86.62
318.983	78.62
319.212	98.62
319.441	75.62
319.67	95.62
319.9	82.62
320.129	75.62
320.358	92.62
320.587	82.62
320.816	78.62
321.046	88.62
321.275	102.62
321.504	92.62
321.733	92.62
321.962	97.62
322.191	104.62
322.42	94.62
322.649	71.62
322.878	75.62
323.108	70.62
323.337	87.62
323.566	86.62
323.795	91.62
324.024	92.62
324.253	82.62
324.482	83.62
324.71	74.62
324.939	88.62
325.168	92.62
325.397	87.62
325.626	74.62
325.855	80.62
326.084	84.62
326.313	87.62
326.542	89.62
326.77	75.62
326.999	82.62
327.228	92.62
327.457	84.62
327.686	89.62
327.914	89.62
328.143	87.62
328.372	78.62
328.6	84.62
328.829	70.62
329.058	72.62
329.287	81.62
329.515	72.62
329.744	88.62
329.972	92.62
330.201	75.62
330.43	88.62
330.658	85.62
330.887	76.62
331.115	72.62
331.344	88.62
331.572	93.62
331.801	85.62
332.03	87.62
332.258	100.62
332.486	92.62
332.715	84.62
332.943	72.62
333.172	86.62
333.4	80.62
333.629	80.62
333.857	80.62
334.085	99.62
334.314	90.62
334.542	79.62
334.771	94.62
334.999	82.62
335.227	80.62
335.455	89.62
335.684	102.62
335.912	98.62
336.14	93.62
336.369	81.62
336.597	76.62
336.825	85.62
337.053	87.62
337.281	84.62
337.51	73.62
337.738	85.62
337.966	100.62
338.194	92.62
338.422	88.62
338.65	86.62
338.878	85.62
339.106	74.62
339.334	88.62
339.562	86.62
339.79	73.62
340.018	83.62
340.246	87.62
340.474	87.62
340.702	89.62
340.93	82.62
341.158	76.62
341.386	77.62
341.614	81.62
341.842	82.62
342.07	82.62
342.298	96.62
342.526	84.62
342.754	92.62
342.981	80.62
343.209	86.62
343.437	98.62
343.665	81.62
343.893	94.62
344.12	84.62
344.348	84.62
344.576	84.62
344.804	92.62
345.031	80.62
345.259	80.62
345.487	85.62
345.714	84.62
345.942	97.62
346.17	86.62
346.397	90.62
346.625	89.62
346.853	81.62
347.08	81.62
347.308	73.62
347.535	82.62
347.763	80.62
347.99	85.62
348.218	93.62
348.445	76.62
348.673	97.62
348.9	102.62
349.128	90.62
349.355	78.62
349.583	88.62
349.81	80.62
350.037	88.62
350.265	88.62
350.492	70.62
350.72	86.62
350.947	103.62
351.174	88.62
351.402	85.62
351.629	77.62
351.856	98.62
352.083	77.62
352.311	81.62
352.538	76.62
352.765	74.62
352.992	85.62
353.22	84.62
353.447	88.62
353.674	89.62
353.901	84.62
354.128	83.62
354.355	83.62
354.583	69.62
354.81	84.62
355.037	85.62
355.264	94.62
355.491	86.62
355.718	65.62
355.945	94.62
356.172	74.62
356.399	89.62
356.626	84.62
356.853	84.62
357.08	87.62
357.307	81.62
357.534	85.62
357.761	85.62
357.988	71.62
358.215	82.62
358.441	92.62
358.668	83.62
358.895	75.62
359.122	83.62
359.349	76.62
359.576	73.62
359.802	92.62
360.029	75.62
360.256	85.62
360.483	96.62
360.709	87.62
360.936	94.62
361.163	72.62
361.39	71.62
361.616	88.62
361.843	88.62
362.07	76.62
362.296	97.62
362.523	70.62
362.749	87.62
362.976	85.62
363.203	95.62
363.429	102.62
363.656	92.62
363.882	89.62
364.109	85.62
364.335	89.62
364.562	103.62
364.788	94.62
365.015	87.62
365.241	87.62
365.468	90.62
365.694	82.62
365.92	72.62
366.147	86.62
366.373	80.62
366.599	93.62
366.826	74.62
367.052	92.62
367.278	102.62
367.505	93.62
367.731	96.62
367.957	80.62
368.184	63.62
368.41	74.62
368.636	67.62
368.862	89.62
369.089	110.62
369.315	87.62
369.541	87.62
369.767	82.62
369.993	74.62
370.219	84.62
370.445	79.62
370.672	96.62
370.898	93.62
371.124	85.62
371.35	78.62
371.576	97.62
371.802	86.62
372.028	90.62
372.254	109.62
372.48	73.62
372.706	79.62
372.932	85.62
373.158	74.62
373.384	91.62
373.61	86.62
373.835	84.62
374.061	84.62
374.287	97.62
374.513	94.62
374.739	91.62
374.965	79.62
375.191	92.62
375.416	88.62
375.642	79.62
375.868	100.62
376.094	101.62
376.319	84.62
376.545	97.62
376.771	96.62
376.997	80.62
377.222	74.62
377.448	76.62
377.674	86.62
377.899	79.62
378.125	64.62
378.35	75.62
378.576	83.62
378.802	86.62
379.027	97.62
379.253	79.62
379.478	80.62
379.704	82.62
379.929	79.62
380.155	87.62
380.38	73.62
380.606	74.62
380.831	86.62
381.057	86.62
381.282	81.62
381.507	82.62
381.733	95.62
381.958	91.62
382.184	84.62
382.409	75.62
382.634	78.62
382.86	75.62
383.085	83.62
383.31	82.62
383.535	96.62
383.761	88.62
383.986	86.62
384.211	98.62
384.436	82.62
384.662	73.62
384.887	86.62
385.112	70.62
385.337	87.62
385.562	88.62
385.787	86.62
386.013	92.62
386.238	88.62
386.463	85.62
386.688	100.62
386.913	74.62
387.138	79.62
387.363	84.62
387.588	88.62
387.813	94.62
388.038	86.62
388.263	93.62
388.488	94.62
388.713	88.62
388.938	81.62
389.163	75.62
389.387	95.62
389.612	79.62
389.837	89.62
390.062	88.62
390.287	98.62
390.512	92.62
390.736	82.62
390.961	72.62
391.186	84.62
391.411	87.62
391.636	85.62
391.86	89.62
392.085	94.62
392.31	76.62
392.534	80.62
392.759	101.62
392.984	84.62
393.208	104.62
393.433	126.62
393.658	104.62
393.882	84.62
394.107	90.62
394.331	74.62
394.556	90.62
394.78	84.62
395.005	74.62
395.229	86.62
395.454	74.62
395.678	85.62
395.903	80.62
396.127	80.62
396.352	82.62
396.576	85.62
396.801	105.62
397.025	108.62
397.249	98.62
397.474	93.62
397.698	76.62
397.922	94.62
398.147	85.62
398.371	83.62
398.595	82.62
398.82	78.62
399.044	74.62
399.268	75.62
399.492	82.62
399.717	95.62
399.941	80.62
400.165	82.62
400.389	76.62
400.613	77.62
400.837	83.62
401.062	74.62
401.286	76.62
401.51	95.62
401.734	86.62
401.958	80.62
402.182	73.62
402.406	97.62
402.63	78.62
402.854	92.62
403.078	68.62
403.302	69.62
403.526	83.62
403.75	80.62
403.974	90.62
404.198	94.62
404.422	73.62
404.645	87.62
404.869	97.62
405.093	85.62
405.317	71.62
405.541	82.62
405.765	85.62
405.988	69.62
406.212	85.62
406.436	74.62
406.66	80.62
406.883	85.62
407.107	82.62
407.331	78.62
407.555	85.62
407.778	89.62
408.002	87.62
408.226	85.62
408.449	75.62
408.673	80.62
408.896	87.62
409.12	94.62
409.344	99.62
409.567	87.62
409.791	88.62
410.014	96.62
410.238	89.62
410.461	88.62
410.685	81.62
410.908	85.62
411.132	79.62
411.355	86.62
411.578	90.62
411.802	67.62
412.025	88.62
412.249	80.62
412.472	72.62
412.695	77.62
412.919	87.62
413.142	77.62
413.365	88.62
413.589	62.62
413.812	81.62
414.035	83.62
414.258	94.62
414.482	77.62
414.705	68.62
414.928	82.62
415.151	75.62
415.374	92.62
415.597	89.62
415.821	97.62
416.044	85.62
416.267	78.62
416.49	74.62
416.713	87.62
416.936	84.62
417.159	85.62
417.382	79.62
417.605	73.62
417.828	70.62
418.051	80.62
418.274	83.62
418.497	98.62
418.72	86.62
418.943	80.62
419.166	73.62
419.389	95.62
419.611	79.62
419.834	92.62
420.057	79.62
420.28	87.62
420.503	91.62
420.726	69.62
420.948	75.62
421.171	86.62
421.394	93.62
421.617	102.62
421.839	67.62
422.062	84.62
422.285	99.62
422.507	119.62
422.73	146.62
422.953	136.62
423.175	88.62
423.398	92.62
423.621	86.62
423.843	71.62
424.066	82.62
424.288	77.62
424.511	90.62
424.733	84.62
424.956	80.62
425.178	92.62
425.401	78.62
425.623	89.62
425.846	79.62
426.068	79.62
426.291	78.62
426.513	86.62
426.735	90.62
426.958	79.62
427.18	91.62
427.402	73.62
427.625	68.62
427.847	80.62
428.069	91.62
428.292	90.62
428.514	88.62
428.736	80.62
428.958	85.62
429.181	75.62
429.403	79.62
429.625	81.62
429.847	81.62
430.069	94.62
430.292	82.62
430.514	88.62
430.736	87.62
430.958	85.62
431.18	77.62
431.402	84.62
431.624	85.62
431.846	85.62
432.068	92.62
432.29	91.62
432.512	82.62
432.734	89.62
432.956	82.62
433.178	83.62
433.4	80.62
433.622	67.62
433.844	78.62
434.066	73.62
434.287	89.62
434.509	84.62
434.731	82.62
434.953	89.62
435.175	76.62
435.397	94.62
435.618	78.62
435.84	101.62
436.062	84.62
436.284	92.62
436.505	66.62
436.727	80.62
436.949	80.62
437.17	85.62
437.392	78.62
437.614	61.62
437.835	80.62
438.057	73.62
438.278	82.62
438.5	80.62
438.721	88.62
438.943	90.62
439.165	76.62
439.386	81.62
439.608	70.62
439.829	72.62
440.05	80.62
440.272	76.62
440.493	101.62
440.715	80.62
440.936	103.62
441.158	96.62
441.379	90.62
441.6	73.62
441.822	77.62
442.043	80.62
442.264	85.62
442.486	97.62
442.707	100.62
442.928	71.62
443.149	79.62
443.371	103.62
443.592	97.62
443.813	117.62
444.034	65.62
444.255	93.62
444.476	96.62
444.698	93.62
444.919	75.62
445.14	143.62
445.361	135.62
445.582	108.62
445.803	114.62
446.024	96.62
446.245	86.62
446.466	77.62
446.687	92.62
446.908	82.62
447.129	77.62
447.35	70.62
447.571	75.62
447.792	83.62
448.013	77.62
448.234	78.62
448.455	74.62
448.675	86.62
448.896	83.62
449.117	87.62
449.338	95.62
449.559	82.62
449.779	95.62
450	74.62
450.221	82.62
450.442	79.62
450.662	77.62
450.883	70.62
451.104	80.62
451.324	95.62
451.545	84.62
451.766	80.62
451.986	94.62
452.207	75.62
452.428	80.62
452.648	93.62
452.869	91.62
453.089	83.62
453.31	67.62
453.53	66.62
453.751	80.62
453.971	81.62
454.192	73.62
454.412	88.62
454.633	78.62
454.853	81.62
455.073	89.62
455.294	84.62
455.514	94.62
455.734	88.62
455.955	72.62
456.175	85.62
456.395	80.62
456.616	90.62
456.836	74.62
457.056	82.62
457.276	84.62
457.497	84.62
457.717	81.62
457.937	94.62
458.157	95.62
458.377	88.62
458.598	69.62
458.818	84.62
459.038	87.62
459.258	74.62
459.478	87.62
459.698	69.62
459.918	90.62
460.138	80.62
460.358	79.62
460.578	89.62
460.798	89.62
461.018	93.62
461.238	83.62
461.458	84.62
461.678	81.62
461.898	81.62
462.118	95.62
462.338	95.62
462.558	73.62
462.777	75.62
462.997	73.62
463.217	73.62
463.437	78.62
463.657	86.62
463.876	78.62
464.096	75.62
464.316	85.62
464.536	80.62
464.755	89.62
464.975	87.62
465.195	89.62
465.414	74.62
465.634	81.62
465.854	91.62
466.073	74.62
466.293	82.62
466.512	84.62
466.732	83.62
466.951	79.62
467.171	82.62
467.391	83.62
467.61	73.62
467.829	86.62
468.049	86.62
468.268	72.62
468.488	90.62
468.707	81.62
468.927	80.62
469.146	91.62
469.365	87.62
469.585	84.62
469.804	96.62
470.023	85.62
470.243	80.62
470.462	77.62
470.681	88.62
470.901	85.62
471.12	82.62
471.339	86.62
471.558	80.62
471.777	79.62
471.997	91.62
472.216	78.62
472.435	78.62
472.654	81.62
472.873	91.62
473.092	69.62
473.311	79.62
473.53	93.62
473.749	90.62
473.968	75.62
474.187	75.62
474.406	74.62
474.625	84.62
474.844	86.62
475.063	96.62
475.282	86.62
475.501	92.62
475.72	80.62
475.939	73.62
476.158	82.62
476.377	81.62
476.596	77.62
476.814	85.62
477.033	81.62
477.252	85.62
477.471	76.62
477.69	72.62
477.908	85.62
478.127	86.62
478.346	71.62
478.564	88.62
478.783	65.62
479.002	69.62
479.22	82.62
479.439	77.62
479.658	78.62
479.876	71.62
480.095	70.62
480.313	85.62
480.532	80.62
480.751	76.62
480.969	77.62
481.188	78.62
481.406	87.62
481.624	84.62
481.843	90.62
482.061	75.62
482.28	82.62
482.498	90.62
482.717	61.62
482.935	85.62
483.153	102.62
483.372	76.62
483.59	74.62
483.808	90.62
484.027	66.62
484.245	81.62
484.463	80.62
484.681	72.62
484.9	81.62
485.118	86.62
485.336	82.62
485.554	89.62
485.772	88.62
485.99	68.62
486.209	82.62
486.427	81.62
486.645	100.62
486.863	80.62
487.081	85.62
487.299	74.62
487.517	89.62
487.735	92.62
487.953	84.62
488.171	81.62
488.389	86.62
488.607	83.62
488.825	65.62
489.043	92.62
489.261	75.62
489.479	79.62
489.696	84.62
489.914	86.62
490.132	93.62
490.35	92.62
490.568	72.62
490.786	88.62
491.003	86.62
491.221	81.62
491.439	78.62
491.657	85.62
491.874	88.62
492.092	74.62
492.31	85.62
492.527	81.62
492.745	83.62
492.963	70.62
493.18	86.62
493.398	82.62
493.615	82.62
493.833	84.62
494.05	70.62
494.268	90.62
494.485	85.62
494.703	87.62
494.92	84.62
495.138	82.62
495.355	88.62
495.573	80.62
495.79	78.62
496.008	87.62
496.225	85.62
496.442	86.62
496.66	100.62
496.877	80.62
497.094	106.62
497.312	94.62
497.529	94.62
497.746	91.62
497.963	69.62
498.181	80.62
498.398	88.62
498.615	83.62
498.832	97.62
499.049	74.62
499.267	85.62
499.484	81.62
499.701	73.62
499.918	90.62
500.135	86.62
500.352	87.62
500.569	70.62
500.786	104.62
501.003	82.62
501.22	82.62
501.437	78.62
501.654	73.62
501.871	87.62
502.088	73.62
502.305	89.62
502.522	91.62
502.739	84.62
502.956	70.62
503.172	94.62
503.389	76.62
503.606	81.62
503.823	84.62
504.04	62.62
504.256	91.62
504.473	83.62
504.69	77.62
504.907	92.62
505.123	73.62
505.34	76.62
505.557	64.62
505.773	76.62
505.99	81.62
506.207	79.62
506.423	99.62
506.64	85.62
506.856	84.62
507.073	78.62
507.289	88.62
507.506	92.62
507.722	84.62
507.939	79.62
508.155	90.62
508.372	80.62
508.588	68.62
508.805	69.62
509.021	83.62
509.238	75.62
509.454	74.62
509.67	81.62
509.887	85.62
510.103	79.62
510.319	97.62
510.536	98.62
510.752	81.62
510.968	81.62
511.184	95.62
511.401	78.62
511.617	92.62
511.833	87.62
512.049	82.62
512.265	85.62
512.481	90.62
512.698	86.62
512.914	81.62
513.13	92.62
513.346	84.62
513.562	88.62
513.778	83.62
513.994	86.62
514.21	81.62
514.426	78.62
514.642	81.62
514.858	90.62
515.074	94.62
515.29	90.62
515.506	102.62
515.721	84.62
515.937	86.62
516.153	85.62
516.369	88.62
516.585	95.62
516.801	99.62
517.016	74.62
517.232	73.62
517.448	89.62
517.664	86.62
517.879	84.62
518.095	87.62
518.311	94.62
518.527	91.62
518.742	98.62
518.958	84.62
519.173	110.62
519.389	81.62
519.605	91.62
