Data from 10100_3_HRD10591_00025.txt Node
Date: Mon Jan 19 14:02:35 EST 2026
User: Yrep
Spectrometer: HR+D1059
Trigger mode: 1
Integration Time (sec): 1.000000E-1
Scans to average: 1
Electric dark correction enabled: true
Nonlinearity correction enabled: false
Boxcar width: 0
XAxis mode: Wavelengths
Number of Pixels in Spectrum: 2048
>>>>>Begin Spectral Data<<<<<
223.165	10.81
223.4	10.81
223.635	10.81
223.869	-14.19
224.104	-24.19
224.338	-24.19
224.573	-13.19
224.808	-29.19
225.042	-21.19
225.277	4.81
225.511	-4.19
225.746	15.81
225.98	19.81
226.215	8.81
226.449	10.81
226.683	14.81
226.918	13.81
227.152	30.81
227.387	43.81
227.621	29.81
227.856	59.81
228.09	41.81
228.324	47.81
228.559	50.81
228.793	61.81
229.027	64.81
229.262	57.81
229.496	64.81
229.73	53.81
229.964	74.81
230.199	70.81
230.433	72.81
230.667	71.81
230.901	81.81
231.136	85.81
231.37	79.81
231.604	88.81
231.838	87.81
232.072	90.81
232.306	96.81
232.541	76.81
232.775	83.81
233.009	95.81
233.243	105.81
233.477	83.81
233.711	86.81
233.945	65.81
234.179	81.81
234.413	77.81
234.647	66.81
234.881	69.81
235.115	76.81
235.349	87.81
235.583	71.81
235.817	78.81
236.051	75.81
236.285	79.81
236.519	78.81
236.753	59.81
236.987	76.81
237.221	81.81
237.455	74.81
237.689	77.81
237.922	65.81
238.156	81.81
238.39	57.81
238.624	64.81
238.858	80.81
239.091	90.81
239.325	85.81
239.559	86.81
239.793	80.81
240.027	83.81
240.26	69.81
240.494	85.81
240.728	80.81
240.961	84.81
241.195	79.81
241.429	70.81
241.662	65.81
241.896	69.81
242.13	67.81
242.363	71.81
242.597	61.81
242.83	75.81
243.064	64.81
243.298	65.81
243.531	77.81
243.765	78.81
243.998	70.81
244.232	82.81
244.465	72.81
244.699	68.81
244.932	63.81
245.166	82.81
245.399	86.81
245.633	82.81
245.866	82.81
246.099	71.81
246.333	78.81
246.566	79.81
246.8	76.81
247.033	75.81
247.266	72.81
247.5	91.81
247.733	69.81
247.966	65.81
248.2	84.81
248.433	76.81
248.666	72.81
248.899	74.81
249.133	78.81
249.366	84.81
249.599	77.81
249.832	77.81
250.066	83.81
250.299	83.81
250.532	83.81
250.765	73.81
250.998	91.81
251.231	82.81
251.465	87.81
251.698	96.81
251.931	87.81
252.164	95.81
252.397	76.81
252.63	78.81
252.863	83.81
253.096	83.81
253.329	84.81
253.562	86.81
253.795	73.81
254.028	82.81
254.261	73.81
254.494	93.81
254.727	75.81
254.96	85.81
255.193	74.81
255.426	80.81
255.659	73.81
255.892	83.81
256.124	85.81
256.357	71.81
256.59	72.81
256.823	79.81
257.056	70.81
257.289	94.81
257.521	75.81
257.754	78.81
257.987	99.81
258.22	97.81
258.452	70.81
258.685	81.81
258.918	74.81
259.151	62.81
259.383	91.81
259.616	83.81
259.849	78.81
260.081	76.81
260.314	88.81
260.547	71.81
260.779	84.81
261.012	68.81
261.244	82.81
261.477	83.81
261.71	73.81
261.942	88.81
262.175	81.81
262.407	82.81
262.64	83.81
262.872	80.81
263.105	73.81
263.337	81.81
263.57	93.81
263.802	82.81
264.035	89.81
264.267	85.81
264.499	95.81
264.732	78.81
264.964	88.81
265.197	87.81
265.429	86.81
265.661	80.81
265.894	80.81
266.126	87.81
266.358	94.81
266.591	101.81
266.823	89.81
267.055	73.81
267.287	81.81
267.52	75.81
267.752	78.81
267.984	74.81
268.216	74.81
268.448	93.81
268.681	95.81
268.913	78.81
269.145	79.81
269.377	83.81
269.609	74.81
269.841	78.81
270.073	80.81
270.306	74.81
270.538	84.81
270.77	94.81
271.002	77.81
271.234	87.81
271.466	90.81
271.698	71.81
271.93	84.81
272.162	87.81
272.394	82.81
272.626	80.81
272.858	94.81
273.09	95.81
273.322	89.81
273.553	86.81
273.785	88.81
274.017	90.81
274.249	82.81
274.481	75.81
274.713	82.81
274.945	98.81
275.176	81.81
275.408	89.81
275.64	88.81
275.872	92.81
276.104	82.81
276.335	74.81
276.567	75.81
276.799	79.81
277.031	89.81
277.262	81.81
277.494	79.81
277.726	89.81
277.957	87.81
278.189	81.81
278.421	74.81
278.652	71.81
278.884	79.81
279.115	93.81
279.347	91.81
279.579	95.81
279.81	87.81
280.042	94.81
280.273	89.81
280.505	82.81
280.736	75.81
280.968	80.81
281.199	88.81
281.431	102.81
281.662	98.81
281.894	69.81
282.125	84.81
282.356	73.81
282.588	80.81
282.819	82.81
283.051	91.81
283.282	81.81
283.513	97.81
283.745	94.81
283.976	81.81
284.207	79.81
284.439	78.81
284.67	85.81
284.901	73.81
285.132	81.81
285.364	93.81
285.595	93.81
285.826	87.81
286.057	76.81
286.288	83.81
286.52	85.81
286.751	90.81
286.982	91.81
287.213	88.81
287.444	81.81
287.675	102.81
287.906	85.81
288.138	87.81
288.369	86.81
288.6	86.81
288.831	70.81
289.062	69.81
289.293	87.81
289.524	81.81
289.755	80.81
289.986	78.81
290.217	83.81
290.448	89.81
290.679	81.81
290.91	97.81
291.141	94.81
291.371	91.81
291.602	82.81
291.833	64.81
292.064	92.81
292.295	92.81
292.526	86.81
292.757	83.81
292.987	84.81
293.218	96.81
293.449	82.81
293.68	82.81
293.91	74.81
294.141	78.81
294.372	101.81
294.603	89.81
294.833	83.81
295.064	75.81
295.295	78.81
295.525	89.81
295.756	93.81
295.987	83.81
296.217	90.81
296.448	96.81
296.679	76.81
296.909	93.81
297.14	79.81
297.37	104.81
297.601	67.81
297.831	83.81
298.062	84.81
298.292	77.81
298.523	80.81
298.753	93.81
298.984	75.81
299.214	61.81
299.445	90.81
299.675	90.81
299.905	96.81
300.136	93.81
300.366	93.81
300.597	80.81
300.827	89.81
301.057	95.81
301.288	83.81
301.518	94.81
301.748	90.81
301.979	100.81
302.209	93.81
302.439	97.81
302.669	96.81
302.9	86.81
303.13	88.81
303.36	95.81
303.59	86.81
303.82	78.81
304.051	89.81
304.281	72.81
304.511	79.81
304.741	85.81
304.971	96.81
305.201	91.81
305.431	90.81
305.661	95.81
305.891	92.81
306.121	90.81
306.352	79.81
306.582	86.81
306.812	69.81
307.042	82.81
307.272	66.81
307.502	76.81
307.731	86.81
307.961	72.81
308.191	101.81
308.421	86.81
308.651	89.81
308.881	91.81
309.111	101.81
309.341	86.81
309.571	87.81
309.8	91.81
310.03	96.81
310.26	81.81
310.49	93.81
310.72	84.81
310.949	73.81
311.179	73.81
311.409	80.81
311.639	99.81
311.868	86.81
312.098	71.81
312.328	84.81
312.557	93.81
312.787	89.81
313.017	95.81
313.246	76.81
313.476	81.81
313.706	78.81
313.935	97.81
314.165	93.81
314.394	78.81
314.624	84.81
314.853	72.81
315.083	94.81
315.312	82.81
315.542	95.81
315.771	91.81
316.001	103.81
316.23	82.81
316.46	70.81
316.689	98.81
316.919	100.81
317.148	85.81
317.377	90.81
317.607	95.81
317.836	105.81
318.065	90.81
318.295	97.81
318.524	87.81
318.753	81.81
318.983	95.81
319.212	95.81
319.441	88.81
319.67	102.81
319.9	77.81
320.129	96.81
320.358	92.81
320.587	83.81
320.816	87.81
321.046	97.81
321.275	85.81
321.504	94.81
321.733	98.81
321.962	91.81
322.191	85.81
322.42	76.81
322.649	89.81
322.878	78.81
323.108	75.81
323.337	93.81
323.566	91.81
323.795	82.81
324.024	97.81
324.253	87.81
324.482	93.81
324.71	97.81
324.939	86.81
325.168	75.81
325.397	88.81
325.626	89.81
325.855	83.81
326.084	96.81
326.313	90.81
326.542	81.81
326.77	98.81
326.999	79.81
327.228	76.81
327.457	94.81
327.686	90.81
327.914	90.81
328.143	93.81
328.372	60.81
328.6	95.81
328.829	91.81
329.058	90.81
329.287	98.81
329.515	88.81
329.744	93.81
329.972	79.81
330.201	90.81
330.43	92.81
330.658	88.81
330.887	86.81
331.115	88.81
331.344	81.81
331.572	90.81
331.801	76.81
332.03	86.81
332.258	105.81
332.486	94.81
332.715	93.81
332.943	83.81
333.172	93.81
333.4	99.81
333.629	93.81
333.857	86.81
334.085	84.81
334.314	85.81
334.542	77.81
334.771	96.81
334.999	98.81
335.227	89.81
335.455	90.81
335.684	96.81
335.912	72.81
336.14	102.81
336.369	88.81
336.597	86.81
336.825	101.81
337.053	86.81
337.281	93.81
337.51	79.81
337.738	100.81
337.966	83.81
338.194	82.81
338.422	84.81
338.65	98.81
338.878	86.81
339.106	84.81
339.334	93.81
339.562	78.81
339.79	83.81
340.018	98.81
340.246	87.81
340.474	97.81
340.702	93.81
340.93	89.81
341.158	95.81
341.386	81.81
341.614	86.81
341.842	89.81
342.07	95.81
342.298	86.81
342.526	88.81
342.754	96.81
342.981	89.81
343.209	85.81
343.437	89.81
343.665	89.81
343.893	90.81
344.12	92.81
344.348	91.81
344.576	92.81
344.804	85.81
345.031	91.81
345.259	95.81
345.487	85.81
345.714	86.81
345.942	91.81
346.17	77.81
346.397	95.81
346.625	87.81
346.853	80.81
347.08	76.81
347.308	82.81
347.535	82.81
347.763	81.81
347.99	89.81
348.218	89.81
348.445	93.81
348.673	79.81
348.9	93.81
349.128	87.81
349.355	94.81
349.583	89.81
349.81	81.81
350.037	89.81
350.265	87.81
350.492	79.81
350.72	97.81
350.947	81.81
351.174	101.81
351.402	90.81
351.629	87.81
351.856	86.81
352.083	87.81
352.311	79.81
352.538	90.81
352.765	87.81
352.992	93.81
353.22	101.81
353.447	76.81
353.674	82.81
353.901	93.81
354.128	89.81
354.355	69.81
354.583	88.81
354.81	102.81
355.037	99.81
355.264	100.81
355.491	89.81
355.718	71.81
355.945	78.81
356.172	83.81
356.399	87.81
356.626	95.81
356.853	75.81
357.08	102.81
357.307	83.81
357.534	87.81
357.761	80.81
357.988	96.81
358.215	112.81
358.441	97.81
358.668	92.81
358.895	97.81
359.122	91.81
359.349	91.81
359.576	90.81
359.802	80.81
360.029	81.81
360.256	83.81
360.483	84.81
360.709	87.81
360.936	105.81
361.163	85.81
361.39	81.81
361.616	71.81
361.843	74.81
362.07	95.81
362.296	105.81
362.523	95.81
362.749	103.81
362.976	104.81
363.203	113.81
363.429	93.81
363.656	96.81
363.882	86.81
364.109	95.81
364.335	105.81
364.562	121.81
364.788	114.81
365.015	83.81
365.241	93.81
365.468	94.81
365.694	93.81
365.92	90.81
366.147	96.81
366.373	97.81
366.599	82.81
366.826	84.81
367.052	94.81
367.278	100.81
367.505	106.81
367.731	99.81
367.957	90.81
368.184	72.81
368.41	85.81
368.636	83.81
368.862	101.81
369.089	85.81
369.315	93.81
369.541	101.81
369.767	91.81
369.993	91.81
370.219	89.81
370.445	78.81
370.672	77.81
370.898	83.81
371.124	87.81
371.35	86.81
371.576	93.81
371.802	87.81
372.028	94.81
372.254	94.81
372.48	84.81
372.706	69.81
372.932	86.81
373.158	98.81
373.384	92.81
373.61	111.81
373.835	105.81
374.061	81.81
374.287	98.81
374.513	97.81
374.739	98.81
374.965	100.81
375.191	87.81
375.416	80.81
375.642	100.81
375.868	87.81
376.094	96.81
376.319	85.81
376.545	88.81
376.771	96.81
376.997	70.81
377.222	86.81
377.448	89.81
377.674	97.81
377.899	87.81
378.125	95.81
378.35	89.81
378.576	73.81
378.802	72.81
379.027	89.81
379.253	83.81
379.478	76.81
379.704	81.81
379.929	87.81
380.155	94.81
380.38	109.81
380.606	92.81
380.831	75.81
381.057	89.81
381.282	91.81
381.507	94.81
381.733	88.81
381.958	97.81
382.184	93.81
382.409	99.81
382.634	94.81
382.86	101.81
383.085	101.81
383.31	111.81
383.535	88.81
383.761	104.81
383.986	104.81
384.211	104.81
384.436	99.81
384.662	94.81
384.887	79.81
385.112	102.81
385.337	94.81
385.562	96.81
385.787	84.81
386.013	102.81
386.238	89.81
386.463	83.81
386.688	94.81
386.913	86.81
387.138	104.81
387.363	97.81
387.588	88.81
387.813	90.81
388.038	94.81
388.263	89.81
388.488	93.81
388.713	100.81
388.938	87.81
389.163	91.81
389.387	96.81
389.612	87.81
389.837	98.81
390.062	84.81
390.287	91.81
390.512	101.81
390.736	70.81
390.961	85.81
391.186	97.81
391.411	87.81
391.636	95.81
391.86	101.81
392.085	88.81
392.31	100.81
392.534	101.81
392.759	120.81
392.984	158.81
393.208	232.81
393.433	355.81
393.658	283.81
393.882	133.81
394.107	101.81
394.331	96.81
394.556	101.81
394.78	100.81
395.005	85.81
395.229	104.81
395.454	91.81
395.678	103.81
395.903	103.81
396.127	106.81
396.352	132.81
396.576	155.81
396.801	239.81
397.025	282.81
397.249	155.81
397.474	110.81
397.698	100.81
397.922	95.81
398.147	95.81
398.371	97.81
398.595	75.81
398.82	82.81
399.044	95.81
399.268	96.81
399.492	99.81
399.717	90.81
399.941	89.81
400.165	84.81
400.389	81.81
400.613	85.81
400.837	79.81
401.062	89.81
401.286	94.81
401.51	82.81
401.734	90.81
401.958	89.81
402.182	87.81
402.406	82.81
402.63	101.81
402.854	89.81
403.078	93.81
403.302	94.81
403.526	78.81
403.75	80.81
403.974	87.81
404.198	77.81
404.422	95.81
404.645	85.81
404.869	83.81
405.093	92.81
405.317	85.81
405.541	77.81
405.765	74.81
405.988	83.81
406.212	78.81
406.436	96.81
406.66	95.81
406.883	98.81
407.107	85.81
407.331	91.81
407.555	85.81
407.778	96.81
408.002	100.81
408.226	83.81
408.449	96.81
408.673	102.81
408.896	87.81
409.12	86.81
409.344	97.81
409.567	85.81
409.791	89.81
410.014	100.81
410.238	91.81
410.461	94.81
410.685	94.81
410.908	94.81
411.132	86.81
411.355	88.81
411.578	112.81
411.802	90.81
412.025	75.81
412.249	87.81
412.472	85.81
412.695	91.81
412.919	87.81
413.142	86.81
413.365	81.81
413.589	81.81
413.812	84.81
414.035	97.81
414.258	75.81
414.482	102.81
414.705	97.81
414.928	98.81
415.151	95.81
415.374	84.81
415.597	97.81
415.821	79.81
416.044	106.81
416.267	89.81
416.49	78.81
416.713	80.81
416.936	89.81
417.159	85.81
417.382	64.81
417.605	77.81
417.828	90.81
418.051	75.81
418.274	87.81
418.497	71.81
418.72	77.81
418.943	90.81
419.166	88.81
419.389	90.81
419.611	104.81
419.834	82.81
420.057	96.81
420.28	86.81
420.503	97.81
420.726	86.81
420.948	95.81
421.171	97.81
421.394	96.81
421.617	112.81
421.839	117.81
422.062	127.81
422.285	157.81
422.507	242.81
422.73	361.81
422.953	329.81
423.175	192.81
423.398	145.81
423.621	109.81
423.843	88.81
424.066	98.81
424.288	79.81
424.511	93.81
424.733	92.81
424.956	91.81
425.178	103.81
425.401	93.81
425.623	76.81
425.846	96.81
426.068	87.81
426.291	77.81
426.513	81.81
426.735	93.81
426.958	85.81
427.18	84.81
427.402	90.81
427.625	95.81
427.847	86.81
428.069	85.81
428.292	122.81
428.514	127.81
428.736	114.81
428.958	122.81
429.181	121.81
429.403	70.81
429.625	80.81
429.847	109.81
430.069	139.81
430.292	166.81
430.514	150.81
430.736	129.81
430.958	115.81
431.18	93.81
431.402	93.81
431.624	92.81
431.846	107.81
432.068	119.81
432.29	95.81
432.512	89.81
432.734	94.81
432.956	93.81
433.178	76.81
433.4	83.81
433.622	80.81
433.844	82.81
434.066	86.81
434.287	90.81
434.509	89.81
434.731	83.81
434.953	83.81
435.175	83.81
435.397	95.81
435.618	88.81
435.84	85.81
436.062	84.81
436.284	71.81
436.505	79.81
436.727	87.81
436.949	94.81
437.17	94.81
437.392	98.81
437.614	89.81
437.835	90.81
438.057	85.81
438.278	96.81
438.5	109.81
438.721	99.81
438.943	89.81
439.165	87.81
439.386	87.81
439.608	85.81
439.829	87.81
440.05	95.81
440.272	90.81
440.493	85.81
440.715	88.81
440.936	95.81
441.158	72.81
441.379	82.81
441.6	90.81
441.822	90.81
442.043	82.81
442.264	95.81
442.486	116.81
442.707	145.81
442.928	116.81
443.149	102.81
443.371	132.81
443.592	184.81
443.813	181.81
444.034	87.81
444.255	93.81
444.476	94.81
444.698	92.81
444.919	105.81
445.14	192.81
445.361	189.81
445.582	221.81
445.803	197.81
446.024	115.81
446.245	95.81
446.466	90.81
446.687	96.81
446.908	99.81
447.129	86.81
447.35	75.81
447.571	85.81
447.792	89.81
448.013	83.81
448.234	81.81
448.455	85.81
448.675	78.81
448.896	85.81
449.117	96.81
449.338	75.81
449.559	92.81
449.779	77.81
450	87.81
450.221	81.81
450.442	91.81
450.662	87.81
450.883	89.81
451.104	95.81
451.324	99.81
451.545	86.81
451.766	81.81
451.986	70.81
452.207	83.81
452.428	80.81
452.648	76.81
452.869	120.81
453.089	100.81
453.31	105.81
453.53	101.81
453.751	84.81
453.971	94.81
454.192	86.81
454.412	86.81
454.633	89.81
454.853	83.81
455.073	88.81
455.294	74.81
455.514	106.81
455.734	87.81
455.955	93.81
456.175	87.81
456.395	84.81
456.616	87.81
456.836	96.81
457.056	89.81
457.276	85.81
457.497	77.81
457.717	69.81
457.937	111.81
458.157	116.81
458.377	115.81
458.598	110.81
458.818	136.81
459.038	95.81
459.258	85.81
459.478	75.81
459.698	61.81
459.918	81.81
460.138	89.81
460.358	83.81
460.578	101.81
460.798	119.81
461.018	114.81
461.238	76.81
461.458	78.81
461.678	88.81
461.898	92.81
462.118	81.81
462.338	83.81
462.558	95.81
462.777	84.81
462.997	94.81
463.217	86.81
463.437	81.81
463.657	79.81
463.876	85.81
464.096	83.81
464.316	76.81
464.536	87.81
464.755	90.81
464.975	86.81
465.195	103.81
465.414	99.81
465.634	79.81
465.854	72.81
466.073	72.81
466.293	88.81
466.512	81.81
466.732	90.81
466.951	90.81
467.171	93.81
467.391	77.81
467.61	79.81
467.829	85.81
468.049	89.81
468.268	77.81
468.488	93.81
468.707	86.81
468.927	89.81
469.146	109.81
469.365	97.81
469.585	79.81
469.804	88.81
470.023	82.81
470.243	107.81
470.462	75.81
470.681	76.81
470.901	85.81
471.12	97.81
471.339	92.81
471.558	77.81
471.777	83.81
471.997	85.81
472.216	111.81
472.435	92.81
472.654	75.81
472.873	88.81
473.092	93.81
473.311	98.81
473.53	90.81
473.749	72.81
473.968	90.81
474.187	101.81
474.406	91.81
474.625	94.81
474.844	86.81
475.063	76.81
475.282	81.81
475.501	74.81
475.72	102.81
475.939	87.81
476.158	78.81
476.377	93.81
476.596	91.81
476.814	89.81
477.033	88.81
477.252	93.81
477.471	97.81
477.69	78.81
477.908	85.81
478.127	82.81
478.346	85.81
478.564	90.81
478.783	83.81
479.002	89.81
479.22	95.81
479.439	79.81
479.658	93.81
479.876	95.81
480.095	88.81
480.313	87.81
480.532	88.81
480.751	100.81
480.969	95.81
481.188	87.81
481.406	98.81
481.624	89.81
481.843	96.81
482.061	96.81
482.28	81.81
482.498	83.81
482.717	97.81
482.935	94.81
483.153	91.81
483.372	88.81
483.59	85.81
483.808	102.81
484.027	85.81
484.245	86.81
484.463	105.81
484.681	93.81
484.9	98.81
485.118	101.81
485.336	82.81
485.554	105.81
485.772	85.81
485.99	89.81
486.209	91.81
486.427	97.81
486.645	83.81
486.863	92.81
487.081	95.81
487.299	100.81
487.517	95.81
487.735	101.81
487.953	144.81
488.171	135.81
488.389	101.81
488.607	89.81
488.825	93.81
489.043	81.81
489.261	93.81
489.479	102.81
489.696	81.81
489.914	89.81
490.132	83.81
490.35	94.81
490.568	89.81
490.786	86.81
491.003	80.81
491.221	107.81
491.439	98.81
491.657	91.81
491.874	98.81
492.092	94.81
492.31	99.81
492.527	93.81
492.745	88.81
492.963	97.81
493.18	99.81
493.398	101.81
493.615	79.81
493.833	106.81
494.05	104.81
494.268	85.81
494.485	101.81
494.703	99.81
494.92	97.81
495.138	93.81
495.355	88.81
495.573	83.81
495.79	90.81
496.008	95.81
496.225	86.81
496.442	98.81
496.66	107.81
496.877	96.81
497.094	91.81
497.312	97.81
497.529	97.81
497.746	89.81
497.963	93.81
498.181	98.81
498.398	102.81
498.615	94.81
498.832	94.81
499.049	97.81
499.267	91.81
499.484	83.81
499.701	89.81
499.918	96.81
500.135	87.81
500.352	91.81
500.569	85.81
500.786	88.81
501.003	100.81
501.22	95.81
501.437	93.81
501.654	101.81
501.871	83.81
502.088	89.81
502.305	101.81
502.522	97.81
502.739	94.81
502.956	91.81
503.172	86.81
503.389	73.81
503.606	82.81
503.823	99.81
504.04	94.81
504.256	122.81
504.473	107.81
504.69	95.81
504.907	106.81
505.123	94.81
505.34	85.81
505.557	77.81
505.773	95.81
505.99	93.81
506.207	78.81
506.423	79.81
506.64	94.81
506.856	88.81
507.073	102.81
507.289	90.81
507.506	109.81
507.722	88.81
507.939	85.81
508.155	88.81
508.372	96.81
508.588	72.81
508.805	88.81
509.021	85.81
509.238	91.81
509.454	94.81
509.67	86.81
509.887	91.81
510.103	89.81
510.319	91.81
510.536	79.81
510.752	99.81
510.968	107.81
511.184	96.81
511.401	93.81
511.617	93.81
511.833	87.81
512.049	80.81
512.265	89.81
512.481	99.81
512.698	112.81
512.914	97.81
513.13	95.81
513.346	99.81
513.562	82.81
513.778	87.81
513.994	93.81
514.21	109.81
514.426	80.81
514.642	101.81
514.858	94.81
515.074	85.81
515.29	95.81
515.506	89.81
515.721	110.81
515.937	100.81
516.153	85.81
516.369	103.81
516.585	113.81
516.801	104.81
517.016	105.81
517.232	79.81
517.448	105.81
517.664	95.81
517.879	99.81
