Data from 10100_3_HRD10591_00035.txt Node
Date: Mon Jan 19 14:02:40 EST 2026
User: Yrep
Spectrometer: HR+D1059
Trigger mode: 1
Integration Time (sec): 1.000000E-1
Scans to average: 1
Electric dark correction enabled: true
Nonlinearity correction enabled: false
Boxcar width: 0
XAxis mode: Wavelengths
Number of Pixels in Spectrum: 2048
>>>>>Begin Spectral Data<<<<<
223.165	-7.69
223.4	-7.69
223.635	-7.69
223.869	-10.69
224.104	-28.69
224.338	-12.69
224.573	-18.69
224.808	-21.69
225.042	-8.69
225.277	8.31
225.511	-2.69
225.746	14.31
225.98	8.31
226.215	-0.69
226.449	14.31
226.683	24.31
226.918	15.31
227.152	27.31
227.387	37.31
227.621	23.31
227.856	44.31
228.09	37.31
228.324	54.31
228.559	49.31
228.793	70.31
229.027	55.31
229.262	68.31
229.496	69.31
229.73	66.31
229.964	83.31
230.199	85.31
230.433	65.31
230.667	76.31
230.901	77.31
231.136	74.31
231.37	83.31
231.604	83.31
231.838	84.31
232.072	90.31
232.306	95.31
232.541	80.31
232.775	77.31
233.009	73.31
233.243	83.31
233.477	83.31
233.711	90.31
233.945	77.31
234.179	77.31
234.413	68.31
234.647	75.31
234.881	82.31
235.115	71.31
235.349	82.31
235.583	72.31
235.817	83.31
236.051	76.31
236.285	80.31
236.519	79.31
236.753	71.31
236.987	85.31
237.221	72.31
237.455	85.31
237.689	75.31
237.922	72.31
238.156	64.31
238.39	70.31
238.624	77.31
238.858	93.31
239.091	74.31
239.325	83.31
239.559	67.31
239.793	85.31
240.027	79.31
240.26	74.31
240.494	82.31
240.728	62.31
240.961	85.31
241.195	77.31
241.429	72.31
241.662	80.31
241.896	94.31
242.13	73.31
242.363	77.31
242.597	63.31
242.83	66.31
243.064	73.31
243.298	69.31
243.531	68.31
243.765	73.31
243.998	80.31
244.232	75.31
244.465	81.31
244.699	62.31
244.932	73.31
245.166	81.31
245.399	79.31
245.633	79.31
245.866	75.31
246.099	88.31
246.333	69.31
246.566	84.31
246.8	91.31
247.033	66.31
247.266	73.31
247.5	90.31
247.733	72.31
247.966	78.31
248.2	95.31
248.433	94.31
248.666	82.31
248.899	77.31
249.133	75.31
249.366	81.31
249.599	73.31
249.832	87.31
250.066	89.31
250.299	89.31
250.532	88.31
250.765	77.31
250.998	69.31
251.231	81.31
251.465	79.31
251.698	92.31
251.931	72.31
252.164	88.31
252.397	68.31
252.63	94.31
252.863	69.31
253.096	84.31
253.329	69.31
253.562	78.31
253.795	88.31
254.028	77.31
254.261	89.31
254.494	81.31
254.727	81.31
254.96	88.31
255.193	84.31
255.426	84.31
255.659	74.31
255.892	83.31
256.124	75.31
256.357	78.31
256.59	77.31
256.823	81.31
257.056	80.31
257.289	91.31
257.521	76.31
257.754	81.31
257.987	79.31
258.22	83.31
258.452	64.31
258.685	70.31
258.918	65.31
259.151	87.31
259.383	71.31
259.616	86.31
259.849	85.31
260.081	82.31
260.314	87.31
260.547	84.31
260.779	90.31
261.012	86.31
261.244	82.31
261.477	97.31
261.71	82.31
261.942	85.31
262.175	86.31
262.407	84.31
262.64	90.31
262.872	71.31
263.105	88.31
263.337	69.31
263.57	89.31
263.802	79.31
264.035	68.31
264.267	87.31
264.499	74.31
264.732	89.31
264.964	91.31
265.197	81.31
265.429	86.31
265.661	85.31
265.894	90.31
266.126	89.31
266.358	74.31
266.591	83.31
266.823	63.31
267.055	83.31
267.287	83.31
267.52	93.31
267.752	83.31
267.984	78.31
268.216	85.31
268.448	91.31
268.681	82.31
268.913	78.31
269.145	75.31
269.377	85.31
269.609	81.31
269.841	86.31
270.073	84.31
270.306	78.31
270.538	75.31
270.77	79.31
271.002	82.31
271.234	75.31
271.466	86.31
271.698	98.31
271.93	71.31
272.162	90.31
272.394	91.31
272.626	95.31
272.858	88.31
273.09	83.31
273.322	84.31
273.553	80.31
273.785	111.31
274.017	77.31
274.249	80.31
274.481	82.31
274.713	86.31
274.945	74.31
275.176	91.31
275.408	78.31
275.64	88.31
275.872	83.31
276.104	90.31
276.335	86.31
276.567	80.31
276.799	84.31
277.031	88.31
277.262	89.31
277.494	97.31
277.726	89.31
277.957	83.31
278.189	85.31
278.421	89.31
278.652	96.31
278.884	79.31
279.115	85.31
279.347	89.31
279.579	97.31
279.81	106.31
280.042	90.31
280.273	106.31
280.505	95.31
280.736	84.31
280.968	98.31
281.199	70.31
281.431	82.31
281.662	100.31
281.894	81.31
282.125	96.31
282.356	98.31
282.588	82.31
282.819	90.31
283.051	84.31
283.282	90.31
283.513	95.31
283.745	91.31
283.976	82.31
284.207	83.31
284.439	89.31
284.67	90.31
284.901	110.31
285.132	88.31
285.364	110.31
285.595	103.31
285.826	83.31
286.057	97.31
286.288	89.31
286.52	77.31
286.751	91.31
286.982	87.31
287.213	76.31
287.444	89.31
287.675	97.31
287.906	88.31
288.138	100.31
288.369	101.31
288.6	86.31
288.831	81.31
289.062	99.31
289.293	73.31
289.524	80.31
289.755	77.31
289.986	89.31
290.217	94.31
290.448	87.31
290.679	85.31
290.91	92.31
291.141	75.31
291.371	96.31
291.602	93.31
291.833	89.31
292.064	83.31
292.295	73.31
292.526	77.31
292.757	93.31
292.987	91.31
293.218	81.31
293.449	69.31
293.68	94.31
293.91	99.31
294.141	100.31
294.372	93.31
294.603	102.31
294.833	99.31
295.064	93.31
295.295	91.31
295.525	80.31
295.756	98.31
295.987	103.31
296.217	81.31
296.448	91.31
296.679	98.31
296.909	105.31
297.14	86.31
297.37	104.31
297.601	94.31
297.831	91.31
298.062	88.31
298.292	87.31
298.523	96.31
298.753	86.31
298.984	102.31
299.214	89.31
299.445	102.31
299.675	106.31
299.905	120.31
300.136	109.31
300.366	106.31
300.597	101.31
300.827	107.31
301.057	104.31
301.288	81.31
301.518	89.31
301.748	97.31
301.979	98.31
302.209	97.31
302.439	109.31
302.669	97.31
302.9	92.31
303.13	98.31
303.36	82.31
303.59	77.31
303.82	80.31
304.051	96.31
304.281	89.31
304.511	92.31
304.741	89.31
304.971	99.31
305.201	95.31
305.431	93.31
305.661	85.31
305.891	90.31
306.121	93.31
306.352	73.31
306.582	89.31
306.812	91.31
307.042	97.31
307.272	95.31
307.502	115.31
307.731	110.31
307.961	114.31
308.191	107.31
308.421	113.31
308.651	102.31
308.881	107.31
309.111	102.31
309.341	112.31
309.571	123.31
309.8	104.31
310.03	103.31
310.26	95.31
310.49	86.31
310.72	89.31
310.949	81.31
311.179	93.31
311.409	91.31
311.639	93.31
311.868	79.31
312.098	98.31
312.328	87.31
312.557	76.31
312.787	85.31
313.017	88.31
313.246	92.31
313.476	89.31
313.706	81.31
313.935	102.31
314.165	89.31
314.394	95.31
314.624	72.31
314.853	97.31
315.083	110.31
315.312	117.31
315.542	109.31
315.771	118.31
316.001	129.31
316.23	101.31
316.46	94.31
316.689	102.31
316.919	76.31
317.148	87.31
317.377	110.31
317.607	113.31
317.836	132.31
318.065	147.31
318.295	128.31
318.524	106.31
318.753	104.31
318.983	95.31
319.212	89.31
319.441	104.31
319.67	85.31
319.9	90.31
320.129	95.31
320.358	93.31
320.587	98.31
320.816	106.31
321.046	110.31
321.275	109.31
321.504	115.31
321.733	110.31
321.962	98.31
322.191	113.31
322.42	113.31
322.649	111.31
322.878	111.31
323.108	88.31
323.337	90.31
323.566	93.31
323.795	90.31
324.024	106.31
324.253	94.31
324.482	90.31
324.71	89.31
324.939	93.31
325.168	87.31
325.397	83.31
325.626	98.31
325.855	97.31
326.084	90.31
326.313	85.31
326.542	85.31
326.77	82.31
326.999	91.31
327.228	93.31
327.457	91.31
327.686	90.31
327.914	83.31
328.143	105.31
328.372	104.31
328.6	98.31
328.829	89.31
329.058	84.31
329.287	81.31
329.515	82.31
329.744	110.31
329.972	89.31
330.201	88.31
330.43	107.31
330.658	79.31
330.887	87.31
331.115	90.31
331.344	87.31
331.572	92.31
331.801	85.31
332.03	100.31
332.258	95.31
332.486	106.31
332.715	97.31
332.943	93.31
333.172	78.31
333.4	92.31
333.629	115.31
333.857	109.31
334.085	113.31
334.314	116.31
334.542	138.31
334.771	141.31
334.999	129.31
335.227	122.31
335.455	109.31
335.684	130.31
335.912	133.31
336.14	152.31
336.369	151.31
336.597	118.31
336.825	106.31
337.053	119.31
337.281	104.31
337.51	97.31
337.738	98.31
337.966	106.31
338.194	103.31
338.422	108.31
338.65	103.31
338.878	105.31
339.106	87.31
339.334	106.31
339.562	96.31
339.79	83.31
340.018	93.31
340.246	100.31
340.474	95.31
340.702	87.31
340.93	80.31
341.158	79.31
341.386	85.31
341.614	73.31
341.842	83.31
342.07	98.31
342.298	86.31
342.526	96.31
342.754	86.31
342.981	88.31
343.209	98.31
343.437	105.31
343.665	102.31
343.893	102.31
344.12	115.31
344.348	109.31
344.576	111.31
344.804	105.31
345.031	100.31
345.259	86.31
345.487	85.31
345.714	107.31
345.942	80.31
346.17	95.31
346.397	110.31
346.625	101.31
346.853	97.31
347.08	101.31
347.308	102.31
347.535	99.31
347.763	93.31
347.99	96.31
348.218	87.31
348.445	95.31
348.673	113.31
348.9	111.31
349.128	117.31
349.355	99.31
349.583	99.31
349.81	97.31
350.037	91.31
350.265	91.31
350.492	91.31
350.72	99.31
350.947	106.31
351.174	105.31
351.402	85.31
351.629	92.31
351.856	103.31
352.083	100.31
352.311	95.31
352.538	107.31
352.765	107.31
352.992	100.31
353.22	87.31
353.447	97.31
353.674	97.31
353.901	97.31
354.128	104.31
354.355	107.31
354.583	104.31
354.81	97.31
355.037	87.31
355.264	102.31
355.491	95.31
355.718	98.31
355.945	110.31
356.172	100.31
356.399	97.31
356.626	109.31
356.853	126.31
357.08	118.31
357.307	127.31
357.534	104.31
357.761	103.31
357.988	126.31
358.215	129.31
358.441	117.31
358.668	118.31
358.895	109.31
359.122	94.31
359.349	101.31
359.576	96.31
359.802	103.31
360.029	116.31
360.256	100.31
360.483	91.31
360.709	108.31
360.936	113.31
361.163	117.31
361.39	101.31
361.616	114.31
361.843	125.31
362.07	134.31
362.296	143.31
362.523	185.31
362.749	199.31
362.976	233.31
363.203	263.31
363.429	187.31
363.656	155.31
363.882	154.31
364.109	207.31
364.335	293.31
364.562	334.31
364.788	195.31
365.015	135.31
365.241	125.31
365.468	132.31
365.694	93.31
365.92	109.31
366.147	92.31
366.373	94.31
366.599	104.31
366.826	106.31
367.052	99.31
367.278	114.31
367.505	117.31
367.731	113.31
367.957	128.31
368.184	109.31
368.41	91.31
368.636	104.31
368.862	101.31
369.089	89.31
369.315	93.31
369.541	103.31
369.767	96.31
369.993	104.31
370.219	114.31
370.445	129.31
370.672	136.31
370.898	130.31
371.124	99.31
371.35	114.31
371.576	109.31
371.802	108.31
372.028	135.31
372.254	129.31
372.48	114.31
372.706	97.31
372.932	102.31
373.158	131.31
373.384	161.31
373.61	200.31
373.835	186.31
374.061	139.31
374.287	149.31
374.513	144.31
374.739	162.31
374.965	140.31
375.191	150.31
375.416	127.31
375.642	120.31
375.868	128.31
376.094	134.31
376.319	110.31
376.545	124.31
376.771	122.31
376.997	85.31
377.222	109.31
377.448	90.31
377.674	93.31
377.899	114.31
378.125	104.31
378.35	103.31
378.576	97.31
378.802	98.31
379.027	98.31
379.253	98.31
379.478	102.31
379.704	95.31
379.929	114.31
380.155	110.31
380.38	106.31
380.606	104.31
380.831	101.31
381.057	96.31
381.282	111.31
381.507	117.31
381.733	136.31
381.958	128.31
382.184	154.31
382.409	139.31
382.634	142.31
382.86	129.31
383.085	141.31
383.31	143.31
383.535	158.31
383.761	154.31
383.986	171.31
384.211	145.31
384.436	132.31
384.662	114.31
384.887	117.31
385.112	113.31
385.337	132.31
385.562	132.31
385.787	152.31
386.013	162.31
386.238	145.31
386.463	142.31
386.688	125.31
386.913	122.31
387.138	139.31
387.363	139.31
387.588	148.31
387.813	153.31
388.038	149.31
388.263	151.31
388.488	137.31
388.713	126.31
388.938	114.31
389.163	117.31
389.387	111.31
389.612	121.31
389.837	106.31
390.062	117.31
390.287	121.31
390.512	132.31
390.736	120.31
390.961	127.31
391.186	123.31
391.411	113.31
391.636	110.31
391.86	154.31
392.085	153.31
392.31	173.31
392.534	195.31
392.759	253.31
392.984	418.31
393.208	745.31
393.433	1114.31
393.658	861.31
393.882	343.31
394.107	232.31
394.331	211.31
394.556	241.31
394.78	189.31
395.005	161.31
395.229	151.31
395.454	158.31
395.678	191.31
395.903	251.31
396.127	315.31
396.352	361.31
396.576	448.31
396.801	739.31
397.025	855.31
397.249	443.31
397.474	305.31
397.698	200.31
397.922	145.31
398.147	127.31
398.371	144.31
398.595	130.31
398.82	116.31
399.044	107.31
399.268	98.31
399.492	113.31
399.717	105.31
399.941	115.31
400.165	123.31
400.389	112.31
400.613	107.31
400.837	101.31
401.062	101.31
401.286	101.31
401.51	99.31
401.734	113.31
401.958	110.31
402.182	102.31
402.406	102.31
402.63	117.31
402.854	101.31
403.078	124.31
403.302	113.31
403.526	117.31
403.75	98.31
403.974	101.31
404.198	103.31
404.422	122.31
404.645	131.31
404.869	117.31
405.093	116.31
405.317	113.31
405.541	112.31
405.765	112.31
405.988	102.31
406.212	127.31
406.436	113.31
406.66	110.31
406.883	113.31
407.107	129.31
407.331	107.31
407.555	138.31
407.778	196.31
408.002	186.31
408.226	119.31
408.449	105.31
408.673	103.31
408.896	114.31
409.12	126.31
409.344	148.31
409.567	178.31
409.791	181.31
410.014	175.31
410.238	169.31
410.461	138.31
410.685	129.31
410.908	122.31
411.132	103.31
411.355	117.31
411.578	92.31
411.802	110.31
412.025	110.31
412.249	113.31
412.472	98.31
412.695	100.31
412.919	102.31
413.142	105.31
413.365	115.31
413.589	110.31
413.812	111.31
414.035	95.31
414.258	114.31
414.482	93.31
414.705	102.31
414.928	117.31
415.151	114.31
415.374	93.31
415.597	101.31
415.821	97.31
416.044	103.31
416.267	99.31
416.49	103.31
416.713	105.31
416.936	98.31
417.159	103.31
417.382	92.31
417.605	105.31
417.828	119.31
418.051	91.31
418.274	113.31
418.497	105.31
418.72	109.31
418.943	122.31
419.166	100.31
419.389	98.31
419.611	115.31
419.834	111.31
420.057	118.31
420.28	116.31
420.503	125.31
420.726	119.31
420.948	128.31
421.171	156.31
421.394	191.31
421.617	253.31
421.839	267.31
422.062	321.31
422.285	467.31
422.507	813.31
422.73	1107.31
422.953	1029.31
423.175	625.31
423.398	373.31
423.621	246.31
423.843	194.31
424.066	168.31
424.288	168.31
424.511	147.31
424.733	141.31
424.956	138.31
425.178	137.31
425.401	126.31
425.623	122.31
425.846	95.31
426.068	126.31
426.291	109.31
426.513	127.31
426.735	105.31
426.958	129.31
427.18	127.31
427.402	127.31
427.625	110.31
427.847	123.31
428.069	157.31
428.292	277.31
428.514	310.31
428.736	197.31
428.958	265.31
429.181	275.31
429.403	151.31
429.625	140.31
429.847	234.31
430.069	384.31
430.292	483.31
430.514	435.31
430.736	301.31
430.958	334.31
431.18	159.31
431.402	119.31
431.624	152.31
431.846	248.31
432.068	278.31
432.29	169.31
432.512	122.31
432.734	112.31
432.956	123.31
433.178	91.31
433.4	112.31
433.622	119.31
433.844	94.31
434.066	106.31
434.287	104.31
434.509	100.31
434.731	94.31
434.953	107.31
435.175	102.31
435.397	138.31
435.618	139.31
435.84	150.31
436.062	129.31
436.284	113.31
436.505	102.31
436.727	104.31
436.949	98.31
437.17	114.31
437.392	106.31
437.614	93.31
437.835	110.31
438.057	97.31
438.278	106.31
438.5	123.31
438.721	116.31
438.943	113.31
439.165	101.31
439.386	113.31
439.608	105.31
439.829	109.31
440.05	91.31
440.272	87.31
440.493	123.31
440.715	122.31
440.936	110.31
441.158	98.31
441.379	107.31
441.6	105.31
441.822	117.31
442.043	131.31
442.264	167.31
442.486	272.31
442.707	431.31
442.928	263.31
443.149	205.31
443.371	368.31
443.592	723.31
443.813	641.31
444.034	211.31
444.255	138.31
444.476	130.31
444.698	144.31
444.919	139.31
445.14	269.31
445.361	481.31
445.582	915.31
445.803	746.31
446.024	271.31
446.245	159.31
446.466	126.31
446.687	110.31
446.908	104.31
447.129	91.31
447.35	103.31
447.571	105.31
447.792	95.31
448.013	87.31
448.234	111.31
448.455	99.31
448.675	97.31
448.896	82.31
449.117	94.31
449.338	94.31
449.559	111.31
449.779	101.31
450	103.31
450.221	92.31
450.442	90.31
450.662	106.31
450.883	111.31
451.104	109.31
451.324	107.31
451.545	109.31
451.766	111.31
451.986	99.31
452.207	98.31
452.428	113.31
452.648	156.31
452.869	182.31
453.089	158.31
453.31	129.31
453.53	134.31
453.751	125.31
453.971	109.31
454.192	87.31
454.412	97.31
454.633	103.31
454.853	107.31
455.073	109.31
455.294	114.31
455.514	132.31
455.734	122.31
455.955	106.31
456.175	88.31
456.395	95.31
456.616	91.31
456.836	106.31
457.056	106.31
457.276	113.31
457.497	99.31
457.717	130.31
457.937	233.31
458.157	319.31
458.377	321.31
458.598	298.31
458.818	339.31
459.038	156.31
459.258	107.31
459.478	93.31
459.698	98.31
459.918	98.31
460.138	101.31
460.358	103.31
460.578	133.31
460.798	201.31
461.018	191.31
461.238	123.31
461.458	102.31
461.678	100.31
461.898	89.31
462.118	80.31
462.338	96.31
462.558	90.31
462.777	96.31
462.997	93.31
463.217	88.31
463.437	94.31
463.657	109.31
463.876	90.31
464.096	95.31
464.316	98.31
464.536	93.31
464.755	98.31
464.975	94.31
465.195	98.31
465.414	97.31
465.634	96.31
465.854	108.31
466.073	100.31
466.293	97.31
466.512	81.31
466.732	90.31
466.951	113.31
467.171	101.31
467.391	88.31
467.61	91.31
467.829	104.31
468.049	89.31
468.268	101.31
468.488	119.31
468.707	123.31
468.927	102.31
469.146	99.31
469.365	99.31
469.585	117.31
469.804	95.31
470.023	98.31
470.243	99.31
470.462	94.31
470.681	107.31
470.901	93.31
471.12	97.31
471.339	116.31
471.558	94.31
471.777	84.31
471.997	79.31
472.216	91.31
472.435	111.31
472.654	100.31
472.873	107.31
473.092	102.31
473.311	98.31
473.53	94.31
473.749	111.31
473.968	110.31
474.187	109.31
474.406	98.31
474.625	90.31
474.844	115.31
475.063	107.31
475.282	102.31
475.501	110.31
475.72	103.31
475.939	101.31
476.158	103.31
476.377	102.31
476.596	100.31
476.814	89.31
477.033	110.31
477.252	104.31
477.471	100.31
477.69	86.31
477.908	103.31
478.127	99.31
478.346	97.31
478.564	98.31
478.783	102.31
479.002	94.31
479.22	104.31
479.439	108.31
479.658	83.31
479.876	87.31
480.095	98.31
480.313	103.31
480.532	114.31
480.751	101.31
480.969	121.31
481.188	112.31
481.406	134.31
481.624	101.31
481.843	99.31
482.061	100.31
482.28	122.31
482.498	106.31
482.717	109.31
482.935	113.31
483.153	129.31
483.372	130.31
483.59	111.31
483.808	115.31
484.027	101.31
484.245	113.31
484.463	107.31
484.681	123.31
484.9	113.31
485.118	118.31
485.336	119.31
485.554	114.31
485.772	118.31
485.99	101.31
486.209	106.31
486.427	116.31
486.645	109.31
486.863	99.31
487.081	117.31
487.299	121.31
487.517	159.31
487.735	249.31
487.953	549.31
488.171	421.31
488.389	169.31
488.607	119.31
488.825	119.31
489.043	116.31
489.261	113.31
489.479	116.31
489.696	94.31
489.914	107.31
490.132	97.31
490.35	122.31
490.568	115.31
490.786	87.31
491.003	111.31
491.221	106.31
491.439	93.31
491.657	115.31
491.874	101.31
492.092	110.31
492.31	131.31
492.527	97.31
492.745	95.31
492.963	103.31
493.18	99.31
493.398	124.31
493.615	128.31
493.833	90.31
494.05	107.31
494.268	96.31
494.485	98.31
494.703	96.31
494.92	105.31
495.138	102.31
495.355	104.31
495.573	102.31
495.79	109.31
496.008	121.31
496.225	113.31
496.442	119.31
496.66	114.31
496.877	107.31
497.094	113.31
497.312	97.31
497.529	115.31
497.746	114.31
497.963	103.31
498.181	135.31
498.398	155.31
498.615	117.31
498.832	112.31
499.049	118.31
499.267	123.31
499.484	120.31
499.701	103.31
499.918	111.31
500.135	123.31
500.352	114.31
500.569	98.31
500.786	102.31
501.003	138.31
501.22	105.31
501.437	115.31
501.654	143.31
501.871	97.31
502.088	107.31
502.305	99.31
502.522	113.31
502.739	113.31
502.956	103.31
503.172	117.31
503.389	110.31
503.606	119.31
503.823	143.31
504.04	185.31
504.256	361.31
504.473	384.31
504.69	159.31
504.907	128.31
505.123	120.31
505.34	117.31
505.557	91.31
505.773	109.31
505.99	106.31
506.207	111.31
506.423	113.31
506.64	121.31
506.856	119.31
507.073	92.31
507.289	96.31
507.506	105.31
507.722	106.31
507.939	114.31
508.155	104.31
508.372	99.31
508.588	103.31
508.805	98.31
509.021	123.31
509.238	108.31
509.454	115.31
509.67	84.31
509.887	109.31
510.103	96.31
510.319	109.31
510.536	120.31
