Data from 10100_3_HRD10591_00029.txt Node
Date: Mon Jan 19 14:02:37 EST 2026
User: Yrep
Spectrometer: HR+D1059
Trigger mode: 1
Integration Time (sec): 1.000000E-1
Scans to average: 1
Electric dark correction enabled: true
Nonlinearity correction enabled: false
Boxcar width: 0
XAxis mode: Wavelengths
Number of Pixels in Spectrum: 2048
>>>>>Begin Spectral Data<<<<<
223.165	-12.81
223.4	-12.81
223.635	-12.81
223.869	-19.81
224.104	-11.81
224.338	-15.81
224.573	-22.81
224.808	-13.81
225.042	-11.81
225.277	-8.81
225.511	4.19
225.746	13.19
225.98	12.19
226.215	7.19
226.449	10.19
226.683	22.19
226.918	20.19
227.152	28.19
227.387	22.19
227.621	34.19
227.856	38.19
228.09	41.19
228.324	61.19
228.559	61.19
228.793	68.19
229.027	64.19
229.262	64.19
229.496	59.19
229.73	60.19
229.964	72.19
230.199	74.19
230.433	77.19
230.667	85.19
230.901	86.19
231.136	67.19
231.37	66.19
231.604	73.19
231.838	79.19
232.072	92.19
232.306	72.19
232.541	90.19
232.775	73.19
233.009	75.19
233.243	80.19
233.477	78.19
233.711	98.19
233.945	87.19
234.179	82.19
234.413	72.19
234.647	72.19
234.881	70.19
235.115	73.19
235.349	88.19
235.583	88.19
235.817	75.19
236.051	62.19
236.285	74.19
236.519	81.19
236.753	78.19
236.987	72.19
237.221	72.19
237.455	84.19
237.689	64.19
237.922	72.19
238.156	63.19
238.39	73.19
238.624	78.19
238.858	78.19
239.091	69.19
239.325	64.19
239.559	72.19
239.793	67.19
240.027	83.19
240.26	78.19
240.494	73.19
240.728	79.19
240.961	70.19
241.195	80.19
241.429	76.19
241.662	83.19
241.896	79.19
242.13	81.19
242.363	78.19
242.597	70.19
242.83	64.19
243.064	70.19
243.298	86.19
243.531	66.19
243.765	74.19
243.998	67.19
244.232	82.19
244.465	76.19
244.699	82.19
244.932	73.19
245.166	84.19
245.399	82.19
245.633	70.19
245.866	81.19
246.099	73.19
246.333	74.19
246.566	58.19
246.8	89.19
247.033	67.19
247.266	69.19
247.5	78.19
247.733	67.19
247.966	70.19
248.2	80.19
248.433	84.19
248.666	81.19
248.899	77.19
249.133	80.19
249.366	86.19
249.599	82.19
249.832	61.19
250.066	79.19
250.299	76.19
250.532	75.19
250.765	88.19
250.998	73.19
251.231	66.19
251.465	72.19
251.698	74.19
251.931	77.19
252.164	75.19
252.397	78.19
252.63	88.19
252.863	78.19
253.096	80.19
253.329	80.19
253.562	90.19
253.795	76.19
254.028	66.19
254.261	76.19
254.494	75.19
254.727	80.19
254.96	81.19
255.193	81.19
255.426	82.19
255.659	78.19
255.892	86.19
256.124	87.19
256.357	80.19
256.59	93.19
256.823	80.19
257.056	88.19
257.289	74.19
257.521	80.19
257.754	82.19
257.987	95.19
258.22	84.19
258.452	78.19
258.685	72.19
258.918	84.19
259.151	71.19
259.383	86.19
259.616	84.19
259.849	104.19
260.081	68.19
260.314	82.19
260.547	78.19
260.779	68.19
261.012	67.19
261.244	85.19
261.477	89.19
261.71	82.19
261.942	69.19
262.175	82.19
262.407	70.19
262.64	85.19
262.872	78.19
263.105	94.19
263.337	79.19
263.57	68.19
263.802	64.19
264.035	97.19
264.267	84.19
264.499	85.19
264.732	85.19
264.964	75.19
265.197	93.19
265.429	87.19
265.661	72.19
265.894	70.19
266.126	87.19
266.358	80.19
266.591	79.19
266.823	73.19
267.055	74.19
267.287	76.19
267.52	83.19
267.752	80.19
267.984	64.19
268.216	69.19
268.448	76.19
268.681	92.19
268.913	90.19
269.145	79.19
269.377	82.19
269.609	73.19
269.841	69.19
270.073	82.19
270.306	99.19
270.538	72.19
270.77	81.19
271.002	80.19
271.234	69.19
271.466	80.19
271.698	90.19
271.93	93.19
272.162	80.19
272.394	70.19
272.626	81.19
272.858	83.19
273.09	90.19
273.322	88.19
273.553	78.19
273.785	84.19
274.017	102.19
274.249	80.19
274.481	96.19
274.713	78.19
274.945	70.19
275.176	83.19
275.408	88.19
275.64	79.19
275.872	99.19
276.104	77.19
276.335	87.19
276.567	86.19
276.799	83.19
277.031	67.19
277.262	84.19
277.494	89.19
277.726	90.19
277.957	82.19
278.189	84.19
278.421	76.19
278.652	87.19
278.884	88.19
279.115	88.19
279.347	86.19
279.579	81.19
279.81	93.19
280.042	78.19
280.273	95.19
280.505	90.19
280.736	63.19
280.968	84.19
281.199	80.19
281.431	82.19
281.662	73.19
281.894	78.19
282.125	90.19
282.356	74.19
282.588	100.19
282.819	87.19
283.051	86.19
283.282	73.19
283.513	86.19
283.745	84.19
283.976	81.19
284.207	95.19
284.439	83.19
284.67	92.19
284.901	103.19
285.132	96.19
285.364	93.19
285.595	90.19
285.826	74.19
286.057	100.19
286.288	85.19
286.52	96.19
286.751	84.19
286.982	86.19
287.213	87.19
287.444	87.19
287.675	81.19
287.906	80.19
288.138	88.19
288.369	97.19
288.6	88.19
288.831	85.19
289.062	80.19
289.293	89.19
289.524	85.19
289.755	80.19
289.986	66.19
290.217	84.19
290.448	92.19
290.679	78.19
290.91	90.19
291.141	92.19
291.371	97.19
291.602	82.19
291.833	73.19
292.064	88.19
292.295	73.19
292.526	77.19
292.757	88.19
292.987	84.19
293.218	80.19
293.449	84.19
293.68	95.19
293.91	91.19
294.141	80.19
294.372	74.19
294.603	84.19
294.833	84.19
295.064	77.19
295.295	80.19
295.525	80.19
295.756	96.19
295.987	92.19
296.217	82.19
296.448	102.19
296.679	88.19
296.909	82.19
297.14	87.19
297.37	102.19
297.601	91.19
297.831	81.19
298.062	92.19
298.292	86.19
298.523	86.19
298.753	84.19
298.984	97.19
299.214	92.19
299.445	90.19
299.675	89.19
299.905	99.19
300.136	95.19
300.366	103.19
300.597	84.19
300.827	99.19
301.057	96.19
301.288	102.19
301.518	88.19
301.748	92.19
301.979	94.19
302.209	108.19
302.439	104.19
302.669	103.19
302.9	83.19
303.13	90.19
303.36	82.19
303.59	81.19
303.82	89.19
304.051	95.19
304.281	92.19
304.511	87.19
304.741	96.19
304.971	98.19
305.201	74.19
305.431	91.19
305.661	92.19
305.891	89.19
306.121	74.19
306.352	83.19
306.582	90.19
306.812	86.19
307.042	81.19
307.272	92.19
307.502	85.19
307.731	100.19
307.961	99.19
308.191	100.19
308.421	110.19
308.651	93.19
308.881	90.19
309.111	114.19
309.341	109.19
309.571	112.19
309.8	88.19
310.03	77.19
310.26	96.19
310.49	90.19
310.72	92.19
310.949	100.19
311.179	76.19
311.409	95.19
311.639	74.19
311.868	78.19
312.098	90.19
312.328	84.19
312.557	104.19
312.787	89.19
313.017	89.19
313.246	80.19
313.476	97.19
313.706	92.19
313.935	88.19
314.165	81.19
314.394	82.19
314.624	100.19
314.853	90.19
315.083	83.19
315.312	92.19
315.542	91.19
315.771	109.19
316.001	106.19
316.23	92.19
316.46	90.19
316.689	97.19
316.919	89.19
317.148	88.19
317.377	95.19
317.607	101.19
317.836	102.19
318.065	133.19
318.295	127.19
318.524	100.19
318.753	94.19
318.983	89.19
319.212	84.19
319.441	79.19
319.67	92.19
319.9	110.19
320.129	93.19
320.358	93.19
320.587	89.19
320.816	98.19
321.046	100.19
321.275	97.19
321.504	84.19
321.733	96.19
321.962	97.19
322.191	87.19
322.42	100.19
322.649	103.19
322.878	98.19
323.108	109.19
323.337	101.19
323.566	87.19
323.795	83.19
324.024	107.19
324.253	92.19
324.482	102.19
324.71	109.19
324.939	92.19
325.168	92.19
325.397	93.19
325.626	78.19
325.855	100.19
326.084	80.19
326.313	91.19
326.542	91.19
326.77	84.19
326.999	86.19
327.228	95.19
327.457	91.19
327.686	96.19
327.914	91.19
328.143	96.19
328.372	90.19
328.6	98.19
328.829	93.19
329.058	88.19
329.287	99.19
329.515	82.19
329.744	92.19
329.972	91.19
330.201	86.19
330.43	96.19
330.658	96.19
330.887	69.19
331.115	87.19
331.344	87.19
331.572	101.19
331.801	78.19
332.03	86.19
332.258	95.19
332.486	97.19
332.715	85.19
332.943	90.19
333.172	92.19
333.4	80.19
333.629	105.19
333.857	86.19
334.085	93.19
334.314	89.19
334.542	115.19
334.771	98.19
334.999	117.19
335.227	130.19
335.455	105.19
335.684	122.19
335.912	116.19
336.14	120.19
336.369	122.19
336.597	105.19
336.825	86.19
337.053	96.19
337.281	117.19
337.51	103.19
337.738	94.19
337.966	68.19
338.194	94.19
338.422	108.19
338.65	89.19
338.878	80.19
339.106	84.19
339.334	86.19
339.562	82.19
339.79	96.19
340.018	91.19
340.246	108.19
340.474	89.19
340.702	92.19
340.93	81.19
341.158	90.19
341.386	99.19
341.614	102.19
341.842	86.19
342.07	102.19
342.298	88.19
342.526	84.19
342.754	95.19
342.981	78.19
343.209	97.19
343.437	87.19
343.665	88.19
343.893	95.19
344.12	96.19
344.348	109.19
344.576	80.19
344.804	91.19
345.031	88.19
345.259	94.19
345.487	91.19
345.714	81.19
345.942	85.19
346.17	84.19
346.397	93.19
346.625	89.19
346.853	80.19
347.08	95.19
347.308	96.19
347.535	105.19
347.763	99.19
347.99	96.19
348.218	92.19
348.445	86.19
348.673	96.19
348.9	108.19
349.128	110.19
349.355	102.19
349.583	94.19
349.81	101.19
350.037	106.19
350.265	93.19
350.492	80.19
350.72	92.19
350.947	89.19
351.174	86.19
351.402	84.19
351.629	94.19
351.856	93.19
352.083	102.19
352.311	97.19
352.538	94.19
352.765	89.19
352.992	108.19
353.22	101.19
353.447	95.19
353.674	104.19
353.901	102.19
354.128	90.19
354.355	94.19
354.583	99.19
354.81	82.19
355.037	90.19
355.264	85.19
355.491	85.19
355.718	89.19
355.945	103.19
356.172	98.19
356.399	105.19
356.626	125.19
356.853	101.19
357.08	101.19
357.307	106.19
357.534	92.19
357.761	112.19
357.988	121.19
358.215	110.19
358.441	116.19
358.668	98.19
358.895	92.19
359.122	99.19
359.349	104.19
359.576	93.19
359.802	86.19
360.029	96.19
360.256	92.19
360.483	96.19
360.709	81.19
360.936	100.19
361.163	88.19
361.39	103.19
361.616	108.19
361.843	108.19
362.07	114.19
362.296	120.19
362.523	148.19
362.749	153.19
362.976	180.19
363.203	211.19
363.429	162.19
363.656	118.19
363.882	138.19
364.109	147.19
364.335	218.19
364.562	228.19
364.788	170.19
365.015	102.19
365.241	96.19
365.468	108.19
365.694	98.19
365.92	98.19
366.147	102.19
366.373	88.19
366.599	93.19
366.826	106.19
367.052	85.19
367.278	88.19
367.505	100.19
367.731	112.19
367.957	102.19
368.184	120.19
368.41	90.19
368.636	93.19
368.862	90.19
369.089	66.19
369.315	79.19
369.541	111.19
369.767	85.19
369.993	105.19
370.219	104.19
370.445	101.19
370.672	129.19
370.898	110.19
371.124	108.19
371.35	105.19
371.576	96.19
371.802	98.19
372.028	127.19
372.254	94.19
372.48	115.19
372.706	110.19
372.932	102.19
373.158	99.19
373.384	134.19
373.61	178.19
373.835	158.19
374.061	142.19
374.287	134.19
374.513	135.19
374.739	135.19
374.965	130.19
375.191	134.19
375.416	114.19
375.642	116.19
375.868	126.19
376.094	107.19
376.319	110.19
376.545	125.19
376.771	109.19
376.997	98.19
377.222	90.19
377.448	89.19
377.674	94.19
377.899	99.19
378.125	89.19
378.35	108.19
378.576	88.19
378.802	101.19
379.027	112.19
379.253	102.19
379.478	119.19
379.704	88.19
379.929	95.19
380.155	114.19
380.38	94.19
380.606	104.19
380.831	114.19
381.057	112.19
381.282	124.19
381.507	110.19
381.733	116.19
381.958	110.19
382.184	126.19
382.409	131.19
382.634	119.19
382.86	129.19
383.085	133.19
383.31	122.19
383.535	131.19
383.761	130.19
383.986	148.19
384.211	114.19
384.436	114.19
384.662	111.19
384.887	109.19
385.112	106.19
385.337	125.19
385.562	136.19
385.787	123.19
386.013	149.19
386.238	142.19
386.463	112.19
386.688	124.19
386.913	135.19
387.138	127.19
387.363	138.19
387.588	117.19
387.813	136.19
388.038	126.19
388.263	129.19
388.488	122.19
388.713	119.19
388.938	106.19
389.163	116.19
389.387	112.19
389.612	104.19
389.837	109.19
390.062	116.19
390.287	112.19
390.512	101.19
390.736	104.19
390.961	102.19
391.186	109.19
391.411	86.19
391.636	112.19
391.86	113.19
392.085	122.19
392.31	138.19
392.534	160.19
392.759	208.19
392.984	338.19
393.208	622.19
393.433	929.19
393.658	690.19
393.882	277.19
394.107	166.19
394.331	184.19
394.556	198.19
394.78	153.19
395.005	130.19
395.229	127.19
395.454	138.19
395.678	154.19
395.903	180.19
396.127	238.19
396.352	290.19
396.576	346.19
396.801	594.19
397.025	706.19
397.249	365.19
397.474	212.19
397.698	150.19
397.922	123.19
398.147	110.19
398.371	104.19
398.595	116.19
398.82	105.19
399.044	102.19
399.268	115.19
399.492	108.19
399.717	105.19
399.941	104.19
400.165	103.19
400.389	92.19
400.613	104.19
400.837	117.19
401.062	90.19
401.286	100.19
401.51	85.19
401.734	92.19
401.958	97.19
402.182	101.19
402.406	94.19
402.63	111.19
402.854	98.19
403.078	111.19
403.302	96.19
403.526	100.19
403.75	93.19
403.974	110.19
404.198	113.19
404.422	116.19
404.645	120.19
404.869	117.19
405.093	101.19
405.317	104.19
405.541	96.19
405.765	101.19
405.988	96.19
406.212	98.19
406.436	93.19
406.66	106.19
406.883	109.19
407.107	114.19
407.331	111.19
407.555	126.19
407.778	168.19
408.002	165.19
408.226	104.19
408.449	101.19
408.673	97.19
408.896	95.19
409.12	97.19
409.344	110.19
409.567	133.19
409.791	144.19
410.014	141.19
410.238	129.19
410.461	117.19
410.685	89.19
410.908	104.19
411.132	120.19
411.355	99.19
411.578	97.19
411.802	85.19
412.025	79.19
412.249	93.19
412.472	94.19
412.695	104.19
412.919	97.19
413.142	95.19
413.365	95.19
413.589	105.19
413.812	103.19
414.035	92.19
414.258	89.19
414.482	95.19
414.705	95.19
414.928	109.19
415.151	83.19
415.374	119.19
415.597	100.19
415.821	102.19
416.044	88.19
416.267	98.19
416.49	87.19
416.713	93.19
416.936	97.19
417.159	95.19
417.382	106.19
417.605	100.19
417.828	102.19
418.051	96.19
418.274	104.19
418.497	106.19
418.72	114.19
418.943	98.19
419.166	111.19
419.389	105.19
419.611	112.19
419.834	100.19
420.057	104.19
420.28	96.19
420.503	110.19
420.726	114.19
420.948	121.19
421.171	128.19
421.394	156.19
421.617	206.19
421.839	210.19
422.062	233.19
422.285	357.19
422.507	645.19
422.73	981.19
422.953	911.19
423.175	454.19
423.398	257.19
423.621	178.19
423.843	156.19
424.066	151.19
424.288	139.19
424.511	99.19
424.733	108.19
424.956	119.19
425.178	131.19
425.401	115.19
425.623	102.19
425.846	108.19
426.068	95.19
426.291	114.19
426.513	96.19
426.735	100.19
426.958	99.19
427.18	102.19
427.402	142.19
427.625	121.19
427.847	113.19
428.069	139.19
428.292	202.19
428.514	238.19
428.736	167.19
428.958	227.19
429.181	212.19
429.403	119.19
429.625	122.19
429.847	192.19
430.069	291.19
430.292	351.19
430.514	332.19
430.736	246.19
430.958	249.19
431.18	158.19
431.402	120.19
431.624	124.19
431.846	203.19
432.068	229.19
432.29	122.19
432.512	111.19
432.734	112.19
432.956	98.19
433.178	106.19
433.4	103.19
433.622	114.19
433.844	104.19
434.066	94.19
434.287	95.19
434.509	104.19
434.731	99.19
434.953	69.19
435.175	93.19
435.397	125.19
435.618	122.19
435.84	131.19
436.062	106.19
436.284	96.19
436.505	90.19
436.727	89.19
436.949	85.19
437.17	97.19
437.392	92.19
437.614	105.19
437.835	92.19
438.057	82.19
438.278	105.19
438.5	127.19
438.721	108.19
438.943	91.19
439.165	96.19
439.386	105.19
439.608	86.19
439.829	90.19
440.05	93.19
440.272	97.19
440.493	103.19
440.715	113.19
440.936	93.19
441.158	108.19
441.379	99.19
441.6	112.19
441.822	90.19
442.043	121.19
442.264	136.19
442.486	221.19
442.707	315.19
442.928	197.19
443.149	174.19
443.371	278.19
443.592	543.19
443.813	448.19
444.034	188.19
444.255	124.19
444.476	108.19
444.698	121.19
444.919	134.19
445.14	221.19
445.361	357.19
445.582	662.19
445.803	547.19
446.024	212.19
446.245	119.19
446.466	79.19
446.687	87.19
446.908	89.19
447.129	96.19
447.35	94.19
447.571	91.19
447.792	92.19
448.013	96.19
448.234	82.19
448.455	94.19
448.675	101.19
448.896	86.19
449.117	88.19
449.338	95.19
449.559	96.19
449.779	91.19
450	90.19
450.221	100.19
450.442	79.19
450.662	82.19
450.883	100.19
451.104	92.19
451.324	98.19
451.545	95.19
451.766	95.19
451.986	99.19
452.207	83.19
452.428	117.19
452.648	114.19
452.869	146.19
453.089	117.19
453.31	119.19
453.53	110.19
453.751	105.19
453.971	93.19
454.192	97.19
454.412	93.19
454.633	96.19
454.853	94.19
455.073	98.19
455.294	104.19
455.514	99.19
455.734	97.19
455.955	101.19
456.175	97.19
456.395	95.19
456.616	102.19
456.836	96.19
457.056	90.19
457.276	93.19
457.497	92.19
457.717	126.19
457.937	153.19
458.157	213.19
458.377	217.19
458.598	204.19
458.818	235.19
459.038	138.19
459.258	102.19
459.478	100.19
459.698	103.19
459.918	95.19
460.138	88.19
460.358	88.19
460.578	119.19
460.798	170.19
461.018	173.19
461.238	105.19
461.458	88.19
461.678	91.19
461.898	92.19
462.118	90.19
462.338	84.19
462.558	88.19
462.777	85.19
462.997	89.19
463.217	82.19
463.437	100.19
463.657	90.19
463.876	87.19
464.096	89.19
464.316	80.19
464.536	97.19
464.755	88.19
464.975	83.19
465.195	98.19
465.414	90.19
465.634	83.19
465.854	94.19
466.073	97.19
466.293	88.19
466.512	82.19
466.732	95.19
466.951	98.19
467.171	92.19
467.391	98.19
467.61	94.19
467.829	94.19
468.049	82.19
468.268	88.19
468.488	102.19
468.707	80.19
468.927	111.19
469.146	95.19
469.365	99.19
469.585	91.19
469.804	89.19
470.023	86.19
470.243	99.19
470.462	88.19
470.681	87.19
470.901	97.19
471.12	90.19
471.339	94.19
471.558	95.19
471.777	74.19
471.997	80.19
472.216	82.19
472.435	97.19
472.654	92.19
472.873	92.19
473.092	95.19
473.311	89.19
473.53	86.19
473.749	107.19
473.968	105.19
474.187	102.19
474.406	100.19
474.625	100.19
474.844	89.19
475.063	95.19
475.282	95.19
475.501	102.19
475.72	102.19
475.939	85.19
476.158	98.19
476.377	100.19
476.596	89.19
476.814	97.19
477.033	94.19
477.252	103.19
477.471	99.19
477.69	93.19
477.908	89.19
478.127	79.19
478.346	94.19
478.564	84.19
478.783	87.19
479.002	108.19
479.22	88.19
479.439	86.19
479.658	96.19
479.876	102.19
480.095	89.19
480.313	95.19
480.532	95.19
480.751	93.19
480.969	105.19
481.188	86.19
481.406	98.19
481.624	107.19
481.843	116.19
482.061	103.19
482.28	105.19
482.498	95.19
482.717	114.19
482.935	95.19
483.153	109.19
483.372	114.19
483.59	112.19
483.808	95.19
484.027	108.19
484.245	103.19
484.463	92.19
484.681	116.19
484.9	110.19
485.118	100.19
485.336	98.19
485.554	88.19
485.772	103.19
485.99	103.19
486.209	103.19
486.427	113.19
486.645	108.19
486.863	119.19
487.081	104.19
487.299	105.19
487.517	120.19
487.735	177.19
487.953	361.19
488.171	264.19
488.389	144.19
488.607	124.19
488.825	104.19
489.043	108.19
489.261	105.19
489.479	109.19
489.696	74.19
489.914	89.19
490.132	102.19
490.35	95.19
490.568	94.19
490.786	87.19
491.003	95.19
491.221	92.19
491.439	103.19
491.657	89.19
491.874	97.19
492.092	95.19
492.31	116.19
492.527	100.19
492.745	91.19
492.963	97.19
493.18	119.19
493.398	118.19
493.615	129.19
493.833	103.19
494.05	101.19
494.268	96.19
494.485	90.19
494.703	102.19
494.92	97.19
495.138	101.19
495.355	108.19
495.573	89.19
495.79	103.19
496.008	116.19
496.225	98.19
496.442	114.19
496.66	112.19
496.877	101.19
497.094	90.19
497.312	97.19
497.529	104.19
497.746	106.19
497.963	97.19
498.181	102.19
498.398	142.19
498.615	98.19
498.832	89.19
499.049	112.19
499.267	132.19
499.484	116.19
499.701	125.19
499.918	93.19
500.135	118.19
500.352	116.19
500.569	106.19
500.786	118.19
501.003	115.19
501.22	96.19
501.437	110.19
501.654	133.19
501.871	99.19
502.088	104.19
502.305	102.19
502.522	98.19
502.739	99.19
502.956	115.19
503.172	108.19
503.389	105.19
503.606	110.19
503.823	138.19
504.04	154.19
504.256	258.19
504.473	250.19
504.69	136.19
504.907	101.19
505.123	85.19
505.34	98.19
505.557	98.19
505.773	97.19
505.99	99.19
506.207	100.19
506.423	90.19
506.64	102.19
506.856	93.19
507.073	86.19
507.289	86.19
507.506	106.19
507.722	89.19
507.939	99.19
508.155	112.19
508.372	98.19
508.588	100.19
508.805	110.19
509.021	104.19
509.238	109.19
509.454	104.19
509.67	95.19
509.887	99.19
510.103	91.19
510.319	95.19
510.536	98.19
510.752	107.19
510.968	98.19
511.184	97.19
511.401	108.19
511.617	100.19
511.833	98.19
512.049	97.19
512.265	110.19
512.481	93.19
512.698	102.19
512.914	99.19
513.13	99.19
