Data from 10100_3_HRD10591_00038.txt Node
Date: Mon Jan 19 14:02:41 EST 2026
User: Yrep
Spectrometer: HR+D1059
Trigger mode: 1
Integration Time (sec): 1.000000E-1
Scans to average: 1
Electric dark correction enabled: true
Nonlinearity correction enabled: false
Boxcar width: 0
XAxis mode: Wavelengths
Number of Pixels in Spectrum: 2048
>>>>>Begin Spectral Data<<<<<
223.165	-15.31
223.4	-15.31
223.635	-15.31
223.869	-32.31
224.104	-22.31
224.338	-8.31
224.573	-15.31
224.808	-16.31
225.042	-4.31
225.277	-8.31
225.511	4.69
225.746	8.69
225.98	-3.31
226.215	4.69
226.449	27.69
226.683	16.69
226.918	26.69
227.152	36.69
227.387	30.69
227.621	16.69
227.856	51.69
228.09	42.69
228.324	49.69
228.559	57.69
228.793	52.69
229.027	50.69
229.262	54.69
229.496	59.69
229.73	68.69
229.964	88.69
230.199	75.69
230.433	64.69
230.667	72.69
230.901	83.69
231.136	102.69
231.37	87.69
231.604	87.69
231.838	70.69
232.072	84.69
232.306	87.69
232.541	80.69
232.775	91.69
233.009	74.69
233.243	72.69
233.477	76.69
233.711	83.69
233.945	69.69
234.179	81.69
234.413	81.69
234.647	80.69
234.881	81.69
235.115	77.69
235.349	86.69
235.583	87.69
235.817	86.69
236.051	73.69
236.285	60.69
236.519	73.69
236.753	65.69
236.987	71.69
237.221	85.69
237.455	59.69
237.689	73.69
237.922	73.69
238.156	66.69
238.39	72.69
238.624	66.69
238.858	74.69
239.091	74.69
239.325	71.69
239.559	74.69
239.793	76.69
240.027	79.69
240.26	90.69
240.494	84.69
240.728	75.69
240.961	70.69
241.195	83.69
241.429	72.69
241.662	70.69
241.896	68.69
242.13	74.69
242.363	77.69
242.597	67.69
242.83	90.69
243.064	86.69
243.298	86.69
243.531	82.69
243.765	74.69
243.998	87.69
244.232	77.69
244.465	81.69
244.699	71.69
244.932	77.69
245.166	78.69
245.399	86.69
245.633	74.69
245.866	85.69
246.099	86.69
246.333	86.69
246.566	83.69
246.8	79.69
247.033	73.69
247.266	87.69
247.5	82.69
247.733	86.69
247.966	86.69
248.2	96.69
248.433	83.69
248.666	75.69
248.899	81.69
249.133	72.69
249.366	84.69
249.599	80.69
249.832	63.69
250.066	78.69
250.299	71.69
250.532	80.69
250.765	78.69
250.998	74.69
251.231	66.69
251.465	87.69
251.698	82.69
251.931	66.69
252.164	66.69
252.397	68.69
252.63	101.69
252.863	77.69
253.096	78.69
253.329	76.69
253.562	86.69
253.795	65.69
254.028	79.69
254.261	94.69
254.494	74.69
254.727	77.69
254.96	80.69
255.193	79.69
255.426	71.69
255.659	76.69
255.892	84.69
256.124	68.69
256.357	84.69
256.59	76.69
256.823	60.69
257.056	65.69
257.289	76.69
257.521	70.69
257.754	72.69
257.987	75.69
258.22	83.69
258.452	85.69
258.685	81.69
258.918	86.69
259.151	79.69
259.383	75.69
259.616	81.69
259.849	72.69
260.081	87.69
260.314	76.69
260.547	88.69
260.779	76.69
261.012	79.69
261.244	82.69
261.477	80.69
261.71	71.69
261.942	78.69
262.175	81.69
262.407	75.69
262.64	88.69
262.872	70.69
263.105	90.69
263.337	102.69
263.57	81.69
263.802	84.69
264.035	92.69
264.267	69.69
264.499	82.69
264.732	80.69
264.964	82.69
265.197	78.69
265.429	92.69
265.661	82.69
265.894	88.69
266.126	70.69
266.358	94.69
266.591	76.69
266.823	71.69
267.055	75.69
267.287	69.69
267.52	82.69
267.752	94.69
267.984	85.69
268.216	85.69
268.448	81.69
268.681	90.69
268.913	90.69
269.145	96.69
269.377	71.69
269.609	91.69
269.841	95.69
270.073	68.69
270.306	83.69
270.538	79.69
270.77	94.69
271.002	84.69
271.234	73.69
271.466	81.69
271.698	92.69
271.93	70.69
272.162	82.69
272.394	96.69
272.626	76.69
272.858	82.69
273.09	76.69
273.322	74.69
273.553	89.69
273.785	85.69
274.017	64.69
274.249	90.69
274.481	86.69
274.713	70.69
274.945	92.69
275.176	74.69
275.408	90.69
275.64	86.69
275.872	70.69
276.104	86.69
276.335	85.69
276.567	101.69
276.799	95.69
277.031	86.69
277.262	91.69
277.494	93.69
277.726	89.69
277.957	86.69
278.189	88.69
278.421	102.69
278.652	90.69
278.884	74.69
279.115	92.69
279.347	99.69
279.579	80.69
279.81	75.69
280.042	96.69
280.273	90.69
280.505	93.69
280.736	80.69
280.968	84.69
281.199	83.69
281.431	90.69
281.662	79.69
281.894	91.69
282.125	79.69
282.356	90.69
282.588	82.69
282.819	87.69
283.051	81.69
283.282	85.69
283.513	74.69
283.745	74.69
283.976	93.69
284.207	94.69
284.439	83.69
284.67	83.69
284.901	82.69
285.132	76.69
285.364	86.69
285.595	79.69
285.826	77.69
286.057	85.69
286.288	81.69
286.52	82.69
286.751	96.69
286.982	78.69
287.213	75.69
287.444	79.69
287.675	85.69
287.906	92.69
288.138	79.69
288.369	97.69
288.6	98.69
288.831	75.69
289.062	90.69
289.293	79.69
289.524	103.69
289.755	91.69
289.986	97.69
290.217	104.69
290.448	83.69
290.679	86.69
290.91	84.69
291.141	91.69
291.371	90.69
291.602	79.69
291.833	87.69
292.064	84.69
292.295	80.69
292.526	78.69
292.757	86.69
292.987	96.69
293.218	77.69
293.449	77.69
293.68	86.69
293.91	88.69
294.141	85.69
294.372	79.69
294.603	82.69
294.833	106.69
295.064	96.69
295.295	85.69
295.525	84.69
295.756	79.69
295.987	75.69
296.217	80.69
296.448	71.69
296.679	81.69
296.909	87.69
297.14	80.69
297.37	69.69
297.601	80.69
297.831	97.69
298.062	86.69
298.292	94.69
298.523	98.69
298.753	75.69
298.984	104.69
299.214	97.69
299.445	89.69
299.675	105.69
299.905	86.69
300.136	75.69
300.366	80.69
300.597	90.69
300.827	89.69
301.057	102.69
301.288	77.69
301.518	94.69
301.748	76.69
301.979	94.69
302.209	76.69
302.439	82.69
302.669	90.69
302.9	84.69
303.13	76.69
303.36	92.69
303.59	82.69
303.82	93.69
304.051	86.69
304.281	84.69
304.511	93.69
304.741	86.69
304.971	83.69
305.201	94.69
305.431	89.69
305.661	74.69
305.891	86.69
306.121	98.69
306.352	75.69
306.582	113.69
306.812	78.69
307.042	90.69
307.272	93.69
307.502	90.69
307.731	83.69
307.961	81.69
308.191	96.69
308.421	94.69
308.651	103.69
308.881	86.69
309.111	79.69
309.341	84.69
309.571	71.69
309.8	81.69
310.03	88.69
310.26	93.69
310.49	73.69
310.72	87.69
310.949	85.69
311.179	79.69
311.409	90.69
311.639	78.69
311.868	91.69
312.098	79.69
312.328	75.69
312.557	78.69
312.787	80.69
313.017	77.69
313.246	80.69
313.476	93.69
313.706	96.69
313.935	92.69
314.165	80.69
314.394	87.69
314.624	81.69
314.853	88.69
315.083	88.69
315.312	84.69
315.542	88.69
315.771	82.69
316.001	97.69
316.23	95.69
316.46	89.69
316.689	88.69
316.919	89.69
317.148	87.69
317.377	86.69
317.607	89.69
317.836	104.69
318.065	86.69
318.295	90.69
318.524	97.69
318.753	88.69
318.983	95.69
319.212	97.69
319.441	90.69
319.67	85.69
319.9	84.69
320.129	80.69
320.358	94.69
320.587	106.69
320.816	92.69
321.046	97.69
321.275	103.69
321.504	85.69
321.733	86.69
321.962	108.69
322.191	80.69
322.42	84.69
322.649	93.69
322.878	80.69
323.108	88.69
323.337	93.69
323.566	95.69
323.795	89.69
324.024	89.69
324.253	94.69
324.482	94.69
324.71	92.69
324.939	80.69
325.168	88.69
325.397	94.69
325.626	93.69
325.855	86.69
326.084	81.69
326.313	102.69
326.542	88.69
326.77	90.69
326.999	96.69
327.228	76.69
327.457	98.69
327.686	91.69
327.914	95.69
328.143	81.69
328.372	86.69
328.6	92.69
328.829	88.69
329.058	84.69
329.287	81.69
329.515	86.69
329.744	97.69
329.972	96.69
330.201	88.69
330.43	84.69
330.658	91.69
330.887	86.69
331.115	80.69
331.344	91.69
331.572	88.69
331.801	86.69
332.03	95.69
332.258	97.69
332.486	81.69
332.715	95.69
332.943	95.69
333.172	88.69
333.4	79.69
333.629	82.69
333.857	93.69
334.085	106.69
334.314	89.69
334.542	88.69
334.771	90.69
334.999	80.69
335.227	88.69
335.455	98.69
335.684	100.69
335.912	81.69
336.14	85.69
336.369	89.69
336.597	80.69
336.825	84.69
337.053	86.69
337.281	105.69
337.51	87.69
337.738	79.69
337.966	96.69
338.194	80.69
338.422	82.69
338.65	90.69
338.878	91.69
339.106	92.69
339.334	85.69
339.562	104.69
339.79	87.69
340.018	82.69
340.246	88.69
340.474	86.69
340.702	91.69
340.93	96.69
341.158	96.69
341.386	88.69
341.614	96.69
341.842	76.69
342.07	76.69
342.298	97.69
342.526	83.69
342.754	91.69
342.981	98.69
343.209	78.69
343.437	101.69
343.665	90.69
343.893	82.69
344.12	80.69
344.348	105.69
344.576	85.69
344.804	81.69
345.031	84.69
345.259	98.69
345.487	88.69
345.714	81.69
345.942	80.69
346.17	94.69
346.397	87.69
346.625	75.69
346.853	95.69
347.08	96.69
347.308	86.69
347.535	93.69
347.763	104.69
347.99	94.69
348.218	97.69
348.445	82.69
348.673	92.69
348.9	105.69
349.128	82.69
349.355	82.69
349.583	76.69
349.81	85.69
350.037	77.69
350.265	86.69
350.492	87.69
350.72	89.69
350.947	82.69
351.174	76.69
351.402	84.69
351.629	84.69
351.856	83.69
352.083	83.69
352.311	84.69
352.538	79.69
352.765	96.69
352.992	90.69
353.22	92.69
353.447	80.69
353.674	79.69
353.901	87.69
354.128	75.69
354.355	75.69
354.583	85.69
354.81	71.69
355.037	82.69
355.264	82.69
355.491	82.69
355.718	84.69
355.945	84.69
356.172	90.69
356.399	79.69
356.626	82.69
356.853	78.69
357.08	90.69
357.307	86.69
357.534	91.69
357.761	98.69
357.988	87.69
358.215	85.69
358.441	81.69
358.668	85.69
358.895	95.69
359.122	89.69
359.349	87.69
359.576	94.69
359.802	79.69
360.029	89.69
360.256	80.69
360.483	75.69
360.709	83.69
360.936	95.69
361.163	95.69
361.39	87.69
361.616	83.69
361.843	88.69
362.07	77.69
362.296	76.69
362.523	91.69
362.749	84.69
362.976	98.69
363.203	84.69
363.429	91.69
363.656	107.69
363.882	91.69
364.109	104.69
364.335	99.69
364.562	104.69
364.788	105.69
365.015	84.69
365.241	81.69
365.468	91.69
365.694	88.69
365.92	92.69
366.147	74.69
366.373	71.69
366.599	87.69
366.826	87.69
367.052	77.69
367.278	82.69
367.505	80.69
367.731	99.69
367.957	90.69
368.184	87.69
368.41	89.69
368.636	94.69
368.862	75.69
369.089	86.69
369.315	97.69
369.541	100.69
369.767	94.69
369.993	102.69
370.219	82.69
370.445	80.69
370.672	94.69
370.898	94.69
371.124	85.69
371.35	77.69
371.576	100.69
371.802	91.69
372.028	72.69
372.254	91.69
372.48	83.69
372.706	77.69
372.932	71.69
373.158	91.69
373.384	89.69
373.61	91.69
373.835	95.69
374.061	92.69
374.287	83.69
374.513	94.69
374.739	83.69
374.965	94.69
375.191	94.69
375.416	87.69
375.642	89.69
375.868	94.69
376.094	96.69
376.319	87.69
376.545	102.69
376.771	89.69
376.997	83.69
377.222	83.69
377.448	94.69
377.674	81.69
377.899	89.69
378.125	91.69
378.35	93.69
378.576	95.69
378.802	92.69
379.027	84.69
379.253	86.69
379.478	91.69
379.704	93.69
379.929	61.69
380.155	79.69
380.38	82.69
380.606	90.69
380.831	84.69
381.057	88.69
381.282	97.69
381.507	94.69
381.733	73.69
381.958	95.69
382.184	98.69
382.409	87.69
382.634	83.69
382.86	79.69
383.085	86.69
383.31	90.69
383.535	72.69
383.761	92.69
383.986	86.69
384.211	84.69
384.436	92.69
384.662	88.69
384.887	84.69
385.112	83.69
385.337	71.69
385.562	92.69
385.787	102.69
386.013	87.69
386.238	87.69
386.463	97.69
386.688	95.69
386.913	80.69
387.138	84.69
387.363	87.69
387.588	82.69
387.813	80.69
388.038	68.69
388.263	84.69
388.488	104.69
388.713	96.69
388.938	89.69
389.163	82.69
389.387	78.69
389.612	89.69
389.837	91.69
390.062	91.69
390.287	99.69
390.512	84.69
390.736	84.69
390.961	80.69
391.186	81.69
391.411	84.69
391.636	96.69
391.86	84.69
392.085	89.69
392.31	106.69
392.534	91.69
392.759	111.69
392.984	129.69
393.208	120.69
393.433	154.69
393.658	137.69
393.882	96.69
394.107	83.69
394.331	82.69
394.556	89.69
394.78	82.69
395.005	84.69
395.229	89.69
395.454	91.69
395.678	83.69
395.903	93.69
396.127	99.69
396.352	98.69
396.576	110.69
396.801	132.69
397.025	123.69
397.249	103.69
397.474	90.69
397.698	98.69
397.922	86.69
398.147	97.69
398.371	95.69
398.595	86.69
398.82	75.69
399.044	84.69
399.268	83.69
399.492	88.69
399.717	89.69
399.941	84.69
400.165	94.69
400.389	73.69
400.613	80.69
400.837	78.69
401.062	79.69
401.286	70.69
401.51	76.69
401.734	76.69
401.958	82.69
402.182	89.69
402.406	88.69
402.63	81.69
402.854	85.69
403.078	76.69
403.302	88.69
403.526	97.69
403.75	84.69
403.974	86.69
404.198	91.69
404.422	105.69
404.645	81.69
404.869	88.69
405.093	77.69
405.317	80.69
405.541	86.69
405.765	74.69
405.988	82.69
406.212	86.69
406.436	68.69
406.66	98.69
406.883	96.69
407.107	88.69
407.331	79.69
407.555	82.69
407.778	87.69
408.002	94.69
408.226	72.69
408.449	74.69
408.673	78.69
408.896	77.69
409.12	68.69
409.344	92.69
409.567	99.69
409.791	92.69
410.014	81.69
410.238	93.69
410.461	87.69
410.685	77.69
410.908	90.69
411.132	88.69
411.355	88.69
411.578	93.69
411.802	56.69
412.025	72.69
412.249	60.69
412.472	82.69
412.695	84.69
412.919	84.69
413.142	90.69
413.365	84.69
413.589	84.69
413.812	84.69
414.035	87.69
414.258	85.69
414.482	91.69
414.705	91.69
414.928	83.69
415.151	84.69
415.374	80.69
415.597	89.69
415.821	76.69
416.044	87.69
416.267	78.69
416.49	96.69
416.713	97.69
416.936	86.69
417.159	84.69
417.382	82.69
417.605	80.69
417.828	96.69
418.051	88.69
418.274	87.69
418.497	68.69
418.72	78.69
418.943	80.69
419.166	83.69
419.389	81.69
419.611	86.69
419.834	86.69
420.057	82.69
420.28	82.69
420.503	79.69
420.726	78.69
420.948	84.69
421.171	84.69
421.394	89.69
421.617	94.69
421.839	96.69
422.062	105.69
422.285	106.69
422.507	143.69
422.73	198.69
422.953	178.69
423.175	128.69
423.398	118.69
423.621	87.69
423.843	94.69
424.066	86.69
424.288	80.69
424.511	82.69
424.733	79.69
424.956	97.69
425.178	76.69
425.401	89.69
425.623	87.69
425.846	74.69
426.068	77.69
426.291	83.69
426.513	79.69
426.735	83.69
426.958	85.69
427.18	97.69
427.402	78.69
427.625	88.69
427.847	82.69
428.069	84.69
428.292	100.69
428.514	89.69
428.736	94.69
428.958	87.69
429.181	98.69
429.403	74.69
429.625	86.69
429.847	101.69
430.069	99.69
430.292	115.69
430.514	94.69
430.736	77.69
430.958	98.69
431.18	77.69
431.402	82.69
431.624	90.69
431.846	99.69
432.068	90.69
432.29	85.69
432.512	87.69
432.734	88.69
432.956	95.69
433.178	74.69
433.4	89.69
433.622	91.69
433.844	86.69
434.066	70.69
434.287	71.69
434.509	83.69
434.731	80.69
434.953	69.69
435.175	89.69
435.397	91.69
435.618	74.69
435.84	79.69
436.062	90.69
436.284	87.69
436.505	82.69
436.727	78.69
436.949	82.69
437.17	77.69
437.392	78.69
437.614	84.69
437.835	89.69
438.057	86.69
438.278	88.69
438.5	99.69
438.721	84.69
438.943	82.69
439.165	71.69
439.386	81.69
439.608	89.69
439.829	80.69
440.05	80.69
440.272	74.69
440.493	81.69
440.715	91.69
440.936	81.69
441.158	84.69
441.379	88.69
441.6	83.69
441.822	87.69
442.043	86.69
442.264	85.69
442.486	97.69
442.707	104.69
442.928	90.69
443.149	88.69
443.371	101.69
443.592	138.69
443.813	130.69
444.034	83.69
444.255	87.69
444.476	75.69
444.698	98.69
444.919	90.69
445.14	165.69
445.361	132.69
445.582	155.69
445.803	136.69
446.024	100.69
446.245	73.69
446.466	76.69
446.687	73.69
446.908	82.69
447.129	80.69
447.35	72.69
447.571	88.69
447.792	84.69
448.013	61.69
448.234	65.69
448.455	86.69
448.675	76.69
448.896	78.69
449.117	82.69
449.338	71.69
449.559	96.69
449.779	83.69
450	80.69
450.221	76.69
450.442	74.69
450.662	72.69
450.883	71.69
451.104	84.69
451.324	86.69
451.545	79.69
451.766	84.69
451.986	97.69
452.207	85.69
452.428	83.69
452.648	85.69
452.869	88.69
453.089	97.69
453.31	85.69
453.53	70.69
453.751	86.69
453.971	78.69
454.192	69.69
454.412	88.69
454.633	81.69
454.853	73.69
455.073	82.69
455.294	79.69
455.514	91.69
455.734	86.69
455.955	90.69
456.175	80.69
456.395	82.69
456.616	81.69
456.836	68.69
457.056	92.69
457.276	94.69
457.497	86.69
457.717	95.69
457.937	95.69
458.157	92.69
458.377	82.69
458.598	78.69
458.818	86.69
459.038	86.69
459.258	83.69
459.478	74.69
459.698	92.69
459.918	82.69
460.138	85.69
460.358	78.69
460.578	86.69
460.798	93.69
461.018	92.69
461.238	84.69
461.458	87.69
461.678	83.69
461.898	75.69
462.118	85.69
462.338	74.69
462.558	75.69
462.777	67.69
462.997	70.69
463.217	87.69
463.437	72.69
463.657	74.69
463.876	76.69
464.096	79.69
464.316	82.69
464.536	91.69
464.755	80.69
464.975	82.69
465.195	82.69
465.414	75.69
465.634	93.69
465.854	94.69
466.073	65.69
466.293	84.69
466.512	75.69
466.732	90.69
466.951	80.69
467.171	85.69
467.391	80.69
467.61	83.69
467.829	69.69
468.049	75.69
468.268	79.69
468.488	75.69
468.707	83.69
468.927	78.69
469.146	83.69
469.365	76.69
469.585	84.69
469.804	90.69
470.023	87.69
470.243	76.69
470.462	91.69
470.681	71.69
470.901	75.69
471.12	77.69
471.339	82.69
471.558	88.69
471.777	90.69
471.997	75.69
472.216	89.69
472.435	81.69
472.654	75.69
472.873	86.69
473.092	85.69
473.311	92.69
473.53	90.69
473.749	75.69
473.968	85.69
474.187	81.69
474.406	77.69
474.625	99.69
474.844	93.69
475.063	83.69
475.282	82.69
475.501	82.69
475.72	95.69
475.939	76.69
476.158	74.69
476.377	88.69
476.596	90.69
476.814	71.69
477.033	76.69
477.252	90.69
477.471	83.69
477.69	79.69
477.908	85.69
478.127	77.69
478.346	91.69
478.564	80.69
478.783	63.69
479.002	85.69
479.22	90.69
479.439	75.69
479.658	85.69
479.876	71.69
480.095	77.69
480.313	77.69
480.532	76.69
480.751	92.69
480.969	78.69
481.188	83.69
481.406	87.69
481.624	68.69
481.843	87.69
482.061	82.69
482.28	80.69
482.498	82.69
482.717	86.69
482.935	80.69
483.153	72.69
483.372	83.69
483.59	94.69
483.808	70.69
484.027	94.69
484.245	68.69
484.463	96.69
484.681	88.69
484.9	89.69
485.118	81.69
485.336	81.69
485.554	72.69
485.772	80.69
485.99	90.69
486.209	94.69
486.427	83.69
486.645	92.69
486.863	98.69
487.081	83.69
487.299	86.69
487.517	83.69
487.735	96.69
487.953	113.69
488.171	100.69
488.389	82.69
488.607	107.69
488.825	82.69
489.043	70.69
489.261	86.69
489.479	78.69
489.696	86.69
489.914	78.69
490.132	76.69
490.35	94.69
490.568	77.69
490.786	79.69
491.003	95.69
491.221	85.69
491.439	80.69
491.657	88.69
491.874	77.69
492.092	96.69
492.31	80.69
492.527	78.69
492.745	79.69
492.963	72.69
493.18	72.69
493.398	78.69
493.615	100.69
493.833	72.69
494.05	83.69
494.268	85.69
494.485	75.69
494.703	73.69
494.92	98.69
495.138	80.69
495.355	87.69
495.573	89.69
495.79	89.69
496.008	68.69
496.225	84.69
496.442	82.69
496.66	81.69
496.877	103.69
497.094	93.69
497.312	89.69
497.529	91.69
497.746	93.69
497.963	82.69
498.181	77.69
498.398	87.69
498.615	98.69
498.832	85.69
499.049	88.69
499.267	85.69
499.484	76.69
499.701	78.69
499.918	81.69
500.135	81.69
500.352	81.69
500.569	67.69
500.786	91.69
501.003	88.69
501.22	82.69
501.437	88.69
501.654	87.69
501.871	72.69
502.088	69.69
502.305	75.69
502.522	87.69
502.739	86.69
502.956	81.69
503.172	86.69
503.389	85.69
503.606	90.69
503.823	87.69
504.04	81.69
504.256	111.69
504.473	92.69
504.69	67.69
504.907	94.69
505.123	76.69
505.34	79.69
505.557	90.69
505.773	78.69
505.99	71.69
506.207	74.69
506.423	79.69
506.64	90.69
506.856	88.69
507.073	87.69
507.289	87.69
507.506	79.69
507.722	92.69
507.939	83.69
508.155	83.69
508.372	71.69
508.588	78.69
508.805	78.69
509.021	83.69
509.238	88.69
509.454	74.69
509.67	80.69
509.887	70.69
510.103	79.69
510.319	71.69
510.536	83.69
510.752	99.69
510.968	86.69
511.184	82.69
511.401	70.69
511.617	80.69
511.833	74.69
512.049	82.69
512.265	94.69
512.481	74.69
512.698	84.69
512.914	85.69
513.13	90.69
513.346	71.69
513.562	79.69
513.778	84.69
513.994	87.69
514.21	78.69
514.426	86.69
514.642	82.69
514.858	77.69
515.074	76.69
515.29	78.69
515.506	90.69
515.721	70.69
515.937	94.69
516.153	84.69
516.369	83.69
516.585	82.69
516.801	83.69
517.016	88.69
517.232	76.69
517.448	90.69
517.664	90.69
517.879	75.69
518.095	68.69
518.311	72.69
518.527	86.69
518.742	90.69
518.958	96.69
519.173	116.69
