Data from 10100_3_HRD10591_00037.txt Node
Date: Mon Jan 19 14:02:41 EST 2026
User: Yrep
Spectrometer: HR+D1059
Trigger mode: 1
Integration Time (sec): 1.000000E-1
Scans to average: 1
Electric dark correction enabled: true
Nonlinearity correction enabled: false
Boxcar width: 0
XAxis mode: Wavelengths
Number of Pixels in Spectrum: 2048
>>>>>Begin Spectral Data<<<<<
223.165	-29.44
223.4	-29.44
223.635	-29.44
223.869	-21.44
224.104	-13.44
224.338	-25.44
224.573	-8.44
224.808	-12.44
225.042	-7.44
225.277	-13.44
225.511	9.56
225.746	6.56
225.98	19.56
226.215	9.56
226.449	21.56
226.683	10.56
226.918	21.56
227.152	32.56
227.387	29.56
227.621	29.56
227.856	38.56
228.09	43.56
228.324	56.56
228.559	54.56
228.793	38.56
229.027	56.56
229.262	57.56
229.496	79.56
229.73	62.56
229.964	73.56
230.199	78.56
230.433	74.56
230.667	76.56
230.901	97.56
231.136	73.56
231.37	81.56
231.604	73.56
231.838	76.56
232.072	86.56
232.306	72.56
232.541	77.56
232.775	72.56
233.009	85.56
233.243	68.56
233.477	88.56
233.711	89.56
233.945	81.56
234.179	74.56
234.413	83.56
234.647	81.56
234.881	83.56
235.115	78.56
235.349	80.56
235.583	67.56
235.817	81.56
236.051	62.56
236.285	76.56
236.519	72.56
236.753	85.56
236.987	83.56
237.221	64.56
237.455	69.56
237.689	63.56
237.922	65.56
238.156	81.56
238.39	68.56
238.624	88.56
238.858	69.56
239.091	75.56
239.325	71.56
239.559	75.56
239.793	74.56
240.027	89.56
240.26	83.56
240.494	79.56
240.728	57.56
240.961	79.56
241.195	74.56
241.429	76.56
241.662	73.56
241.896	60.56
242.13	73.56
242.363	79.56
242.597	67.56
242.83	54.56
243.064	69.56
243.298	91.56
243.531	67.56
243.765	74.56
243.998	82.56
244.232	82.56
244.465	84.56
244.699	75.56
244.932	84.56
245.166	76.56
245.399	75.56
245.633	79.56
245.866	78.56
246.099	88.56
246.333	83.56
246.566	75.56
246.8	80.56
247.033	68.56
247.266	76.56
247.5	87.56
247.733	73.56
247.966	71.56
248.2	86.56
248.433	84.56
248.666	76.56
248.899	84.56
249.133	69.56
249.366	73.56
249.599	78.56
249.832	76.56
250.066	68.56
250.299	77.56
250.532	80.56
250.765	72.56
250.998	78.56
251.231	84.56
251.465	65.56
251.698	87.56
251.931	75.56
252.164	90.56
252.397	78.56
252.63	75.56
252.863	84.56
253.096	85.56
253.329	79.56
253.562	73.56
253.795	80.56
254.028	63.56
254.261	82.56
254.494	73.56
254.727	75.56
254.96	75.56
255.193	68.56
255.426	73.56
255.659	72.56
255.892	70.56
256.124	74.56
256.357	79.56
256.59	75.56
256.823	75.56
257.056	91.56
257.289	72.56
257.521	82.56
257.754	70.56
257.987	81.56
258.22	73.56
258.452	80.56
258.685	85.56
258.918	86.56
259.151	70.56
259.383	71.56
259.616	73.56
259.849	61.56
260.081	78.56
260.314	84.56
260.547	80.56
260.779	82.56
261.012	81.56
261.244	69.56
261.477	84.56
261.71	85.56
261.942	81.56
262.175	71.56
262.407	77.56
262.64	86.56
262.872	87.56
263.105	69.56
263.337	93.56
263.57	102.56
263.802	79.56
264.035	89.56
264.267	79.56
264.499	89.56
264.732	76.56
264.964	87.56
265.197	68.56
265.429	101.56
265.661	70.56
265.894	89.56
266.126	79.56
266.358	82.56
266.591	72.56
266.823	83.56
267.055	76.56
267.287	74.56
267.52	84.56
267.752	89.56
267.984	73.56
268.216	89.56
268.448	98.56
268.681	85.56
268.913	86.56
269.145	84.56
269.377	81.56
269.609	74.56
269.841	82.56
270.073	75.56
270.306	81.56
270.538	74.56
270.77	55.56
271.002	88.56
271.234	88.56
271.466	74.56
271.698	84.56
271.93	90.56
272.162	91.56
272.394	75.56
272.626	80.56
272.858	57.56
273.09	85.56
273.322	96.56
273.553	77.56
273.785	95.56
274.017	79.56
274.249	79.56
274.481	79.56
274.713	72.56
274.945	73.56
275.176	89.56
275.408	89.56
275.64	79.56
275.872	89.56
276.104	90.56
276.335	84.56
276.567	84.56
276.799	87.56
277.031	78.56
277.262	64.56
277.494	91.56
277.726	88.56
277.957	74.56
278.189	90.56
278.421	74.56
278.652	78.56
278.884	79.56
279.115	66.56
279.347	81.56
279.579	73.56
279.81	86.56
280.042	89.56
280.273	82.56
280.505	75.56
280.736	76.56
280.968	80.56
281.199	81.56
281.431	79.56
281.662	96.56
281.894	76.56
282.125	83.56
282.356	94.56
282.588	95.56
282.819	87.56
283.051	82.56
283.282	84.56
283.513	89.56
283.745	88.56
283.976	74.56
284.207	85.56
284.439	85.56
284.67	72.56
284.901	77.56
285.132	91.56
285.364	82.56
285.595	89.56
285.826	82.56
286.057	81.56
286.288	90.56
286.52	99.56
286.751	67.56
286.982	88.56
287.213	87.56
287.444	83.56
287.675	86.56
287.906	81.56
288.138	74.56
288.369	72.56
288.6	90.56
288.831	80.56
289.062	82.56
289.293	82.56
289.524	87.56
289.755	83.56
289.986	83.56
290.217	88.56
290.448	79.56
290.679	88.56
290.91	92.56
291.141	87.56
291.371	88.56
291.602	88.56
291.833	75.56
292.064	94.56
292.295	79.56
292.526	85.56
292.757	78.56
292.987	77.56
293.218	97.56
293.449	106.56
293.68	78.56
293.91	82.56
294.141	71.56
294.372	74.56
294.603	82.56
294.833	70.56
295.064	89.56
295.295	100.56
295.525	81.56
295.756	93.56
295.987	80.56
296.217	74.56
296.448	84.56
296.679	75.56
296.909	76.56
297.14	91.56
297.37	88.56
297.601	92.56
297.831	88.56
298.062	88.56
298.292	77.56
298.523	88.56
298.753	82.56
298.984	75.56
299.214	77.56
299.445	93.56
299.675	75.56
299.905	86.56
300.136	99.56
300.366	85.56
300.597	89.56
300.827	83.56
301.057	95.56
301.288	85.56
301.518	81.56
301.748	77.56
301.979	99.56
302.209	93.56
302.439	85.56
302.669	88.56
302.9	67.56
303.13	89.56
303.36	98.56
303.59	89.56
303.82	94.56
304.051	94.56
304.281	80.56
304.511	85.56
304.741	95.56
304.971	94.56
305.201	90.56
305.431	79.56
305.661	106.56
305.891	91.56
306.121	90.56
306.352	83.56
306.582	72.56
306.812	81.56
307.042	75.56
307.272	78.56
307.502	85.56
307.731	87.56
307.961	78.56
308.191	76.56
308.421	82.56
308.651	78.56
308.881	95.56
309.111	85.56
309.341	73.56
309.571	82.56
309.8	95.56
310.03	74.56
310.26	81.56
310.49	75.56
310.72	79.56
310.949	85.56
311.179	87.56
311.409	92.56
311.639	81.56
311.868	69.56
312.098	78.56
312.328	90.56
312.557	81.56
312.787	93.56
313.017	79.56
313.246	89.56
313.476	71.56
313.706	92.56
313.935	77.56
314.165	95.56
314.394	85.56
314.624	82.56
314.853	86.56
315.083	100.56
315.312	75.56
315.542	69.56
315.771	88.56
316.001	78.56
316.23	97.56
316.46	91.56
316.689	85.56
316.919	79.56
317.148	81.56
317.377	79.56
317.607	90.56
317.836	82.56
318.065	90.56
318.295	88.56
318.524	70.56
318.753	86.56
318.983	81.56
319.212	92.56
319.441	83.56
319.67	72.56
319.9	89.56
320.129	98.56
320.358	72.56
320.587	92.56
320.816	90.56
321.046	90.56
321.275	96.56
321.504	89.56
321.733	86.56
321.962	93.56
322.191	82.56
322.42	93.56
322.649	93.56
322.878	83.56
323.108	95.56
323.337	97.56
323.566	75.56
323.795	89.56
324.024	73.56
324.253	86.56
324.482	76.56
324.71	83.56
324.939	85.56
325.168	90.56
325.397	84.56
325.626	78.56
325.855	85.56
326.084	81.56
326.313	75.56
326.542	82.56
326.77	90.56
326.999	75.56
327.228	83.56
327.457	74.56
327.686	75.56
327.914	89.56
328.143	89.56
328.372	78.56
328.6	70.56
328.829	79.56
329.058	85.56
329.287	74.56
329.515	84.56
329.744	87.56
329.972	85.56
330.201	78.56
330.43	91.56
330.658	88.56
330.887	85.56
331.115	82.56
331.344	86.56
331.572	80.56
331.801	91.56
332.03	89.56
332.258	79.56
332.486	82.56
332.715	86.56
332.943	89.56
333.172	86.56
333.4	78.56
333.629	77.56
333.857	86.56
334.085	82.56
334.314	68.56
334.542	93.56
334.771	76.56
334.999	90.56
335.227	88.56
335.455	82.56
335.684	75.56
335.912	88.56
336.14	77.56
336.369	94.56
336.597	78.56
336.825	87.56
337.053	86.56
337.281	88.56
337.51	85.56
337.738	72.56
337.966	83.56
338.194	71.56
338.422	78.56
338.65	81.56
338.878	84.56
339.106	85.56
339.334	69.56
339.562	74.56
339.79	81.56
340.018	72.56
340.246	79.56
340.474	79.56
340.702	91.56
340.93	81.56
341.158	83.56
341.386	78.56
341.614	81.56
341.842	90.56
342.07	78.56
342.298	89.56
342.526	82.56
342.754	93.56
342.981	83.56
343.209	97.56
343.437	90.56
343.665	77.56
343.893	79.56
344.12	90.56
344.348	88.56
344.576	79.56
344.804	80.56
345.031	93.56
345.259	93.56
345.487	96.56
345.714	93.56
345.942	78.56
346.17	83.56
346.397	93.56
346.625	86.56
346.853	74.56
347.08	71.56
347.308	78.56
347.535	83.56
347.763	94.56
347.99	85.56
348.218	91.56
348.445	98.56
348.673	75.56
348.9	88.56
349.128	83.56
349.355	81.56
349.583	73.56
349.81	88.56
350.037	85.56
350.265	79.56
350.492	83.56
350.72	88.56
350.947	70.56
351.174	87.56
351.402	89.56
351.629	75.56
351.856	81.56
352.083	78.56
352.311	95.56
352.538	81.56
352.765	90.56
352.992	93.56
353.22	87.56
353.447	90.56
353.674	79.56
353.901	81.56
354.128	84.56
354.355	68.56
354.583	83.56
354.81	92.56
355.037	103.56
355.264	81.56
355.491	81.56
355.718	84.56
355.945	100.56
356.172	91.56
356.399	79.56
356.626	88.56
356.853	73.56
357.08	70.56
357.307	95.56
357.534	91.56
357.761	81.56
357.988	89.56
358.215	73.56
358.441	81.56
358.668	78.56
358.895	79.56
359.122	97.56
359.349	82.56
359.576	74.56
359.802	89.56
360.029	82.56
360.256	82.56
360.483	81.56
360.709	86.56
360.936	90.56
361.163	89.56
361.39	79.56
361.616	91.56
361.843	86.56
362.07	79.56
362.296	95.56
362.523	95.56
362.749	83.56
362.976	85.56
363.203	99.56
363.429	90.56
363.656	87.56
363.882	80.56
364.109	88.56
364.335	80.56
364.562	90.56
364.788	73.56
365.015	86.56
365.241	87.56
365.468	86.56
365.694	81.56
365.92	77.56
366.147	73.56
366.373	99.56
366.599	85.56
366.826	83.56
367.052	88.56
367.278	86.56
367.505	72.56
367.731	77.56
367.957	85.56
368.184	80.56
368.41	95.56
368.636	83.56
368.862	90.56
369.089	82.56
369.315	87.56
369.541	81.56
369.767	98.56
369.993	89.56
370.219	103.56
370.445	94.56
370.672	77.56
370.898	90.56
371.124	82.56
371.35	82.56
371.576	78.56
371.802	91.56
372.028	76.56
372.254	83.56
372.48	83.56
372.706	81.56
372.932	84.56
373.158	74.56
373.384	90.56
373.61	94.56
373.835	94.56
374.061	94.56
374.287	78.56
374.513	77.56
374.739	91.56
374.965	85.56
375.191	91.56
375.416	83.56
375.642	84.56
375.868	90.56
376.094	79.56
376.319	69.56
376.545	77.56
376.771	81.56
376.997	80.56
377.222	84.56
377.448	87.56
377.674	74.56
377.899	78.56
378.125	93.56
378.35	68.56
378.576	77.56
378.802	78.56
379.027	86.56
379.253	82.56
379.478	79.56
379.704	87.56
379.929	79.56
380.155	74.56
380.38	85.56
380.606	84.56
380.831	74.56
381.057	85.56
381.282	65.56
381.507	73.56
381.733	76.56
381.958	83.56
382.184	70.56
382.409	87.56
382.634	90.56
382.86	70.56
383.085	73.56
383.31	96.56
383.535	85.56
383.761	102.56
383.986	95.56
384.211	97.56
384.436	87.56
384.662	65.56
384.887	89.56
385.112	97.56
385.337	75.56
385.562	81.56
385.787	78.56
386.013	85.56
386.238	79.56
386.463	94.56
386.688	100.56
386.913	89.56
387.138	90.56
387.363	85.56
387.588	85.56
387.813	90.56
388.038	89.56
388.263	77.56
388.488	89.56
388.713	77.56
388.938	71.56
389.163	91.56
389.387	73.56
389.612	77.56
389.837	88.56
390.062	81.56
390.287	83.56
390.512	91.56
390.736	79.56
390.961	76.56
391.186	80.56
391.411	64.56
391.636	75.56
391.86	70.56
392.085	81.56
392.31	90.56
392.534	84.56
392.759	86.56
392.984	88.56
393.208	80.56
393.433	87.56
393.658	83.56
393.882	75.56
394.107	86.56
394.331	93.56
394.556	96.56
394.78	87.56
395.005	88.56
395.229	94.56
395.454	85.56
395.678	81.56
395.903	89.56
396.127	102.56
396.352	86.56
396.576	83.56
396.801	88.56
397.025	100.56
397.249	86.56
397.474	89.56
397.698	85.56
397.922	88.56
398.147	87.56
398.371	77.56
398.595	61.56
398.82	65.56
399.044	84.56
399.268	93.56
399.492	82.56
399.717	93.56
399.941	89.56
400.165	82.56
400.389	72.56
400.613	83.56
400.837	89.56
401.062	86.56
401.286	81.56
401.51	82.56
401.734	78.56
401.958	90.56
402.182	79.56
402.406	94.56
402.63	83.56
402.854	75.56
403.078	75.56
403.302	99.56
403.526	83.56
403.75	94.56
403.974	83.56
404.198	98.56
404.422	90.56
404.645	83.56
404.869	90.56
405.093	90.56
405.317	84.56
405.541	75.56
405.765	96.56
405.988	81.56
406.212	89.56
406.436	92.56
406.66	85.56
406.883	82.56
407.107	75.56
407.331	82.56
407.555	77.56
407.778	74.56
408.002	83.56
408.226	89.56
408.449	87.56
408.673	89.56
408.896	90.56
409.12	82.56
409.344	78.56
409.567	96.56
409.791	70.56
410.014	81.56
410.238	83.56
410.461	78.56
410.685	81.56
410.908	85.56
411.132	78.56
411.355	98.56
411.578	83.56
411.802	81.56
412.025	86.56
412.249	89.56
412.472	87.56
412.695	66.56
412.919	87.56
413.142	83.56
413.365	86.56
413.589	80.56
413.812	86.56
414.035	85.56
414.258	82.56
414.482	76.56
414.705	91.56
414.928	82.56
415.151	83.56
415.374	83.56
415.597	83.56
415.821	79.56
416.044	64.56
416.267	86.56
416.49	74.56
416.713	78.56
416.936	82.56
417.159	76.56
417.382	74.56
417.605	79.56
417.828	79.56
418.051	79.56
418.274	81.56
418.497	78.56
418.72	88.56
418.943	96.56
419.166	74.56
419.389	81.56
419.611	85.56
419.834	86.56
420.057	88.56
420.28	93.56
420.503	86.56
420.726	61.56
420.948	87.56
421.171	83.56
421.394	83.56
421.617	81.56
421.839	100.56
422.062	87.56
422.285	95.56
422.507	94.56
422.73	105.56
422.953	102.56
423.175	84.56
423.398	74.56
423.621	82.56
423.843	89.56
424.066	81.56
424.288	70.56
424.511	79.56
424.733	91.56
424.956	89.56
425.178	90.56
425.401	90.56
425.623	86.56
425.846	69.56
426.068	79.56
426.291	94.56
426.513	82.56
426.735	87.56
426.958	91.56
427.18	75.56
427.402	87.56
427.625	71.56
427.847	58.56
428.069	68.56
428.292	79.56
428.514	86.56
428.736	72.56
428.958	82.56
429.181	83.56
429.403	73.56
429.625	74.56
429.847	83.56
430.069	91.56
430.292	91.56
430.514	83.56
430.736	91.56
430.958	101.56
431.18	84.56
431.402	87.56
431.624	97.56
431.846	79.56
432.068	93.56
432.29	79.56
432.512	87.56
432.734	93.56
432.956	83.56
433.178	84.56
433.4	81.56
433.622	101.56
433.844	96.56
434.066	88.56
434.287	88.56
434.509	86.56
434.731	76.56
434.953	84.56
435.175	94.56
435.397	81.56
435.618	75.56
435.84	87.56
436.062	78.56
436.284	84.56
436.505	73.56
436.727	77.56
436.949	74.56
437.17	81.56
437.392	79.56
437.614	86.56
437.835	83.56
438.057	68.56
438.278	86.56
438.5	69.56
438.721	103.56
438.943	79.56
439.165	82.56
439.386	75.56
439.608	94.56
439.829	73.56
440.05	75.56
440.272	63.56
440.493	77.56
440.715	64.56
440.936	98.56
441.158	79.56
441.379	90.56
441.6	81.56
441.822	77.56
442.043	80.56
442.264	83.56
442.486	85.56
442.707	68.56
442.928	89.56
443.149	102.56
443.371	102.56
443.592	97.56
443.813	97.56
444.034	81.56
444.255	82.56
444.476	75.56
444.698	81.56
444.919	71.56
445.14	146.56
445.361	111.56
445.582	103.56
445.803	79.56
446.024	82.56
446.245	80.56
446.466	80.56
446.687	82.56
446.908	82.56
447.129	85.56
447.35	77.56
447.571	88.56
447.792	77.56
448.013	77.56
448.234	84.56
448.455	88.56
448.675	95.56
448.896	83.56
449.117	88.56
449.338	97.56
449.559	94.56
449.779	77.56
450	79.56
450.221	90.56
450.442	80.56
450.662	76.56
450.883	88.56
451.104	95.56
451.324	66.56
451.545	91.56
451.766	86.56
451.986	82.56
452.207	84.56
452.428	81.56
452.648	79.56
452.869	79.56
453.089	63.56
453.31	86.56
453.53	88.56
453.751	90.56
453.971	94.56
454.192	79.56
454.412	64.56
454.633	85.56
454.853	65.56
455.073	75.56
455.294	77.56
455.514	87.56
455.734	66.56
455.955	77.56
456.175	81.56
456.395	82.56
456.616	89.56
456.836	92.56
457.056	73.56
457.276	98.56
457.497	93.56
457.717	79.56
457.937	84.56
458.157	71.56
458.377	68.56
458.598	91.56
458.818	91.56
459.038	83.56
459.258	88.56
459.478	91.56
459.698	82.56
459.918	87.56
460.138	84.56
460.358	86.56
460.578	87.56
460.798	83.56
461.018	90.56
461.238	71.56
461.458	77.56
461.678	70.56
461.898	81.56
462.118	110.56
462.338	75.56
462.558	88.56
462.777	81.56
462.997	69.56
463.217	88.56
463.437	84.56
463.657	90.56
463.876	86.56
464.096	88.56
464.316	74.56
464.536	81.56
464.755	73.56
464.975	80.56
465.195	91.56
465.414	85.56
465.634	82.56
465.854	78.56
466.073	82.56
466.293	76.56
466.512	75.56
466.732	74.56
466.951	92.56
467.171	83.56
467.391	73.56
467.61	75.56
467.829	81.56
468.049	83.56
468.268	72.56
468.488	82.56
468.707	85.56
468.927	75.56
469.146	75.56
469.365	82.56
469.585	74.56
469.804	94.56
470.023	80.56
470.243	85.56
470.462	79.56
470.681	89.56
470.901	82.56
471.12	87.56
471.339	87.56
471.558	82.56
471.777	86.56
471.997	86.56
472.216	82.56
472.435	79.56
472.654	90.56
472.873	70.56
473.092	87.56
473.311	73.56
473.53	78.56
473.749	79.56
473.968	83.56
474.187	79.56
474.406	81.56
474.625	75.56
474.844	91.56
475.063	63.56
475.282	75.56
475.501	79.56
475.72	97.56
475.939	65.56
476.158	69.56
476.377	86.56
476.596	91.56
476.814	73.56
477.033	66.56
477.252	82.56
477.471	85.56
477.69	87.56
477.908	86.56
478.127	87.56
478.346	88.56
478.564	71.56
478.783	76.56
479.002	92.56
479.22	80.56
479.439	77.56
479.658	82.56
479.876	68.56
480.095	83.56
480.313	80.56
480.532	90.56
480.751	71.56
480.969	73.56
481.188	83.56
481.406	77.56
481.624	90.56
481.843	79.56
482.061	88.56
482.28	84.56
482.498	73.56
482.717	93.56
482.935	82.56
483.153	79.56
483.372	87.56
483.59	90.56
483.808	90.56
484.027	79.56
484.245	79.56
484.463	78.56
484.681	80.56
484.9	89.56
485.118	86.56
485.336	85.56
485.554	85.56
485.772	67.56
485.99	107.56
486.209	86.56
486.427	89.56
486.645	83.56
486.863	78.56
487.081	79.56
487.299	79.56
487.517	76.56
487.735	85.56
487.953	74.56
488.171	78.56
488.389	84.56
488.607	81.56
488.825	72.56
489.043	76.56
489.261	81.56
489.479	85.56
489.696	75.56
489.914	79.56
490.132	74.56
490.35	81.56
490.568	66.56
490.786	92.56
491.003	78.56
491.221	77.56
491.439	83.56
491.657	78.56
491.874	97.56
492.092	102.56
492.31	81.56
492.527	80.56
492.745	89.56
492.963	88.56
493.18	81.56
493.398	79.56
493.615	72.56
493.833	79.56
494.05	87.56
494.268	65.56
494.485	84.56
494.703	87.56
494.92	71.56
495.138	78.56
495.355	73.56
495.573	89.56
495.79	82.56
496.008	76.56
496.225	65.56
496.442	85.56
496.66	89.56
496.877	82.56
497.094	89.56
497.312	86.56
497.529	75.56
497.746	82.56
497.963	81.56
498.181	67.56
498.398	101.56
498.615	74.56
498.832	80.56
499.049	76.56
499.267	87.56
499.484	82.56
499.701	89.56
499.918	81.56
500.135	93.56
500.352	81.56
500.569	82.56
500.786	87.56
501.003	86.56
501.22	76.56
501.437	84.56
501.654	79.56
501.871	79.56
502.088	85.56
502.305	75.56
502.522	80.56
502.739	84.56
502.956	88.56
503.172	82.56
503.389	95.56
503.606	87.56
503.823	94.56
504.04	75.56
504.256	91.56
504.473	89.56
504.69	87.56
504.907	82.56
505.123	88.56
505.34	71.56
505.557	73.56
505.773	79.56
505.99	98.56
506.207	75.56
506.423	86.56
506.64	63.56
506.856	78.56
507.073	94.56
507.289	82.56
507.506	98.56
507.722	94.56
507.939	69.56
508.155	88.56
508.372	74.56
508.588	68.56
508.805	77.56
509.021	99.56
509.238	88.56
509.454	81.56
509.67	67.56
509.887	82.56
510.103	83.56
510.319	79.56
510.536	84.56
510.752	67.56
510.968	81.56
511.184	80.56
511.401	87.56
511.617	77.56
511.833	81.56
512.049	80.56
512.265	75.56
512.481	76.56
512.698	73.56
512.914	102.56
513.13	86.56
513.346	73.56
513.562	84.56
513.778	91.56
513.994	81.56
514.21	78.56
514.426	87.56
514.642	106.56
514.858	80.56
515.074	79.56
515.29	97.56
515.506	74.56
515.721	68.56
515.937	93.56
516.153	81.56
516.369	69.56
516.585	73.56
516.801	96.56
517.016	75.56
517.232	68.56
517.448	86.56
517.664	91.56
517.879	91.56
518.095	73.56
518.311	63.56
518.527	91.56
518.742	85.56
518.958	89.56
519.173	88.56
519.389	85.56
519.605	75.56
519.82	79.56
