Data from 10100_3_HRD10591_00017.txt Node
Date: Mon Jan 19 14:02:31 EST 2026
User: Yrep
Spectrometer: HR+D1059
Trigger mode: 1
Integration Time (sec): 1.000000E-1
Scans to average: 1
Electric dark correction enabled: true
Nonlinearity correction enabled: false
Boxcar width: 0
XAxis mode: Wavelengths
Number of Pixels in Spectrum: 2048
>>>>>Begin Spectral Data<<<<<
223.165	-14.69
223.4	-14.69
223.635	-14.69
223.869	-9.69
224.104	-15.69
224.338	-21.69
224.573	-6.69
224.808	-13.69
225.042	-4.69
225.277	-11.69
225.511	-10.69
225.746	0.31
225.98	2.31
226.215	19.31
226.449	16.31
226.683	10.31
226.918	26.31
227.152	34.31
227.387	40.31
227.621	30.31
227.856	34.31
228.09	47.31
228.324	45.31
228.559	54.31
228.793	57.31
229.027	74.31
229.262	60.31
229.496	70.31
229.73	74.31
229.964	75.31
230.199	64.31
230.433	75.31
230.667	72.31
230.901	76.31
231.136	76.31
231.37	63.31
231.604	89.31
231.838	73.31
232.072	68.31
232.306	82.31
232.541	82.31
232.775	81.31
233.009	76.31
233.243	79.31
233.477	85.31
233.711	88.31
233.945	83.31
234.179	86.31
234.413	88.31
234.647	80.31
234.881	86.31
235.115	78.31
235.349	78.31
235.583	92.31
235.817	73.31
236.051	70.31
236.285	75.31
236.519	76.31
236.753	76.31
236.987	83.31
237.221	84.31
237.455	78.31
237.689	75.31
237.922	86.31
238.156	78.31
238.39	65.31
238.624	83.31
238.858	82.31
239.091	78.31
239.325	82.31
239.559	66.31
239.793	66.31
240.027	84.31
240.26	68.31
240.494	83.31
240.728	78.31
240.961	64.31
241.195	73.31
241.429	72.31
241.662	69.31
241.896	68.31
242.13	68.31
242.363	85.31
242.597	83.31
242.83	82.31
243.064	75.31
243.298	72.31
243.531	64.31
243.765	82.31
243.998	77.31
244.232	78.31
244.465	74.31
244.699	83.31
244.932	93.31
245.166	84.31
245.399	75.31
245.633	82.31
245.866	73.31
246.099	86.31
246.333	81.31
246.566	73.31
246.8	60.31
247.033	71.31
247.266	83.31
247.5	80.31
247.733	68.31
247.966	66.31
248.2	87.31
248.433	86.31
248.666	80.31
248.899	83.31
249.133	75.31
249.366	82.31
249.599	75.31
249.832	74.31
250.066	65.31
250.299	76.31
250.532	82.31
250.765	75.31
250.998	66.31
251.231	84.31
251.465	76.31
251.698	89.31
251.931	82.31
252.164	63.31
252.397	73.31
252.63	91.31
252.863	84.31
253.096	90.31
253.329	87.31
253.562	72.31
253.795	90.31
254.028	88.31
254.261	74.31
254.494	76.31
254.727	80.31
254.96	86.31
255.193	77.31
255.426	85.31
255.659	77.31
255.892	78.31
256.124	74.31
256.357	72.31
256.59	72.31
256.823	64.31
257.056	70.31
257.289	81.31
257.521	80.31
257.754	78.31
257.987	89.31
258.22	80.31
258.452	80.31
258.685	72.31
258.918	94.31
259.151	77.31
259.383	91.31
259.616	77.31
259.849	67.31
260.081	84.31
260.314	82.31
260.547	83.31
260.779	81.31
261.012	78.31
261.244	84.31
261.477	77.31
261.71	74.31
261.942	73.31
262.175	82.31
262.407	71.31
262.64	72.31
262.872	80.31
263.105	68.31
263.337	90.31
263.57	73.31
263.802	89.31
264.035	96.31
264.267	92.31
264.499	86.31
264.732	92.31
264.964	72.31
265.197	86.31
265.429	78.31
265.661	67.31
265.894	85.31
266.126	87.31
266.358	68.31
266.591	72.31
266.823	87.31
267.055	74.31
267.287	85.31
267.52	88.31
267.752	84.31
267.984	77.31
268.216	71.31
268.448	90.31
268.681	83.31
268.913	64.31
269.145	79.31
269.377	84.31
269.609	66.31
269.841	92.31
270.073	80.31
270.306	71.31
270.538	85.31
270.77	75.31
271.002	68.31
271.234	88.31
271.466	72.31
271.698	80.31
271.93	66.31
272.162	84.31
272.394	77.31
272.626	73.31
272.858	92.31
273.09	82.31
273.322	86.31
273.553	65.31
273.785	78.31
274.017	63.31
274.249	89.31
274.481	85.31
274.713	83.31
274.945	76.31
275.176	76.31
275.408	79.31
275.64	75.31
275.872	85.31
276.104	86.31
276.335	70.31
276.567	86.31
276.799	82.31
277.031	85.31
277.262	85.31
277.494	92.31
277.726	88.31
277.957	82.31
278.189	93.31
278.421	87.31
278.652	95.31
278.884	81.31
279.115	81.31
279.347	87.31
279.579	80.31
279.81	75.31
280.042	89.31
280.273	78.31
280.505	86.31
280.736	74.31
280.968	86.31
281.199	94.31
281.431	80.31
281.662	91.31
281.894	69.31
282.125	80.31
282.356	82.31
282.588	89.31
282.819	88.31
283.051	96.31
283.282	80.31
283.513	80.31
283.745	89.31
283.976	78.31
284.207	72.31
284.439	70.31
284.67	82.31
284.901	89.31
285.132	86.31
285.364	89.31
285.595	88.31
285.826	93.31
286.057	79.31
286.288	92.31
286.52	71.31
286.751	77.31
286.982	81.31
287.213	101.31
287.444	76.31
287.675	94.31
287.906	78.31
288.138	88.31
288.369	94.31
288.6	94.31
288.831	78.31
289.062	88.31
289.293	84.31
289.524	94.31
289.755	82.31
289.986	88.31
290.217	84.31
290.448	90.31
290.679	95.31
290.91	92.31
291.141	80.31
291.371	96.31
291.602	71.31
291.833	89.31
292.064	88.31
292.295	82.31
292.526	85.31
292.757	78.31
292.987	88.31
293.218	85.31
293.449	84.31
293.68	93.31
293.91	93.31
294.141	90.31
294.372	87.31
294.603	83.31
294.833	94.31
295.064	84.31
295.295	98.31
295.525	70.31
295.756	69.31
295.987	98.31
296.217	86.31
296.448	80.31
296.679	88.31
296.909	94.31
297.14	105.31
297.37	83.31
297.601	82.31
297.831	90.31
298.062	91.31
298.292	85.31
298.523	95.31
298.753	84.31
298.984	78.31
299.214	71.31
299.445	84.31
299.675	80.31
299.905	92.31
300.136	92.31
300.366	80.31
300.597	91.31
300.827	78.31
301.057	76.31
301.288	89.31
301.518	94.31
301.748	97.31
301.979	108.31
302.209	75.31
302.439	80.31
302.669	96.31
302.9	94.31
303.13	81.31
303.36	97.31
303.59	96.31
303.82	85.31
304.051	78.31
304.281	86.31
304.511	88.31
304.741	94.31
304.971	86.31
305.201	88.31
305.431	93.31
305.661	85.31
305.891	87.31
306.121	87.31
306.352	78.31
306.582	78.31
306.812	97.31
307.042	81.31
307.272	81.31
307.502	75.31
307.731	85.31
307.961	86.31
308.191	95.31
308.421	93.31
308.651	92.31
308.881	82.31
309.111	87.31
309.341	77.31
309.571	96.31
309.8	89.31
310.03	86.31
310.26	101.31
310.49	76.31
310.72	71.31
310.949	88.31
311.179	88.31
311.409	74.31
311.639	81.31
311.868	80.31
312.098	97.31
312.328	89.31
312.557	78.31
312.787	95.31
313.017	87.31
313.246	82.31
313.476	82.31
313.706	78.31
313.935	69.31
314.165	78.31
314.394	86.31
314.624	82.31
314.853	86.31
315.083	88.31
315.312	72.31
315.542	99.31
315.771	86.31
316.001	91.31
316.23	78.31
316.46	92.31
316.689	98.31
316.919	88.31
317.148	84.31
317.377	80.31
317.607	95.31
317.836	88.31
318.065	87.31
318.295	92.31
318.524	92.31
318.753	80.31
318.983	94.31
319.212	90.31
319.441	74.31
319.67	80.31
319.9	87.31
320.129	80.31
320.358	84.31
320.587	102.31
320.816	78.31
321.046	86.31
321.275	78.31
321.504	97.31
321.733	91.31
321.962	101.31
322.191	87.31
322.42	85.31
322.649	104.31
322.878	93.31
323.108	81.31
323.337	76.31
323.566	76.31
323.795	77.31
324.024	99.31
324.253	94.31
324.482	82.31
324.71	98.31
324.939	90.31
325.168	86.31
325.397	89.31
325.626	85.31
325.855	80.31
326.084	73.31
326.313	81.31
326.542	82.31
326.77	91.31
326.999	84.31
327.228	74.31
327.457	88.31
327.686	92.31
327.914	83.31
328.143	97.31
328.372	96.31
328.6	81.31
328.829	89.31
329.058	89.31
329.287	68.31
329.515	87.31
329.744	83.31
329.972	97.31
330.201	98.31
330.43	83.31
330.658	81.31
330.887	76.31
331.115	78.31
331.344	86.31
331.572	91.31
331.801	86.31
332.03	91.31
332.258	88.31
332.486	84.31
332.715	89.31
332.943	78.31
333.172	85.31
333.4	88.31
333.629	86.31
333.857	82.31
334.085	82.31
334.314	90.31
334.542	90.31
334.771	94.31
334.999	114.31
335.227	83.31
335.455	86.31
335.684	91.31
335.912	110.31
336.14	93.31
336.369	94.31
336.597	95.31
336.825	100.31
337.053	91.31
337.281	96.31
337.51	88.31
337.738	88.31
337.966	84.31
338.194	91.31
338.422	89.31
338.65	90.31
338.878	87.31
339.106	83.31
339.334	96.31
339.562	78.31
339.79	80.31
340.018	70.31
340.246	72.31
340.474	74.31
340.702	92.31
340.93	79.31
341.158	71.31
341.386	88.31
341.614	94.31
341.842	96.31
342.07	64.31
342.298	95.31
342.526	84.31
342.754	84.31
342.981	94.31
343.209	92.31
343.437	98.31
343.665	87.31
343.893	80.31
344.12	103.31
344.348	81.31
344.576	96.31
344.804	82.31
345.031	89.31
345.259	76.31
345.487	80.31
345.714	75.31
345.942	78.31
346.17	86.31
346.397	93.31
346.625	87.31
346.853	88.31
347.08	81.31
347.308	96.31
347.535	93.31
347.763	87.31
347.99	88.31
348.218	83.31
348.445	66.31
348.673	84.31
348.9	86.31
349.128	81.31
349.355	89.31
349.583	90.31
349.81	79.31
350.037	85.31
350.265	87.31
350.492	81.31
350.72	85.31
350.947	83.31
351.174	86.31
351.402	92.31
351.629	76.31
351.856	96.31
352.083	72.31
352.311	88.31
352.538	87.31
352.765	85.31
352.992	89.31
353.22	102.31
353.447	85.31
353.674	86.31
353.901	85.31
354.128	87.31
354.355	70.31
354.583	86.31
354.81	86.31
355.037	94.31
355.264	80.31
355.491	87.31
355.718	89.31
355.945	92.31
356.172	84.31
356.399	89.31
356.626	95.31
356.853	86.31
357.08	97.31
357.307	95.31
357.534	75.31
357.761	87.31
357.988	93.31
358.215	98.31
358.441	104.31
358.668	111.31
358.895	105.31
359.122	80.31
359.349	92.31
359.576	94.31
359.802	91.31
360.029	79.31
360.256	99.31
360.483	97.31
360.709	90.31
360.936	98.31
361.163	93.31
361.39	98.31
361.616	86.31
361.843	79.31
362.07	99.31
362.296	102.31
362.523	98.31
362.749	104.31
362.976	107.31
363.203	124.31
363.429	102.31
363.656	95.31
363.882	93.31
364.109	98.31
364.335	117.31
364.562	122.31
364.788	106.31
365.015	97.31
365.241	86.31
365.468	95.31
365.694	82.31
365.92	104.31
366.147	102.31
366.373	82.31
366.599	86.31
366.826	93.31
367.052	96.31
367.278	95.31
367.505	78.31
367.731	76.31
367.957	81.31
368.184	87.31
368.41	91.31
368.636	91.31
368.862	84.31
369.089	66.31
369.315	81.31
369.541	91.31
369.767	71.31
369.993	93.31
370.219	89.31
370.445	77.31
370.672	94.31
370.898	100.31
371.124	88.31
371.35	78.31
371.576	97.31
371.802	103.31
372.028	99.31
372.254	90.31
372.48	81.31
372.706	96.31
372.932	86.31
373.158	77.31
373.384	75.31
373.61	95.31
373.835	86.31
374.061	90.31
374.287	92.31
374.513	104.31
374.739	96.31
374.965	101.31
375.191	85.31
375.416	91.31
375.642	97.31
375.868	87.31
376.094	92.31
376.319	84.31
376.545	85.31
376.771	81.31
376.997	98.31
377.222	96.31
377.448	83.31
377.674	96.31
377.899	96.31
378.125	92.31
378.35	78.31
378.576	100.31
378.802	80.31
379.027	78.31
379.253	103.31
379.478	89.31
379.704	83.31
379.929	83.31
380.155	99.31
380.38	93.31
380.606	89.31
380.831	92.31
381.057	106.31
381.282	85.31
381.507	101.31
381.733	93.31
381.958	101.31
382.184	87.31
382.409	100.31
382.634	103.31
382.86	102.31
383.085	82.31
383.31	83.31
383.535	96.31
383.761	74.31
383.986	74.31
384.211	81.31
384.436	76.31
384.662	83.31
384.887	86.31
385.112	88.31
385.337	78.31
385.562	84.31
385.787	93.31
386.013	81.31
386.238	96.31
386.463	89.31
386.688	100.31
386.913	99.31
387.138	91.31
387.363	108.31
387.588	110.31
387.813	85.31
388.038	79.31
388.263	100.31
388.488	92.31
388.713	98.31
388.938	84.31
389.163	89.31
389.387	90.31
389.612	101.31
389.837	89.31
390.062	93.31
390.287	69.31
390.512	91.31
390.736	81.31
390.961	104.31
391.186	92.31
391.411	81.31
391.636	88.31
391.86	92.31
392.085	85.31
392.31	101.31
392.534	109.31
392.759	113.31
392.984	141.31
393.208	172.31
393.433	236.31
393.658	201.31
393.882	131.31
394.107	125.31
394.331	111.31
394.556	113.31
394.78	101.31
395.005	100.31
395.229	97.31
395.454	104.31
395.678	113.31
395.903	98.31
396.127	103.31
396.352	136.31
396.576	132.31
396.801	191.31
397.025	210.31
397.249	138.31
397.474	112.31
397.698	94.31
397.922	94.31
398.147	87.31
398.371	82.31
398.595	90.31
398.82	89.31
399.044	85.31
399.268	93.31
399.492	93.31
399.717	91.31
399.941	82.31
400.165	89.31
400.389	96.31
400.613	72.31
400.837	90.31
401.062	83.31
401.286	82.31
401.51	88.31
401.734	96.31
401.958	92.31
402.182	91.31
402.406	84.31
402.63	82.31
402.854	94.31
403.078	80.31
403.302	88.31
403.526	81.31
403.75	86.31
403.974	82.31
404.198	81.31
404.422	90.31
404.645	92.31
404.869	103.31
405.093	78.31
405.317	79.31
405.541	93.31
405.765	89.31
405.988	99.31
406.212	91.31
406.436	100.31
406.66	81.31
406.883	93.31
407.107	86.31
407.331	99.31
407.555	91.31
407.778	109.31
408.002	101.31
408.226	94.31
408.449	88.31
408.673	77.31
408.896	85.31
409.12	95.31
409.344	86.31
409.567	84.31
409.791	94.31
410.014	97.31
410.238	82.31
410.461	89.31
410.685	86.31
410.908	90.31
411.132	97.31
411.355	94.31
411.578	95.31
411.802	88.31
412.025	99.31
412.249	87.31
412.472	84.31
412.695	88.31
412.919	81.31
413.142	79.31
413.365	98.31
413.589	77.31
413.812	88.31
414.035	88.31
414.258	81.31
414.482	96.31
414.705	84.31
414.928	93.31
415.151	92.31
415.374	85.31
415.597	82.31
415.821	96.31
416.044	81.31
416.267	88.31
416.49	87.31
416.713	70.31
416.936	83.31
417.159	72.31
417.382	86.31
417.605	67.31
417.828	103.31
418.051	88.31
418.274	87.31
418.497	88.31
418.72	79.31
418.943	89.31
419.166	86.31
419.389	103.31
419.611	84.31
419.834	86.31
420.057	93.31
420.28	94.31
420.503	102.31
420.726	76.31
420.948	79.31
421.171	97.31
421.394	116.31
421.617	120.31
421.839	113.31
422.062	132.31
422.285	163.31
422.507	239.31
422.73	304.31
422.953	303.31
423.175	228.31
423.398	147.31
423.621	103.31
423.843	102.31
424.066	100.31
424.288	102.31
424.511	94.31
424.733	87.31
424.956	92.31
425.178	82.31
425.401	71.31
425.623	97.31
425.846	96.31
426.068	105.31
426.291	101.31
426.513	108.31
426.735	84.31
426.958	92.31
427.18	87.31
427.402	92.31
427.625	97.31
427.847	80.31
428.069	100.31
428.292	120.31
428.514	135.31
428.736	112.31
428.958	119.31
429.181	123.31
429.403	100.31
429.625	104.31
429.847	112.31
430.069	143.31
430.292	162.31
430.514	123.31
430.736	128.31
430.958	142.31
431.18	110.31
431.402	85.31
431.624	100.31
431.846	118.31
432.068	117.31
432.29	93.31
432.512	74.31
432.734	97.31
432.956	96.31
433.178	89.31
433.4	92.31
433.622	88.31
433.844	87.31
434.066	88.31
434.287	88.31
434.509	84.31
434.731	89.31
434.953	73.31
435.175	86.31
435.397	108.31
435.618	102.31
435.84	86.31
436.062	67.31
436.284	90.31
436.505	77.31
436.727	88.31
436.949	86.31
437.17	76.31
437.392	96.31
437.614	100.31
437.835	87.31
438.057	86.31
438.278	89.31
438.5	93.31
438.721	73.31
438.943	94.31
439.165	84.31
439.386	77.31
439.608	98.31
439.829	78.31
440.05	89.31
440.272	82.31
440.493	96.31
440.715	88.31
440.936	99.31
441.158	77.31
441.379	95.31
441.6	92.31
441.822	93.31
442.043	82.31
442.264	101.31
442.486	128.31
442.707	144.31
442.928	130.31
443.149	110.31
443.371	134.31
443.592	214.31
443.813	179.31
444.034	120.31
444.255	103.31
444.476	92.31
444.698	83.31
444.919	82.31
445.14	173.31
445.361	186.31
445.582	238.31
445.803	212.31
446.024	126.31
446.245	104.31
446.466	79.31
446.687	80.31
446.908	88.31
447.129	91.31
447.35	82.31
447.571	84.31
447.792	97.31
448.013	78.31
448.234	93.31
448.455	82.31
448.675	80.31
448.896	85.31
449.117	88.31
449.338	92.31
449.559	89.31
449.779	99.31
450	94.31
450.221	79.31
450.442	82.31
450.662	83.31
450.883	87.31
451.104	92.31
451.324	86.31
451.545	87.31
451.766	78.31
451.986	84.31
452.207	80.31
452.428	82.31
452.648	92.31
452.869	110.31
453.089	102.31
453.31	86.31
453.53	100.31
453.751	87.31
453.971	81.31
454.192	88.31
454.412	90.31
454.633	78.31
454.853	73.31
455.073	92.31
455.294	95.31
455.514	87.31
455.734	86.31
455.955	89.31
456.175	81.31
456.395	84.31
456.616	80.31
456.836	76.31
457.056	82.31
457.276	85.31
457.497	95.31
457.717	100.31
457.937	106.31
458.157	120.31
458.377	118.31
458.598	111.31
458.818	122.31
459.038	86.31
459.258	85.31
459.478	78.31
459.698	83.31
459.918	88.31
460.138	91.31
460.358	81.31
460.578	88.31
460.798	120.31
461.018	99.31
461.238	84.31
461.458	95.31
461.678	81.31
461.898	96.31
462.118	77.31
462.338	94.31
462.558	87.31
462.777	88.31
462.997	102.31
463.217	89.31
463.437	86.31
463.657	81.31
463.876	86.31
464.096	84.31
464.316	80.31
464.536	103.31
464.755	84.31
464.975	96.31
465.195	90.31
465.414	82.31
465.634	88.31
465.854	93.31
466.073	76.31
466.293	85.31
466.512	75.31
466.732	80.31
466.951	81.31
467.171	97.31
467.391	82.31
467.61	76.31
467.829	97.31
468.049	80.31
468.268	80.31
468.488	92.31
468.707	78.31
468.927	76.31
469.146	84.31
469.365	83.31
469.585	77.31
469.804	78.31
470.023	80.31
470.243	81.31
470.462	85.31
470.681	85.31
470.901	86.31
471.12	86.31
471.339	80.31
471.558	85.31
471.777	77.31
471.997	80.31
472.216	77.31
472.435	93.31
472.654	88.31
472.873	93.31
473.092	84.31
473.311	75.31
473.53	97.31
473.749	85.31
473.968	88.31
474.187	93.31
474.406	91.31
474.625	99.31
474.844	78.31
475.063	88.31
475.282	62.31
475.501	81.31
475.72	82.31
475.939	78.31
476.158	91.31
476.377	92.31
476.596	86.31
476.814	88.31
477.033	88.31
477.252	92.31
477.471	100.31
477.69	89.31
477.908	83.31
478.127	91.31
478.346	89.31
478.564	80.31
478.783	85.31
479.002	94.31
479.22	82.31
479.439	74.31
479.658	96.31
479.876	95.31
480.095	101.31
480.313	82.31
480.532	94.31
480.751	85.31
480.969	77.31
481.188	84.31
481.406	93.31
481.624	85.31
481.843	77.31
482.061	79.31
482.28	86.31
482.498	96.31
482.717	99.31
482.935	94.31
483.153	84.31
483.372	92.31
483.59	87.31
483.808	85.31
484.027	84.31
484.245	95.31
484.463	70.31
484.681	112.31
484.9	101.31
485.118	95.31
485.336	81.31
485.554	100.31
485.772	88.31
485.99	90.31
486.209	87.31
486.427	91.31
486.645	97.31
486.863	101.31
487.081	98.31
487.299	95.31
487.517	103.31
487.735	118.31
487.953	180.31
488.171	139.31
488.389	104.31
488.607	78.31
488.825	73.31
489.043	92.31
489.261	90.31
489.479	82.31
489.696	73.31
489.914	109.31
490.132	102.31
490.35	93.31
490.568	85.31
490.786	88.31
491.003	90.31
491.221	97.31
491.439	83.31
491.657	82.31
491.874	83.31
492.092	92.31
492.31	102.31
492.527	91.31
492.745	80.31
492.963	98.31
493.18	90.31
493.398	98.31
493.615	87.31
493.833	98.31
494.05	92.31
494.268	94.31
494.485	97.31
494.703	91.31
494.92	85.31
495.138	89.31
495.355	99.31
495.573	82.31
495.79	108.31
496.008	101.31
496.225	92.31
496.442	101.31
496.66	97.31
496.877	82.31
497.094	111.31
497.312	90.31
497.529	90.31
497.746	80.31
497.963	86.31
498.181	93.31
498.398	97.31
498.615	78.31
498.832	85.31
499.049	89.31
499.267	80.31
499.484	103.31
499.701	103.31
499.918	88.31
500.135	97.31
500.352	97.31
500.569	83.31
500.786	103.31
501.003	101.31
501.22	102.31
501.437	80.31
501.654	108.31
501.871	98.31
502.088	94.31
502.305	91.31
502.522	89.31
502.739	93.31
502.956	82.31
503.172	89.31
503.389	85.31
503.606	81.31
503.823	97.31
504.04	86.31
504.256	135.31
504.473	145.31
504.69	85.31
504.907	100.31
505.123	82.31
505.34	96.31
505.557	89.31
505.773	94.31
505.99	91.31
506.207	84.31
506.423	97.31
506.64	94.31
506.856	96.31
507.073	85.31
507.289	82.31
507.506	89.31
507.722	97.31
507.939	85.31
508.155	86.31
508.372	92.31
508.588	88.31
508.805	76.31
509.021	89.31
509.238	94.31
509.454	84.31
509.67	88.31
509.887	91.31
510.103	98.31
510.319	93.31
510.536	92.31
510.752	90.31
510.968	80.31
511.184	93.31
511.401	88.31
511.617	91.31
511.833	86.31
512.049	97.31
512.265	108.31
512.481	85.31
512.698	69.31
512.914	81.31
513.13	90.31
513.346	89.31
513.562	96.31
513.778	90.31
513.994	85.31
514.21	97.31
514.426	100.31
514.642	91.31
514.858	88.31
515.074	103.31
515.29	86.31
515.506	96.31
515.721	84.31
515.937	96.31
516.153	92.31
516.369	85.31
516.585	86.31
516.801	86.31
517.016	91.31
517.232	92.31
517.448	110.31
517.664	85.31
517.879	81.31
