Data from 10100_3_HRD10591_00043.txt Node
Date: Mon Jan 19 14:02:44 EST 2026
User: Yrep
Spectrometer: HR+D1059
Trigger mode: 1
Integration Time (sec): 1.000000E-1
Scans to average: 1
Electric dark correction enabled: true
Nonlinearity correction enabled: false
Boxcar width: 0
XAxis mode: Wavelengths
Number of Pixels in Spectrum: 2048
>>>>>Begin Spectral Data<<<<<
223.165	-15.31
223.4	-15.31
223.635	-15.31
223.869	-21.31
224.104	-17.31
224.338	-10.31
224.573	-19.31
224.808	-21.31
225.042	-17.31
225.277	-12.31
225.511	-1.31
225.746	5.69
225.98	5.69
226.215	8.69
226.449	18.69
226.683	41.69
226.918	16.69
227.152	38.69
227.387	36.69
227.621	45.69
227.856	50.69
228.09	70.69
228.324	66.69
228.559	66.69
228.793	66.69
229.027	78.69
229.262	68.69
229.496	66.69
229.73	75.69
229.964	78.69
230.199	71.69
230.433	84.69
230.667	76.69
230.901	76.69
231.136	78.69
231.37	76.69
231.604	84.69
231.838	74.69
232.072	89.69
232.306	88.69
232.541	83.69
232.775	72.69
233.009	87.69
233.243	75.69
233.477	76.69
233.711	83.69
233.945	96.69
234.179	89.69
234.413	69.69
234.647	92.69
234.881	98.69
235.115	84.69
235.349	79.69
235.583	88.69
235.817	95.69
236.051	72.69
236.285	79.69
236.519	86.69
236.753	79.69
236.987	90.69
237.221	88.69
237.455	78.69
237.689	78.69
237.922	70.69
238.156	71.69
238.39	80.69
238.624	68.69
238.858	88.69
239.091	91.69
239.325	77.69
239.559	80.69
239.793	84.69
240.027	92.69
240.26	67.69
240.494	76.69
240.728	71.69
240.961	76.69
241.195	81.69
241.429	83.69
241.662	78.69
241.896	76.69
242.13	93.69
242.363	94.69
242.597	68.69
242.83	97.69
243.064	78.69
243.298	91.69
243.531	70.69
243.765	74.69
243.998	80.69
244.232	96.69
244.465	85.69
244.699	92.69
244.932	93.69
245.166	67.69
245.399	77.69
245.633	92.69
245.866	76.69
246.099	68.69
246.333	91.69
246.566	71.69
246.8	84.69
247.033	72.69
247.266	81.69
247.5	70.69
247.733	72.69
247.966	73.69
248.2	83.69
248.433	91.69
248.666	64.69
248.899	78.69
249.133	78.69
249.366	80.69
249.599	84.69
249.832	79.69
250.066	87.69
250.299	81.69
250.532	81.69
250.765	78.69
250.998	77.69
251.231	86.69
251.465	77.69
251.698	81.69
251.931	81.69
252.164	92.69
252.397	83.69
252.63	86.69
252.863	87.69
253.096	80.69
253.329	100.69
253.562	78.69
253.795	82.69
254.028	72.69
254.261	87.69
254.494	86.69
254.727	77.69
254.96	75.69
255.193	81.69
255.426	91.69
255.659	75.69
255.892	89.69
256.124	78.69
256.357	96.69
256.59	76.69
256.823	78.69
257.056	77.69
257.289	72.69
257.521	76.69
257.754	69.69
257.987	78.69
258.22	100.69
258.452	86.69
258.685	66.69
258.918	86.69
259.151	85.69
259.383	105.69
259.616	75.69
259.849	87.69
260.081	83.69
260.314	87.69
260.547	82.69
260.779	85.69
261.012	95.69
261.244	68.69
261.477	88.69
261.71	96.69
261.942	78.69
262.175	84.69
262.407	89.69
262.64	60.69
262.872	75.69
263.105	96.69
263.337	81.69
263.57	76.69
263.802	88.69
264.035	95.69
264.267	88.69
264.499	80.69
264.732	91.69
264.964	78.69
265.197	89.69
265.429	77.69
265.661	74.69
265.894	83.69
266.126	77.69
266.358	71.69
266.591	87.69
266.823	80.69
267.055	87.69
267.287	90.69
267.52	64.69
267.752	100.69
267.984	81.69
268.216	57.69
268.448	94.69
268.681	97.69
268.913	84.69
269.145	81.69
269.377	82.69
269.609	82.69
269.841	81.69
270.073	86.69
270.306	92.69
270.538	77.69
270.77	78.69
271.002	83.69
271.234	85.69
271.466	97.69
271.698	79.69
271.93	88.69
272.162	91.69
272.394	82.69
272.626	92.69
272.858	90.69
273.09	79.69
273.322	88.69
273.553	84.69
273.785	86.69
274.017	78.69
274.249	93.69
274.481	76.69
274.713	80.69
274.945	92.69
275.176	93.69
275.408	97.69
275.64	84.69
275.872	77.69
276.104	72.69
276.335	88.69
276.567	84.69
276.799	85.69
277.031	83.69
277.262	82.69
277.494	92.69
277.726	80.69
277.957	77.69
278.189	98.69
278.421	76.69
278.652	86.69
278.884	97.69
279.115	78.69
279.347	86.69
279.579	98.69
279.81	85.69
280.042	77.69
280.273	80.69
280.505	79.69
280.736	91.69
280.968	100.69
281.199	82.69
281.431	81.69
281.662	93.69
281.894	77.69
282.125	89.69
282.356	92.69
282.588	88.69
282.819	93.69
283.051	78.69
283.282	94.69
283.513	85.69
283.745	98.69
283.976	85.69
284.207	85.69
284.439	84.69
284.67	95.69
284.901	94.69
285.132	88.69
285.364	96.69
285.595	86.69
285.826	91.69
286.057	99.69
286.288	88.69
286.52	83.69
286.751	86.69
286.982	88.69
287.213	87.69
287.444	89.69
287.675	86.69
287.906	91.69
288.138	85.69
288.369	77.69
288.6	93.69
288.831	97.69
289.062	84.69
289.293	89.69
289.524	75.69
289.755	82.69
289.986	90.69
290.217	76.69
290.448	78.69
290.679	75.69
290.91	87.69
291.141	91.69
291.371	86.69
291.602	97.69
291.833	81.69
292.064	86.69
292.295	84.69
292.526	89.69
292.757	92.69
292.987	87.69
293.218	81.69
293.449	90.69
293.68	94.69
293.91	81.69
294.141	90.69
294.372	91.69
294.603	86.69
294.833	89.69
295.064	96.69
295.295	98.69
295.525	79.69
295.756	96.69
295.987	82.69
296.217	94.69
296.448	94.69
296.679	96.69
296.909	97.69
297.14	78.69
297.37	83.69
297.601	90.69
297.831	96.69
298.062	98.69
298.292	92.69
298.523	82.69
298.753	93.69
298.984	90.69
299.214	85.69
299.445	86.69
299.675	86.69
299.905	86.69
300.136	92.69
300.366	86.69
300.597	78.69
300.827	91.69
301.057	109.69
301.288	79.69
301.518	81.69
301.748	83.69
301.979	94.69
302.209	88.69
302.439	79.69
302.669	78.69
302.9	91.69
303.13	92.69
303.36	85.69
303.59	96.69
303.82	79.69
304.051	77.69
304.281	93.69
304.511	89.69
304.741	87.69
304.971	87.69
305.201	102.69
305.431	81.69
305.661	96.69
305.891	88.69
306.121	91.69
306.352	90.69
306.582	72.69
306.812	91.69
307.042	78.69
307.272	85.69
307.502	88.69
307.731	90.69
307.961	97.69
308.191	88.69
308.421	93.69
308.651	80.69
308.881	86.69
309.111	77.69
309.341	98.69
309.571	78.69
309.8	97.69
310.03	93.69
310.26	72.69
310.49	77.69
310.72	86.69
310.949	75.69
311.179	86.69
311.409	84.69
311.639	94.69
311.868	98.69
312.098	83.69
312.328	84.69
312.557	95.69
312.787	86.69
313.017	98.69
313.246	77.69
313.476	89.69
313.706	85.69
313.935	89.69
314.165	86.69
314.394	79.69
314.624	94.69
314.853	83.69
315.083	100.69
315.312	94.69
315.542	96.69
315.771	92.69
316.001	85.69
316.23	88.69
316.46	76.69
316.689	93.69
316.919	88.69
317.148	82.69
317.377	97.69
317.607	83.69
317.836	85.69
318.065	97.69
318.295	76.69
318.524	74.69
318.753	92.69
318.983	86.69
319.212	91.69
319.441	96.69
319.67	86.69
319.9	89.69
320.129	100.69
320.358	86.69
320.587	92.69
320.816	79.69
321.046	78.69
321.275	96.69
321.504	77.69
321.733	92.69
321.962	88.69
322.191	72.69
322.42	91.69
322.649	93.69
322.878	83.69
323.108	84.69
323.337	96.69
323.566	95.69
323.795	96.69
324.024	93.69
324.253	87.69
324.482	87.69
324.71	77.69
324.939	88.69
325.168	77.69
325.397	85.69
325.626	85.69
325.855	94.69
326.084	88.69
326.313	87.69
326.542	87.69
326.77	82.69
326.999	91.69
327.228	82.69
327.457	85.69
327.686	98.69
327.914	96.69
328.143	98.69
328.372	88.69
328.6	74.69
328.829	100.69
329.058	93.69
329.287	88.69
329.515	92.69
329.744	88.69
329.972	75.69
330.201	93.69
330.43	86.69
330.658	79.69
330.887	78.69
331.115	100.69
331.344	99.69
331.572	96.69
331.801	75.69
332.03	83.69
332.258	87.69
332.486	96.69
332.715	88.69
332.943	91.69
333.172	76.69
333.4	88.69
333.629	82.69
333.857	96.69
334.085	97.69
334.314	95.69
334.542	101.69
334.771	93.69
334.999	98.69
335.227	96.69
335.455	85.69
335.684	95.69
335.912	89.69
336.14	95.69
336.369	84.69
336.597	87.69
336.825	82.69
337.053	83.69
337.281	71.69
337.51	76.69
337.738	96.69
337.966	83.69
338.194	85.69
338.422	90.69
338.65	83.69
338.878	87.69
339.106	74.69
339.334	72.69
339.562	92.69
339.79	97.69
340.018	90.69
340.246	91.69
340.474	87.69
340.702	68.69
340.93	94.69
341.158	92.69
341.386	88.69
341.614	84.69
341.842	94.69
342.07	81.69
342.298	74.69
342.526	79.69
342.754	85.69
342.981	88.69
343.209	87.69
343.437	93.69
343.665	79.69
343.893	91.69
344.12	94.69
344.348	82.69
344.576	86.69
344.804	92.69
345.031	78.69
345.259	90.69
345.487	88.69
345.714	90.69
345.942	102.69
346.17	94.69
346.397	93.69
346.625	77.69
346.853	87.69
347.08	100.69
347.308	100.69
347.535	90.69
347.763	76.69
347.99	85.69
348.218	96.69
348.445	80.69
348.673	92.69
348.9	96.69
349.128	83.69
349.355	71.69
349.583	94.69
349.81	94.69
350.037	87.69
350.265	94.69
350.492	81.69
350.72	86.69
350.947	98.69
351.174	89.69
351.402	82.69
351.629	89.69
351.856	93.69
352.083	89.69
352.311	73.69
352.538	76.69
352.765	82.69
352.992	98.69
353.22	89.69
353.447	89.69
353.674	84.69
353.901	81.69
354.128	81.69
354.355	74.69
354.583	75.69
354.81	84.69
355.037	106.69
355.264	99.69
355.491	92.69
355.718	96.69
355.945	72.69
356.172	92.69
356.399	97.69
356.626	78.69
356.853	102.69
357.08	91.69
357.307	90.69
357.534	85.69
357.761	81.69
357.988	94.69
358.215	81.69
358.441	81.69
358.668	86.69
358.895	106.69
359.122	89.69
359.349	92.69
359.576	112.69
359.802	83.69
360.029	79.69
360.256	104.69
360.483	76.69
360.709	86.69
360.936	81.69
361.163	98.69
361.39	88.69
361.616	85.69
361.843	77.69
362.07	94.69
362.296	94.69
362.523	91.69
362.749	90.69
362.976	101.69
363.203	116.69
363.429	97.69
363.656	75.69
363.882	92.69
364.109	93.69
364.335	97.69
364.562	102.69
364.788	94.69
365.015	83.69
365.241	78.69
365.468	91.69
365.694	73.69
365.92	81.69
366.147	93.69
366.373	96.69
366.599	78.69
366.826	87.69
367.052	90.69
367.278	91.69
367.505	76.69
367.731	101.69
367.957	86.69
368.184	94.69
368.41	91.69
368.636	82.69
368.862	96.69
369.089	90.69
369.315	89.69
369.541	94.69
369.767	85.69
369.993	101.69
370.219	91.69
370.445	73.69
370.672	92.69
370.898	90.69
371.124	88.69
371.35	90.69
371.576	90.69
371.802	87.69
372.028	101.69
372.254	91.69
372.48	101.69
372.706	83.69
372.932	85.69
373.158	89.69
373.384	106.69
373.61	95.69
373.835	107.69
374.061	89.69
374.287	96.69
374.513	86.69
374.739	93.69
374.965	86.69
375.191	92.69
375.416	100.69
375.642	86.69
375.868	97.69
376.094	88.69
376.319	76.69
376.545	89.69
376.771	90.69
376.997	88.69
377.222	91.69
377.448	77.69
377.674	88.69
377.899	89.69
378.125	92.69
378.35	82.69
378.576	77.69
378.802	79.69
379.027	93.69
379.253	79.69
379.478	103.69
379.704	96.69
379.929	94.69
380.155	90.69
380.38	89.69
380.606	75.69
380.831	83.69
381.057	88.69
381.282	91.69
381.507	90.69
381.733	87.69
381.958	81.69
382.184	90.69
382.409	89.69
382.634	83.69
382.86	99.69
383.085	86.69
383.31	90.69
383.535	93.69
383.761	101.69
383.986	87.69
384.211	78.69
384.436	86.69
384.662	84.69
384.887	92.69
385.112	75.69
385.337	92.69
385.562	86.69
385.787	101.69
386.013	70.69
386.238	89.69
386.463	97.69
386.688	92.69
386.913	79.69
387.138	71.69
387.363	93.69
387.588	100.69
387.813	86.69
388.038	76.69
388.263	77.69
388.488	89.69
388.713	84.69
388.938	81.69
389.163	84.69
389.387	86.69
389.612	77.69
389.837	84.69
390.062	85.69
390.287	95.69
390.512	89.69
390.736	81.69
390.961	79.69
391.186	90.69
391.411	95.69
391.636	98.69
391.86	98.69
392.085	85.69
392.31	95.69
392.534	87.69
392.759	107.69
392.984	105.69
393.208	161.69
393.433	195.69
393.658	179.69
393.882	107.69
394.107	102.69
394.331	96.69
394.556	100.69
394.78	89.69
395.005	84.69
395.229	94.69
395.454	101.69
395.678	104.69
395.903	96.69
396.127	96.69
396.352	91.69
396.576	120.69
396.801	155.69
397.025	172.69
397.249	123.69
397.474	100.69
397.698	80.69
397.922	86.69
398.147	87.69
398.371	90.69
398.595	97.69
398.82	84.69
399.044	74.69
399.268	87.69
399.492	82.69
399.717	87.69
399.941	90.69
400.165	90.69
400.389	79.69
400.613	74.69
400.837	79.69
401.062	88.69
401.286	76.69
401.51	77.69
401.734	74.69
401.958	91.69
402.182	80.69
402.406	86.69
402.63	77.69
402.854	83.69
403.078	80.69
403.302	79.69
403.526	87.69
403.75	88.69
403.974	86.69
404.198	88.69
404.422	100.69
404.645	96.69
404.869	93.69
405.093	85.69
405.317	86.69
405.541	89.69
405.765	78.69
405.988	90.69
406.212	94.69
406.436	99.69
406.66	97.69
406.883	78.69
407.107	99.69
407.331	83.69
407.555	81.69
407.778	87.69
408.002	109.69
408.226	93.69
408.449	79.69
408.673	81.69
408.896	89.69
409.12	79.69
409.344	84.69
409.567	88.69
409.791	96.69
410.014	83.69
410.238	90.69
410.461	88.69
410.685	87.69
410.908	91.69
411.132	83.69
411.355	89.69
411.578	78.69
411.802	72.69
412.025	80.69
412.249	87.69
412.472	93.69
412.695	79.69
412.919	89.69
413.142	92.69
413.365	82.69
413.589	90.69
413.812	89.69
414.035	80.69
414.258	84.69
414.482	97.69
414.705	100.69
414.928	82.69
415.151	98.69
415.374	82.69
415.597	88.69
415.821	80.69
416.044	69.69
416.267	84.69
416.49	74.69
416.713	89.69
416.936	93.69
417.159	84.69
417.382	83.69
417.605	82.69
417.828	92.69
418.051	79.69
418.274	89.69
418.497	97.69
418.72	82.69
418.943	99.69
419.166	84.69
419.389	91.69
419.611	80.69
419.834	82.69
420.057	85.69
420.28	85.69
420.503	79.69
420.726	92.69
420.948	91.69
421.171	75.69
421.394	78.69
421.617	88.69
421.839	99.69
422.062	95.69
422.285	120.69
422.507	153.69
422.73	233.69
422.953	210.69
423.175	121.69
423.398	112.69
423.621	94.69
423.843	81.69
424.066	94.69
424.288	90.69
424.511	81.69
424.733	79.69
424.956	93.69
425.178	75.69
425.401	97.69
425.623	88.69
425.846	76.69
426.068	80.69
426.291	99.69
426.513	91.69
426.735	96.69
426.958	89.69
427.18	90.69
427.402	84.69
427.625	70.69
427.847	99.69
428.069	96.69
428.292	92.69
428.514	116.69
428.736	106.69
428.958	92.69
429.181	113.69
429.403	86.69
429.625	102.69
429.847	90.69
430.069	106.69
430.292	130.69
430.514	101.69
430.736	115.69
430.958	107.69
431.18	92.69
431.402	79.69
431.624	90.69
431.846	110.69
432.068	115.69
432.29	86.69
432.512	102.69
432.734	87.69
432.956	83.69
433.178	91.69
433.4	85.69
433.622	82.69
433.844	75.69
434.066	85.69
434.287	75.69
434.509	84.69
434.731	81.69
434.953	93.69
435.175	88.69
435.397	86.69
435.618	75.69
435.84	79.69
436.062	88.69
436.284	76.69
436.505	84.69
436.727	93.69
436.949	89.69
437.17	97.69
437.392	96.69
437.614	90.69
437.835	89.69
438.057	83.69
438.278	91.69
438.5	96.69
438.721	91.69
438.943	93.69
439.165	84.69
439.386	82.69
439.608	98.69
439.829	85.69
440.05	72.69
440.272	82.69
440.493	88.69
440.715	86.69
440.936	78.69
441.158	88.69
441.379	85.69
441.6	89.69
441.822	82.69
442.043	95.69
442.264	75.69
442.486	104.69
442.707	116.69
442.928	89.69
443.149	85.69
443.371	119.69
443.592	141.69
443.813	120.69
444.034	93.69
444.255	84.69
444.476	75.69
444.698	92.69
444.919	86.69
445.14	157.69
445.361	131.69
445.582	151.69
445.803	138.69
446.024	90.69
446.245	84.69
446.466	85.69
446.687	93.69
446.908	74.69
447.129	99.69
447.35	90.69
447.571	82.69
447.792	83.69
448.013	77.69
448.234	74.69
448.455	78.69
448.675	84.69
448.896	82.69
449.117	84.69
449.338	73.69
449.559	80.69
449.779	77.69
450	84.69
450.221	88.69
450.442	85.69
450.662	75.69
450.883	81.69
451.104	79.69
451.324	76.69
451.545	91.69
451.766	94.69
451.986	73.69
452.207	90.69
452.428	84.69
452.648	86.69
452.869	97.69
453.089	97.69
453.31	81.69
453.53	84.69
453.751	82.69
453.971	81.69
454.192	80.69
454.412	76.69
454.633	93.69
454.853	79.69
455.073	82.69
455.294	89.69
455.514	99.69
455.734	92.69
455.955	79.69
456.175	70.69
456.395	82.69
456.616	111.69
456.836	76.69
457.056	88.69
457.276	79.69
457.497	84.69
457.717	86.69
457.937	92.69
458.157	101.69
458.377	104.69
458.598	96.69
458.818	98.69
459.038	89.69
459.258	94.69
459.478	97.69
459.698	82.69
459.918	69.69
460.138	79.69
460.358	88.69
460.578	98.69
460.798	106.69
461.018	96.69
461.238	88.69
461.458	86.69
461.678	85.69
461.898	94.69
462.118	96.69
462.338	88.69
462.558	90.69
462.777	93.69
462.997	90.69
463.217	75.69
463.437	81.69
463.657	82.69
463.876	86.69
464.096	77.69
464.316	79.69
464.536	86.69
464.755	93.69
464.975	98.69
465.195	75.69
465.414	83.69
465.634	83.69
465.854	81.69
466.073	85.69
466.293	83.69
466.512	82.69
466.732	90.69
466.951	84.69
467.171	83.69
467.391	85.69
467.61	78.69
467.829	79.69
468.049	85.69
468.268	72.69
468.488	94.69
468.707	93.69
468.927	86.69
469.146	91.69
469.365	96.69
469.585	90.69
469.804	76.69
470.023	89.69
470.243	73.69
470.462	93.69
470.681	94.69
470.901	89.69
471.12	82.69
471.339	83.69
471.558	74.69
471.777	86.69
471.997	75.69
472.216	85.69
472.435	86.69
472.654	81.69
472.873	89.69
473.092	84.69
473.311	97.69
473.53	97.69
473.749	91.69
473.968	87.69
474.187	85.69
474.406	82.69
474.625	82.69
474.844	84.69
475.063	91.69
475.282	83.69
475.501	86.69
475.72	95.69
475.939	86.69
476.158	84.69
476.377	76.69
476.596	82.69
476.814	77.69
477.033	92.69
477.252	105.69
477.471	91.69
477.69	83.69
477.908	92.69
478.127	96.69
478.346	81.69
478.564	93.69
478.783	87.69
479.002	90.69
479.22	89.69
479.439	76.69
479.658	94.69
479.876	89.69
480.095	77.69
480.313	93.69
480.532	83.69
480.751	89.69
480.969	81.69
481.188	81.69
481.406	97.69
481.624	92.69
481.843	88.69
482.061	74.69
482.28	79.69
482.498	78.69
482.717	103.69
482.935	94.69
483.153	90.69
483.372	103.69
483.59	88.69
483.808	96.69
484.027	96.69
484.245	81.69
484.463	99.69
484.681	108.69
484.9	84.69
485.118	90.69
485.336	96.69
485.554	103.69
485.772	90.69
485.99	85.69
486.209	88.69
486.427	86.69
486.645	77.69
486.863	95.69
487.081	92.69
487.299	82.69
487.517	90.69
487.735	93.69
487.953	129.69
488.171	107.69
488.389	84.69
488.607	92.69
488.825	85.69
489.043	103.69
489.261	89.69
489.479	90.69
489.696	92.69
489.914	83.69
490.132	86.69
490.35	90.69
490.568	92.69
490.786	82.69
491.003	76.69
491.221	85.69
491.439	88.69
491.657	82.69
491.874	100.69
492.092	82.69
492.31	92.69
492.527	79.69
492.745	72.69
492.963	84.69
493.18	82.69
493.398	89.69
493.615	90.69
493.833	89.69
494.05	102.69
494.268	86.69
494.485	85.69
494.703	81.69
494.92	100.69
495.138	92.69
495.355	88.69
495.573	93.69
495.79	90.69
496.008	92.69
496.225	96.69
496.442	100.69
496.66	97.69
496.877	85.69
497.094	92.69
497.312	76.69
497.529	92.69
497.746	85.69
497.963	86.69
498.181	108.69
498.398	104.69
498.615	78.69
498.832	83.69
499.049	80.69
499.267	104.69
499.484	86.69
499.701	83.69
499.918	95.69
500.135	102.69
500.352	82.69
500.569	93.69
500.786	92.69
501.003	87.69
501.22	83.69
501.437	77.69
501.654	90.69
501.871	74.69
502.088	84.69
502.305	86.69
502.522	101.69
502.739	101.69
502.956	81.69
503.172	95.69
503.389	80.69
503.606	97.69
503.823	88.69
504.04	100.69
504.256	97.69
504.473	108.69
504.69	92.69
504.907	105.69
505.123	87.69
505.34	77.69
505.557	81.69
505.773	91.69
505.99	81.69
506.207	89.69
506.423	108.69
506.64	86.69
506.856	89.69
507.073	98.69
507.289	82.69
507.506	86.69
507.722	92.69
507.939	100.69
508.155	88.69
508.372	79.69
508.588	91.69
508.805	86.69
509.021	85.69
509.238	81.69
509.454	78.69
509.67	79.69
509.887	96.69
510.103	101.69
510.319	85.69
510.536	91.69
510.752	92.69
510.968	88.69
511.184	89.69
511.401	93.69
511.617	83.69
511.833	88.69
512.049	89.69
512.265	88.69
512.481	106.69
512.698	95.69
512.914	88.69
513.13	89.69
513.346	83.69
513.562	91.69
513.778	99.69
513.994	82.69
514.21	104.69
514.426	88.69
514.642	102.69
514.858	86.69
515.074	87.69
515.29	89.69
515.506	101.69
515.721	81.69
515.937	99.69
516.153	90.69
516.369	101.69
516.585	94.69
516.801	64.69
517.016	86.69
517.232	82.69
517.448	101.69
517.664	90.69
517.879	84.69
518.095	87.69
518.311	92.69
518.527	95.69
518.742	97.69
