Data from 10100_3_HRD10591_00011.txt Node
Date: Mon Jan 19 14:02:28 EST 2026
User: Yrep
Spectrometer: HR+D1059
Trigger mode: 1
Integration Time (sec): 1.000000E-1
Scans to average: 1
Electric dark correction enabled: true
Nonlinearity correction enabled: false
Boxcar width: 0
XAxis mode: Wavelengths
Number of Pixels in Spectrum: 2048
>>>>>Begin Spectral Data<<<<<
223.165	-15.31
223.4	-15.31
223.635	-15.31
223.869	-3.31
224.104	-16.31
224.338	-23.31
224.573	-19.31
224.808	-11.31
225.042	-5.31
225.277	-11.31
225.511	-8.31
225.746	15.69
225.98	10.69
226.215	16.69
226.449	16.69
226.683	1.69
226.918	19.69
227.152	32.69
227.387	25.69
227.621	19.69
227.856	41.69
228.09	50.69
228.324	50.69
228.559	74.69
228.793	58.69
229.027	58.69
229.262	63.69
229.496	58.69
229.73	74.69
229.964	69.69
230.199	74.69
230.433	86.69
230.667	82.69
230.901	76.69
231.136	71.69
231.37	73.69
231.604	85.69
231.838	92.69
232.072	79.69
232.306	77.69
232.541	77.69
232.775	70.69
233.009	85.69
233.243	72.69
233.477	75.69
233.711	75.69
233.945	67.69
234.179	71.69
234.413	89.69
234.647	70.69
234.881	83.69
235.115	74.69
235.349	68.69
235.583	75.69
235.817	79.69
236.051	92.69
236.285	76.69
236.519	82.69
236.753	72.69
236.987	78.69
237.221	56.69
237.455	74.69
237.689	74.69
237.922	77.69
238.156	77.69
238.39	75.69
238.624	80.69
238.858	68.69
239.091	74.69
239.325	54.69
239.559	68.69
239.793	69.69
240.027	80.69
240.26	70.69
240.494	74.69
240.728	79.69
240.961	81.69
241.195	86.69
241.429	67.69
241.662	67.69
241.896	76.69
242.13	53.69
242.363	62.69
242.597	66.69
242.83	81.69
243.064	80.69
243.298	82.69
243.531	53.69
243.765	65.69
243.998	64.69
244.232	63.69
244.465	74.69
244.699	62.69
244.932	67.69
245.166	77.69
245.399	71.69
245.633	58.69
245.866	73.69
246.099	63.69
246.333	69.69
246.566	66.69
246.8	69.69
247.033	76.69
247.266	74.69
247.5	71.69
247.733	67.69
247.966	72.69
248.2	60.69
248.433	76.69
248.666	88.69
248.899	78.69
249.133	72.69
249.366	81.69
249.599	68.69
249.832	71.69
250.066	79.69
250.299	74.69
250.532	76.69
250.765	84.69
250.998	66.69
251.231	76.69
251.465	83.69
251.698	75.69
251.931	88.69
252.164	71.69
252.397	68.69
252.63	78.69
252.863	58.69
253.096	82.69
253.329	74.69
253.562	53.69
253.795	82.69
254.028	77.69
254.261	83.69
254.494	65.69
254.727	72.69
254.96	78.69
255.193	70.69
255.426	83.69
255.659	83.69
255.892	68.69
256.124	85.69
256.357	77.69
256.59	73.69
256.823	70.69
257.056	71.69
257.289	80.69
257.521	84.69
257.754	86.69
257.987	68.69
258.22	74.69
258.452	84.69
258.685	56.69
258.918	65.69
259.151	76.69
259.383	70.69
259.616	82.69
259.849	76.69
260.081	75.69
260.314	66.69
260.547	46.69
260.779	66.69
261.012	83.69
261.244	80.69
261.477	81.69
261.71	77.69
261.942	78.69
262.175	84.69
262.407	68.69
262.64	70.69
262.872	60.69
263.105	70.69
263.337	56.69
263.57	76.69
263.802	68.69
264.035	67.69
264.267	79.69
264.499	69.69
264.732	85.69
264.964	64.69
265.197	84.69
265.429	81.69
265.661	81.69
265.894	78.69
266.126	72.69
266.358	67.69
266.591	86.69
266.823	92.69
267.055	68.69
267.287	79.69
267.52	86.69
267.752	84.69
267.984	78.69
268.216	90.69
268.448	77.69
268.681	84.69
268.913	76.69
269.145	64.69
269.377	80.69
269.609	77.69
269.841	81.69
270.073	90.69
270.306	66.69
270.538	80.69
270.77	86.69
271.002	74.69
271.234	62.69
271.466	64.69
271.698	63.69
271.93	93.69
272.162	80.69
272.394	75.69
272.626	75.69
272.858	73.69
273.09	76.69
273.322	80.69
273.553	87.69
273.785	81.69
274.017	78.69
274.249	74.69
274.481	76.69
274.713	84.69
274.945	76.69
275.176	77.69
275.408	70.69
275.64	81.69
275.872	76.69
276.104	82.69
276.335	80.69
276.567	76.69
276.799	74.69
277.031	81.69
277.262	80.69
277.494	78.69
277.726	86.69
277.957	82.69
278.189	78.69
278.421	65.69
278.652	78.69
278.884	86.69
279.115	68.69
279.347	78.69
279.579	60.69
279.81	77.69
280.042	89.69
280.273	81.69
280.505	78.69
280.736	70.69
280.968	76.69
281.199	76.69
281.431	72.69
281.662	90.69
281.894	79.69
282.125	77.69
282.356	71.69
282.588	70.69
282.819	86.69
283.051	98.69
283.282	90.69
283.513	90.69
283.745	89.69
283.976	83.69
284.207	78.69
284.439	77.69
284.67	69.69
284.901	73.69
285.132	74.69
285.364	88.69
285.595	80.69
285.826	79.69
286.057	88.69
286.288	82.69
286.52	92.69
286.751	70.69
286.982	67.69
287.213	84.69
287.444	70.69
287.675	77.69
287.906	88.69
288.138	79.69
288.369	77.69
288.6	84.69
288.831	82.69
289.062	88.69
289.293	72.69
289.524	82.69
289.755	84.69
289.986	86.69
290.217	75.69
290.448	61.69
290.679	82.69
290.91	71.69
291.141	91.69
291.371	82.69
291.602	77.69
291.833	82.69
292.064	95.69
292.295	66.69
292.526	69.69
292.757	77.69
292.987	75.69
293.218	64.69
293.449	70.69
293.68	84.69
293.91	80.69
294.141	83.69
294.372	74.69
294.603	58.69
294.833	80.69
295.064	90.69
295.295	91.69
295.525	77.69
295.756	84.69
295.987	67.69
296.217	66.69
296.448	84.69
296.679	73.69
296.909	76.69
297.14	70.69
297.37	60.69
297.601	77.69
297.831	81.69
298.062	73.69
298.292	95.69
298.523	83.69
298.753	80.69
298.984	76.69
299.214	82.69
299.445	67.69
299.675	79.69
299.905	72.69
300.136	87.69
300.366	80.69
300.597	83.69
300.827	81.69
301.057	84.69
301.288	85.69
301.518	86.69
301.748	86.69
301.979	89.69
302.209	71.69
302.439	98.69
302.669	78.69
302.9	87.69
303.13	78.69
303.36	70.69
303.59	79.69
303.82	91.69
304.051	70.69
304.281	72.69
304.511	82.69
304.741	74.69
304.971	87.69
305.201	84.69
305.431	80.69
305.661	74.69
305.891	91.69
306.121	74.69
306.352	84.69
306.582	89.69
306.812	80.69
307.042	76.69
307.272	85.69
307.502	77.69
307.731	94.69
307.961	70.69
308.191	77.69
308.421	82.69
308.651	80.69
308.881	79.69
309.111	89.69
309.341	97.69
309.571	101.69
309.8	71.69
310.03	83.69
310.26	85.69
310.49	78.69
310.72	90.69
310.949	73.69
311.179	71.69
311.409	69.69
311.639	86.69
311.868	69.69
312.098	79.69
312.328	78.69
312.557	87.69
312.787	81.69
313.017	74.69
313.246	78.69
313.476	76.69
313.706	65.69
313.935	70.69
314.165	78.69
314.394	79.69
314.624	90.69
314.853	85.69
315.083	84.69
315.312	72.69
315.542	67.69
315.771	83.69
316.001	86.69
316.23	84.69
316.46	80.69
316.689	82.69
316.919	90.69
317.148	86.69
317.377	83.69
317.607	91.69
317.836	87.69
318.065	94.69
318.295	94.69
318.524	78.69
318.753	70.69
318.983	94.69
319.212	85.69
319.441	88.69
319.67	90.69
319.9	75.69
320.129	92.69
320.358	92.69
320.587	81.69
320.816	79.69
321.046	68.69
321.275	92.69
321.504	84.69
321.733	81.69
321.962	85.69
322.191	74.69
322.42	90.69
322.649	86.69
322.878	63.69
323.108	93.69
323.337	82.69
323.566	98.69
323.795	94.69
324.024	86.69
324.253	83.69
324.482	87.69
324.71	96.69
324.939	80.69
325.168	81.69
325.397	87.69
325.626	64.69
325.855	94.69
326.084	70.69
326.313	75.69
326.542	86.69
326.77	91.69
326.999	79.69
327.228	98.69
327.457	83.69
327.686	72.69
327.914	82.69
328.143	76.69
328.372	86.69
328.6	85.69
328.829	86.69
329.058	70.69
329.287	68.69
329.515	90.69
329.744	84.69
329.972	88.69
330.201	76.69
330.43	76.69
330.658	91.69
330.887	77.69
331.115	86.69
331.344	90.69
331.572	88.69
331.801	93.69
332.03	83.69
332.258	89.69
332.486	79.69
332.715	81.69
332.943	92.69
333.172	88.69
333.4	76.69
333.629	76.69
333.857	82.69
334.085	88.69
334.314	92.69
334.542	94.69
334.771	86.69
334.999	85.69
335.227	90.69
335.455	77.69
335.684	89.69
335.912	85.69
336.14	90.69
336.369	80.69
336.597	82.69
336.825	79.69
337.053	81.69
337.281	84.69
337.51	84.69
337.738	108.69
337.966	93.69
338.194	94.69
338.422	84.69
338.65	81.69
338.878	60.69
339.106	75.69
339.334	81.69
339.562	90.69
339.79	82.69
340.018	83.69
340.246	74.69
340.474	93.69
340.702	76.69
340.93	78.69
341.158	81.69
341.386	84.69
341.614	79.69
341.842	83.69
342.07	82.69
342.298	78.69
342.526	76.69
342.754	91.69
342.981	84.69
343.209	74.69
343.437	89.69
343.665	78.69
343.893	67.69
344.12	96.69
344.348	77.69
344.576	92.69
344.804	78.69
345.031	91.69
345.259	72.69
345.487	90.69
345.714	81.69
345.942	88.69
346.17	75.69
346.397	92.69
346.625	74.69
346.853	88.69
347.08	72.69
347.308	91.69
347.535	78.69
347.763	86.69
347.99	87.69
348.218	86.69
348.445	91.69
348.673	80.69
348.9	91.69
349.128	75.69
349.355	75.69
349.583	71.69
349.81	67.69
350.037	82.69
350.265	80.69
350.492	71.69
350.72	89.69
350.947	83.69
351.174	75.69
351.402	89.69
351.629	85.69
351.856	80.69
352.083	86.69
352.311	99.69
352.538	76.69
352.765	83.69
352.992	80.69
353.22	78.69
353.447	77.69
353.674	70.69
353.901	82.69
354.128	71.69
354.355	82.69
354.583	82.69
354.81	90.69
355.037	76.69
355.264	72.69
355.491	73.69
355.718	82.69
355.945	79.69
356.172	69.69
356.399	67.69
356.626	76.69
356.853	91.69
357.08	88.69
357.307	84.69
357.534	86.69
357.761	73.69
357.988	95.69
358.215	87.69
358.441	86.69
358.668	96.69
358.895	97.69
359.122	108.69
359.349	76.69
359.576	88.69
359.802	78.69
360.029	85.69
360.256	77.69
360.483	84.69
360.709	79.69
360.936	86.69
361.163	84.69
361.39	80.69
361.616	95.69
361.843	81.69
362.07	99.69
362.296	120.69
362.523	114.69
362.749	121.69
362.976	119.69
363.203	122.69
363.429	111.69
363.656	106.69
363.882	108.69
364.109	106.69
364.335	134.69
364.562	132.69
364.788	110.69
365.015	96.69
365.241	81.69
365.468	69.69
365.694	89.69
365.92	73.69
366.147	89.69
366.373	84.69
366.599	92.69
366.826	84.69
367.052	81.69
367.278	83.69
367.505	82.69
367.731	98.69
367.957	85.69
368.184	85.69
368.41	89.69
368.636	87.69
368.862	80.69
369.089	87.69
369.315	82.69
369.541	93.69
369.767	82.69
369.993	87.69
370.219	85.69
370.445	87.69
370.672	83.69
370.898	79.69
371.124	95.69
371.35	96.69
371.576	89.69
371.802	84.69
372.028	94.69
372.254	72.69
372.48	96.69
372.706	96.69
372.932	81.69
373.158	93.69
373.384	115.69
373.61	90.69
373.835	84.69
374.061	89.69
374.287	88.69
374.513	106.69
374.739	90.69
374.965	95.69
375.191	76.69
375.416	88.69
375.642	95.69
375.868	85.69
376.094	91.69
376.319	73.69
376.545	101.69
376.771	73.69
376.997	90.69
377.222	86.69
377.448	88.69
377.674	81.69
377.899	81.69
378.125	82.69
378.35	92.69
378.576	90.69
378.802	76.69
379.027	86.69
379.253	78.69
379.478	82.69
379.704	80.69
379.929	92.69
380.155	79.69
380.38	84.69
380.606	74.69
380.831	75.69
381.057	87.69
381.282	94.69
381.507	100.69
381.733	95.69
381.958	89.69
382.184	97.69
382.409	91.69
382.634	87.69
382.86	104.69
383.085	98.69
383.31	98.69
383.535	86.69
383.761	85.69
383.986	92.69
384.211	86.69
384.436	89.69
384.662	75.69
384.887	90.69
385.112	81.69
385.337	86.69
385.562	81.69
385.787	75.69
386.013	88.69
386.238	81.69
386.463	86.69
386.688	97.69
386.913	94.69
387.138	82.69
387.363	87.69
387.588	92.69
387.813	97.69
388.038	79.69
388.263	78.69
388.488	83.69
388.713	86.69
388.938	93.69
389.163	93.69
389.387	92.69
389.612	104.69
389.837	76.69
390.062	88.69
390.287	97.69
390.512	84.69
390.736	92.69
390.961	98.69
391.186	100.69
391.411	85.69
391.636	80.69
391.86	83.69
392.085	83.69
392.31	83.69
392.534	106.69
392.759	109.69
392.984	132.69
393.208	171.69
393.433	242.69
393.658	206.69
393.882	130.69
394.107	107.69
394.331	92.69
394.556	108.69
394.78	108.69
395.005	97.69
395.229	82.69
395.454	100.69
395.678	115.69
395.903	112.69
396.127	118.69
396.352	128.69
396.576	140.69
396.801	186.69
397.025	213.69
397.249	149.69
397.474	125.69
397.698	103.69
397.922	82.69
398.147	90.69
398.371	82.69
398.595	86.69
398.82	98.69
399.044	73.69
399.268	88.69
399.492	95.69
399.717	90.69
399.941	92.69
400.165	84.69
400.389	70.69
400.613	90.69
400.837	79.69
401.062	82.69
401.286	93.69
401.51	69.69
401.734	79.69
401.958	89.69
402.182	81.69
402.406	76.69
402.63	72.69
402.854	93.69
403.078	74.69
403.302	96.69
403.526	95.69
403.75	82.69
403.974	85.69
404.198	105.69
404.422	107.69
404.645	97.69
404.869	104.69
405.093	101.69
405.317	85.69
405.541	83.69
405.765	88.69
405.988	75.69
406.212	82.69
406.436	68.69
406.66	96.69
406.883	80.69
407.107	72.69
407.331	95.69
407.555	85.69
407.778	94.69
408.002	102.69
408.226	83.69
408.449	81.69
408.673	74.69
408.896	96.69
409.12	93.69
409.344	81.69
409.567	92.69
409.791	89.69
410.014	100.69
410.238	104.69
410.461	91.69
410.685	82.69
410.908	78.69
411.132	92.69
411.355	97.69
411.578	74.69
411.802	83.69
412.025	87.69
412.249	68.69
412.472	76.69
412.695	76.69
412.919	86.69
413.142	94.69
413.365	97.69
413.589	89.69
413.812	94.69
414.035	93.69
414.258	76.69
414.482	80.69
414.705	76.69
414.928	84.69
415.151	79.69
415.374	84.69
415.597	85.69
415.821	93.69
416.044	73.69
416.267	70.69
416.49	78.69
416.713	80.69
416.936	83.69
417.159	88.69
417.382	73.69
417.605	81.69
417.828	76.69
418.051	82.69
418.274	74.69
418.497	76.69
418.72	77.69
418.943	80.69
419.166	84.69
419.389	77.69
419.611	99.69
419.834	77.69
420.057	89.69
420.28	92.69
420.503	92.69
420.726	97.69
420.948	90.69
421.171	94.69
421.394	115.69
421.617	118.69
421.839	127.69
422.062	141.69
422.285	198.69
422.507	262.69
422.73	307.69
422.953	290.69
423.175	213.69
423.398	163.69
423.621	115.69
423.843	114.69
424.066	101.69
424.288	98.69
424.511	92.69
424.733	92.69
424.956	95.69
425.178	106.69
425.401	90.69
425.623	91.69
425.846	83.69
426.068	92.69
426.291	76.69
426.513	81.69
426.735	91.69
426.958	77.69
427.18	106.69
427.402	99.69
427.625	92.69
427.847	106.69
428.069	103.69
428.292	114.69
428.514	145.69
428.736	101.69
428.958	121.69
429.181	131.69
429.403	94.69
429.625	126.69
429.847	120.69
430.069	153.69
430.292	184.69
430.514	170.69
430.736	141.69
430.958	133.69
431.18	91.69
431.402	95.69
431.624	108.69
431.846	124.69
432.068	134.69
432.29	99.69
432.512	93.69
432.734	83.69
432.956	78.69
433.178	74.69
433.4	86.69
433.622	87.69
433.844	90.69
434.066	83.69
434.287	84.69
434.509	84.69
434.731	92.69
434.953	65.69
435.175	78.69
435.397	92.69
435.618	86.69
435.84	94.69
436.062	91.69
436.284	84.69
436.505	91.69
436.727	76.69
436.949	92.69
437.17	71.69
437.392	74.69
437.614	78.69
437.835	81.69
438.057	90.69
438.278	85.69
438.5	93.69
438.721	95.69
438.943	78.69
439.165	75.69
439.386	71.69
439.608	81.69
439.829	75.69
440.05	82.69
440.272	83.69
440.493	83.69
440.715	83.69
440.936	90.69
441.158	85.69
441.379	91.69
441.6	81.69
441.822	76.69
442.043	79.69
442.264	109.69
442.486	137.69
442.707	159.69
442.928	128.69
443.149	121.69
443.371	157.69
443.592	236.69
443.813	206.69
444.034	99.69
444.255	114.69
444.476	115.69
444.698	80.69
444.919	95.69
445.14	202.69
445.361	186.69
445.582	285.69
445.803	260.69
446.024	116.69
446.245	92.69
446.466	84.69
446.687	90.69
446.908	98.69
447.129	84.69
447.35	92.69
447.571	90.69
447.792	86.69
448.013	78.69
448.234	95.69
448.455	70.69
448.675	77.69
448.896	75.69
449.117	82.69
449.338	83.69
449.559	84.69
449.779	89.69
450	86.69
450.221	76.69
450.442	70.69
450.662	70.69
450.883	87.69
451.104	78.69
451.324	77.69
451.545	85.69
451.766	95.69
451.986	92.69
452.207	77.69
452.428	83.69
452.648	84.69
452.869	95.69
453.089	103.69
453.31	88.69
453.53	89.69
453.751	97.69
453.971	92.69
454.192	78.69
454.412	96.69
454.633	76.69
454.853	82.69
455.073	92.69
455.294	87.69
455.514	83.69
455.734	86.69
455.955	80.69
456.175	76.69
456.395	83.69
456.616	77.69
456.836	86.69
457.056	80.69
457.276	82.69
457.497	77.69
457.717	86.69
457.937	106.69
458.157	135.69
458.377	142.69
458.598	130.69
458.818	146.69
459.038	110.69
459.258	72.69
459.478	88.69
459.698	79.69
459.918	99.69
460.138	84.69
460.358	78.69
460.578	90.69
460.798	106.69
461.018	104.69
461.238	86.69
461.458	69.69
461.678	87.69
461.898	77.69
462.118	76.69
462.338	73.69
462.558	95.69
462.777	92.69
462.997	90.69
463.217	76.69
463.437	76.69
463.657	91.69
463.876	79.69
464.096	74.69
464.316	77.69
464.536	81.69
464.755	67.69
464.975	78.69
465.195	80.69
465.414	88.69
465.634	81.69
465.854	82.69
466.073	78.69
466.293	77.69
466.512	76.69
466.732	85.69
466.951	81.69
467.171	82.69
467.391	80.69
467.61	77.69
467.829	89.69
468.049	81.69
468.268	99.69
468.488	94.69
468.707	101.69
468.927	80.69
469.146	72.69
469.365	91.69
469.585	89.69
469.804	83.69
470.023	88.69
470.243	81.69
470.462	82.69
470.681	92.69
470.901	81.69
471.12	75.69
471.339	96.69
471.558	82.69
471.777	85.69
471.997	77.69
472.216	80.69
472.435	75.69
472.654	74.69
472.873	82.69
473.092	80.69
473.311	87.69
473.53	76.69
473.749	77.69
473.968	85.69
474.187	95.69
474.406	71.69
474.625	85.69
474.844	89.69
475.063	88.69
475.282	88.69
475.501	84.69
475.72	78.69
475.939	95.69
476.158	90.69
476.377	74.69
476.596	89.69
476.814	80.69
477.033	80.69
477.252	101.69
477.471	84.69
477.69	92.69
477.908	88.69
478.127	83.69
478.346	74.69
478.564	95.69
478.783	76.69
479.002	88.69
479.22	94.69
479.439	82.69
479.658	76.69
479.876	82.69
480.095	94.69
480.313	85.69
480.532	91.69
480.751	95.69
480.969	62.69
481.188	91.69
481.406	78.69
481.624	88.69
481.843	79.69
482.061	78.69
482.28	80.69
482.498	100.69
482.717	88.69
482.935	82.69
483.153	85.69
483.372	116.69
483.59	82.69
483.808	98.69
484.027	106.69
484.245	102.69
484.463	82.69
484.681	108.69
484.9	69.69
485.118	80.69
485.336	90.69
485.554	86.69
485.772	90.69
485.99	77.69
486.209	107.69
486.427	88.69
486.645	88.69
486.863	89.69
487.081	79.69
487.299	97.69
487.517	101.69
487.735	121.69
487.953	199.69
488.171	162.69
488.389	91.69
488.607	94.69
488.825	92.69
489.043	86.69
489.261	68.69
489.479	76.69
489.696	89.69
489.914	77.69
490.132	69.69
490.35	76.69
490.568	74.69
490.786	81.69
491.003	92.69
491.221	79.69
491.439	73.69
491.657	94.69
491.874	94.69
492.092	93.69
492.31	92.69
492.527	81.69
492.745	89.69
492.963	101.69
493.18	92.69
493.398	98.69
493.615	86.69
493.833	76.69
494.05	85.69
494.268	83.69
494.485	101.69
494.703	99.69
494.92	85.69
495.138	78.69
495.355	80.69
495.573	98.69
495.79	76.69
496.008	98.69
496.225	82.69
496.442	94.69
496.66	80.69
496.877	77.69
497.094	70.69
497.312	91.69
497.529	96.69
497.746	92.69
497.963	84.69
498.181	100.69
498.398	104.69
498.615	101.69
498.832	80.69
499.049	76.69
499.267	99.69
499.484	84.69
499.701	91.69
499.918	92.69
500.135	94.69
500.352	80.69
500.569	83.69
500.786	84.69
501.003	100.69
501.22	80.69
501.437	84.69
501.654	94.69
501.871	86.69
502.088	91.69
502.305	98.69
502.522	93.69
502.739	104.69
502.956	94.69
503.172	86.69
503.389	76.69
503.606	84.69
503.823	95.69
504.04	115.69
504.256	147.69
504.473	154.69
504.69	112.69
504.907	84.69
505.123	95.69
505.34	85.69
505.557	85.69
505.773	90.69
505.99	89.69
506.207	85.69
506.423	87.69
506.64	96.69
506.856	66.69
507.073	81.69
507.289	86.69
507.506	89.69
507.722	85.69
507.939	80.69
508.155	92.69
508.372	78.69
508.588	81.69
508.805	93.69
509.021	91.69
509.238	100.69
509.454	92.69
509.67	84.69
509.887	90.69
510.103	85.69
510.319	92.69
510.536	99.69
510.752	92.69
510.968	82.69
511.184	87.69
511.401	89.69
511.617	93.69
511.833	85.69
512.049	81.69
512.265	81.69
512.481	75.69
512.698	88.69
512.914	82.69
513.13	86.69
513.346	94.69
513.562	102.69
513.778	78.69
513.994	88.69
514.21	92.69
514.426	85.69
514.642	63.69
514.858	82.69
515.074	90.69
515.29	81.69
515.506	90.69
515.721	90.69
515.937	85.69
516.153	80.69
516.369	82.69
516.585	89.69
516.801	80.69
517.016	92.69
517.232	85.69
517.448	99.69
517.664	98.69
517.879	98.69
518.095	86.69
518.311	95.69
