Data from 10100_3_HRD10591_00009.txt Node
Date: Mon Jan 19 14:02:27 EST 2026
User: Yrep
Spectrometer: HR+D1059
Trigger mode: 1
Integration Time (sec): 1.000000E-1
Scans to average: 1
Electric dark correction enabled: true
Nonlinearity correction enabled: false
Boxcar width: 0
XAxis mode: Wavelengths
Number of Pixels in Spectrum: 2048
>>>>>Begin Spectral Data<<<<<
223.165	-15.5
223.4	-15.5
223.635	-15.5
223.869	-16.5
224.104	-16.5
224.338	-15.5
224.573	-15.5
224.808	-14.5
225.042	-8.5
225.277	-8.5
225.511	-12.5
225.746	-3.5
225.98	16.5
226.215	21.5
226.449	22.5
226.683	2.5
226.918	34.5
227.152	29.5
227.387	39.5
227.621	38.5
227.856	50.5
228.09	56.5
228.324	60.5
228.559	58.5
228.793	71.5
229.027	65.5
229.262	71.5
229.496	69.5
229.73	65.5
229.964	75.5
230.199	73.5
230.433	61.5
230.667	76.5
230.901	70.5
231.136	65.5
231.37	80.5
231.604	89.5
231.838	90.5
232.072	79.5
232.306	84.5
232.541	75.5
232.775	98.5
233.009	80.5
233.243	93.5
233.477	85.5
233.711	62.5
233.945	69.5
234.179	82.5
234.413	96.5
234.647	91.5
234.881	83.5
235.115	77.5
235.349	81.5
235.583	83.5
235.817	88.5
236.051	62.5
236.285	69.5
236.519	78.5
236.753	79.5
236.987	86.5
237.221	70.5
237.455	88.5
237.689	76.5
237.922	72.5
238.156	81.5
238.39	81.5
238.624	64.5
238.858	68.5
239.091	85.5
239.325	74.5
239.559	70.5
239.793	77.5
240.027	77.5
240.26	76.5
240.494	81.5
240.728	85.5
240.961	79.5
241.195	89.5
241.429	79.5
241.662	86.5
241.896	80.5
242.13	81.5
242.363	70.5
242.597	71.5
242.83	65.5
243.064	75.5
243.298	74.5
243.531	70.5
243.765	72.5
243.998	81.5
244.232	74.5
244.465	65.5
244.699	81.5
244.932	91.5
245.166	72.5
245.399	77.5
245.633	95.5
245.866	83.5
246.099	73.5
246.333	69.5
246.566	81.5
246.8	91.5
247.033	71.5
247.266	68.5
247.5	77.5
247.733	82.5
247.966	80.5
248.2	80.5
248.433	83.5
248.666	75.5
248.899	72.5
249.133	81.5
249.366	67.5
249.599	90.5
249.832	69.5
250.066	86.5
250.299	74.5
250.532	81.5
250.765	80.5
250.998	94.5
251.231	76.5
251.465	84.5
251.698	84.5
251.931	69.5
252.164	65.5
252.397	72.5
252.63	73.5
252.863	85.5
253.096	77.5
253.329	92.5
253.562	81.5
253.795	77.5
254.028	87.5
254.261	65.5
254.494	83.5
254.727	82.5
254.96	86.5
255.193	75.5
255.426	78.5
255.659	86.5
255.892	82.5
256.124	73.5
256.357	71.5
256.59	82.5
256.823	69.5
257.056	77.5
257.289	84.5
257.521	88.5
257.754	80.5
257.987	75.5
258.22	75.5
258.452	70.5
258.685	88.5
258.918	94.5
259.151	81.5
259.383	78.5
259.616	82.5
259.849	85.5
260.081	88.5
260.314	82.5
260.547	77.5
260.779	85.5
261.012	75.5
261.244	81.5
261.477	74.5
261.71	90.5
261.942	107.5
262.175	88.5
262.407	72.5
262.64	78.5
262.872	77.5
263.105	82.5
263.337	77.5
263.57	80.5
263.802	95.5
264.035	72.5
264.267	88.5
264.499	90.5
264.732	77.5
264.964	65.5
265.197	84.5
265.429	84.5
265.661	81.5
265.894	87.5
266.126	98.5
266.358	82.5
266.591	89.5
266.823	79.5
267.055	78.5
267.287	66.5
267.52	76.5
267.752	89.5
267.984	77.5
268.216	75.5
268.448	100.5
268.681	86.5
268.913	85.5
269.145	91.5
269.377	85.5
269.609	90.5
269.841	82.5
270.073	95.5
270.306	75.5
270.538	97.5
270.77	81.5
271.002	89.5
271.234	70.5
271.466	81.5
271.698	81.5
271.93	81.5
272.162	94.5
272.394	70.5
272.626	82.5
272.858	87.5
273.09	100.5
273.322	87.5
273.553	92.5
273.785	82.5
274.017	95.5
274.249	94.5
274.481	80.5
274.713	96.5
274.945	82.5
275.176	69.5
275.408	104.5
275.64	85.5
275.872	90.5
276.104	94.5
276.335	88.5
276.567	85.5
276.799	85.5
277.031	82.5
277.262	84.5
277.494	81.5
277.726	90.5
277.957	96.5
278.189	76.5
278.421	103.5
278.652	85.5
278.884	78.5
279.115	93.5
279.347	81.5
279.579	83.5
279.81	81.5
280.042	84.5
280.273	86.5
280.505	80.5
280.736	89.5
280.968	99.5
281.199	81.5
281.431	82.5
281.662	96.5
281.894	97.5
282.125	93.5
282.356	80.5
282.588	95.5
282.819	87.5
283.051	80.5
283.282	88.5
283.513	79.5
283.745	89.5
283.976	87.5
284.207	96.5
284.439	77.5
284.67	69.5
284.901	74.5
285.132	101.5
285.364	89.5
285.595	87.5
285.826	82.5
286.057	82.5
286.288	78.5
286.52	92.5
286.751	82.5
286.982	93.5
287.213	93.5
287.444	87.5
287.675	70.5
287.906	87.5
288.138	72.5
288.369	83.5
288.6	101.5
288.831	89.5
289.062	93.5
289.293	86.5
289.524	84.5
289.755	96.5
289.986	75.5
290.217	81.5
290.448	91.5
290.679	84.5
290.91	84.5
291.141	96.5
291.371	93.5
291.602	80.5
291.833	83.5
292.064	91.5
292.295	88.5
292.526	86.5
292.757	97.5
292.987	73.5
293.218	79.5
293.449	69.5
293.68	85.5
293.91	92.5
294.141	88.5
294.372	89.5
294.603	91.5
294.833	104.5
295.064	91.5
295.295	103.5
295.525	90.5
295.756	90.5
295.987	84.5
296.217	76.5
296.448	80.5
296.679	84.5
296.909	100.5
297.14	89.5
297.37	73.5
297.601	84.5
297.831	88.5
298.062	92.5
298.292	82.5
298.523	97.5
298.753	77.5
298.984	80.5
299.214	81.5
299.445	100.5
299.675	93.5
299.905	88.5
300.136	103.5
300.366	92.5
300.597	92.5
300.827	102.5
301.057	104.5
301.288	92.5
301.518	62.5
301.748	95.5
301.979	98.5
302.209	96.5
302.439	91.5
302.669	78.5
302.9	94.5
303.13	98.5
303.36	79.5
303.59	87.5
303.82	98.5
304.051	71.5
304.281	81.5
304.511	105.5
304.741	81.5
304.971	86.5
305.201	85.5
305.431	92.5
305.661	91.5
305.891	81.5
306.121	85.5
306.352	75.5
306.582	83.5
306.812	85.5
307.042	107.5
307.272	76.5
307.502	93.5
307.731	85.5
307.961	97.5
308.191	101.5
308.421	100.5
308.651	85.5
308.881	103.5
309.111	82.5
309.341	90.5
309.571	96.5
309.8	87.5
310.03	89.5
310.26	81.5
310.49	93.5
310.72	96.5
310.949	91.5
311.179	89.5
311.409	89.5
311.639	76.5
311.868	79.5
312.098	83.5
312.328	79.5
312.557	80.5
312.787	83.5
313.017	90.5
313.246	97.5
313.476	96.5
313.706	80.5
313.935	89.5
314.165	91.5
314.394	87.5
314.624	92.5
314.853	93.5
315.083	93.5
315.312	89.5
315.542	97.5
315.771	84.5
316.001	95.5
316.23	83.5
316.46	75.5
316.689	95.5
316.919	87.5
317.148	99.5
317.377	94.5
317.607	84.5
317.836	108.5
318.065	104.5
318.295	100.5
318.524	97.5
318.753	89.5
318.983	78.5
319.212	88.5
319.441	90.5
319.67	96.5
319.9	69.5
320.129	92.5
320.358	96.5
320.587	94.5
320.816	89.5
321.046	87.5
321.275	86.5
321.504	87.5
321.733	105.5
321.962	107.5
322.191	107.5
322.42	93.5
322.649	103.5
322.878	95.5
323.108	91.5
323.337	80.5
323.566	93.5
323.795	97.5
324.024	92.5
324.253	92.5
324.482	91.5
324.71	93.5
324.939	100.5
325.168	74.5
325.397	95.5
325.626	82.5
325.855	91.5
326.084	97.5
326.313	73.5
326.542	83.5
326.77	83.5
326.999	88.5
327.228	93.5
327.457	83.5
327.686	88.5
327.914	103.5
328.143	92.5
328.372	83.5
328.6	98.5
328.829	94.5
329.058	85.5
329.287	84.5
329.515	86.5
329.744	96.5
329.972	97.5
330.201	78.5
330.43	89.5
330.658	78.5
330.887	75.5
331.115	93.5
331.344	81.5
331.572	79.5
331.801	77.5
332.03	103.5
332.258	97.5
332.486	91.5
332.715	96.5
332.943	81.5
333.172	83.5
333.4	86.5
333.629	88.5
333.857	105.5
334.085	93.5
334.314	100.5
334.542	97.5
334.771	103.5
334.999	108.5
335.227	98.5
335.455	103.5
335.684	98.5
335.912	108.5
336.14	104.5
336.369	112.5
336.597	99.5
336.825	103.5
337.053	89.5
337.281	91.5
337.51	90.5
337.738	88.5
337.966	95.5
338.194	74.5
338.422	101.5
338.65	98.5
338.878	108.5
339.106	76.5
339.334	92.5
339.562	95.5
339.79	95.5
340.018	92.5
340.246	92.5
340.474	105.5
340.702	78.5
340.93	91.5
341.158	80.5
341.386	85.5
341.614	79.5
341.842	72.5
342.07	79.5
342.298	75.5
342.526	99.5
342.754	94.5
342.981	80.5
343.209	95.5
343.437	117.5
343.665	83.5
343.893	97.5
344.12	104.5
344.348	95.5
344.576	104.5
344.804	81.5
345.031	78.5
345.259	85.5
345.487	85.5
345.714	103.5
345.942	92.5
346.17	85.5
346.397	97.5
346.625	97.5
346.853	95.5
347.08	91.5
347.308	94.5
347.535	99.5
347.763	96.5
347.99	101.5
348.218	90.5
348.445	97.5
348.673	94.5
348.9	87.5
349.128	98.5
349.355	90.5
349.583	93.5
349.81	84.5
350.037	101.5
350.265	88.5
350.492	100.5
350.72	95.5
350.947	94.5
351.174	96.5
351.402	92.5
351.629	119.5
351.856	96.5
352.083	87.5
352.311	99.5
352.538	100.5
352.765	99.5
352.992	100.5
353.22	91.5
353.447	71.5
353.674	82.5
353.901	98.5
354.128	89.5
354.355	101.5
354.583	81.5
354.81	104.5
355.037	104.5
355.264	104.5
355.491	96.5
355.718	85.5
355.945	95.5
356.172	86.5
356.399	87.5
356.626	98.5
356.853	103.5
357.08	110.5
357.307	98.5
357.534	97.5
357.761	95.5
357.988	103.5
358.215	106.5
358.441	96.5
358.668	91.5
358.895	89.5
359.122	96.5
359.349	104.5
359.576	107.5
359.802	96.5
360.029	98.5
360.256	90.5
360.483	100.5
360.709	100.5
360.936	96.5
361.163	98.5
361.39	102.5
361.616	95.5
361.843	106.5
362.07	117.5
362.296	121.5
362.523	118.5
362.749	117.5
362.976	147.5
363.203	165.5
363.429	135.5
363.656	108.5
363.882	122.5
364.109	148.5
364.335	180.5
364.562	210.5
364.788	139.5
365.015	111.5
365.241	83.5
365.468	107.5
365.694	113.5
365.92	90.5
366.147	99.5
366.373	99.5
366.599	83.5
366.826	99.5
367.052	95.5
367.278	100.5
367.505	101.5
367.731	100.5
367.957	96.5
368.184	96.5
368.41	119.5
368.636	97.5
368.862	75.5
369.089	91.5
369.315	92.5
369.541	92.5
369.767	77.5
369.993	96.5
370.219	105.5
370.445	106.5
370.672	96.5
370.898	85.5
371.124	107.5
371.35	105.5
371.576	104.5
371.802	104.5
372.028	102.5
372.254	98.5
372.48	90.5
372.706	107.5
372.932	107.5
373.158	110.5
373.384	98.5
373.61	117.5
373.835	128.5
374.061	108.5
374.287	118.5
374.513	109.5
374.739	106.5
374.965	120.5
375.191	92.5
375.416	93.5
375.642	112.5
375.868	120.5
376.094	116.5
376.319	119.5
376.545	99.5
376.771	98.5
376.997	92.5
377.222	92.5
377.448	87.5
377.674	90.5
377.899	96.5
378.125	96.5
378.35	98.5
378.576	103.5
378.802	92.5
379.027	91.5
379.253	93.5
379.478	92.5
379.704	104.5
379.929	97.5
380.155	99.5
380.38	99.5
380.606	92.5
380.831	100.5
381.057	108.5
381.282	106.5
381.507	109.5
381.733	99.5
381.958	99.5
382.184	101.5
382.409	112.5
382.634	114.5
382.86	114.5
383.085	112.5
383.31	105.5
383.535	107.5
383.761	120.5
383.986	129.5
384.211	103.5
384.436	114.5
384.662	98.5
384.887	103.5
385.112	93.5
385.337	118.5
385.562	102.5
385.787	110.5
386.013	115.5
386.238	109.5
386.463	109.5
386.688	115.5
386.913	98.5
387.138	111.5
387.363	115.5
387.588	89.5
387.813	117.5
388.038	117.5
388.263	107.5
388.488	101.5
388.713	104.5
388.938	103.5
389.163	97.5
389.387	91.5
389.612	106.5
389.837	112.5
390.062	99.5
390.287	95.5
390.512	115.5
390.736	110.5
390.961	77.5
391.186	97.5
391.411	109.5
391.636	101.5
391.86	107.5
392.085	117.5
392.31	117.5
392.534	118.5
392.759	144.5
392.984	202.5
393.208	328.5
393.433	447.5
393.658	324.5
393.882	167.5
394.107	129.5
394.331	142.5
394.556	176.5
394.78	133.5
395.005	113.5
395.229	127.5
395.454	123.5
395.678	122.5
395.903	159.5
396.127	163.5
396.352	198.5
396.576	213.5
396.801	326.5
397.025	373.5
397.249	221.5
397.474	172.5
397.698	119.5
397.922	119.5
398.147	104.5
398.371	120.5
398.595	106.5
398.82	104.5
399.044	103.5
399.268	113.5
399.492	92.5
399.717	95.5
399.941	101.5
400.165	115.5
400.389	109.5
400.613	90.5
400.837	93.5
401.062	83.5
401.286	99.5
401.51	87.5
401.734	86.5
401.958	71.5
402.182	92.5
402.406	99.5
402.63	100.5
402.854	100.5
403.078	106.5
403.302	109.5
403.526	107.5
403.75	80.5
403.974	100.5
404.198	112.5
404.422	113.5
404.645	136.5
404.869	105.5
405.093	116.5
405.317	97.5
405.541	83.5
405.765	79.5
405.988	88.5
406.212	98.5
406.436	112.5
406.66	122.5
406.883	90.5
407.107	115.5
407.331	115.5
407.555	120.5
407.778	132.5
408.002	137.5
408.226	95.5
408.449	92.5
408.673	99.5
408.896	98.5
409.12	118.5
409.344	124.5
409.567	109.5
409.791	107.5
410.014	127.5
410.238	123.5
410.461	106.5
410.685	106.5
410.908	98.5
411.132	118.5
411.355	107.5
411.578	79.5
411.802	90.5
412.025	98.5
412.249	104.5
412.472	92.5
412.695	91.5
412.919	106.5
413.142	107.5
413.365	107.5
413.589	91.5
413.812	109.5
414.035	104.5
414.258	108.5
414.482	101.5
414.705	94.5
414.928	103.5
415.151	98.5
415.374	112.5
415.597	101.5
415.821	99.5
416.044	102.5
416.267	91.5
416.49	77.5
416.713	92.5
416.936	88.5
417.159	89.5
417.382	96.5
417.605	105.5
417.828	100.5
418.051	93.5
418.274	90.5
418.497	97.5
418.72	97.5
418.943	101.5
419.166	96.5
419.389	101.5
419.611	108.5
419.834	106.5
420.057	105.5
420.28	98.5
420.503	95.5
420.726	112.5
420.948	103.5
421.171	113.5
421.394	132.5
421.617	160.5
421.839	173.5
422.062	196.5
422.285	267.5
422.507	401.5
422.73	506.5
422.953	457.5
423.175	358.5
423.398	229.5
423.621	187.5
423.843	153.5
424.066	134.5
424.288	123.5
424.511	114.5
424.733	102.5
424.956	119.5
425.178	103.5
425.401	118.5
425.623	98.5
425.846	100.5
426.068	96.5
426.291	95.5
426.513	115.5
426.735	105.5
426.958	111.5
427.18	98.5
427.402	124.5
427.625	104.5
427.847	106.5
428.069	124.5
428.292	156.5
428.514	200.5
428.736	131.5
428.958	162.5
429.181	168.5
429.403	116.5
429.625	136.5
429.847	140.5
430.069	216.5
430.292	243.5
430.514	230.5
430.736	177.5
430.958	180.5
431.18	132.5
431.402	103.5
431.624	107.5
431.846	144.5
432.068	159.5
432.29	118.5
432.512	108.5
432.734	111.5
432.956	99.5
433.178	78.5
433.4	95.5
433.622	85.5
433.844	103.5
434.066	93.5
434.287	98.5
434.509	92.5
434.731	93.5
434.953	89.5
435.175	106.5
435.397	102.5
435.618	115.5
435.84	101.5
436.062	104.5
436.284	87.5
436.505	89.5
436.727	93.5
436.949	82.5
437.17	101.5
437.392	99.5
437.614	97.5
437.835	99.5
438.057	102.5
438.278	108.5
438.5	108.5
438.721	106.5
438.943	87.5
439.165	99.5
439.386	100.5
439.608	95.5
439.829	97.5
440.05	96.5
440.272	92.5
440.493	95.5
440.715	106.5
440.936	99.5
441.158	99.5
441.379	100.5
441.6	100.5
441.822	101.5
442.043	103.5
442.264	124.5
442.486	179.5
442.707	263.5
442.928	172.5
443.149	146.5
443.371	223.5
443.592	343.5
443.813	311.5
444.034	159.5
444.255	110.5
444.476	108.5
444.698	89.5
444.919	111.5
445.14	220.5
445.361	271.5
445.582	438.5
445.803	413.5
446.024	175.5
446.245	122.5
446.466	104.5
446.687	94.5
446.908	87.5
447.129	100.5
447.35	97.5
447.571	83.5
447.792	79.5
448.013	93.5
448.234	86.5
448.455	100.5
448.675	100.5
448.896	83.5
449.117	94.5
449.338	83.5
449.559	106.5
449.779	92.5
450	86.5
450.221	97.5
450.442	103.5
450.662	79.5
450.883	85.5
451.104	105.5
451.324	95.5
451.545	96.5
451.766	99.5
451.986	94.5
452.207	109.5
452.428	99.5
452.648	111.5
452.869	126.5
453.089	114.5
453.31	101.5
453.53	119.5
453.751	124.5
453.971	110.5
454.192	100.5
454.412	92.5
454.633	96.5
454.853	102.5
455.073	79.5
455.294	108.5
455.514	129.5
455.734	114.5
455.955	98.5
456.175	92.5
456.395	92.5
456.616	116.5
456.836	97.5
457.056	91.5
457.276	94.5
457.497	99.5
457.717	111.5
457.937	153.5
458.157	188.5
458.377	188.5
458.598	168.5
458.818	199.5
459.038	143.5
459.258	117.5
459.478	103.5
459.698	111.5
459.918	95.5
460.138	87.5
460.358	101.5
460.578	105.5
460.798	138.5
461.018	142.5
461.238	113.5
461.458	92.5
461.678	85.5
461.898	92.5
462.118	105.5
462.338	97.5
462.558	80.5
462.777	89.5
462.997	90.5
463.217	96.5
463.437	92.5
463.657	101.5
463.876	105.5
464.096	85.5
464.316	100.5
464.536	103.5
464.755	99.5
464.975	92.5
465.195	92.5
465.414	100.5
465.634	87.5
465.854	103.5
466.073	83.5
466.293	89.5
466.512	100.5
466.732	93.5
466.951	93.5
467.171	84.5
467.391	96.5
467.61	98.5
467.829	86.5
468.049	91.5
468.268	93.5
468.488	103.5
468.707	106.5
468.927	108.5
469.146	95.5
469.365	99.5
469.585	97.5
469.804	103.5
470.023	96.5
470.243	95.5
470.462	92.5
470.681	87.5
470.901	99.5
471.12	91.5
471.339	104.5
471.558	85.5
471.777	88.5
471.997	97.5
472.216	99.5
472.435	101.5
472.654	105.5
472.873	100.5
473.092	99.5
473.311	101.5
473.53	109.5
473.749	90.5
473.968	96.5
474.187	83.5
474.406	97.5
474.625	98.5
474.844	90.5
475.063	93.5
475.282	99.5
475.501	90.5
475.72	101.5
475.939	103.5
476.158	94.5
476.377	102.5
476.596	101.5
476.814	105.5
477.033	90.5
477.252	87.5
477.471	104.5
477.69	89.5
477.908	97.5
478.127	96.5
478.346	97.5
478.564	104.5
478.783	99.5
479.002	102.5
479.22	102.5
479.439	97.5
479.658	82.5
479.876	97.5
480.095	97.5
480.313	103.5
480.532	113.5
480.751	117.5
480.969	100.5
481.188	111.5
481.406	106.5
481.624	93.5
481.843	99.5
482.061	104.5
482.28	102.5
482.498	92.5
482.717	103.5
482.935	93.5
483.153	109.5
483.372	107.5
483.59	104.5
483.808	98.5
484.027	101.5
484.245	102.5
484.463	105.5
484.681	94.5
484.9	116.5
485.118	114.5
485.336	114.5
485.554	112.5
485.772	108.5
485.99	106.5
486.209	99.5
486.427	96.5
486.645	93.5
486.863	108.5
487.081	123.5
487.299	127.5
487.517	128.5
487.735	184.5
487.953	314.5
488.171	240.5
488.389	122.5
488.607	108.5
488.825	111.5
489.043	109.5
489.261	113.5
489.479	111.5
489.696	116.5
489.914	96.5
490.132	106.5
490.35	102.5
490.568	98.5
490.786	103.5
491.003	103.5
491.221	91.5
491.439	89.5
491.657	116.5
491.874	98.5
492.092	112.5
492.31	115.5
492.527	97.5
492.745	107.5
492.963	114.5
493.18	111.5
493.398	108.5
493.615	117.5
493.833	113.5
494.05	97.5
494.268	100.5
494.485	103.5
494.703	109.5
494.92	101.5
495.138	102.5
495.355	82.5
495.573	95.5
495.79	108.5
496.008	117.5
496.225	106.5
496.442	111.5
496.66	111.5
496.877	107.5
497.094	95.5
497.312	97.5
497.529	115.5
497.746	104.5
497.963	113.5
498.181	121.5
498.398	137.5
498.615	106.5
498.832	101.5
499.049	121.5
499.267	116.5
499.484	120.5
499.701	103.5
499.918	117.5
500.135	119.5
500.352	116.5
500.569	96.5
500.786	118.5
501.003	129.5
501.22	104.5
501.437	109.5
501.654	116.5
501.871	118.5
502.088	87.5
502.305	115.5
502.522	124.5
502.739	109.5
502.956	119.5
503.172	99.5
503.389	106.5
503.606	100.5
503.823	123.5
504.04	139.5
504.256	213.5
504.473	208.5
504.69	129.5
504.907	118.5
505.123	108.5
505.34	113.5
505.557	108.5
505.773	109.5
505.99	104.5
506.207	93.5
506.423	104.5
506.64	109.5
506.856	88.5
507.073	108.5
507.289	119.5
507.506	113.5
507.722	84.5
507.939	91.5
508.155	101.5
508.372	97.5
508.588	98.5
508.805	103.5
509.021	94.5
509.238	98.5
509.454	89.5
509.67	99.5
509.887	95.5
510.103	96.5
510.319	112.5
510.536	93.5
510.752	99.5
510.968	100.5
511.184	97.5
511.401	92.5
511.617	101.5
511.833	98.5
512.049	89.5
512.265	108.5
512.481	97.5
512.698	107.5
512.914	108.5
513.13	99.5
513.346	103.5
513.562	106.5
513.778	91.5
513.994	95.5
514.21	119.5
514.426	109.5
514.642	95.5
514.858	103.5
515.074	111.5
515.29	109.5
515.506	107.5
515.721	96.5
515.937	106.5
516.153	108.5
516.369	91.5
516.585	97.5
516.801	107.5
517.016	135.5
517.232	113.5
517.448	136.5
517.664	120.5
517.879	113.5
518.095	102.5
518.311	105.5
518.527	145.5
518.742	163.5
518.958	264.5
519.173	309.5
519.389	154.5
519.605	113.5
519.82	115.5
520.036	105.5
520.251	106.5
520.467	111.5
520.682	107.5
520.898	108.5
521.113	109.5
521.329	108.5
521.544	96.5
521.76	113.5
521.975	99.5
522.19	113.5
522.406	101.5
522.621	106.5
522.836	111.5
523.052	103.5
523.267	115.5
523.482	100.5
523.698	95.5
523.913	106.5
524.128	114.5
524.343	112.5
524.559	119.5
524.774	121.5
524.989	116.5
525.204	134.5
525.419	117.5
525.634	129.5
525.849	132.5
526.064	181.5
526.28	372.5
526.495	552.5
526.71	586.5
526.925	364.5
527.14	457.5
527.355	389.5
527.57	164.5
527.785	132.5
527.999	109.5
528.214	108.5
528.429	123.5
528.644	95.5
528.859	102.5
529.074	113.5
529.289	116.5
529.503	107.5
529.718	116.5
529.933	105.5
530.148	123.5
530.363	139.5
530.577	111.5
530.792	129.5
531.007	121.5
531.221	122.5
531.436	109.5
531.651	98.5
531.865	134.5
532.08	120.5
