Data from 10100_3_HRD10591_00041.txt Node
Date: Mon Jan 19 14:02:43 EST 2026
User: Yrep
Spectrometer: HR+D1059
Trigger mode: 1
Integration Time (sec): 1.000000E-1
Scans to average: 1
Electric dark correction enabled: true
Nonlinearity correction enabled: false
Boxcar width: 0
XAxis mode: Wavelengths
Number of Pixels in Spectrum: 2048
>>>>>Begin Spectral Data<<<<<
223.165	-17.25
223.4	-17.25
223.635	-17.25
223.869	-28.25
224.104	-17.25
224.338	-21.25
224.573	0.75
224.808	-19.25
225.042	-8.25
225.277	-7.25
225.511	6.75
225.746	-1.25
225.98	2.75
226.215	20.75
226.449	9.75
226.683	22.75
226.918	28.75
227.152	27.75
227.387	39.75
227.621	40.75
227.856	40.75
228.09	37.75
228.324	49.75
228.559	51.75
228.793	50.75
229.027	33.75
229.262	57.75
229.496	78.75
229.73	71.75
229.964	68.75
230.199	79.75
230.433	79.75
230.667	75.75
230.901	73.75
231.136	75.75
231.37	88.75
231.604	75.75
231.838	70.75
232.072	83.75
232.306	66.75
232.541	68.75
232.775	76.75
233.009	81.75
233.243	68.75
233.477	75.75
233.711	62.75
233.945	71.75
234.179	76.75
234.413	90.75
234.647	84.75
234.881	69.75
235.115	64.75
235.349	77.75
235.583	70.75
235.817	83.75
236.051	72.75
236.285	76.75
236.519	69.75
236.753	82.75
236.987	67.75
237.221	64.75
237.455	74.75
237.689	64.75
237.922	79.75
238.156	68.75
238.39	67.75
238.624	49.75
238.858	66.75
239.091	64.75
239.325	60.75
239.559	78.75
239.793	68.75
240.027	72.75
240.26	78.75
240.494	73.75
240.728	75.75
240.961	63.75
241.195	84.75
241.429	72.75
241.662	70.75
241.896	65.75
242.13	58.75
242.363	80.75
242.597	72.75
242.83	66.75
243.064	73.75
243.298	76.75
243.531	71.75
243.765	70.75
243.998	77.75
244.232	79.75
244.465	85.75
244.699	82.75
244.932	70.75
245.166	75.75
245.399	88.75
245.633	84.75
245.866	82.75
246.099	68.75
246.333	92.75
246.566	60.75
246.8	73.75
247.033	68.75
247.266	64.75
247.5	69.75
247.733	71.75
247.966	90.75
248.2	72.75
248.433	71.75
248.666	79.75
248.899	83.75
249.133	68.75
249.366	71.75
249.599	64.75
249.832	78.75
250.066	82.75
250.299	61.75
250.532	81.75
250.765	64.75
250.998	73.75
251.231	71.75
251.465	71.75
251.698	85.75
251.931	67.75
252.164	88.75
252.397	62.75
252.63	63.75
252.863	72.75
253.096	66.75
253.329	85.75
253.562	87.75
253.795	68.75
254.028	80.75
254.261	76.75
254.494	83.75
254.727	77.75
254.96	80.75
255.193	88.75
255.426	81.75
255.659	63.75
255.892	67.75
256.124	78.75
256.357	72.75
256.59	74.75
256.823	78.75
257.056	72.75
257.289	76.75
257.521	93.75
257.754	86.75
257.987	75.75
258.22	70.75
258.452	74.75
258.685	82.75
258.918	67.75
259.151	78.75
259.383	82.75
259.616	75.75
259.849	82.75
260.081	86.75
260.314	79.75
260.547	79.75
260.779	72.75
261.012	72.75
261.244	76.75
261.477	82.75
261.71	66.75
261.942	70.75
262.175	79.75
262.407	92.75
262.64	75.75
262.872	66.75
263.105	76.75
263.337	84.75
263.57	70.75
263.802	83.75
264.035	102.75
264.267	82.75
264.499	57.75
264.732	67.75
264.964	80.75
265.197	81.75
265.429	82.75
265.661	83.75
265.894	86.75
266.126	98.75
266.358	78.75
266.591	72.75
266.823	83.75
267.055	82.75
267.287	80.75
267.52	68.75
267.752	72.75
267.984	92.75
268.216	88.75
268.448	87.75
268.681	78.75
268.913	62.75
269.145	72.75
269.377	87.75
269.609	76.75
269.841	90.75
270.073	80.75
270.306	77.75
270.538	85.75
270.77	93.75
271.002	85.75
271.234	84.75
271.466	77.75
271.698	68.75
271.93	78.75
272.162	76.75
272.394	69.75
272.626	90.75
272.858	71.75
273.09	70.75
273.322	59.75
273.553	78.75
273.785	82.75
274.017	85.75
274.249	79.75
274.481	83.75
274.713	100.75
274.945	72.75
275.176	80.75
275.408	81.75
275.64	91.75
275.872	76.75
276.104	75.75
276.335	85.75
276.567	66.75
276.799	82.75
277.031	82.75
277.262	76.75
277.494	77.75
277.726	85.75
277.957	80.75
278.189	68.75
278.421	82.75
278.652	71.75
278.884	78.75
279.115	72.75
279.347	88.75
279.579	87.75
279.81	89.75
280.042	86.75
280.273	88.75
280.505	94.75
280.736	60.75
280.968	81.75
281.199	92.75
281.431	72.75
281.662	65.75
281.894	82.75
282.125	62.75
282.356	80.75
282.588	82.75
282.819	93.75
283.051	84.75
283.282	90.75
283.513	84.75
283.745	68.75
283.976	72.75
284.207	75.75
284.439	78.75
284.67	97.75
284.901	86.75
285.132	91.75
285.364	77.75
285.595	84.75
285.826	82.75
286.057	80.75
286.288	72.75
286.52	63.75
286.751	83.75
286.982	78.75
287.213	80.75
287.444	78.75
287.675	88.75
287.906	91.75
288.138	102.75
288.369	85.75
288.6	69.75
288.831	87.75
289.062	92.75
289.293	83.75
289.524	66.75
289.755	76.75
289.986	80.75
290.217	70.75
290.448	80.75
290.679	84.75
290.91	83.75
291.141	87.75
291.371	74.75
291.602	86.75
291.833	95.75
292.064	80.75
292.295	79.75
292.526	79.75
292.757	93.75
292.987	75.75
293.218	80.75
293.449	82.75
293.68	75.75
293.91	79.75
294.141	62.75
294.372	86.75
294.603	82.75
294.833	71.75
295.064	83.75
295.295	76.75
295.525	82.75
295.756	83.75
295.987	90.75
296.217	86.75
296.448	77.75
296.679	80.75
296.909	83.75
297.14	84.75
297.37	88.75
297.601	79.75
297.831	75.75
298.062	85.75
298.292	84.75
298.523	84.75
298.753	85.75
298.984	73.75
299.214	82.75
299.445	81.75
299.675	80.75
299.905	86.75
300.136	90.75
300.366	74.75
300.597	84.75
300.827	89.75
301.057	101.75
301.288	91.75
301.518	79.75
301.748	86.75
301.979	92.75
302.209	85.75
302.439	76.75
302.669	85.75
302.9	74.75
303.13	91.75
303.36	93.75
303.59	85.75
303.82	82.75
304.051	82.75
304.281	72.75
304.511	71.75
304.741	85.75
304.971	72.75
305.201	80.75
305.431	82.75
305.661	80.75
305.891	84.75
306.121	88.75
306.352	69.75
306.582	78.75
306.812	80.75
307.042	80.75
307.272	70.75
307.502	87.75
307.731	79.75
307.961	91.75
308.191	84.75
308.421	90.75
308.651	91.75
308.881	75.75
309.111	71.75
309.341	75.75
309.571	70.75
309.8	83.75
310.03	87.75
310.26	71.75
310.49	83.75
310.72	77.75
310.949	78.75
311.179	86.75
311.409	78.75
311.639	78.75
311.868	85.75
312.098	81.75
312.328	86.75
312.557	70.75
312.787	93.75
313.017	95.75
313.246	73.75
313.476	94.75
313.706	75.75
313.935	78.75
314.165	86.75
314.394	85.75
314.624	83.75
314.853	82.75
315.083	87.75
315.312	74.75
315.542	78.75
315.771	73.75
316.001	83.75
316.23	92.75
316.46	84.75
316.689	82.75
316.919	79.75
317.148	86.75
317.377	79.75
317.607	70.75
317.836	62.75
318.065	74.75
318.295	90.75
318.524	79.75
318.753	83.75
318.983	85.75
319.212	88.75
319.441	62.75
319.67	81.75
319.9	82.75
320.129	90.75
320.358	101.75
320.587	68.75
320.816	79.75
321.046	67.75
321.275	75.75
321.504	92.75
321.733	96.75
321.962	80.75
322.191	88.75
322.42	85.75
322.649	70.75
322.878	84.75
323.108	66.75
323.337	80.75
323.566	82.75
323.795	89.75
324.024	82.75
324.253	80.75
324.482	81.75
324.71	94.75
324.939	76.75
325.168	84.75
325.397	81.75
325.626	89.75
325.855	93.75
326.084	82.75
326.313	80.75
326.542	83.75
326.77	80.75
326.999	82.75
327.228	82.75
327.457	88.75
327.686	96.75
327.914	79.75
328.143	80.75
328.372	85.75
328.6	77.75
328.829	75.75
329.058	69.75
329.287	89.75
329.515	83.75
329.744	94.75
329.972	95.75
330.201	77.75
330.43	70.75
330.658	66.75
330.887	101.75
331.115	77.75
331.344	75.75
331.572	89.75
331.801	86.75
332.03	70.75
332.258	79.75
332.486	72.75
332.715	86.75
332.943	85.75
333.172	88.75
333.4	95.75
333.629	94.75
333.857	67.75
334.085	70.75
334.314	82.75
334.542	79.75
334.771	82.75
334.999	70.75
335.227	90.75
335.455	85.75
335.684	85.75
335.912	83.75
336.14	77.75
336.369	82.75
336.597	65.75
336.825	85.75
337.053	85.75
337.281	93.75
337.51	85.75
337.738	93.75
337.966	76.75
338.194	74.75
338.422	83.75
338.65	79.75
338.878	77.75
339.106	82.75
339.334	84.75
339.562	83.75
339.79	86.75
340.018	75.75
340.246	72.75
340.474	72.75
340.702	70.75
340.93	91.75
341.158	71.75
341.386	83.75
341.614	88.75
341.842	86.75
342.07	66.75
342.298	76.75
342.526	70.75
342.754	76.75
342.981	99.75
343.209	79.75
343.437	98.75
343.665	68.75
343.893	79.75
344.12	87.75
344.348	86.75
344.576	69.75
344.804	80.75
345.031	74.75
345.259	88.75
345.487	80.75
345.714	79.75
345.942	77.75
346.17	83.75
346.397	83.75
346.625	75.75
346.853	86.75
347.08	78.75
347.308	81.75
347.535	81.75
347.763	77.75
347.99	94.75
348.218	86.75
348.445	70.75
348.673	77.75
348.9	74.75
349.128	76.75
349.355	88.75
349.583	80.75
349.81	84.75
350.037	82.75
350.265	72.75
350.492	74.75
350.72	66.75
350.947	83.75
351.174	87.75
351.402	71.75
351.629	83.75
351.856	80.75
352.083	75.75
352.311	90.75
352.538	73.75
352.765	72.75
352.992	78.75
353.22	82.75
353.447	91.75
353.674	80.75
353.901	86.75
354.128	76.75
354.355	81.75
354.583	82.75
354.81	85.75
355.037	91.75
355.264	78.75
355.491	78.75
355.718	74.75
355.945	72.75
356.172	82.75
356.399	86.75
356.626	73.75
356.853	61.75
357.08	93.75
357.307	80.75
357.534	94.75
357.761	70.75
357.988	77.75
358.215	76.75
358.441	77.75
358.668	78.75
358.895	88.75
359.122	81.75
359.349	92.75
359.576	75.75
359.802	92.75
360.029	90.75
360.256	78.75
360.483	83.75
360.709	78.75
360.936	95.75
361.163	78.75
361.39	78.75
361.616	85.75
361.843	85.75
362.07	95.75
362.296	78.75
362.523	67.75
362.749	85.75
362.976	99.75
363.203	100.75
363.429	86.75
363.656	94.75
363.882	82.75
364.109	93.75
364.335	87.75
364.562	82.75
364.788	94.75
365.015	85.75
365.241	82.75
365.468	78.75
365.694	66.75
365.92	77.75
366.147	83.75
366.373	87.75
366.599	81.75
366.826	84.75
367.052	75.75
367.278	76.75
367.505	75.75
367.731	86.75
367.957	81.75
368.184	80.75
368.41	88.75
368.636	87.75
368.862	77.75
369.089	83.75
369.315	72.75
369.541	80.75
369.767	82.75
369.993	83.75
370.219	85.75
370.445	70.75
370.672	85.75
370.898	70.75
371.124	84.75
371.35	96.75
371.576	76.75
371.802	83.75
372.028	78.75
372.254	92.75
372.48	81.75
372.706	94.75
372.932	94.75
373.158	78.75
373.384	77.75
373.61	79.75
373.835	83.75
374.061	81.75
374.287	84.75
374.513	75.75
374.739	92.75
374.965	76.75
375.191	82.75
375.416	84.75
375.642	78.75
375.868	79.75
376.094	79.75
376.319	79.75
376.545	78.75
376.771	74.75
376.997	83.75
377.222	80.75
377.448	82.75
377.674	62.75
377.899	76.75
378.125	78.75
378.35	82.75
378.576	86.75
378.802	87.75
379.027	79.75
379.253	82.75
379.478	80.75
379.704	80.75
379.929	80.75
380.155	87.75
380.38	83.75
380.606	76.75
380.831	86.75
381.057	73.75
381.282	72.75
381.507	96.75
381.733	80.75
381.958	74.75
382.184	70.75
382.409	82.75
382.634	84.75
382.86	87.75
383.085	72.75
383.31	94.75
383.535	85.75
383.761	66.75
383.986	78.75
384.211	64.75
384.436	73.75
384.662	85.75
384.887	84.75
385.112	78.75
385.337	62.75
385.562	79.75
385.787	80.75
386.013	98.75
386.238	88.75
386.463	78.75
386.688	94.75
386.913	84.75
387.138	68.75
387.363	86.75
387.588	88.75
387.813	88.75
388.038	82.75
388.263	68.75
388.488	82.75
388.713	84.75
388.938	79.75
389.163	93.75
389.387	82.75
389.612	90.75
389.837	63.75
390.062	73.75
390.287	79.75
390.512	72.75
390.736	81.75
390.961	85.75
391.186	81.75
391.411	89.75
391.636	76.75
391.86	76.75
392.085	80.75
392.31	89.75
392.534	83.75
392.759	76.75
392.984	73.75
393.208	91.75
393.433	114.75
393.658	86.75
393.882	83.75
394.107	84.75
394.331	91.75
394.556	69.75
394.78	82.75
395.005	78.75
395.229	78.75
395.454	87.75
395.678	90.75
395.903	83.75
396.127	90.75
396.352	78.75
396.576	78.75
396.801	119.75
397.025	110.75
397.249	86.75
397.474	85.75
397.698	81.75
397.922	76.75
398.147	72.75
398.371	83.75
398.595	86.75
398.82	79.75
399.044	71.75
399.268	85.75
399.492	76.75
399.717	60.75
399.941	76.75
400.165	78.75
400.389	73.75
400.613	94.75
400.837	67.75
401.062	66.75
401.286	64.75
401.51	86.75
401.734	87.75
401.958	79.75
402.182	87.75
402.406	71.75
402.63	73.75
402.854	86.75
403.078	82.75
403.302	84.75
403.526	87.75
403.75	78.75
403.974	72.75
404.198	73.75
404.422	79.75
404.645	72.75
404.869	95.75
405.093	76.75
405.317	79.75
405.541	95.75
405.765	87.75
405.988	76.75
406.212	86.75
406.436	84.75
406.66	78.75
406.883	77.75
407.107	77.75
407.331	80.75
407.555	80.75
407.778	80.75
408.002	83.75
408.226	75.75
408.449	75.75
408.673	79.75
408.896	76.75
409.12	82.75
409.344	64.75
409.567	68.75
409.791	73.75
410.014	75.75
410.238	61.75
410.461	80.75
410.685	66.75
410.908	81.75
411.132	82.75
411.355	72.75
411.578	81.75
411.802	76.75
412.025	70.75
412.249	78.75
412.472	72.75
412.695	81.75
412.919	91.75
413.142	81.75
413.365	91.75
413.589	95.75
413.812	78.75
414.035	92.75
414.258	77.75
414.482	70.75
414.705	66.75
414.928	81.75
415.151	71.75
415.374	80.75
415.597	98.75
415.821	71.75
416.044	79.75
416.267	78.75
416.49	87.75
416.713	81.75
416.936	91.75
417.159	74.75
417.382	72.75
417.605	82.75
417.828	77.75
418.051	67.75
418.274	71.75
418.497	79.75
418.72	71.75
418.943	69.75
419.166	92.75
419.389	79.75
419.611	88.75
419.834	71.75
420.057	78.75
420.28	66.75
420.503	63.75
420.726	82.75
420.948	86.75
421.171	85.75
421.394	90.75
421.617	91.75
421.839	92.75
422.062	93.75
422.285	95.75
422.507	92.75
422.73	118.75
422.953	120.75
423.175	111.75
423.398	97.75
423.621	95.75
423.843	77.75
424.066	82.75
424.288	79.75
424.511	89.75
424.733	100.75
424.956	86.75
425.178	72.75
425.401	83.75
425.623	90.75
425.846	74.75
426.068	76.75
426.291	84.75
426.513	75.75
426.735	82.75
426.958	78.75
427.18	86.75
427.402	70.75
427.625	72.75
427.847	85.75
428.069	77.75
428.292	81.75
428.514	84.75
428.736	85.75
428.958	83.75
429.181	83.75
429.403	78.75
429.625	76.75
429.847	97.75
430.069	97.75
430.292	106.75
430.514	101.75
430.736	74.75
430.958	74.75
431.18	76.75
431.402	80.75
431.624	80.75
431.846	79.75
432.068	94.75
432.29	80.75
432.512	80.75
432.734	75.75
432.956	71.75
433.178	73.75
433.4	82.75
433.622	75.75
433.844	83.75
434.066	83.75
434.287	67.75
434.509	65.75
434.731	77.75
434.953	83.75
435.175	84.75
435.397	86.75
435.618	77.75
435.84	83.75
436.062	78.75
436.284	62.75
436.505	72.75
436.727	68.75
436.949	77.75
437.17	70.75
437.392	75.75
437.614	84.75
437.835	81.75
438.057	78.75
438.278	79.75
438.5	73.75
438.721	80.75
438.943	88.75
439.165	73.75
439.386	79.75
439.608	77.75
439.829	69.75
440.05	75.75
440.272	74.75
440.493	92.75
440.715	78.75
440.936	75.75
441.158	90.75
441.379	89.75
441.6	79.75
441.822	75.75
442.043	71.75
442.264	75.75
442.486	93.75
442.707	94.75
442.928	80.75
443.149	83.75
443.371	90.75
443.592	95.75
443.813	94.75
444.034	80.75
444.255	95.75
444.476	87.75
444.698	84.75
444.919	71.75
445.14	140.75
445.361	113.75
445.582	99.75
445.803	102.75
446.024	90.75
446.245	85.75
446.466	83.75
446.687	76.75
446.908	86.75
447.129	83.75
447.35	72.75
447.571	77.75
447.792	70.75
448.013	74.75
448.234	72.75
448.455	60.75
448.675	69.75
448.896	82.75
449.117	77.75
449.338	74.75
449.559	93.75
449.779	78.75
450	91.75
450.221	64.75
450.442	81.75
450.662	85.75
450.883	73.75
451.104	74.75
451.324	72.75
451.545	88.75
451.766	68.75
451.986	84.75
452.207	87.75
452.428	83.75
452.648	81.75
452.869	71.75
453.089	83.75
453.31	78.75
453.53	71.75
453.751	70.75
453.971	84.75
454.192	71.75
454.412	74.75
454.633	90.75
454.853	91.75
455.073	73.75
455.294	81.75
455.514	92.75
455.734	82.75
455.955	83.75
456.175	80.75
456.395	76.75
456.616	82.75
456.836	76.75
457.056	83.75
457.276	69.75
457.497	80.75
457.717	70.75
457.937	90.75
458.157	79.75
458.377	80.75
458.598	82.75
458.818	83.75
459.038	73.75
459.258	80.75
459.478	90.75
459.698	67.75
459.918	93.75
460.138	74.75
460.358	77.75
460.578	83.75
460.798	86.75
461.018	73.75
461.238	79.75
461.458	79.75
461.678	75.75
461.898	80.75
462.118	84.75
462.338	78.75
462.558	80.75
462.777	73.75
462.997	101.75
463.217	83.75
463.437	76.75
463.657	87.75
463.876	84.75
464.096	73.75
464.316	79.75
464.536	69.75
464.755	84.75
464.975	77.75
465.195	77.75
465.414	74.75
465.634	79.75
465.854	79.75
466.073	69.75
466.293	80.75
466.512	77.75
466.732	74.75
466.951	83.75
467.171	74.75
467.391	73.75
467.61	81.75
467.829	80.75
468.049	74.75
468.268	82.75
468.488	69.75
468.707	85.75
468.927	74.75
469.146	86.75
469.365	85.75
469.585	72.75
469.804	77.75
470.023	88.75
470.243	81.75
470.462	78.75
470.681	82.75
470.901	74.75
471.12	90.75
471.339	73.75
471.558	79.75
471.777	77.75
471.997	83.75
472.216	84.75
472.435	75.75
472.654	69.75
472.873	69.75
473.092	69.75
473.311	80.75
473.53	76.75
473.749	80.75
473.968	81.75
474.187	77.75
474.406	79.75
474.625	79.75
474.844	90.75
475.063	87.75
475.282	81.75
475.501	86.75
475.72	87.75
475.939	83.75
476.158	100.75
476.377	86.75
476.596	86.75
476.814	81.75
477.033	88.75
477.252	86.75
477.471	86.75
477.69	77.75
477.908	72.75
478.127	70.75
478.346	90.75
478.564	72.75
478.783	73.75
479.002	78.75
479.22	78.75
479.439	89.75
479.658	86.75
479.876	91.75
480.095	83.75
480.313	83.75
480.532	84.75
480.751	81.75
480.969	78.75
481.188	76.75
481.406	72.75
481.624	86.75
481.843	74.75
482.061	67.75
482.28	80.75
482.498	76.75
482.717	83.75
482.935	76.75
483.153	85.75
483.372	71.75
483.59	80.75
483.808	81.75
484.027	88.75
484.245	77.75
484.463	86.75
484.681	84.75
484.9	83.75
485.118	78.75
485.336	75.75
485.554	65.75
485.772	67.75
485.99	91.75
486.209	92.75
486.427	76.75
486.645	101.75
486.863	62.75
487.081	68.75
487.299	78.75
487.517	87.75
487.735	82.75
487.953	98.75
488.171	97.75
488.389	91.75
488.607	87.75
488.825	56.75
489.043	85.75
489.261	78.75
489.479	74.75
489.696	70.75
489.914	81.75
490.132	83.75
490.35	85.75
490.568	80.75
490.786	62.75
491.003	79.75
491.221	85.75
491.439	89.75
491.657	65.75
491.874	83.75
492.092	77.75
492.31	87.75
492.527	63.75
492.745	75.75
492.963	82.75
493.18	82.75
493.398	71.75
493.615	80.75
493.833	92.75
494.05	65.75
494.268	80.75
494.485	84.75
494.703	81.75
494.92	78.75
495.138	86.75
495.355	77.75
495.573	81.75
495.79	88.75
496.008	95.75
496.225	82.75
496.442	73.75
496.66	69.75
496.877	74.75
497.094	80.75
497.312	78.75
497.529	94.75
497.746	84.75
497.963	85.75
498.181	84.75
498.398	72.75
498.615	89.75
498.832	80.75
499.049	85.75
499.267	80.75
499.484	93.75
499.701	83.75
499.918	95.75
500.135	80.75
500.352	84.75
500.569	72.75
500.786	84.75
501.003	85.75
501.22	80.75
501.437	98.75
501.654	98.75
501.871	78.75
502.088	81.75
502.305	85.75
502.522	81.75
502.739	98.75
502.956	78.75
503.172	77.75
503.389	82.75
503.606	90.75
503.823	80.75
504.04	80.75
504.256	85.75
504.473	95.75
504.69	83.75
504.907	83.75
505.123	75.75
505.34	75.75
505.557	86.75
505.773	90.75
505.99	91.75
506.207	83.75
506.423	87.75
506.64	86.75
506.856	80.75
507.073	78.75
507.289	88.75
507.506	83.75
507.722	81.75
507.939	81.75
508.155	79.75
508.372	96.75
508.588	92.75
508.805	87.75
509.021	71.75
509.238	73.75
509.454	61.75
509.67	86.75
509.887	88.75
510.103	81.75
510.319	88.75
510.536	80.75
510.752	65.75
510.968	82.75
511.184	66.75
511.401	82.75
511.617	75.75
511.833	75.75
512.049	78.75
512.265	95.75
512.481	79.75
512.698	76.75
512.914	78.75
513.13	72.75
513.346	90.75
513.562	86.75
513.778	61.75
513.994	80.75
514.21	88.75
514.426	90.75
514.642	95.75
514.858	67.75
515.074	100.75
515.29	72.75
515.506	94.75
515.721	71.75
515.937	74.75
516.153	82.75
516.369	78.75
516.585	72.75
516.801	76.75
517.016	91.75
517.232	86.75
517.448	87.75
517.664	98.75
517.879	78.75
518.095	79.75
518.311	68.75
518.527	91.75
518.742	88.75
518.958	89.75
519.173	78.75
519.389	78.75
519.605	79.75
519.82	88.75
520.036	76.75
