Data from 10100_3_HRD10591_00022.txt Node
Date: Mon Jan 19 14:02:33 EST 2026
User: Yrep
Spectrometer: HR+D1059
Trigger mode: 1
Integration Time (sec): 1.000000E-1
Scans to average: 1
Electric dark correction enabled: true
Nonlinearity correction enabled: false
Boxcar width: 0
XAxis mode: Wavelengths
Number of Pixels in Spectrum: 2048
>>>>>Begin Spectral Data<<<<<
223.165	-7.5
223.4	-7.5
223.635	-7.5
223.869	-12.5
224.104	-15.5
224.338	-16.5
224.573	-28.5
224.808	-14.5
225.042	-14.5
225.277	-10.5
225.511	-16.5
225.746	8.5
225.98	19.5
226.215	20.5
226.449	12.5
226.683	21.5
226.918	22.5
227.152	31.5
227.387	43.5
227.621	39.5
227.856	35.5
228.09	46.5
228.324	50.5
228.559	57.5
228.793	50.5
229.027	68.5
229.262	70.5
229.496	66.5
229.73	74.5
229.964	74.5
230.199	82.5
230.433	70.5
230.667	68.5
230.901	82.5
231.136	83.5
231.37	82.5
231.604	80.5
231.838	74.5
232.072	91.5
232.306	86.5
232.541	82.5
232.775	88.5
233.009	86.5
233.243	81.5
233.477	92.5
233.711	92.5
233.945	83.5
234.179	75.5
234.413	72.5
234.647	82.5
234.881	69.5
235.115	66.5
235.349	66.5
235.583	100.5
235.817	74.5
236.051	76.5
236.285	95.5
236.519	88.5
236.753	94.5
236.987	75.5
237.221	74.5
237.455	64.5
237.689	80.5
237.922	69.5
238.156	73.5
238.39	77.5
238.624	79.5
238.858	74.5
239.091	82.5
239.325	80.5
239.559	71.5
239.793	80.5
240.027	76.5
240.26	72.5
240.494	85.5
240.728	70.5
240.961	70.5
241.195	71.5
241.429	72.5
241.662	79.5
241.896	77.5
242.13	80.5
242.363	78.5
242.597	81.5
242.83	86.5
243.064	77.5
243.298	76.5
243.531	73.5
243.765	72.5
243.998	80.5
244.232	84.5
244.465	86.5
244.699	89.5
244.932	76.5
245.166	74.5
245.399	87.5
245.633	68.5
245.866	80.5
246.099	89.5
246.333	77.5
246.566	69.5
246.8	81.5
247.033	80.5
247.266	84.5
247.5	84.5
247.733	76.5
247.966	68.5
248.2	65.5
248.433	65.5
248.666	87.5
248.899	84.5
249.133	80.5
249.366	99.5
249.599	82.5
249.832	77.5
250.066	81.5
250.299	74.5
250.532	84.5
250.765	71.5
250.998	87.5
251.231	74.5
251.465	70.5
251.698	79.5
251.931	71.5
252.164	63.5
252.397	60.5
252.63	89.5
252.863	88.5
253.096	87.5
253.329	76.5
253.562	79.5
253.795	69.5
254.028	82.5
254.261	79.5
254.494	66.5
254.727	94.5
254.96	89.5
255.193	78.5
255.426	74.5
255.659	100.5
255.892	81.5
256.124	73.5
256.357	74.5
256.59	93.5
256.823	79.5
257.056	80.5
257.289	70.5
257.521	86.5
257.754	86.5
257.987	79.5
258.22	83.5
258.452	79.5
258.685	93.5
258.918	83.5
259.151	79.5
259.383	78.5
259.616	91.5
259.849	87.5
260.081	93.5
260.314	86.5
260.547	81.5
260.779	87.5
261.012	85.5
261.244	85.5
261.477	91.5
261.71	79.5
261.942	88.5
262.175	70.5
262.407	79.5
262.64	75.5
262.872	71.5
263.105	76.5
263.337	88.5
263.57	68.5
263.802	85.5
264.035	90.5
264.267	81.5
264.499	77.5
264.732	84.5
264.964	91.5
265.197	83.5
265.429	79.5
265.661	80.5
265.894	84.5
266.126	90.5
266.358	95.5
266.591	81.5
266.823	74.5
267.055	75.5
267.287	62.5
267.52	89.5
267.752	95.5
267.984	76.5
268.216	79.5
268.448	80.5
268.681	81.5
268.913	75.5
269.145	92.5
269.377	82.5
269.609	81.5
269.841	78.5
270.073	89.5
270.306	82.5
270.538	85.5
270.77	79.5
271.002	80.5
271.234	85.5
271.466	89.5
271.698	88.5
271.93	89.5
272.162	79.5
272.394	79.5
272.626	86.5
272.858	91.5
273.09	89.5
273.322	82.5
273.553	79.5
273.785	70.5
274.017	93.5
274.249	96.5
274.481	81.5
274.713	88.5
274.945	75.5
275.176	81.5
275.408	85.5
275.64	77.5
275.872	74.5
276.104	88.5
276.335	81.5
276.567	80.5
276.799	78.5
277.031	78.5
277.262	81.5
277.494	84.5
277.726	90.5
277.957	81.5
278.189	72.5
278.421	88.5
278.652	86.5
278.884	83.5
279.115	88.5
279.347	91.5
279.579	89.5
279.81	71.5
280.042	91.5
280.273	83.5
280.505	91.5
280.736	76.5
280.968	76.5
281.199	97.5
281.431	74.5
281.662	91.5
281.894	86.5
282.125	59.5
282.356	86.5
282.588	72.5
282.819	94.5
283.051	84.5
283.282	87.5
283.513	88.5
283.745	77.5
283.976	80.5
284.207	90.5
284.439	90.5
284.67	84.5
284.901	82.5
285.132	82.5
285.364	83.5
285.595	79.5
285.826	87.5
286.057	83.5
286.288	89.5
286.52	84.5
286.751	95.5
286.982	94.5
287.213	70.5
287.444	81.5
287.675	87.5
287.906	82.5
288.138	95.5
288.369	95.5
288.6	90.5
288.831	74.5
289.062	89.5
289.293	94.5
289.524	86.5
289.755	86.5
289.986	85.5
290.217	92.5
290.448	87.5
290.679	79.5
290.91	85.5
291.141	86.5
291.371	86.5
291.602	81.5
291.833	84.5
292.064	86.5
292.295	86.5
292.526	82.5
292.757	69.5
292.987	100.5
293.218	86.5
293.449	68.5
293.68	92.5
293.91	82.5
294.141	81.5
294.372	96.5
294.603	87.5
294.833	82.5
295.064	83.5
295.295	78.5
295.525	100.5
295.756	83.5
295.987	85.5
296.217	93.5
296.448	90.5
296.679	91.5
296.909	97.5
297.14	82.5
297.37	92.5
297.601	94.5
297.831	69.5
298.062	83.5
298.292	91.5
298.523	88.5
298.753	97.5
298.984	88.5
299.214	79.5
299.445	81.5
299.675	100.5
299.905	112.5
300.136	70.5
300.366	86.5
300.597	88.5
300.827	79.5
301.057	85.5
301.288	73.5
301.518	90.5
301.748	88.5
301.979	90.5
302.209	87.5
302.439	97.5
302.669	96.5
302.9	98.5
303.13	84.5
303.36	94.5
303.59	103.5
303.82	97.5
304.051	95.5
304.281	90.5
304.511	97.5
304.741	80.5
304.971	81.5
305.201	86.5
305.431	94.5
305.661	92.5
305.891	90.5
306.121	94.5
306.352	83.5
306.582	90.5
306.812	72.5
307.042	84.5
307.272	90.5
307.502	89.5
307.731	67.5
307.961	87.5
308.191	99.5
308.421	90.5
308.651	99.5
308.881	97.5
309.111	86.5
309.341	93.5
309.571	96.5
309.8	94.5
310.03	87.5
310.26	82.5
310.49	86.5
310.72	90.5
310.949	94.5
311.179	88.5
311.409	73.5
311.639	80.5
311.868	97.5
312.098	100.5
312.328	81.5
312.557	95.5
312.787	88.5
313.017	79.5
313.246	86.5
313.476	83.5
313.706	97.5
313.935	89.5
314.165	81.5
314.394	75.5
314.624	91.5
314.853	83.5
315.083	71.5
315.312	90.5
315.542	82.5
315.771	75.5
316.001	99.5
316.23	94.5
316.46	70.5
316.689	91.5
316.919	82.5
317.148	80.5
317.377	92.5
317.607	111.5
317.836	80.5
318.065	100.5
318.295	80.5
318.524	91.5
318.753	81.5
318.983	94.5
319.212	81.5
319.441	107.5
319.67	78.5
319.9	86.5
320.129	86.5
320.358	77.5
320.587	87.5
320.816	83.5
321.046	89.5
321.275	95.5
321.504	78.5
321.733	92.5
321.962	81.5
322.191	89.5
322.42	92.5
322.649	85.5
322.878	91.5
323.108	100.5
323.337	95.5
323.566	70.5
323.795	84.5
324.024	85.5
324.253	83.5
324.482	104.5
324.71	91.5
324.939	94.5
325.168	105.5
325.397	90.5
325.626	75.5
325.855	81.5
326.084	69.5
326.313	93.5
326.542	82.5
326.77	85.5
326.999	81.5
327.228	77.5
327.457	76.5
327.686	74.5
327.914	104.5
328.143	86.5
328.372	89.5
328.6	82.5
328.829	84.5
329.058	92.5
329.287	94.5
329.515	86.5
329.744	91.5
329.972	83.5
330.201	83.5
330.43	82.5
330.658	94.5
330.887	93.5
331.115	83.5
331.344	100.5
331.572	84.5
331.801	88.5
332.03	87.5
332.258	103.5
332.486	81.5
332.715	99.5
332.943	89.5
333.172	100.5
333.4	87.5
333.629	90.5
333.857	68.5
334.085	90.5
334.314	80.5
334.542	91.5
334.771	99.5
334.999	102.5
335.227	97.5
335.455	100.5
335.684	93.5
335.912	80.5
336.14	104.5
336.369	92.5
336.597	86.5
336.825	89.5
337.053	91.5
337.281	88.5
337.51	87.5
337.738	87.5
337.966	86.5
338.194	88.5
338.422	95.5
338.65	88.5
338.878	83.5
339.106	74.5
339.334	86.5
339.562	100.5
339.79	88.5
340.018	94.5
340.246	81.5
340.474	88.5
340.702	96.5
340.93	88.5
341.158	91.5
341.386	82.5
341.614	92.5
341.842	105.5
342.07	86.5
342.298	71.5
342.526	88.5
342.754	88.5
342.981	77.5
343.209	90.5
343.437	95.5
343.665	86.5
343.893	94.5
344.12	90.5
344.348	99.5
344.576	86.5
344.804	90.5
345.031	72.5
345.259	90.5
345.487	93.5
345.714	94.5
345.942	91.5
346.17	84.5
346.397	90.5
346.625	95.5
346.853	82.5
347.08	86.5
347.308	84.5
347.535	98.5
347.763	82.5
347.99	89.5
348.218	84.5
348.445	76.5
348.673	79.5
348.9	92.5
349.128	92.5
349.355	91.5
349.583	95.5
349.81	99.5
350.037	85.5
350.265	86.5
350.492	91.5
350.72	88.5
350.947	93.5
351.174	96.5
351.402	88.5
351.629	78.5
351.856	94.5
352.083	90.5
352.311	86.5
352.538	81.5
352.765	81.5
352.992	93.5
353.22	92.5
353.447	107.5
353.674	76.5
353.901	93.5
354.128	82.5
354.355	86.5
354.583	74.5
354.81	92.5
355.037	82.5
355.264	90.5
355.491	88.5
355.718	102.5
355.945	89.5
356.172	91.5
356.399	100.5
356.626	94.5
356.853	83.5
357.08	100.5
357.307	81.5
357.534	101.5
357.761	82.5
357.988	93.5
358.215	84.5
358.441	80.5
358.668	84.5
358.895	86.5
359.122	82.5
359.349	84.5
359.576	73.5
359.802	95.5
360.029	88.5
360.256	83.5
360.483	77.5
360.709	95.5
360.936	98.5
361.163	103.5
361.39	92.5
361.616	76.5
361.843	84.5
362.07	95.5
362.296	82.5
362.523	95.5
362.749	99.5
362.976	82.5
363.203	118.5
363.429	96.5
363.656	100.5
363.882	97.5
364.109	110.5
364.335	114.5
364.562	127.5
364.788	110.5
365.015	85.5
365.241	93.5
365.468	94.5
365.694	94.5
365.92	77.5
366.147	108.5
366.373	86.5
366.599	87.5
366.826	95.5
367.052	90.5
367.278	91.5
367.505	94.5
367.731	95.5
367.957	81.5
368.184	81.5
368.41	76.5
368.636	89.5
368.862	89.5
369.089	89.5
369.315	70.5
369.541	81.5
369.767	86.5
369.993	92.5
370.219	87.5
370.445	86.5
370.672	102.5
370.898	89.5
371.124	87.5
371.35	86.5
371.576	91.5
371.802	100.5
372.028	101.5
372.254	94.5
372.48	88.5
372.706	99.5
372.932	91.5
373.158	92.5
373.384	107.5
373.61	85.5
373.835	117.5
374.061	94.5
374.287	87.5
374.513	102.5
374.739	91.5
374.965	87.5
375.191	83.5
375.416	88.5
375.642	84.5
375.868	91.5
376.094	88.5
376.319	85.5
376.545	99.5
376.771	95.5
376.997	92.5
377.222	78.5
377.448	88.5
377.674	76.5
377.899	89.5
378.125	77.5
378.35	86.5
378.576	72.5
378.802	73.5
379.027	88.5
379.253	87.5
379.478	76.5
379.704	94.5
379.929	86.5
380.155	101.5
380.38	84.5
380.606	82.5
380.831	98.5
381.057	96.5
381.282	84.5
381.507	93.5
381.733	102.5
381.958	92.5
382.184	99.5
382.409	90.5
382.634	103.5
382.86	95.5
383.085	105.5
383.31	94.5
383.535	106.5
383.761	86.5
383.986	108.5
384.211	89.5
384.436	92.5
384.662	91.5
384.887	88.5
385.112	96.5
385.337	89.5
385.562	100.5
385.787	91.5
386.013	99.5
386.238	108.5
386.463	95.5
386.688	104.5
386.913	101.5
387.138	97.5
387.363	96.5
387.588	104.5
387.813	94.5
388.038	100.5
388.263	94.5
388.488	90.5
388.713	98.5
388.938	84.5
389.163	94.5
389.387	75.5
389.612	99.5
389.837	85.5
390.062	99.5
390.287	86.5
390.512	87.5
390.736	95.5
390.961	87.5
391.186	81.5
391.411	84.5
391.636	91.5
391.86	87.5
392.085	100.5
392.31	97.5
392.534	102.5
392.759	111.5
392.984	144.5
393.208	211.5
393.433	310.5
393.658	246.5
393.882	135.5
394.107	113.5
394.331	97.5
394.556	101.5
394.78	105.5
395.005	98.5
395.229	93.5
395.454	108.5
395.678	103.5
395.903	107.5
396.127	117.5
396.352	132.5
396.576	156.5
396.801	210.5
397.025	249.5
397.249	147.5
397.474	130.5
397.698	97.5
397.922	95.5
398.147	85.5
398.371	84.5
398.595	85.5
398.82	105.5
399.044	96.5
399.268	99.5
399.492	107.5
399.717	86.5
399.941	72.5
400.165	101.5
400.389	86.5
400.613	87.5
400.837	112.5
401.062	92.5
401.286	90.5
401.51	83.5
401.734	84.5
401.958	105.5
402.182	99.5
402.406	91.5
402.63	94.5
402.854	86.5
403.078	87.5
403.302	85.5
403.526	89.5
403.75	82.5
403.974	88.5
404.198	96.5
404.422	95.5
404.645	103.5
404.869	107.5
405.093	79.5
405.317	70.5
405.541	110.5
405.765	91.5
405.988	99.5
406.212	88.5
406.436	98.5
406.66	99.5
406.883	91.5
407.107	75.5
407.331	93.5
407.555	107.5
407.778	104.5
408.002	112.5
408.226	103.5
408.449	81.5
408.673	91.5
408.896	93.5
409.12	88.5
409.344	105.5
409.567	108.5
409.791	91.5
410.014	92.5
410.238	105.5
410.461	91.5
410.685	93.5
410.908	92.5
411.132	82.5
411.355	81.5
411.578	86.5
411.802	81.5
412.025	90.5
412.249	88.5
412.472	84.5
412.695	86.5
412.919	73.5
413.142	84.5
413.365	89.5
413.589	89.5
413.812	93.5
414.035	90.5
414.258	84.5
414.482	86.5
414.705	76.5
414.928	96.5
415.151	95.5
415.374	74.5
415.597	96.5
415.821	81.5
416.044	79.5
416.267	84.5
416.49	83.5
416.713	77.5
416.936	91.5
417.159	83.5
417.382	92.5
417.605	88.5
417.828	88.5
418.051	90.5
418.274	97.5
418.497	81.5
418.72	82.5
418.943	94.5
419.166	90.5
419.389	88.5
419.611	89.5
419.834	93.5
420.057	100.5
420.28	85.5
420.503	82.5
420.726	89.5
420.948	84.5
421.171	94.5
421.394	99.5
421.617	107.5
421.839	121.5
422.062	126.5
422.285	167.5
422.507	246.5
422.73	366.5
422.953	340.5
423.175	208.5
423.398	132.5
423.621	116.5
423.843	88.5
424.066	98.5
424.288	91.5
424.511	88.5
424.733	114.5
424.956	92.5
425.178	108.5
425.401	103.5
425.623	90.5
425.846	99.5
426.068	92.5
426.291	102.5
426.513	83.5
426.735	98.5
426.958	103.5
427.18	87.5
427.402	90.5
427.625	86.5
427.847	103.5
428.069	98.5
428.292	105.5
428.514	118.5
428.736	107.5
428.958	131.5
429.181	122.5
429.403	91.5
429.625	114.5
429.847	102.5
430.069	141.5
430.292	154.5
430.514	127.5
430.736	119.5
430.958	119.5
431.18	103.5
431.402	99.5
431.624	92.5
431.846	117.5
432.068	116.5
432.29	103.5
432.512	92.5
432.734	85.5
432.956	83.5
433.178	88.5
433.4	99.5
433.622	80.5
433.844	84.5
434.066	84.5
434.287	81.5
434.509	77.5
434.731	79.5
434.953	87.5
435.175	77.5
435.397	86.5
435.618	102.5
435.84	96.5
436.062	97.5
436.284	78.5
436.505	90.5
436.727	86.5
436.949	100.5
437.17	89.5
437.392	98.5
437.614	88.5
437.835	88.5
438.057	89.5
438.278	102.5
438.5	97.5
438.721	91.5
438.943	95.5
439.165	91.5
439.386	82.5
439.608	97.5
439.829	75.5
440.05	97.5
440.272	92.5
440.493	74.5
440.715	99.5
440.936	83.5
441.158	91.5
441.379	82.5
441.6	84.5
441.822	95.5
442.043	99.5
442.264	102.5
442.486	121.5
442.707	141.5
442.928	122.5
443.149	99.5
443.371	130.5
443.592	210.5
443.813	197.5
444.034	110.5
444.255	113.5
444.476	80.5
444.698	110.5
444.919	86.5
445.14	181.5
445.361	197.5
445.582	256.5
445.803	203.5
446.024	112.5
446.245	102.5
446.466	92.5
446.687	89.5
446.908	85.5
447.129	89.5
447.35	84.5
447.571	98.5
447.792	97.5
448.013	88.5
448.234	82.5
448.455	93.5
448.675	88.5
448.896	76.5
449.117	97.5
449.338	94.5
449.559	90.5
449.779	81.5
450	95.5
450.221	85.5
450.442	94.5
450.662	89.5
450.883	82.5
451.104	76.5
451.324	87.5
451.545	92.5
451.766	94.5
451.986	81.5
452.207	88.5
452.428	92.5
452.648	104.5
452.869	109.5
453.089	93.5
453.31	92.5
453.53	105.5
453.751	104.5
453.971	95.5
454.192	89.5
454.412	86.5
454.633	81.5
454.853	84.5
455.073	85.5
455.294	89.5
455.514	82.5
455.734	87.5
455.955	81.5
456.175	82.5
456.395	106.5
456.616	91.5
456.836	89.5
457.056	85.5
457.276	99.5
457.497	83.5
457.717	89.5
457.937	95.5
458.157	119.5
458.377	118.5
458.598	103.5
458.818	119.5
459.038	93.5
459.258	87.5
459.478	90.5
459.698	93.5
459.918	76.5
460.138	78.5
460.358	105.5
460.578	100.5
460.798	118.5
461.018	124.5
461.238	100.5
461.458	100.5
461.678	96.5
461.898	79.5
462.118	82.5
462.338	95.5
462.558	83.5
462.777	72.5
462.997	98.5
463.217	98.5
463.437	83.5
463.657	97.5
463.876	74.5
464.096	94.5
464.316	94.5
464.536	76.5
464.755	78.5
464.975	90.5
465.195	73.5
465.414	84.5
465.634	100.5
465.854	92.5
466.073	88.5
466.293	89.5
466.512	81.5
466.732	79.5
466.951	87.5
467.171	85.5
467.391	84.5
467.61	93.5
467.829	73.5
468.049	89.5
468.268	90.5
468.488	98.5
468.707	89.5
468.927	87.5
469.146	89.5
469.365	90.5
469.585	98.5
469.804	88.5
470.023	82.5
470.243	107.5
470.462	89.5
470.681	93.5
470.901	82.5
471.12	81.5
471.339	91.5
471.558	90.5
471.777	67.5
471.997	89.5
472.216	92.5
472.435	86.5
472.654	78.5
472.873	95.5
473.092	90.5
473.311	91.5
473.53	79.5
473.749	103.5
473.968	77.5
474.187	77.5
474.406	90.5
474.625	80.5
474.844	81.5
475.063	95.5
475.282	78.5
475.501	85.5
475.72	90.5
475.939	85.5
476.158	102.5
476.377	88.5
476.596	94.5
476.814	89.5
477.033	104.5
477.252	80.5
477.471	91.5
477.69	90.5
477.908	78.5
478.127	100.5
478.346	90.5
478.564	82.5
478.783	88.5
479.002	93.5
479.22	86.5
479.439	90.5
479.658	83.5
479.876	89.5
480.095	104.5
480.313	96.5
480.532	88.5
480.751	100.5
480.969	94.5
481.188	107.5
481.406	87.5
481.624	91.5
481.843	78.5
482.061	93.5
482.28	87.5
482.498	100.5
482.717	90.5
482.935	87.5
483.153	90.5
483.372	89.5
483.59	94.5
483.808	92.5
484.027	110.5
484.245	86.5
484.463	92.5
484.681	94.5
484.9	107.5
485.118	92.5
485.336	75.5
485.554	94.5
485.772	96.5
485.99	99.5
486.209	110.5
486.427	98.5
486.645	74.5
486.863	95.5
487.081	76.5
487.299	94.5
487.517	118.5
487.735	110.5
487.953	174.5
488.171	120.5
488.389	91.5
488.607	99.5
488.825	101.5
489.043	118.5
489.261	89.5
489.479	91.5
489.696	89.5
489.914	84.5
490.132	89.5
490.35	74.5
490.568	83.5
490.786	89.5
491.003	93.5
491.221	89.5
491.439	92.5
491.657	104.5
491.874	106.5
492.092	96.5
492.31	91.5
492.527	100.5
492.745	92.5
492.963	101.5
493.18	82.5
493.398	97.5
493.615	101.5
493.833	94.5
494.05	89.5
494.268	83.5
494.485	101.5
494.703	68.5
494.92	88.5
495.138	80.5
495.355	100.5
495.573	92.5
495.79	97.5
496.008	77.5
496.225	97.5
496.442	99.5
496.66	105.5
496.877	78.5
497.094	107.5
497.312	100.5
497.529	101.5
497.746	98.5
497.963	97.5
498.181	106.5
498.398	106.5
498.615	94.5
498.832	98.5
499.049	94.5
499.267	91.5
499.484	98.5
499.701	97.5
499.918	94.5
500.135	95.5
500.352	99.5
500.569	95.5
500.786	91.5
501.003	96.5
501.22	78.5
501.437	111.5
501.654	99.5
501.871	105.5
502.088	80.5
502.305	98.5
502.522	88.5
502.739	105.5
502.956	86.5
503.172	93.5
503.389	95.5
503.606	103.5
503.823	90.5
504.04	114.5
504.256	126.5
504.473	140.5
504.69	92.5
504.907	100.5
505.123	106.5
505.34	98.5
505.557	103.5
505.773	112.5
505.99	97.5
506.207	96.5
506.423	86.5
506.64	85.5
506.856	100.5
507.073	90.5
507.289	86.5
507.506	94.5
507.722	94.5
507.939	77.5
508.155	92.5
508.372	110.5
508.588	97.5
508.805	80.5
509.021	94.5
509.238	103.5
509.454	96.5
509.67	79.5
509.887	91.5
510.103	102.5
510.319	94.5
510.536	84.5
510.752	87.5
510.968	89.5
511.184	84.5
511.401	98.5
511.617	94.5
511.833	94.5
512.049	95.5
512.265	103.5
512.481	89.5
512.698	104.5
512.914	93.5
513.13	104.5
513.346	96.5
513.562	89.5
513.778	114.5
513.994	103.5
514.21	96.5
514.426	87.5
514.642	87.5
514.858	89.5
515.074	82.5
515.29	86.5
515.506	102.5
515.721	90.5
515.937	91.5
516.153	91.5
516.369	105.5
516.585	100.5
516.801	93.5
517.016	104.5
517.232	96.5
517.448	98.5
517.664	102.5
517.879	97.5
518.095	98.5
518.311	101.5
518.527	95.5
518.742	120.5
518.958	138.5
519.173	152.5
519.389	99.5
519.605	114.5
519.82	84.5
520.036	93.5
520.251	81.5
520.467	98.5
520.682	94.5
520.898	97.5
521.113	112.5
521.329	114.5
521.544	92.5
521.76	102.5
521.975	92.5
522.19	83.5
522.406	90.5
522.621	81.5
522.836	93.5
523.052	96.5
523.267	90.5
523.482	93.5
523.698	88.5
523.913	92.5
524.128	96.5
524.343	90.5
524.559	91.5
524.774	92.5
524.989	108.5
525.204	95.5
525.419	105.5
525.634	96.5
525.849	101.5
526.064	114.5
526.28	190.5
526.495	276.5
526.71	288.5
526.925	194.5
527.14	243.5
527.355	224.5
527.57	106.5
527.785	96.5
527.999	91.5
528.214	98.5
528.429	108.5
528.644	108.5
528.859	104.5
529.074	95.5
529.289	94.5
529.503	117.5
529.718	97.5
529.933	102.5
530.148	104.5
530.363	104.5
530.577	102.5
530.792	101.5
531.007	102.5
531.221	114.5
531.436	102.5
531.651	98.5
531.865	96.5
532.08	100.5
532.295	104.5
532.509	118.5
532.724	124.5
532.938	120.5
533.153	99.5
533.367	103.5
533.582	118.5
533.796	110.5
534.011	106.5
534.225	116.5
534.44	118.5
534.654	119.5
534.868	115.5
535.083	166.5
535.297	150.5
535.511	115.5
535.726	130.5
535.94	103.5
536.154	105.5
536.369	114.5
536.583	112.5
