Data from 10100_3_HRD10591_00024.txt Node
Date: Mon Jan 19 14:02:34 EST 2026
User: Yrep
Spectrometer: HR+D1059
Trigger mode: 1
Integration Time (sec): 1.000000E-1
Scans to average: 1
Electric dark correction enabled: true
Nonlinearity correction enabled: false
Boxcar width: 0
XAxis mode: Wavelengths
Number of Pixels in Spectrum: 2048
>>>>>Begin Spectral Data<<<<<
223.165	-28.88
223.4	-28.88
223.635	-28.88
223.869	-19.88
224.104	-8.88
224.338	-19.88
224.573	-20.88
224.808	-6.88
225.042	-13.88
225.277	0.12
225.511	-4.88
225.746	9.12
225.98	13.12
226.215	14.12
226.449	19.12
226.683	13.12
226.918	17.12
227.152	38.12
227.387	34.12
227.621	52.12
227.856	45.12
228.09	29.12
228.324	31.12
228.559	59.12
228.793	42.12
229.027	79.12
229.262	52.12
229.496	62.12
229.73	61.12
229.964	72.12
230.199	85.12
230.433	61.12
230.667	66.12
230.901	72.12
231.136	55.12
231.37	78.12
231.604	66.12
231.838	85.12
232.072	58.12
232.306	65.12
232.541	73.12
232.775	76.12
233.009	88.12
233.243	78.12
233.477	77.12
233.711	84.12
233.945	74.12
234.179	85.12
234.413	85.12
234.647	55.12
234.881	80.12
235.115	88.12
235.349	68.12
235.583	73.12
235.817	72.12
236.051	72.12
236.285	79.12
236.519	80.12
236.753	88.12
236.987	79.12
237.221	75.12
237.455	83.12
237.689	78.12
237.922	81.12
238.156	59.12
238.39	70.12
238.624	59.12
238.858	70.12
239.091	68.12
239.325	65.12
239.559	75.12
239.793	83.12
240.027	85.12
240.26	70.12
240.494	74.12
240.728	59.12
240.961	72.12
241.195	63.12
241.429	91.12
241.662	78.12
241.896	57.12
242.13	77.12
242.363	74.12
242.597	63.12
242.83	73.12
243.064	97.12
243.298	79.12
243.531	86.12
243.765	72.12
243.998	71.12
244.232	80.12
244.465	69.12
244.699	71.12
244.932	71.12
245.166	67.12
245.399	84.12
245.633	86.12
245.866	72.12
246.099	80.12
246.333	79.12
246.566	77.12
246.8	65.12
247.033	75.12
247.266	82.12
247.5	79.12
247.733	72.12
247.966	78.12
248.2	69.12
248.433	76.12
248.666	86.12
248.899	86.12
249.133	83.12
249.366	82.12
249.599	77.12
249.832	81.12
250.066	75.12
250.299	78.12
250.532	85.12
250.765	76.12
250.998	72.12
251.231	73.12
251.465	67.12
251.698	78.12
251.931	79.12
252.164	67.12
252.397	79.12
252.63	79.12
252.863	70.12
253.096	77.12
253.329	94.12
253.562	71.12
253.795	75.12
254.028	69.12
254.261	82.12
254.494	70.12
254.727	80.12
254.96	79.12
255.193	68.12
255.426	74.12
255.659	67.12
255.892	59.12
256.124	84.12
256.357	74.12
256.59	90.12
256.823	71.12
257.056	71.12
257.289	65.12
257.521	80.12
257.754	88.12
257.987	72.12
258.22	77.12
258.452	87.12
258.685	73.12
258.918	70.12
259.151	71.12
259.383	86.12
259.616	83.12
259.849	71.12
260.081	72.12
260.314	74.12
260.547	92.12
260.779	73.12
261.012	83.12
261.244	67.12
261.477	71.12
261.71	72.12
261.942	68.12
262.175	77.12
262.407	94.12
262.64	71.12
262.872	85.12
263.105	81.12
263.337	77.12
263.57	83.12
263.802	87.12
264.035	69.12
264.267	82.12
264.499	86.12
264.732	76.12
264.964	75.12
265.197	70.12
265.429	69.12
265.661	84.12
265.894	69.12
266.126	91.12
266.358	76.12
266.591	74.12
266.823	73.12
267.055	85.12
267.287	82.12
267.52	80.12
267.752	83.12
267.984	85.12
268.216	70.12
268.448	75.12
268.681	77.12
268.913	83.12
269.145	84.12
269.377	94.12
269.609	74.12
269.841	83.12
270.073	68.12
270.306	71.12
270.538	81.12
270.77	80.12
271.002	73.12
271.234	85.12
271.466	82.12
271.698	58.12
271.93	78.12
272.162	79.12
272.394	63.12
272.626	71.12
272.858	86.12
273.09	85.12
273.322	90.12
273.553	93.12
273.785	73.12
274.017	71.12
274.249	74.12
274.481	85.12
274.713	82.12
274.945	92.12
275.176	72.12
275.408	60.12
275.64	70.12
275.872	81.12
276.104	85.12
276.335	69.12
276.567	61.12
276.799	79.12
277.031	74.12
277.262	83.12
277.494	83.12
277.726	89.12
277.957	78.12
278.189	84.12
278.421	71.12
278.652	78.12
278.884	81.12
279.115	86.12
279.347	73.12
279.579	93.12
279.81	76.12
280.042	76.12
280.273	78.12
280.505	78.12
280.736	80.12
280.968	77.12
281.199	81.12
281.431	87.12
281.662	81.12
281.894	71.12
282.125	77.12
282.356	81.12
282.588	89.12
282.819	83.12
283.051	83.12
283.282	77.12
283.513	94.12
283.745	78.12
283.976	97.12
284.207	86.12
284.439	66.12
284.67	89.12
284.901	83.12
285.132	93.12
285.364	82.12
285.595	87.12
285.826	77.12
286.057	85.12
286.288	76.12
286.52	99.12
286.751	85.12
286.982	73.12
287.213	84.12
287.444	76.12
287.675	93.12
287.906	82.12
288.138	80.12
288.369	92.12
288.6	89.12
288.831	74.12
289.062	89.12
289.293	89.12
289.524	69.12
289.755	75.12
289.986	67.12
290.217	78.12
290.448	75.12
290.679	78.12
290.91	86.12
291.141	81.12
291.371	91.12
291.602	73.12
291.833	75.12
292.064	71.12
292.295	81.12
292.526	82.12
292.757	87.12
292.987	77.12
293.218	68.12
293.449	94.12
293.68	83.12
293.91	83.12
294.141	88.12
294.372	81.12
294.603	83.12
294.833	73.12
295.064	82.12
295.295	79.12
295.525	91.12
295.756	71.12
295.987	73.12
296.217	85.12
296.448	84.12
296.679	92.12
296.909	99.12
297.14	85.12
297.37	79.12
297.601	93.12
297.831	92.12
298.062	94.12
298.292	82.12
298.523	72.12
298.753	83.12
298.984	87.12
299.214	92.12
299.445	98.12
299.675	88.12
299.905	80.12
300.136	90.12
300.366	75.12
300.597	93.12
300.827	83.12
301.057	93.12
301.288	80.12
301.518	75.12
301.748	70.12
301.979	97.12
302.209	85.12
302.439	96.12
302.669	72.12
302.9	94.12
303.13	83.12
303.36	83.12
303.59	88.12
303.82	90.12
304.051	87.12
304.281	86.12
304.511	80.12
304.741	80.12
304.971	83.12
305.201	83.12
305.431	72.12
305.661	79.12
305.891	74.12
306.121	84.12
306.352	87.12
306.582	65.12
306.812	67.12
307.042	70.12
307.272	93.12
307.502	81.12
307.731	85.12
307.961	89.12
308.191	73.12
308.421	82.12
308.651	78.12
308.881	79.12
309.111	81.12
309.341	76.12
309.571	93.12
309.8	82.12
310.03	85.12
310.26	72.12
310.49	88.12
310.72	84.12
310.949	98.12
311.179	77.12
311.409	85.12
311.639	94.12
311.868	81.12
312.098	65.12
312.328	90.12
312.557	89.12
312.787	65.12
313.017	83.12
313.246	101.12
313.476	80.12
313.706	91.12
313.935	87.12
314.165	87.12
314.394	85.12
314.624	99.12
314.853	89.12
315.083	100.12
315.312	76.12
315.542	88.12
315.771	77.12
316.001	102.12
316.23	80.12
316.46	79.12
316.689	91.12
316.919	91.12
317.148	82.12
317.377	85.12
317.607	82.12
317.836	79.12
318.065	92.12
318.295	84.12
318.524	77.12
318.753	87.12
318.983	79.12
319.212	92.12
319.441	83.12
319.67	72.12
319.9	71.12
320.129	93.12
320.358	89.12
320.587	87.12
320.816	73.12
321.046	65.12
321.275	82.12
321.504	75.12
321.733	68.12
321.962	91.12
322.191	89.12
322.42	77.12
322.649	79.12
322.878	79.12
323.108	88.12
323.337	92.12
323.566	78.12
323.795	96.12
324.024	93.12
324.253	80.12
324.482	86.12
324.71	83.12
324.939	79.12
325.168	77.12
325.397	87.12
325.626	84.12
325.855	74.12
326.084	84.12
326.313	91.12
326.542	97.12
326.77	90.12
326.999	85.12
327.228	85.12
327.457	79.12
327.686	89.12
327.914	79.12
328.143	100.12
328.372	97.12
328.6	90.12
328.829	76.12
329.058	86.12
329.287	82.12
329.515	85.12
329.744	88.12
329.972	83.12
330.201	83.12
330.43	81.12
330.658	85.12
330.887	76.12
331.115	78.12
331.344	87.12
331.572	93.12
331.801	79.12
332.03	83.12
332.258	77.12
332.486	91.12
332.715	76.12
332.943	89.12
333.172	83.12
333.4	69.12
333.629	88.12
333.857	86.12
334.085	100.12
334.314	99.12
334.542	86.12
334.771	106.12
334.999	93.12
335.227	89.12
335.455	69.12
335.684	85.12
335.912	105.12
336.14	85.12
336.369	91.12
336.597	90.12
336.825	95.12
337.053	72.12
337.281	86.12
337.51	80.12
337.738	73.12
337.966	79.12
338.194	73.12
338.422	72.12
338.65	82.12
338.878	83.12
339.106	91.12
339.334	85.12
339.562	80.12
339.79	81.12
340.018	83.12
340.246	77.12
340.474	81.12
340.702	87.12
340.93	83.12
341.158	89.12
341.386	79.12
341.614	89.12
341.842	80.12
342.07	93.12
342.298	91.12
342.526	78.12
342.754	73.12
342.981	76.12
343.209	88.12
343.437	88.12
343.665	61.12
343.893	89.12
344.12	86.12
344.348	79.12
344.576	78.12
344.804	79.12
345.031	80.12
345.259	78.12
345.487	91.12
345.714	66.12
345.942	74.12
346.17	80.12
346.397	79.12
346.625	93.12
346.853	94.12
347.08	99.12
347.308	72.12
347.535	93.12
347.763	80.12
347.99	70.12
348.218	88.12
348.445	97.12
348.673	93.12
348.9	80.12
349.128	97.12
349.355	79.12
349.583	77.12
349.81	69.12
350.037	89.12
350.265	72.12
350.492	81.12
350.72	82.12
350.947	81.12
351.174	87.12
351.402	78.12
351.629	71.12
351.856	93.12
352.083	89.12
352.311	81.12
352.538	89.12
352.765	93.12
352.992	99.12
353.22	90.12
353.447	91.12
353.674	96.12
353.901	69.12
354.128	79.12
354.355	75.12
354.583	77.12
354.81	78.12
355.037	81.12
355.264	70.12
355.491	98.12
355.718	88.12
355.945	69.12
356.172	84.12
356.399	93.12
356.626	88.12
356.853	95.12
357.08	82.12
357.307	96.12
357.534	74.12
357.761	80.12
357.988	94.12
358.215	86.12
358.441	91.12
358.668	83.12
358.895	73.12
359.122	81.12
359.349	94.12
359.576	85.12
359.802	73.12
360.029	82.12
360.256	71.12
360.483	77.12
360.709	85.12
360.936	94.12
361.163	85.12
361.39	93.12
361.616	91.12
361.843	76.12
362.07	89.12
362.296	91.12
362.523	95.12
362.749	87.12
362.976	96.12
363.203	102.12
363.429	98.12
363.656	83.12
363.882	93.12
364.109	99.12
364.335	109.12
364.562	125.12
364.788	97.12
365.015	89.12
365.241	94.12
365.468	73.12
365.694	88.12
365.92	83.12
366.147	80.12
366.373	78.12
366.599	87.12
366.826	96.12
367.052	83.12
367.278	90.12
367.505	84.12
367.731	89.12
367.957	96.12
368.184	92.12
368.41	85.12
368.636	83.12
368.862	89.12
369.089	84.12
369.315	87.12
369.541	81.12
369.767	78.12
369.993	79.12
370.219	81.12
370.445	82.12
370.672	91.12
370.898	76.12
371.124	84.12
371.35	81.12
371.576	95.12
371.802	82.12
372.028	88.12
372.254	98.12
372.48	92.12
372.706	74.12
372.932	80.12
373.158	90.12
373.384	89.12
373.61	81.12
373.835	103.12
374.061	97.12
374.287	76.12
374.513	83.12
374.739	86.12
374.965	87.12
375.191	87.12
375.416	101.12
375.642	88.12
375.868	87.12
376.094	93.12
376.319	83.12
376.545	82.12
376.771	82.12
376.997	81.12
377.222	91.12
377.448	75.12
377.674	97.12
377.899	85.12
378.125	72.12
378.35	90.12
378.576	95.12
378.802	79.12
379.027	82.12
379.253	79.12
379.478	97.12
379.704	87.12
379.929	87.12
380.155	83.12
380.38	80.12
380.606	86.12
380.831	74.12
381.057	64.12
381.282	96.12
381.507	82.12
381.733	86.12
381.958	98.12
382.184	85.12
382.409	91.12
382.634	95.12
382.86	96.12
383.085	94.12
383.31	100.12
383.535	93.12
383.761	91.12
383.986	96.12
384.211	91.12
384.436	81.12
384.662	93.12
384.887	79.12
385.112	88.12
385.337	91.12
385.562	87.12
385.787	94.12
386.013	81.12
386.238	96.12
386.463	71.12
386.688	82.12
386.913	74.12
387.138	86.12
387.363	93.12
387.588	89.12
387.813	98.12
388.038	79.12
388.263	93.12
388.488	82.12
388.713	104.12
388.938	84.12
389.163	85.12
389.387	81.12
389.612	85.12
389.837	88.12
390.062	93.12
390.287	85.12
390.512	99.12
390.736	77.12
390.961	73.12
391.186	89.12
391.411	72.12
391.636	82.12
391.86	76.12
392.085	94.12
392.31	95.12
392.534	98.12
392.759	91.12
392.984	117.12
393.208	175.12
393.433	212.12
393.658	181.12
393.882	123.12
394.107	111.12
394.331	99.12
394.556	101.12
394.78	95.12
395.005	76.12
395.229	80.12
395.454	88.12
395.678	95.12
395.903	105.12
396.127	115.12
396.352	112.12
396.576	130.12
396.801	166.12
397.025	187.12
397.249	132.12
397.474	99.12
397.698	97.12
397.922	90.12
398.147	93.12
398.371	88.12
398.595	94.12
398.82	95.12
399.044	92.12
399.268	76.12
399.492	79.12
399.717	76.12
399.941	93.12
400.165	86.12
400.389	84.12
400.613	84.12
400.837	88.12
401.062	88.12
401.286	88.12
401.51	86.12
401.734	89.12
401.958	80.12
402.182	81.12
402.406	89.12
402.63	88.12
402.854	96.12
403.078	88.12
403.302	91.12
403.526	77.12
403.75	76.12
403.974	78.12
404.198	79.12
404.422	94.12
404.645	96.12
404.869	82.12
405.093	91.12
405.317	79.12
405.541	76.12
405.765	77.12
405.988	80.12
406.212	85.12
406.436	76.12
406.66	84.12
406.883	88.12
407.107	81.12
407.331	78.12
407.555	85.12
407.778	96.12
408.002	93.12
408.226	80.12
408.449	72.12
408.673	74.12
408.896	86.12
409.12	73.12
409.344	86.12
409.567	111.12
409.791	78.12
410.014	91.12
410.238	86.12
410.461	91.12
410.685	77.12
410.908	73.12
411.132	97.12
411.355	86.12
411.578	79.12
411.802	83.12
412.025	80.12
412.249	81.12
412.472	87.12
412.695	85.12
412.919	87.12
413.142	81.12
413.365	86.12
413.589	76.12
413.812	88.12
414.035	87.12
414.258	85.12
414.482	84.12
414.705	88.12
414.928	79.12
415.151	76.12
415.374	86.12
415.597	69.12
415.821	88.12
416.044	82.12
416.267	96.12
416.49	77.12
416.713	83.12
416.936	67.12
417.159	83.12
417.382	83.12
417.605	71.12
417.828	79.12
418.051	94.12
418.274	79.12
418.497	81.12
418.72	85.12
418.943	74.12
419.166	83.12
419.389	91.12
419.611	73.12
419.834	100.12
420.057	85.12
420.28	80.12
420.503	81.12
420.726	92.12
420.948	90.12
421.171	88.12
421.394	99.12
421.617	97.12
421.839	115.12
422.062	111.12
422.285	148.12
422.507	234.12
422.73	328.12
422.953	283.12
423.175	174.12
423.398	135.12
423.621	113.12
423.843	99.12
424.066	90.12
424.288	101.12
424.511	99.12
424.733	86.12
424.956	86.12
425.178	84.12
425.401	91.12
425.623	93.12
425.846	92.12
426.068	86.12
426.291	84.12
426.513	92.12
426.735	91.12
426.958	82.12
427.18	91.12
427.402	90.12
427.625	76.12
427.847	77.12
428.069	91.12
428.292	107.12
428.514	129.12
428.736	102.12
428.958	104.12
429.181	115.12
429.403	93.12
429.625	80.12
429.847	96.12
430.069	141.12
430.292	145.12
430.514	144.12
430.736	115.12
430.958	119.12
431.18	94.12
431.402	73.12
431.624	88.12
431.846	100.12
432.068	113.12
432.29	89.12
432.512	99.12
432.734	87.12
432.956	87.12
433.178	85.12
433.4	75.12
433.622	82.12
433.844	73.12
434.066	84.12
434.287	90.12
434.509	88.12
434.731	84.12
434.953	94.12
435.175	92.12
435.397	102.12
435.618	74.12
435.84	86.12
436.062	90.12
436.284	77.12
436.505	74.12
436.727	90.12
436.949	89.12
437.17	91.12
437.392	68.12
437.614	82.12
437.835	80.12
438.057	87.12
438.278	90.12
438.5	109.12
438.721	93.12
438.943	85.12
439.165	87.12
439.386	83.12
439.608	94.12
439.829	91.12
440.05	86.12
440.272	100.12
440.493	91.12
440.715	89.12
440.936	86.12
441.158	79.12
441.379	79.12
441.6	80.12
441.822	96.12
442.043	97.12
442.264	87.12
442.486	134.12
442.707	131.12
442.928	99.12
443.149	119.12
443.371	124.12
443.592	192.12
443.813	169.12
444.034	111.12
444.255	91.12
444.476	75.12
444.698	91.12
444.919	89.12
445.14	169.12
445.361	163.12
445.582	217.12
445.803	192.12
446.024	118.12
446.245	109.12
446.466	91.12
446.687	86.12
446.908	91.12
447.129	81.12
447.35	95.12
447.571	74.12
447.792	78.12
448.013	63.12
448.234	87.12
448.455	96.12
448.675	71.12
448.896	67.12
449.117	86.12
449.338	85.12
449.559	87.12
449.779	79.12
450	78.12
450.221	84.12
450.442	67.12
450.662	73.12
450.883	69.12
451.104	89.12
451.324	93.12
451.545	61.12
451.766	91.12
451.986	78.12
452.207	85.12
452.428	88.12
452.648	84.12
452.869	95.12
453.089	87.12
453.31	79.12
453.53	83.12
453.751	91.12
453.971	71.12
454.192	87.12
454.412	74.12
454.633	77.12
454.853	69.12
455.073	71.12
455.294	69.12
455.514	95.12
455.734	91.12
455.955	66.12
456.175	78.12
456.395	91.12
456.616	87.12
456.836	93.12
457.056	91.12
457.276	78.12
457.497	78.12
457.717	79.12
457.937	91.12
458.157	109.12
458.377	99.12
458.598	102.12
458.818	121.12
459.038	84.12
459.258	79.12
459.478	82.12
459.698	70.12
459.918	87.12
460.138	87.12
460.358	74.12
460.578	94.12
460.798	108.12
461.018	100.12
461.238	78.12
461.458	83.12
461.678	95.12
461.898	95.12
462.118	94.12
462.338	87.12
462.558	87.12
462.777	74.12
462.997	85.12
463.217	83.12
463.437	83.12
463.657	90.12
463.876	84.12
464.096	94.12
464.316	86.12
464.536	76.12
464.755	71.12
464.975	65.12
465.195	71.12
465.414	81.12
465.634	77.12
465.854	72.12
466.073	90.12
466.293	64.12
466.512	75.12
466.732	80.12
466.951	84.12
467.171	83.12
467.391	83.12
467.61	83.12
467.829	94.12
468.049	80.12
468.268	93.12
468.488	90.12
468.707	83.12
468.927	77.12
469.146	98.12
469.365	85.12
469.585	72.12
469.804	88.12
470.023	91.12
470.243	90.12
470.462	83.12
470.681	94.12
470.901	86.12
471.12	80.12
471.339	85.12
471.558	95.12
471.777	97.12
471.997	63.12
472.216	74.12
472.435	83.12
472.654	92.12
472.873	93.12
473.092	91.12
473.311	87.12
473.53	83.12
473.749	74.12
473.968	90.12
474.187	82.12
474.406	71.12
474.625	95.12
474.844	82.12
475.063	71.12
475.282	94.12
475.501	89.12
475.72	80.12
475.939	94.12
476.158	80.12
476.377	81.12
476.596	77.12
476.814	85.12
477.033	62.12
477.252	95.12
477.471	83.12
477.69	85.12
477.908	87.12
478.127	97.12
478.346	87.12
478.564	87.12
478.783	83.12
479.002	90.12
479.22	77.12
479.439	97.12
479.658	90.12
479.876	73.12
480.095	88.12
480.313	99.12
480.532	93.12
480.751	92.12
480.969	101.12
481.188	88.12
481.406	83.12
481.624	87.12
481.843	96.12
482.061	80.12
482.28	79.12
482.498	79.12
482.717	78.12
482.935	87.12
483.153	82.12
483.372	84.12
483.59	101.12
483.808	88.12
484.027	84.12
484.245	76.12
484.463	73.12
484.681	87.12
484.9	73.12
485.118	89.12
485.336	81.12
485.554	85.12
485.772	85.12
485.99	85.12
486.209	95.12
486.427	91.12
486.645	80.12
486.863	92.12
487.081	81.12
487.299	99.12
487.517	97.12
487.735	99.12
487.953	160.12
488.171	130.12
488.389	85.12
488.607	96.12
488.825	75.12
489.043	79.12
489.261	81.12
489.479	101.12
489.696	86.12
489.914	69.12
490.132	86.12
490.35	94.12
490.568	96.12
490.786	83.12
491.003	87.12
491.221	82.12
491.439	91.12
491.657	93.12
491.874	87.12
492.092	76.12
492.31	91.12
492.527	90.12
492.745	79.12
492.963	90.12
493.18	70.12
493.398	92.12
493.615	92.12
493.833	104.12
494.05	84.12
494.268	98.12
494.485	78.12
494.703	93.12
494.92	99.12
495.138	93.12
495.355	85.12
495.573	88.12
495.79	84.12
496.008	90.12
496.225	92.12
496.442	87.12
496.66	95.12
496.877	84.12
497.094	82.12
497.312	81.12
497.529	91.12
497.746	83.12
497.963	79.12
498.181	85.12
498.398	92.12
498.615	86.12
498.832	94.12
499.049	84.12
499.267	84.12
499.484	85.12
499.701	84.12
499.918	87.12
500.135	98.12
500.352	85.12
500.569	89.12
500.786	99.12
501.003	96.12
501.22	98.12
501.437	79.12
501.654	94.12
501.871	87.12
502.088	80.12
502.305	82.12
502.522	88.12
502.739	89.12
502.956	75.12
503.172	84.12
503.389	81.12
503.606	79.12
503.823	88.12
504.04	97.12
504.256	117.12
504.473	127.12
504.69	97.12
504.907	104.12
505.123	87.12
505.34	92.12
505.557	94.12
505.773	83.12
505.99	81.12
506.207	86.12
506.423	88.12
506.64	82.12
506.856	78.12
507.073	98.12
507.289	93.12
507.506	99.12
507.722	89.12
507.939	95.12
508.155	90.12
508.372	93.12
508.588	91.12
508.805	84.12
509.021	79.12
509.238	96.12
509.454	97.12
509.67	86.12
509.887	102.12
510.103	76.12
510.319	82.12
510.536	94.12
510.752	80.12
510.968	84.12
511.184	84.12
511.401	91.12
511.617	87.12
511.833	93.12
512.049	94.12
512.265	83.12
512.481	97.12
512.698	75.12
512.914	108.12
513.13	84.12
513.346	79.12
513.562	80.12
513.778	94.12
513.994	86.12
514.21	82.12
514.426	74.12
514.642	86.12
514.858	84.12
515.074	87.12
515.29	85.12
515.506	99.12
515.721	96.12
515.937	83.12
516.153	88.12
516.369	86.12
516.585	77.12
516.801	84.12
517.016	90.12
517.232	85.12
517.448	102.12
517.664	82.12
517.879	81.12
518.095	98.12
518.311	92.12
518.527	103.12
518.742	113.12
518.958	127.12
