Data from 10100_3_HRD10591_00036.txt Node
Date: Mon Jan 19 14:02:40 EST 2026
User: Yrep
Spectrometer: HR+D1059
Trigger mode: 1
Integration Time (sec): 1.000000E-1
Scans to average: 1
Electric dark correction enabled: true
Nonlinearity correction enabled: false
Boxcar width: 0
XAxis mode: Wavelengths
Number of Pixels in Spectrum: 2048
>>>>>Begin Spectral Data<<<<<
223.165	-9.19
223.4	-9.19
223.635	-9.19
223.869	-15.19
224.104	-14.19
224.338	-14.19
224.573	-4.19
224.808	-8.19
225.042	-11.19
225.277	-6.19
225.511	-6.19
225.746	2.81
225.98	-2.19
226.215	16.81
226.449	9.81
226.683	6.81
226.918	25.81
227.152	28.81
227.387	37.81
227.621	30.81
227.856	38.81
228.09	40.81
228.324	48.81
228.559	54.81
228.793	58.81
229.027	71.81
229.262	54.81
229.496	66.81
229.73	58.81
229.964	78.81
230.199	65.81
230.433	67.81
230.667	72.81
230.901	65.81
231.136	92.81
231.37	86.81
231.604	87.81
231.838	76.81
232.072	88.81
232.306	74.81
232.541	88.81
232.775	91.81
233.009	91.81
233.243	76.81
233.477	75.81
233.711	88.81
233.945	80.81
234.179	81.81
234.413	86.81
234.647	85.81
234.881	87.81
235.115	83.81
235.349	82.81
235.583	84.81
235.817	83.81
236.051	86.81
236.285	71.81
236.519	72.81
236.753	84.81
236.987	76.81
237.221	73.81
237.455	74.81
237.689	80.81
237.922	74.81
238.156	88.81
238.39	78.81
238.624	69.81
238.858	72.81
239.091	83.81
239.325	66.81
239.559	78.81
239.793	90.81
240.027	72.81
240.26	80.81
240.494	89.81
240.728	61.81
240.961	82.81
241.195	75.81
241.429	79.81
241.662	70.81
241.896	70.81
242.13	75.81
242.363	80.81
242.597	91.81
242.83	81.81
243.064	78.81
243.298	66.81
243.531	67.81
243.765	84.81
243.998	79.81
244.232	78.81
244.465	73.81
244.699	83.81
244.932	85.81
245.166	77.81
245.399	78.81
245.633	77.81
245.866	72.81
246.099	68.81
246.333	78.81
246.566	75.81
246.8	80.81
247.033	80.81
247.266	70.81
247.5	75.81
247.733	74.81
247.966	79.81
248.2	70.81
248.433	79.81
248.666	73.81
248.899	81.81
249.133	76.81
249.366	74.81
249.599	86.81
249.832	64.81
250.066	84.81
250.299	64.81
250.532	81.81
250.765	78.81
250.998	73.81
251.231	82.81
251.465	90.81
251.698	74.81
251.931	88.81
252.164	69.81
252.397	73.81
252.63	87.81
252.863	82.81
253.096	81.81
253.329	80.81
253.562	72.81
253.795	69.81
254.028	71.81
254.261	79.81
254.494	92.81
254.727	77.81
254.96	80.81
255.193	86.81
255.426	87.81
255.659	80.81
255.892	85.81
256.124	84.81
256.357	63.81
256.59	62.81
256.823	76.81
257.056	84.81
257.289	80.81
257.521	84.81
257.754	72.81
257.987	89.81
258.22	71.81
258.452	88.81
258.685	79.81
258.918	87.81
259.151	75.81
259.383	78.81
259.616	84.81
259.849	86.81
260.081	73.81
260.314	78.81
260.547	72.81
260.779	80.81
261.012	92.81
261.244	87.81
261.477	94.81
261.71	79.81
261.942	77.81
262.175	91.81
262.407	80.81
262.64	68.81
262.872	72.81
263.105	81.81
263.337	86.81
263.57	88.81
263.802	80.81
264.035	80.81
264.267	84.81
264.499	93.81
264.732	87.81
264.964	87.81
265.197	98.81
265.429	94.81
265.661	90.81
265.894	84.81
266.126	89.81
266.358	77.81
266.591	83.81
266.823	76.81
267.055	76.81
267.287	80.81
267.52	84.81
267.752	94.81
267.984	83.81
268.216	70.81
268.448	92.81
268.681	92.81
268.913	84.81
269.145	82.81
269.377	86.81
269.609	78.81
269.841	66.81
270.073	85.81
270.306	88.81
270.538	88.81
270.77	79.81
271.002	80.81
271.234	88.81
271.466	83.81
271.698	73.81
271.93	93.81
272.162	86.81
272.394	87.81
272.626	80.81
272.858	78.81
273.09	69.81
273.322	79.81
273.553	80.81
273.785	81.81
274.017	81.81
274.249	80.81
274.481	84.81
274.713	85.81
274.945	75.81
275.176	86.81
275.408	72.81
275.64	100.81
275.872	80.81
276.104	75.81
276.335	82.81
276.567	87.81
276.799	73.81
277.031	92.81
277.262	78.81
277.494	83.81
277.726	74.81
277.957	83.81
278.189	82.81
278.421	96.81
278.652	97.81
278.884	104.81
279.115	82.81
279.347	95.81
279.579	80.81
279.81	84.81
280.042	76.81
280.273	90.81
280.505	94.81
280.736	79.81
280.968	81.81
281.199	86.81
281.431	78.81
281.662	83.81
281.894	94.81
282.125	66.81
282.356	79.81
282.588	83.81
282.819	80.81
283.051	80.81
283.282	90.81
283.513	90.81
283.745	86.81
283.976	89.81
284.207	74.81
284.439	80.81
284.67	94.81
284.901	86.81
285.132	77.81
285.364	81.81
285.595	78.81
285.826	93.81
286.057	74.81
286.288	88.81
286.52	113.81
286.751	88.81
286.982	86.81
287.213	92.81
287.444	95.81
287.675	88.81
287.906	95.81
288.138	85.81
288.369	84.81
288.6	74.81
288.831	96.81
289.062	97.81
289.293	95.81
289.524	81.81
289.755	88.81
289.986	75.81
290.217	72.81
290.448	85.81
290.679	84.81
290.91	88.81
291.141	95.81
291.371	103.81
291.602	81.81
291.833	82.81
292.064	82.81
292.295	80.81
292.526	84.81
292.757	94.81
292.987	89.81
293.218	78.81
293.449	76.81
293.68	97.81
293.91	89.81
294.141	73.81
294.372	75.81
294.603	86.81
294.833	66.81
295.064	68.81
295.295	65.81
295.525	74.81
295.756	84.81
295.987	73.81
296.217	100.81
296.448	80.81
296.679	71.81
296.909	94.81
297.14	81.81
297.37	89.81
297.601	87.81
297.831	84.81
298.062	93.81
298.292	89.81
298.523	82.81
298.753	72.81
298.984	68.81
299.214	87.81
299.445	82.81
299.675	96.81
299.905	86.81
300.136	87.81
300.366	78.81
300.597	77.81
300.827	77.81
301.057	94.81
301.288	74.81
301.518	101.81
301.748	72.81
301.979	95.81
302.209	74.81
302.439	77.81
302.669	78.81
302.9	84.81
303.13	79.81
303.36	75.81
303.59	82.81
303.82	92.81
304.051	88.81
304.281	72.81
304.511	87.81
304.741	89.81
304.971	93.81
305.201	88.81
305.431	82.81
305.661	81.81
305.891	89.81
306.121	103.81
306.352	98.81
306.582	97.81
306.812	74.81
307.042	80.81
307.272	88.81
307.502	80.81
307.731	80.81
307.961	94.81
308.191	98.81
308.421	90.81
308.651	89.81
308.881	95.81
309.111	94.81
309.341	86.81
309.571	92.81
309.8	74.81
310.03	96.81
310.26	90.81
310.49	81.81
310.72	77.81
310.949	88.81
311.179	95.81
311.409	83.81
311.639	88.81
311.868	90.81
312.098	70.81
312.328	89.81
312.557	93.81
312.787	82.81
313.017	98.81
313.246	87.81
313.476	82.81
313.706	84.81
313.935	94.81
314.165	92.81
314.394	84.81
314.624	88.81
314.853	93.81
315.083	83.81
315.312	87.81
315.542	80.81
315.771	92.81
316.001	73.81
316.23	82.81
316.46	70.81
316.689	83.81
316.919	83.81
317.148	95.81
317.377	84.81
317.607	93.81
317.836	90.81
318.065	85.81
318.295	87.81
318.524	92.81
318.753	80.81
318.983	95.81
319.212	87.81
319.441	78.81
319.67	80.81
319.9	73.81
320.129	93.81
320.358	84.81
320.587	94.81
320.816	84.81
321.046	82.81
321.275	89.81
321.504	82.81
321.733	89.81
321.962	78.81
322.191	79.81
322.42	86.81
322.649	84.81
322.878	92.81
323.108	89.81
323.337	84.81
323.566	88.81
323.795	89.81
324.024	86.81
324.253	80.81
324.482	82.81
324.71	88.81
324.939	82.81
325.168	84.81
325.397	89.81
325.626	86.81
325.855	83.81
326.084	89.81
326.313	88.81
326.542	83.81
326.77	84.81
326.999	76.81
327.228	87.81
327.457	87.81
327.686	83.81
327.914	94.81
328.143	80.81
328.372	78.81
328.6	78.81
328.829	80.81
329.058	82.81
329.287	84.81
329.515	93.81
329.744	88.81
329.972	84.81
330.201	87.81
330.43	82.81
330.658	78.81
330.887	91.81
331.115	82.81
331.344	74.81
331.572	88.81
331.801	83.81
332.03	80.81
332.258	83.81
332.486	75.81
332.715	88.81
332.943	85.81
333.172	85.81
333.4	85.81
333.629	89.81
333.857	70.81
334.085	81.81
334.314	80.81
334.542	75.81
334.771	83.81
334.999	91.81
335.227	98.81
335.455	79.81
335.684	85.81
335.912	89.81
336.14	86.81
336.369	89.81
336.597	74.81
336.825	96.81
337.053	97.81
337.281	81.81
337.51	90.81
337.738	93.81
337.966	78.81
338.194	75.81
338.422	78.81
338.65	88.81
338.878	79.81
339.106	79.81
339.334	90.81
339.562	76.81
339.79	76.81
340.018	80.81
340.246	82.81
340.474	82.81
340.702	87.81
340.93	86.81
341.158	82.81
341.386	80.81
341.614	84.81
341.842	96.81
342.07	77.81
342.298	78.81
342.526	75.81
342.754	82.81
342.981	84.81
343.209	75.81
343.437	99.81
343.665	94.81
343.893	98.81
344.12	91.81
344.348	95.81
344.576	82.81
344.804	83.81
345.031	86.81
345.259	92.81
345.487	97.81
345.714	81.81
345.942	74.81
346.17	102.81
346.397	77.81
346.625	72.81
346.853	98.81
347.08	94.81
347.308	90.81
347.535	85.81
347.763	81.81
347.99	80.81
348.218	79.81
348.445	85.81
348.673	89.81
348.9	94.81
349.128	73.81
349.355	80.81
349.583	101.81
349.81	86.81
350.037	82.81
350.265	84.81
350.492	90.81
350.72	76.81
350.947	92.81
351.174	79.81
351.402	88.81
351.629	85.81
351.856	86.81
352.083	73.81
352.311	83.81
352.538	74.81
352.765	68.81
352.992	96.81
353.22	92.81
353.447	79.81
353.674	73.81
353.901	87.81
354.128	94.81
354.355	86.81
354.583	74.81
354.81	75.81
355.037	83.81
355.264	82.81
355.491	78.81
355.718	76.81
355.945	77.81
356.172	81.81
356.399	82.81
356.626	98.81
356.853	88.81
357.08	88.81
357.307	71.81
357.534	72.81
357.761	89.81
357.988	97.81
358.215	89.81
358.441	91.81
358.668	73.81
358.895	93.81
359.122	73.81
359.349	82.81
359.576	80.81
359.802	83.81
360.029	86.81
360.256	100.81
360.483	76.81
360.709	91.81
360.936	86.81
361.163	81.81
361.39	76.81
361.616	81.81
361.843	73.81
362.07	80.81
362.296	90.81
362.523	91.81
362.749	92.81
362.976	82.81
363.203	81.81
363.429	85.81
363.656	80.81
363.882	90.81
364.109	89.81
364.335	68.81
364.562	89.81
364.788	80.81
365.015	84.81
365.241	80.81
365.468	87.81
365.694	77.81
365.92	82.81
366.147	78.81
366.373	87.81
366.599	80.81
366.826	89.81
367.052	79.81
367.278	91.81
367.505	96.81
367.731	101.81
367.957	81.81
368.184	80.81
368.41	89.81
368.636	92.81
368.862	76.81
369.089	76.81
369.315	96.81
369.541	83.81
369.767	88.81
369.993	74.81
370.219	89.81
370.445	94.81
370.672	76.81
370.898	71.81
371.124	90.81
371.35	82.81
371.576	86.81
371.802	84.81
372.028	78.81
372.254	85.81
372.48	87.81
372.706	80.81
372.932	84.81
373.158	81.81
373.384	80.81
373.61	70.81
373.835	84.81
374.061	74.81
374.287	90.81
374.513	78.81
374.739	86.81
374.965	74.81
375.191	78.81
375.416	98.81
375.642	79.81
375.868	80.81
376.094	80.81
376.319	77.81
376.545	80.81
376.771	88.81
376.997	69.81
377.222	83.81
377.448	89.81
377.674	62.81
377.899	82.81
378.125	67.81
378.35	94.81
378.576	88.81
378.802	90.81
379.027	72.81
379.253	75.81
379.478	93.81
379.704	77.81
379.929	81.81
380.155	72.81
380.38	89.81
380.606	92.81
380.831	93.81
381.057	74.81
381.282	86.81
381.507	96.81
381.733	86.81
381.958	84.81
382.184	84.81
382.409	88.81
382.634	79.81
382.86	68.81
383.085	86.81
383.31	82.81
383.535	82.81
383.761	89.81
383.986	72.81
384.211	85.81
384.436	73.81
384.662	83.81
384.887	87.81
385.112	75.81
385.337	81.81
385.562	86.81
385.787	81.81
386.013	74.81
386.238	73.81
386.463	78.81
386.688	93.81
386.913	75.81
387.138	74.81
387.363	88.81
387.588	84.81
387.813	91.81
388.038	64.81
388.263	72.81
388.488	77.81
388.713	83.81
388.938	93.81
389.163	92.81
389.387	89.81
389.612	78.81
389.837	74.81
390.062	70.81
390.287	76.81
390.512	88.81
390.736	97.81
390.961	81.81
391.186	76.81
391.411	83.81
391.636	82.81
391.86	79.81
392.085	60.81
392.31	90.81
392.534	66.81
392.759	85.81
392.984	86.81
393.208	115.81
393.433	109.81
393.658	75.81
393.882	74.81
394.107	86.81
394.331	85.81
394.556	79.81
394.78	95.81
395.005	79.81
395.229	91.81
395.454	82.81
395.678	87.81
395.903	76.81
396.127	75.81
396.352	82.81
396.576	82.81
396.801	79.81
397.025	95.81
397.249	96.81
397.474	81.81
397.698	81.81
397.922	94.81
398.147	86.81
398.371	80.81
398.595	80.81
398.82	83.81
399.044	72.81
399.268	76.81
399.492	89.81
399.717	74.81
399.941	83.81
400.165	82.81
400.389	88.81
400.613	74.81
400.837	78.81
401.062	68.81
401.286	88.81
401.51	90.81
401.734	72.81
401.958	87.81
402.182	87.81
402.406	96.81
402.63	73.81
402.854	84.81
403.078	82.81
403.302	81.81
403.526	80.81
403.75	95.81
403.974	69.81
404.198	92.81
404.422	84.81
404.645	78.81
404.869	84.81
405.093	91.81
405.317	89.81
405.541	85.81
405.765	87.81
405.988	93.81
406.212	73.81
406.436	81.81
406.66	89.81
406.883	69.81
407.107	96.81
407.331	71.81
407.555	89.81
407.778	92.81
408.002	86.81
408.226	68.81
408.449	70.81
408.673	75.81
408.896	84.81
409.12	76.81
409.344	81.81
409.567	84.81
409.791	84.81
410.014	83.81
410.238	85.81
410.461	85.81
410.685	87.81
410.908	68.81
411.132	95.81
411.355	81.81
411.578	83.81
411.802	76.81
412.025	90.81
412.249	89.81
412.472	78.81
412.695	81.81
412.919	71.81
413.142	79.81
413.365	79.81
413.589	93.81
413.812	72.81
414.035	80.81
414.258	94.81
414.482	73.81
414.705	96.81
414.928	82.81
415.151	80.81
415.374	84.81
415.597	83.81
415.821	76.81
416.044	80.81
416.267	81.81
416.49	65.81
416.713	68.81
416.936	87.81
417.159	65.81
417.382	72.81
417.605	78.81
417.828	90.81
418.051	88.81
418.274	78.81
418.497	79.81
418.72	94.81
418.943	95.81
419.166	88.81
419.389	80.81
419.611	81.81
419.834	80.81
420.057	82.81
420.28	91.81
420.503	92.81
420.726	94.81
420.948	83.81
421.171	79.81
421.394	86.81
421.617	83.81
421.839	78.81
422.062	88.81
422.285	94.81
422.507	103.81
422.73	122.81
422.953	126.81
423.175	102.81
423.398	84.81
423.621	89.81
423.843	76.81
424.066	93.81
424.288	93.81
424.511	92.81
424.733	90.81
424.956	75.81
425.178	85.81
425.401	80.81
425.623	82.81
425.846	84.81
426.068	82.81
426.291	82.81
426.513	64.81
426.735	78.81
426.958	80.81
427.18	85.81
427.402	83.81
427.625	80.81
427.847	80.81
428.069	92.81
428.292	87.81
428.514	81.81
428.736	62.81
428.958	77.81
429.181	79.81
429.403	81.81
429.625	71.81
429.847	87.81
430.069	100.81
430.292	106.81
430.514	91.81
430.736	90.81
430.958	94.81
431.18	81.81
431.402	74.81
431.624	74.81
431.846	72.81
432.068	87.81
432.29	72.81
432.512	63.81
432.734	72.81
432.956	81.81
433.178	80.81
433.4	76.81
433.622	88.81
433.844	94.81
434.066	74.81
434.287	78.81
434.509	86.81
434.731	93.81
434.953	84.81
435.175	74.81
435.397	81.81
435.618	86.81
435.84	80.81
436.062	80.81
436.284	75.81
436.505	80.81
436.727	87.81
436.949	68.81
437.17	82.81
437.392	86.81
437.614	77.81
437.835	81.81
438.057	84.81
438.278	90.81
438.5	85.81
438.721	96.81
438.943	99.81
439.165	92.81
439.386	63.81
439.608	80.81
439.829	80.81
440.05	80.81
440.272	84.81
440.493	73.81
440.715	77.81
440.936	72.81
441.158	66.81
441.379	86.81
441.6	84.81
441.822	82.81
442.043	88.81
442.264	75.81
442.486	98.81
442.707	82.81
442.928	82.81
443.149	84.81
443.371	85.81
443.592	95.81
443.813	90.81
444.034	96.81
444.255	79.81
444.476	90.81
444.698	70.81
444.919	89.81
445.14	145.81
445.361	105.81
445.582	103.81
445.803	92.81
446.024	88.81
446.245	75.81
446.466	95.81
446.687	90.81
446.908	70.81
447.129	72.81
447.35	75.81
447.571	73.81
447.792	82.81
448.013	84.81
448.234	82.81
448.455	89.81
448.675	96.81
448.896	77.81
449.117	78.81
449.338	80.81
449.559	71.81
449.779	83.81
450	85.81
450.221	76.81
450.442	86.81
450.662	81.81
450.883	88.81
451.104	94.81
451.324	84.81
451.545	78.81
451.766	77.81
451.986	88.81
452.207	78.81
452.428	98.81
452.648	84.81
452.869	85.81
453.089	78.81
453.31	78.81
453.53	85.81
453.751	91.81
453.971	80.81
454.192	87.81
454.412	86.81
454.633	76.81
454.853	81.81
455.073	78.81
455.294	87.81
455.514	79.81
455.734	76.81
455.955	82.81
456.175	69.81
456.395	62.81
456.616	80.81
456.836	92.81
457.056	87.81
457.276	75.81
457.497	83.81
457.717	78.81
457.937	87.81
458.157	80.81
458.377	72.81
458.598	89.81
458.818	74.81
459.038	81.81
459.258	84.81
459.478	74.81
459.698	86.81
459.918	83.81
460.138	82.81
460.358	83.81
460.578	87.81
460.798	85.81
461.018	87.81
461.238	81.81
461.458	88.81
461.678	74.81
461.898	88.81
462.118	92.81
462.338	80.81
462.558	82.81
462.777	77.81
462.997	88.81
463.217	90.81
463.437	74.81
463.657	88.81
463.876	105.81
464.096	68.81
464.316	85.81
464.536	73.81
464.755	84.81
464.975	73.81
465.195	92.81
465.414	86.81
465.634	86.81
465.854	77.81
466.073	80.81
466.293	82.81
466.512	81.81
466.732	88.81
466.951	75.81
467.171	72.81
467.391	83.81
467.61	84.81
467.829	77.81
468.049	83.81
468.268	94.81
468.488	71.81
468.707	77.81
468.927	88.81
469.146	69.81
469.365	88.81
469.585	76.81
469.804	96.81
470.023	82.81
470.243	100.81
470.462	96.81
470.681	82.81
470.901	79.81
471.12	69.81
471.339	66.81
471.558	80.81
471.777	84.81
471.997	84.81
472.216	91.81
472.435	77.81
472.654	79.81
472.873	93.81
473.092	88.81
473.311	78.81
473.53	89.81
473.749	76.81
473.968	84.81
474.187	90.81
474.406	70.81
474.625	90.81
474.844	86.81
475.063	79.81
475.282	83.81
475.501	90.81
475.72	91.81
475.939	85.81
476.158	77.81
476.377	88.81
476.596	78.81
476.814	70.81
477.033	84.81
477.252	78.81
477.471	82.81
477.69	86.81
477.908	84.81
478.127	74.81
478.346	71.81
478.564	80.81
478.783	79.81
479.002	80.81
479.22	90.81
479.439	84.81
479.658	92.81
479.876	81.81
480.095	79.81
480.313	93.81
480.532	84.81
480.751	79.81
480.969	73.81
481.188	81.81
481.406	73.81
481.624	70.81
481.843	89.81
482.061	98.81
482.28	92.81
482.498	92.81
482.717	93.81
482.935	81.81
483.153	97.81
483.372	84.81
483.59	68.81
483.808	92.81
484.027	85.81
484.245	86.81
484.463	82.81
484.681	88.81
484.9	71.81
485.118	80.81
485.336	75.81
485.554	77.81
485.772	80.81
485.99	87.81
486.209	81.81
486.427	69.81
486.645	74.81
486.863	75.81
487.081	90.81
487.299	82.81
487.517	75.81
487.735	79.81
487.953	92.81
488.171	81.81
488.389	84.81
488.607	84.81
488.825	75.81
489.043	81.81
489.261	87.81
489.479	86.81
489.696	86.81
489.914	92.81
490.132	73.81
490.35	93.81
490.568	74.81
490.786	80.81
491.003	87.81
491.221	74.81
491.439	83.81
491.657	72.81
491.874	98.81
492.092	86.81
492.31	96.81
492.527	74.81
492.745	62.81
492.963	89.81
493.18	85.81
493.398	77.81
493.615	65.81
493.833	88.81
494.05	88.81
494.268	78.81
494.485	89.81
494.703	78.81
494.92	95.81
495.138	97.81
495.355	90.81
495.573	97.81
495.79	80.81
496.008	82.81
496.225	88.81
496.442	82.81
496.66	78.81
496.877	75.81
497.094	81.81
497.312	89.81
497.529	66.81
497.746	74.81
497.963	72.81
498.181	94.81
498.398	82.81
498.615	82.81
498.832	99.81
499.049	92.81
499.267	88.81
499.484	72.81
499.701	81.81
499.918	89.81
500.135	73.81
500.352	75.81
500.569	84.81
500.786	96.81
501.003	80.81
501.22	69.81
501.437	90.81
501.654	86.81
501.871	69.81
502.088	72.81
502.305	89.81
502.522	72.81
502.739	80.81
502.956	70.81
503.172	84.81
503.389	87.81
503.606	92.81
503.823	86.81
504.04	82.81
504.256	93.81
504.473	87.81
504.69	88.81
504.907	83.81
505.123	76.81
505.34	88.81
505.557	77.81
505.773	88.81
505.99	80.81
506.207	75.81
506.423	95.81
506.64	96.81
506.856	80.81
507.073	84.81
507.289	82.81
507.506	72.81
507.722	85.81
507.939	84.81
508.155	97.81
508.372	74.81
508.588	79.81
508.805	92.81
509.021	82.81
509.238	84.81
509.454	84.81
509.67	76.81
509.887	85.81
510.103	72.81
510.319	93.81
510.536	85.81
510.752	84.81
510.968	73.81
511.184	78.81
511.401	86.81
511.617	69.81
511.833	92.81
512.049	72.81
512.265	82.81
512.481	81.81
512.698	80.81
512.914	79.81
513.13	87.81
513.346	80.81
513.562	82.81
513.778	74.81
513.994	87.81
514.21	82.81
514.426	72.81
514.642	95.81
514.858	89.81
515.074	81.81
515.29	84.81
515.506	73.81
515.721	87.81
515.937	86.81
516.153	85.81
516.369	91.81
516.585	91.81
516.801	90.81
517.016	82.81
517.232	78.81
517.448	93.81
517.664	94.81
517.879	80.81
518.095	80.81
518.311	77.81
518.527	74.81
518.742	86.81
518.958	88.81
519.173	98.81
519.389	98.81
519.605	86.81
519.82	75.81
520.036	95.81
