Data from 10100_3_HRD10591_00026.txt Node
Date: Mon Jan 19 14:02:35 EST 2026
User: Yrep
Spectrometer: HR+D1059
Trigger mode: 1
Integration Time (sec): 1.000000E-1
Scans to average: 1
Electric dark correction enabled: true
Nonlinearity correction enabled: false
Boxcar width: 0
XAxis mode: Wavelengths
Number of Pixels in Spectrum: 2048
>>>>>Begin Spectral Data<<<<<
223.165	-23.44
223.4	-23.44
223.635	-23.44
223.869	-19.44
224.104	-15.44
224.338	-11.44
224.573	-22.44
224.808	-15.44
225.042	-8.44
225.277	-7.44
225.511	-2.44
225.746	-2.44
225.98	12.56
226.215	20.56
226.449	19.56
226.683	10.56
226.918	31.56
227.152	33.56
227.387	40.56
227.621	31.56
227.856	42.56
228.09	52.56
228.324	52.56
228.559	67.56
228.793	56.56
229.027	52.56
229.262	51.56
229.496	65.56
229.73	56.56
229.964	66.56
230.199	70.56
230.433	74.56
230.667	72.56
230.901	73.56
231.136	60.56
231.37	78.56
231.604	71.56
231.838	70.56
232.072	63.56
232.306	67.56
232.541	77.56
232.775	79.56
233.009	84.56
233.243	69.56
233.477	67.56
233.711	65.56
233.945	69.56
234.179	92.56
234.413	80.56
234.647	74.56
234.881	97.56
235.115	84.56
235.349	80.56
235.583	78.56
235.817	80.56
236.051	77.56
236.285	63.56
236.519	78.56
236.753	84.56
236.987	62.56
237.221	68.56
237.455	73.56
237.689	64.56
237.922	76.56
238.156	73.56
238.39	75.56
238.624	84.56
238.858	84.56
239.091	69.56
239.325	74.56
239.559	56.56
239.793	76.56
240.027	77.56
240.26	77.56
240.494	80.56
240.728	54.56
240.961	68.56
241.195	84.56
241.429	80.56
241.662	90.56
241.896	56.56
242.13	80.56
242.363	69.56
242.597	67.56
242.83	83.56
243.064	76.56
243.298	74.56
243.531	62.56
243.765	76.56
243.998	70.56
244.232	83.56
244.465	78.56
244.699	81.56
244.932	75.56
245.166	71.56
245.399	69.56
245.633	63.56
245.866	78.56
246.099	54.56
246.333	68.56
246.566	80.56
246.8	73.56
247.033	79.56
247.266	70.56
247.5	70.56
247.733	59.56
247.966	66.56
248.2	76.56
248.433	90.56
248.666	74.56
248.899	77.56
249.133	78.56
249.366	87.56
249.599	65.56
249.832	70.56
250.066	76.56
250.299	85.56
250.532	75.56
250.765	90.56
250.998	68.56
251.231	73.56
251.465	81.56
251.698	93.56
251.931	82.56
252.164	66.56
252.397	81.56
252.63	82.56
252.863	82.56
253.096	78.56
253.329	79.56
253.562	77.56
253.795	75.56
254.028	88.56
254.261	83.56
254.494	79.56
254.727	88.56
254.96	82.56
255.193	85.56
255.426	82.56
255.659	70.56
255.892	70.56
256.124	75.56
256.357	76.56
256.59	81.56
256.823	78.56
257.056	81.56
257.289	84.56
257.521	80.56
257.754	73.56
257.987	73.56
258.22	84.56
258.452	82.56
258.685	72.56
258.918	77.56
259.151	85.56
259.383	95.56
259.616	72.56
259.849	73.56
260.081	74.56
260.314	70.56
260.547	82.56
260.779	66.56
261.012	78.56
261.244	68.56
261.477	78.56
261.71	77.56
261.942	70.56
262.175	94.56
262.407	81.56
262.64	78.56
262.872	86.56
263.105	82.56
263.337	84.56
263.57	80.56
263.802	68.56
264.035	76.56
264.267	76.56
264.499	82.56
264.732	75.56
264.964	89.56
265.197	80.56
265.429	76.56
265.661	85.56
265.894	71.56
266.126	87.56
266.358	70.56
266.591	70.56
266.823	79.56
267.055	85.56
267.287	62.56
267.52	94.56
267.752	79.56
267.984	82.56
268.216	93.56
268.448	82.56
268.681	85.56
268.913	84.56
269.145	83.56
269.377	86.56
269.609	61.56
269.841	79.56
270.073	74.56
270.306	69.56
270.538	86.56
270.77	71.56
271.002	66.56
271.234	90.56
271.466	80.56
271.698	90.56
271.93	86.56
272.162	80.56
272.394	83.56
272.626	89.56
272.858	74.56
273.09	81.56
273.322	78.56
273.553	85.56
273.785	84.56
274.017	89.56
274.249	79.56
274.481	78.56
274.713	82.56
274.945	90.56
275.176	69.56
275.408	90.56
275.64	93.56
275.872	89.56
276.104	81.56
276.335	70.56
276.567	61.56
276.799	67.56
277.031	76.56
277.262	78.56
277.494	84.56
277.726	68.56
277.957	89.56
278.189	92.56
278.421	71.56
278.652	81.56
278.884	73.56
279.115	79.56
279.347	71.56
279.579	88.56
279.81	83.56
280.042	81.56
280.273	81.56
280.505	87.56
280.736	95.56
280.968	85.56
281.199	74.56
281.431	84.56
281.662	73.56
281.894	72.56
282.125	66.56
282.356	84.56
282.588	83.56
282.819	73.56
283.051	88.56
283.282	63.56
283.513	88.56
283.745	76.56
283.976	70.56
284.207	88.56
284.439	93.56
284.67	90.56
284.901	82.56
285.132	86.56
285.364	82.56
285.595	90.56
285.826	76.56
286.057	77.56
286.288	74.56
286.52	74.56
286.751	86.56
286.982	76.56
287.213	77.56
287.444	85.56
287.675	66.56
287.906	76.56
288.138	68.56
288.369	80.56
288.6	83.56
288.831	74.56
289.062	77.56
289.293	75.56
289.524	85.56
289.755	92.56
289.986	88.56
290.217	78.56
290.448	85.56
290.679	90.56
290.91	80.56
291.141	84.56
291.371	93.56
291.602	74.56
291.833	88.56
292.064	81.56
292.295	91.56
292.526	77.56
292.757	94.56
292.987	85.56
293.218	92.56
293.449	88.56
293.68	81.56
293.91	83.56
294.141	67.56
294.372	85.56
294.603	77.56
294.833	89.56
295.064	76.56
295.295	86.56
295.525	76.56
295.756	83.56
295.987	85.56
296.217	93.56
296.448	95.56
296.679	86.56
296.909	93.56
297.14	86.56
297.37	76.56
297.601	87.56
297.831	81.56
298.062	78.56
298.292	79.56
298.523	66.56
298.753	78.56
298.984	91.56
299.214	86.56
299.445	93.56
299.675	83.56
299.905	74.56
300.136	74.56
300.366	73.56
300.597	80.56
300.827	81.56
301.057	92.56
301.288	80.56
301.518	95.56
301.748	79.56
301.979	85.56
302.209	81.56
302.439	77.56
302.669	90.56
302.9	79.56
303.13	64.56
303.36	76.56
303.59	83.56
303.82	95.56
304.051	78.56
304.281	69.56
304.511	80.56
304.741	82.56
304.971	87.56
305.201	93.56
305.431	75.56
305.661	78.56
305.891	76.56
306.121	76.56
306.352	97.56
306.582	84.56
306.812	75.56
307.042	79.56
307.272	98.56
307.502	87.56
307.731	80.56
307.961	69.56
308.191	86.56
308.421	68.56
308.651	72.56
308.881	86.56
309.111	78.56
309.341	89.56
309.571	76.56
309.8	95.56
310.03	82.56
310.26	79.56
310.49	79.56
310.72	77.56
310.949	87.56
311.179	100.56
311.409	78.56
311.639	70.56
311.868	84.56
312.098	78.56
312.328	84.56
312.557	89.56
312.787	79.56
313.017	81.56
313.246	83.56
313.476	85.56
313.706	69.56
313.935	87.56
314.165	79.56
314.394	92.56
314.624	70.56
314.853	78.56
315.083	67.56
315.312	80.56
315.542	88.56
315.771	81.56
316.001	84.56
316.23	76.56
316.46	80.56
316.689	88.56
316.919	87.56
317.148	76.56
317.377	88.56
317.607	97.56
317.836	86.56
318.065	89.56
318.295	88.56
318.524	79.56
318.753	68.56
318.983	76.56
319.212	85.56
319.441	83.56
319.67	85.56
319.9	81.56
320.129	84.56
320.358	70.56
320.587	90.56
320.816	77.56
321.046	78.56
321.275	70.56
321.504	84.56
321.733	78.56
321.962	78.56
322.191	87.56
322.42	85.56
322.649	84.56
322.878	87.56
323.108	86.56
323.337	89.56
323.566	82.56
323.795	85.56
324.024	97.56
324.253	70.56
324.482	84.56
324.71	73.56
324.939	89.56
325.168	76.56
325.397	74.56
325.626	86.56
325.855	87.56
326.084	76.56
326.313	78.56
326.542	83.56
326.77	92.56
326.999	88.56
327.228	80.56
327.457	67.56
327.686	93.56
327.914	89.56
328.143	84.56
328.372	82.56
328.6	76.56
328.829	76.56
329.058	83.56
329.287	91.56
329.515	97.56
329.744	80.56
329.972	88.56
330.201	73.56
330.43	87.56
330.658	76.56
330.887	75.56
331.115	81.56
331.344	78.56
331.572	88.56
331.801	62.56
332.03	76.56
332.258	86.56
332.486	88.56
332.715	83.56
332.943	73.56
333.172	77.56
333.4	75.56
333.629	84.56
333.857	64.56
334.085	84.56
334.314	83.56
334.542	94.56
334.771	92.56
334.999	102.56
335.227	90.56
335.455	80.56
335.684	76.56
335.912	91.56
336.14	88.56
336.369	76.56
336.597	82.56
336.825	69.56
337.053	95.56
337.281	83.56
337.51	75.56
337.738	79.56
337.966	76.56
338.194	64.56
338.422	88.56
338.65	83.56
338.878	62.56
339.106	88.56
339.334	88.56
339.562	81.56
339.79	85.56
340.018	78.56
340.246	88.56
340.474	70.56
340.702	83.56
340.93	68.56
341.158	88.56
341.386	89.56
341.614	86.56
341.842	89.56
342.07	90.56
342.298	88.56
342.526	72.56
342.754	81.56
342.981	76.56
343.209	82.56
343.437	91.56
343.665	86.56
343.893	76.56
344.12	85.56
344.348	77.56
344.576	76.56
344.804	96.56
345.031	70.56
345.259	76.56
345.487	76.56
345.714	87.56
345.942	82.56
346.17	94.56
346.397	81.56
346.625	67.56
346.853	86.56
347.08	83.56
347.308	85.56
347.535	82.56
347.763	49.56
347.99	83.56
348.218	82.56
348.445	69.56
348.673	74.56
348.9	76.56
349.128	95.56
349.355	90.56
349.583	72.56
349.81	84.56
350.037	85.56
350.265	88.56
350.492	77.56
350.72	68.56
350.947	79.56
351.174	78.56
351.402	97.56
351.629	85.56
351.856	81.56
352.083	77.56
352.311	82.56
352.538	82.56
352.765	89.56
352.992	82.56
353.22	86.56
353.447	85.56
353.674	90.56
353.901	74.56
354.128	92.56
354.355	78.56
354.583	76.56
354.81	87.56
355.037	83.56
355.264	77.56
355.491	81.56
355.718	79.56
355.945	87.56
356.172	88.56
356.399	84.56
356.626	78.56
356.853	78.56
357.08	80.56
357.307	70.56
357.534	76.56
357.761	88.56
357.988	100.56
358.215	89.56
358.441	59.56
358.668	76.56
358.895	76.56
359.122	83.56
359.349	86.56
359.576	104.56
359.802	82.56
360.029	88.56
360.256	89.56
360.483	78.56
360.709	79.56
360.936	81.56
361.163	76.56
361.39	80.56
361.616	78.56
361.843	81.56
362.07	64.56
362.296	72.56
362.523	83.56
362.749	84.56
362.976	87.56
363.203	108.56
363.429	76.56
363.656	75.56
363.882	87.56
364.109	86.56
364.335	96.56
364.562	84.56
364.788	79.56
365.015	89.56
365.241	86.56
365.468	77.56
365.694	81.56
365.92	64.56
366.147	80.56
366.373	65.56
366.599	84.56
366.826	68.56
367.052	85.56
367.278	88.56
367.505	80.56
367.731	89.56
367.957	77.56
368.184	79.56
368.41	82.56
368.636	89.56
368.862	88.56
369.089	81.56
369.315	84.56
369.541	88.56
369.767	85.56
369.993	79.56
370.219	89.56
370.445	98.56
370.672	86.56
370.898	83.56
371.124	85.56
371.35	80.56
371.576	79.56
371.802	84.56
372.028	76.56
372.254	93.56
372.48	79.56
372.706	81.56
372.932	89.56
373.158	83.56
373.384	93.56
373.61	86.56
373.835	80.56
374.061	77.56
374.287	91.56
374.513	69.56
374.739	85.56
374.965	94.56
375.191	93.56
375.416	81.56
375.642	75.56
375.868	83.56
376.094	83.56
376.319	71.56
376.545	81.56
376.771	79.56
376.997	64.56
377.222	70.56
377.448	91.56
377.674	82.56
377.899	81.56
378.125	81.56
378.35	78.56
378.576	74.56
378.802	65.56
379.027	80.56
379.253	75.56
379.478	82.56
379.704	85.56
379.929	87.56
380.155	90.56
380.38	89.56
380.606	89.56
380.831	69.56
381.057	88.56
381.282	83.56
381.507	68.56
381.733	85.56
381.958	74.56
382.184	90.56
382.409	88.56
382.634	86.56
382.86	70.56
383.085	83.56
383.31	87.56
383.535	91.56
383.761	92.56
383.986	84.56
384.211	83.56
384.436	89.56
384.662	69.56
384.887	93.56
385.112	78.56
385.337	90.56
385.562	76.56
385.787	88.56
386.013	97.56
386.238	76.56
386.463	80.56
386.688	86.56
386.913	76.56
387.138	80.56
387.363	77.56
387.588	69.56
387.813	79.56
388.038	80.56
388.263	79.56
388.488	95.56
388.713	80.56
388.938	80.56
389.163	90.56
389.387	84.56
389.612	86.56
389.837	70.56
390.062	82.56
390.287	87.56
390.512	78.56
390.736	68.56
390.961	82.56
391.186	90.56
391.411	72.56
391.636	79.56
391.86	84.56
392.085	100.56
392.31	82.56
392.534	81.56
392.759	116.56
392.984	119.56
393.208	198.56
393.433	298.56
393.658	211.56
393.882	120.56
394.107	84.56
394.331	91.56
394.556	93.56
394.78	72.56
395.005	86.56
395.229	73.56
395.454	74.56
395.678	89.56
395.903	105.56
396.127	94.56
396.352	114.56
396.576	148.56
396.801	210.56
397.025	238.56
397.249	143.56
397.474	96.56
397.698	84.56
397.922	78.56
398.147	77.56
398.371	77.56
398.595	70.56
398.82	76.56
399.044	79.56
399.268	76.56
399.492	74.56
399.717	88.56
399.941	85.56
400.165	90.56
400.389	80.56
400.613	79.56
400.837	86.56
401.062	82.56
401.286	74.56
401.51	96.56
401.734	80.56
401.958	85.56
402.182	95.56
402.406	69.56
402.63	79.56
402.854	63.56
403.078	77.56
403.302	82.56
403.526	62.56
403.75	64.56
403.974	86.56
404.198	82.56
404.422	78.56
404.645	76.56
404.869	79.56
405.093	74.56
405.317	87.56
405.541	74.56
405.765	82.56
405.988	70.56
406.212	74.56
406.436	64.56
406.66	81.56
406.883	90.56
407.107	82.56
407.331	82.56
407.555	86.56
407.778	92.56
408.002	104.56
408.226	89.56
408.449	88.56
408.673	72.56
408.896	81.56
409.12	70.56
409.344	89.56
409.567	77.56
409.791	89.56
410.014	82.56
410.238	67.56
410.461	82.56
410.685	85.56
410.908	70.56
411.132	85.56
411.355	88.56
411.578	76.56
411.802	87.56
412.025	76.56
412.249	85.56
412.472	65.56
412.695	78.56
412.919	83.56
413.142	85.56
413.365	78.56
413.589	91.56
413.812	76.56
414.035	88.56
414.258	104.56
414.482	86.56
414.705	78.56
414.928	80.56
415.151	80.56
415.374	93.56
415.597	89.56
415.821	74.56
416.044	83.56
416.267	78.56
416.49	88.56
416.713	74.56
416.936	91.56
417.159	85.56
417.382	74.56
417.605	84.56
417.828	71.56
418.051	88.56
418.274	76.56
418.497	88.56
418.72	76.56
418.943	74.56
419.166	91.56
419.389	83.56
419.611	84.56
419.834	76.56
420.057	81.56
420.28	81.56
420.503	73.56
420.726	74.56
420.948	70.56
421.171	69.56
421.394	86.56
421.617	89.56
421.839	92.56
422.062	99.56
422.285	89.56
422.507	148.56
422.73	229.56
422.953	219.56
423.175	108.56
423.398	81.56
423.621	85.56
423.843	83.56
424.066	74.56
424.288	69.56
424.511	84.56
424.733	88.56
424.956	66.56
425.178	82.56
425.401	85.56
425.623	92.56
425.846	84.56
426.068	80.56
426.291	79.56
426.513	81.56
426.735	75.56
426.958	79.56
427.18	90.56
427.402	85.56
427.625	80.56
427.847	80.56
428.069	89.56
428.292	91.56
428.514	115.56
428.736	96.56
428.958	86.56
429.181	100.56
429.403	89.56
429.625	77.56
429.847	90.56
430.069	109.56
430.292	108.56
430.514	108.56
430.736	102.56
430.958	114.56
431.18	88.56
431.402	80.56
431.624	65.56
431.846	92.56
432.068	101.56
432.29	82.56
432.512	85.56
432.734	78.56
432.956	81.56
433.178	92.56
433.4	74.56
433.622	86.56
433.844	80.56
434.066	87.56
434.287	86.56
434.509	86.56
434.731	85.56
434.953	92.56
435.175	68.56
435.397	81.56
435.618	73.56
435.84	81.56
436.062	79.56
436.284	80.56
436.505	81.56
436.727	90.56
436.949	84.56
437.17	81.56
437.392	76.56
437.614	86.56
437.835	78.56
438.057	78.56
438.278	82.56
438.5	77.56
438.721	81.56
438.943	92.56
439.165	78.56
439.386	76.56
439.608	83.56
439.829	85.56
440.05	66.56
440.272	90.56
440.493	81.56
440.715	77.56
440.936	77.56
441.158	84.56
441.379	74.56
441.6	75.56
441.822	78.56
442.043	70.56
442.264	85.56
442.486	81.56
442.707	104.56
442.928	96.56
443.149	74.56
443.371	109.56
443.592	129.56
443.813	132.56
444.034	75.56
444.255	79.56
444.476	73.56
444.698	82.56
444.919	83.56
445.14	180.56
445.361	152.56
445.582	161.56
445.803	136.56
446.024	93.56
446.245	95.56
446.466	74.56
446.687	76.56
446.908	91.56
447.129	63.56
447.35	77.56
447.571	85.56
447.792	87.56
448.013	54.56
448.234	79.56
448.455	80.56
448.675	73.56
448.896	91.56
449.117	81.56
449.338	80.56
449.559	93.56
449.779	76.56
450	71.56
450.221	88.56
450.442	76.56
450.662	83.56
450.883	70.56
451.104	83.56
451.324	87.56
451.545	88.56
451.766	94.56
451.986	75.56
452.207	93.56
452.428	67.56
452.648	78.56
452.869	94.56
453.089	85.56
453.31	80.56
453.53	88.56
453.751	69.56
453.971	72.56
454.192	75.56
454.412	82.56
454.633	84.56
454.853	73.56
455.073	80.56
455.294	90.56
455.514	98.56
455.734	83.56
455.955	78.56
456.175	93.56
456.395	72.56
456.616	93.56
456.836	83.56
457.056	78.56
457.276	66.56
457.497	92.56
457.717	86.56
457.937	85.56
458.157	89.56
458.377	85.56
458.598	88.56
458.818	101.56
459.038	76.56
459.258	76.56
459.478	80.56
459.698	69.56
459.918	80.56
460.138	85.56
460.358	84.56
460.578	70.56
460.798	98.56
461.018	94.56
461.238	62.56
461.458	77.56
461.678	85.56
461.898	70.56
462.118	83.56
462.338	80.56
462.558	78.56
462.777	85.56
462.997	91.56
463.217	80.56
463.437	84.56
463.657	82.56
463.876	82.56
464.096	83.56
464.316	81.56
464.536	70.56
464.755	69.56
464.975	78.56
465.195	75.56
465.414	83.56
465.634	77.56
465.854	77.56
466.073	80.56
466.293	82.56
466.512	86.56
466.732	75.56
466.951	76.56
467.171	86.56
467.391	97.56
467.61	82.56
467.829	88.56
468.049	89.56
468.268	70.56
468.488	66.56
468.707	78.56
468.927	80.56
469.146	74.56
469.365	85.56
469.585	74.56
469.804	74.56
470.023	76.56
470.243	72.56
470.462	77.56
470.681	79.56
470.901	69.56
471.12	76.56
471.339	80.56
471.558	86.56
471.777	75.56
471.997	67.56
472.216	77.56
472.435	62.56
472.654	76.56
472.873	84.56
473.092	64.56
473.311	80.56
473.53	84.56
473.749	79.56
473.968	82.56
474.187	69.56
474.406	78.56
474.625	76.56
474.844	67.56
475.063	84.56
475.282	82.56
475.501	67.56
475.72	84.56
475.939	81.56
476.158	74.56
476.377	80.56
476.596	83.56
476.814	77.56
477.033	84.56
477.252	83.56
477.471	81.56
477.69	77.56
477.908	85.56
478.127	85.56
478.346	84.56
478.564	86.56
478.783	79.56
479.002	82.56
479.22	79.56
479.439	81.56
479.658	82.56
479.876	80.56
480.095	87.56
480.313	73.56
480.532	69.56
480.751	83.56
480.969	98.56
481.188	94.56
481.406	74.56
481.624	75.56
481.843	85.56
482.061	80.56
482.28	79.56
482.498	83.56
482.717	67.56
482.935	74.56
483.153	81.56
483.372	85.56
483.59	77.56
483.808	81.56
484.027	81.56
484.245	83.56
484.463	79.56
484.681	84.56
484.9	84.56
485.118	96.56
485.336	99.56
485.554	83.56
485.772	90.56
485.99	72.56
486.209	67.56
486.427	74.56
486.645	106.56
486.863	66.56
487.081	86.56
487.299	77.56
487.517	88.56
487.735	92.56
487.953	99.56
488.171	108.56
488.389	89.56
488.607	84.56
488.825	89.56
489.043	77.56
489.261	83.56
489.479	83.56
489.696	75.56
489.914	70.56
490.132	98.56
490.35	91.56
490.568	69.56
490.786	87.56
491.003	78.56
491.221	74.56
491.439	78.56
491.657	89.56
491.874	68.56
492.092	84.56
492.31	82.56
492.527	79.56
492.745	76.56
492.963	80.56
493.18	79.56
493.398	82.56
493.615	79.56
493.833	88.56
494.05	83.56
494.268	77.56
494.485	88.56
494.703	89.56
494.92	74.56
495.138	87.56
495.355	78.56
495.573	88.56
495.79	80.56
496.008	97.56
496.225	77.56
496.442	80.56
496.66	93.56
496.877	96.56
497.094	93.56
497.312	80.56
497.529	76.56
497.746	76.56
497.963	80.56
498.181	86.56
498.398	76.56
498.615	90.56
498.832	78.56
499.049	92.56
499.267	89.56
499.484	84.56
499.701	83.56
499.918	80.56
500.135	85.56
500.352	88.56
500.569	82.56
500.786	89.56
501.003	90.56
501.22	84.56
501.437	84.56
501.654	85.56
501.871	80.56
502.088	79.56
502.305	85.56
502.522	79.56
502.739	82.56
502.956	84.56
503.172	89.56
503.389	83.56
503.606	83.56
503.823	85.56
504.04	86.56
504.256	94.56
504.473	92.56
504.69	85.56
504.907	87.56
505.123	74.56
505.34	73.56
505.557	82.56
505.773	82.56
505.99	80.56
506.207	77.56
506.423	74.56
506.64	90.56
506.856	88.56
507.073	80.56
507.289	81.56
507.506	84.56
507.722	83.56
507.939	88.56
508.155	84.56
508.372	80.56
508.588	73.56
508.805	70.56
509.021	81.56
509.238	75.56
509.454	97.56
509.67	76.56
509.887	80.56
510.103	74.56
510.319	94.56
510.536	86.56
510.752	86.56
510.968	91.56
511.184	91.56
511.401	83.56
511.617	79.56
511.833	64.56
512.049	87.56
512.265	91.56
512.481	101.56
512.698	83.56
512.914	83.56
513.13	90.56
513.346	89.56
513.562	80.56
513.778	77.56
513.994	89.56
514.21	92.56
514.426	77.56
514.642	77.56
514.858	92.56
515.074	69.56
515.29	85.56
515.506	84.56
515.721	74.56
515.937	100.56
516.153	88.56
516.369	77.56
516.585	86.56
516.801	85.56
517.016	70.56
517.232	77.56
517.448	86.56
517.664	89.56
517.879	80.56
518.095	81.56
518.311	97.56
518.527	95.56
518.742	93.56
518.958	102.56
519.173	98.56
519.389	89.56
519.605	69.56
