Data from 10100_3_HRD10591_00023.txt Node
Date: Mon Jan 19 14:02:34 EST 2026
User: Yrep
Spectrometer: HR+D1059
Trigger mode: 1
Integration Time (sec): 1.000000E-1
Scans to average: 1
Electric dark correction enabled: true
Nonlinearity correction enabled: false
Boxcar width: 0
XAxis mode: Wavelengths
Number of Pixels in Spectrum: 2048
>>>>>Begin Spectral Data<<<<<
223.165	-23.94
223.4	-23.94
223.635	-23.94
223.869	-24.94
224.104	-23.94
224.338	-10.94
224.573	-19.94
224.808	-10.94
225.042	0.06
225.277	2.06
225.511	-5.94
225.746	0.06
225.98	9.06
226.215	17.06
226.449	15.06
226.683	17.06
226.918	29.06
227.152	31.06
227.387	29.06
227.621	45.06
227.856	51.06
228.09	56.06
228.324	56.06
228.559	67.06
228.793	66.06
229.027	62.06
229.262	73.06
229.496	61.06
229.73	84.06
229.964	61.06
230.199	62.06
230.433	72.06
230.667	81.06
230.901	91.06
231.136	68.06
231.37	95.06
231.604	82.06
231.838	84.06
232.072	87.06
232.306	65.06
232.541	83.06
232.775	98.06
233.009	92.06
233.243	78.06
233.477	86.06
233.711	82.06
233.945	83.06
234.179	88.06
234.413	85.06
234.647	67.06
234.881	96.06
235.115	66.06
235.349	88.06
235.583	77.06
235.817	70.06
236.051	76.06
236.285	58.06
236.519	89.06
236.753	92.06
236.987	90.06
237.221	88.06
237.455	76.06
237.689	82.06
237.922	88.06
238.156	76.06
238.39	86.06
238.624	84.06
238.858	84.06
239.091	84.06
239.325	75.06
239.559	88.06
239.793	93.06
240.027	78.06
240.26	75.06
240.494	84.06
240.728	74.06
240.961	86.06
241.195	75.06
241.429	86.06
241.662	80.06
241.896	79.06
242.13	80.06
242.363	76.06
242.597	79.06
242.83	84.06
243.064	78.06
243.298	84.06
243.531	85.06
243.765	79.06
243.998	86.06
244.232	82.06
244.465	82.06
244.699	86.06
244.932	78.06
245.166	79.06
245.399	75.06
245.633	83.06
245.866	62.06
246.099	73.06
246.333	60.06
246.566	76.06
246.8	76.06
247.033	82.06
247.266	89.06
247.5	78.06
247.733	85.06
247.966	73.06
248.2	95.06
248.433	76.06
248.666	74.06
248.899	82.06
249.133	86.06
249.366	83.06
249.599	78.06
249.832	84.06
250.066	74.06
250.299	81.06
250.532	87.06
250.765	78.06
250.998	70.06
251.231	79.06
251.465	76.06
251.698	79.06
251.931	93.06
252.164	78.06
252.397	93.06
252.63	92.06
252.863	93.06
253.096	72.06
253.329	94.06
253.562	76.06
253.795	84.06
254.028	78.06
254.261	80.06
254.494	78.06
254.727	97.06
254.96	83.06
255.193	62.06
255.426	74.06
255.659	75.06
255.892	90.06
256.124	82.06
256.357	94.06
256.59	82.06
256.823	93.06
257.056	74.06
257.289	81.06
257.521	80.06
257.754	89.06
257.987	68.06
258.22	83.06
258.452	80.06
258.685	84.06
258.918	90.06
259.151	91.06
259.383	89.06
259.616	81.06
259.849	87.06
260.081	89.06
260.314	93.06
260.547	85.06
260.779	76.06
261.012	82.06
261.244	80.06
261.477	91.06
261.71	85.06
261.942	76.06
262.175	92.06
262.407	82.06
262.64	82.06
262.872	91.06
263.105	90.06
263.337	80.06
263.57	78.06
263.802	82.06
264.035	101.06
264.267	92.06
264.499	89.06
264.732	78.06
264.964	74.06
265.197	65.06
265.429	90.06
265.661	82.06
265.894	86.06
266.126	89.06
266.358	66.06
266.591	93.06
266.823	80.06
267.055	88.06
267.287	78.06
267.52	75.06
267.752	85.06
267.984	75.06
268.216	89.06
268.448	78.06
268.681	84.06
268.913	96.06
269.145	77.06
269.377	82.06
269.609	82.06
269.841	90.06
270.073	91.06
270.306	84.06
270.538	106.06
270.77	91.06
271.002	88.06
271.234	89.06
271.466	94.06
271.698	85.06
271.93	86.06
272.162	89.06
272.394	86.06
272.626	91.06
272.858	84.06
273.09	69.06
273.322	84.06
273.553	94.06
273.785	97.06
274.017	86.06
274.249	88.06
274.481	90.06
274.713	90.06
274.945	99.06
275.176	85.06
275.408	81.06
275.64	100.06
275.872	88.06
276.104	100.06
276.335	89.06
276.567	86.06
276.799	91.06
277.031	88.06
277.262	90.06
277.494	84.06
277.726	87.06
277.957	86.06
278.189	86.06
278.421	91.06
278.652	88.06
278.884	87.06
279.115	76.06
279.347	94.06
279.579	92.06
279.81	92.06
280.042	96.06
280.273	66.06
280.505	89.06
280.736	90.06
280.968	95.06
281.199	84.06
281.431	73.06
281.662	69.06
281.894	88.06
282.125	89.06
282.356	73.06
282.588	76.06
282.819	89.06
283.051	77.06
283.282	80.06
283.513	87.06
283.745	86.06
283.976	81.06
284.207	82.06
284.439	94.06
284.67	86.06
284.901	89.06
285.132	64.06
285.364	95.06
285.595	102.06
285.826	92.06
286.057	92.06
286.288	81.06
286.52	82.06
286.751	85.06
286.982	92.06
287.213	82.06
287.444	88.06
287.675	77.06
287.906	80.06
288.138	90.06
288.369	94.06
288.6	83.06
288.831	85.06
289.062	93.06
289.293	92.06
289.524	87.06
289.755	82.06
289.986	83.06
290.217	89.06
290.448	93.06
290.679	72.06
290.91	96.06
291.141	81.06
291.371	93.06
291.602	96.06
291.833	86.06
292.064	90.06
292.295	88.06
292.526	90.06
292.757	72.06
292.987	91.06
293.218	89.06
293.449	81.06
293.68	86.06
293.91	98.06
294.141	86.06
294.372	89.06
294.603	104.06
294.833	93.06
295.064	97.06
295.295	76.06
295.525	84.06
295.756	97.06
295.987	78.06
296.217	86.06
296.448	92.06
296.679	96.06
296.909	85.06
297.14	92.06
297.37	89.06
297.601	90.06
297.831	82.06
298.062	88.06
298.292	85.06
298.523	85.06
298.753	89.06
298.984	88.06
299.214	81.06
299.445	83.06
299.675	89.06
299.905	102.06
300.136	96.06
300.366	86.06
300.597	79.06
300.827	108.06
301.057	86.06
301.288	89.06
301.518	99.06
301.748	97.06
301.979	94.06
302.209	92.06
302.439	88.06
302.669	77.06
302.9	82.06
303.13	91.06
303.36	99.06
303.59	94.06
303.82	82.06
304.051	86.06
304.281	94.06
304.511	104.06
304.741	105.06
304.971	92.06
305.201	83.06
305.431	99.06
305.661	80.06
305.891	100.06
306.121	94.06
306.352	85.06
306.582	92.06
306.812	85.06
307.042	98.06
307.272	93.06
307.502	99.06
307.731	92.06
307.961	80.06
308.191	98.06
308.421	96.06
308.651	92.06
308.881	93.06
309.111	94.06
309.341	97.06
309.571	104.06
309.8	92.06
310.03	92.06
310.26	77.06
310.49	90.06
310.72	82.06
310.949	85.06
311.179	94.06
311.409	96.06
311.639	89.06
311.868	91.06
312.098	79.06
312.328	92.06
312.557	94.06
312.787	79.06
313.017	98.06
313.246	98.06
313.476	88.06
313.706	90.06
313.935	99.06
314.165	94.06
314.394	98.06
314.624	94.06
314.853	98.06
315.083	88.06
315.312	90.06
315.542	98.06
315.771	90.06
316.001	82.06
316.23	93.06
316.46	90.06
316.689	83.06
316.919	81.06
317.148	107.06
317.377	86.06
317.607	86.06
317.836	89.06
318.065	110.06
318.295	103.06
318.524	78.06
318.753	91.06
318.983	90.06
319.212	92.06
319.441	81.06
319.67	82.06
319.9	106.06
320.129	103.06
320.358	84.06
320.587	90.06
320.816	79.06
321.046	90.06
321.275	95.06
321.504	79.06
321.733	86.06
321.962	89.06
322.191	96.06
322.42	103.06
322.649	96.06
322.878	89.06
323.108	87.06
323.337	78.06
323.566	90.06
323.795	84.06
324.024	95.06
324.253	94.06
324.482	93.06
324.71	93.06
324.939	90.06
325.168	92.06
325.397	76.06
325.626	94.06
325.855	92.06
326.084	84.06
326.313	86.06
326.542	90.06
326.77	97.06
326.999	95.06
327.228	81.06
327.457	88.06
327.686	102.06
327.914	91.06
328.143	98.06
328.372	93.06
328.6	91.06
328.829	91.06
329.058	76.06
329.287	83.06
329.515	80.06
329.744	108.06
329.972	96.06
330.201	87.06
330.43	88.06
330.658	98.06
330.887	98.06
331.115	85.06
331.344	94.06
331.572	91.06
331.801	94.06
332.03	89.06
332.258	92.06
332.486	72.06
332.715	94.06
332.943	90.06
333.172	74.06
333.4	93.06
333.629	101.06
333.857	90.06
334.085	88.06
334.314	93.06
334.542	96.06
334.771	94.06
334.999	103.06
335.227	102.06
335.455	108.06
335.684	105.06
335.912	93.06
336.14	103.06
336.369	92.06
336.597	85.06
336.825	98.06
337.053	89.06
337.281	84.06
337.51	86.06
337.738	103.06
337.966	98.06
338.194	70.06
338.422	88.06
338.65	82.06
338.878	73.06
339.106	104.06
339.334	86.06
339.562	87.06
339.79	84.06
340.018	82.06
340.246	81.06
340.474	77.06
340.702	78.06
340.93	95.06
341.158	87.06
341.386	93.06
341.614	95.06
341.842	92.06
342.07	93.06
342.298	81.06
342.526	88.06
342.754	80.06
342.981	93.06
343.209	92.06
343.437	92.06
343.665	86.06
343.893	100.06
344.12	98.06
344.348	103.06
344.576	84.06
344.804	94.06
345.031	90.06
345.259	89.06
345.487	81.06
345.714	89.06
345.942	91.06
346.17	101.06
346.397	97.06
346.625	82.06
346.853	85.06
347.08	90.06
347.308	92.06
347.535	89.06
347.763	100.06
347.99	88.06
348.218	87.06
348.445	82.06
348.673	93.06
348.9	90.06
349.128	100.06
349.355	96.06
349.583	90.06
349.81	81.06
350.037	96.06
350.265	104.06
350.492	88.06
350.72	79.06
350.947	87.06
351.174	94.06
351.402	84.06
351.629	84.06
351.856	82.06
352.083	99.06
352.311	90.06
352.538	93.06
352.765	95.06
352.992	80.06
353.22	94.06
353.447	92.06
353.674	83.06
353.901	96.06
354.128	98.06
354.355	89.06
354.583	85.06
354.81	96.06
355.037	97.06
355.264	88.06
355.491	97.06
355.718	90.06
355.945	86.06
356.172	86.06
356.399	95.06
356.626	94.06
356.853	98.06
357.08	99.06
357.307	103.06
357.534	90.06
357.761	98.06
357.988	98.06
358.215	101.06
358.441	91.06
358.668	94.06
358.895	85.06
359.122	88.06
359.349	100.06
359.576	88.06
359.802	84.06
360.029	87.06
360.256	108.06
360.483	97.06
360.709	96.06
360.936	106.06
361.163	87.06
361.39	98.06
361.616	98.06
361.843	100.06
362.07	117.06
362.296	101.06
362.523	122.06
362.749	105.06
362.976	114.06
363.203	133.06
363.429	93.06
363.656	114.06
363.882	99.06
364.109	118.06
364.335	151.06
364.562	158.06
364.788	115.06
365.015	98.06
365.241	94.06
365.468	104.06
365.694	98.06
365.92	86.06
366.147	93.06
366.373	86.06
366.599	102.06
366.826	84.06
367.052	78.06
367.278	90.06
367.505	87.06
367.731	106.06
367.957	81.06
368.184	102.06
368.41	89.06
368.636	96.06
368.862	98.06
369.089	89.06
369.315	89.06
369.541	113.06
369.767	94.06
369.993	76.06
370.219	68.06
370.445	101.06
370.672	98.06
370.898	98.06
371.124	93.06
371.35	92.06
371.576	92.06
371.802	87.06
372.028	103.06
372.254	102.06
372.48	89.06
372.706	90.06
372.932	98.06
373.158	99.06
373.384	116.06
373.61	127.06
373.835	112.06
374.061	97.06
374.287	110.06
374.513	92.06
374.739	112.06
374.965	103.06
375.191	106.06
375.416	109.06
375.642	107.06
375.868	99.06
376.094	106.06
376.319	92.06
376.545	93.06
376.771	96.06
376.997	87.06
377.222	83.06
377.448	89.06
377.674	98.06
377.899	94.06
378.125	92.06
378.35	101.06
378.576	76.06
378.802	92.06
379.027	99.06
379.253	100.06
379.478	93.06
379.704	85.06
379.929	84.06
380.155	91.06
380.38	101.06
380.606	90.06
380.831	104.06
381.057	98.06
381.282	91.06
381.507	100.06
381.733	90.06
381.958	103.06
382.184	110.06
382.409	112.06
382.634	88.06
382.86	98.06
383.085	104.06
383.31	103.06
383.535	99.06
383.761	86.06
383.986	97.06
384.211	101.06
384.436	92.06
384.662	106.06
384.887	102.06
385.112	92.06
385.337	108.06
385.562	106.06
385.787	103.06
386.013	93.06
386.238	107.06
386.463	105.06
386.688	100.06
386.913	96.06
387.138	100.06
387.363	93.06
387.588	111.06
387.813	109.06
388.038	106.06
388.263	96.06
388.488	97.06
388.713	100.06
388.938	96.06
389.163	99.06
389.387	94.06
389.612	100.06
389.837	94.06
390.062	103.06
390.287	104.06
390.512	84.06
390.736	79.06
390.961	114.06
391.186	96.06
391.411	89.06
391.636	103.06
391.86	106.06
392.085	105.06
392.31	95.06
392.534	101.06
392.759	130.06
392.984	162.06
393.208	249.06
393.433	358.06
393.658	276.06
393.882	141.06
394.107	118.06
394.331	124.06
394.556	120.06
394.78	114.06
395.005	103.06
395.229	98.06
395.454	109.06
395.678	115.06
395.903	118.06
396.127	148.06
396.352	155.06
396.576	165.06
396.801	252.06
397.025	284.06
397.249	169.06
397.474	137.06
397.698	108.06
397.922	87.06
398.147	96.06
398.371	104.06
398.595	93.06
398.82	100.06
399.044	101.06
399.268	80.06
399.492	95.06
399.717	96.06
399.941	85.06
400.165	95.06
400.389	104.06
400.613	105.06
400.837	86.06
401.062	96.06
401.286	102.06
401.51	89.06
401.734	76.06
401.958	84.06
402.182	99.06
402.406	99.06
402.63	85.06
402.854	93.06
403.078	112.06
403.302	89.06
403.526	98.06
403.75	89.06
403.974	92.06
404.198	87.06
404.422	101.06
404.645	93.06
404.869	107.06
405.093	100.06
405.317	78.06
405.541	75.06
405.765	79.06
405.988	86.06
406.212	82.06
406.436	78.06
406.66	94.06
406.883	106.06
407.107	86.06
407.331	92.06
407.555	104.06
407.778	134.06
408.002	103.06
408.226	95.06
408.449	89.06
408.673	89.06
408.896	88.06
409.12	102.06
409.344	100.06
409.567	108.06
409.791	113.06
410.014	106.06
410.238	101.06
410.461	91.06
410.685	85.06
410.908	104.06
411.132	101.06
411.355	91.06
411.578	83.06
411.802	92.06
412.025	83.06
412.249	94.06
412.472	98.06
412.695	88.06
412.919	93.06
413.142	105.06
413.365	84.06
413.589	85.06
413.812	77.06
414.035	95.06
414.258	96.06
414.482	101.06
414.705	85.06
414.928	99.06
415.151	88.06
415.374	92.06
415.597	83.06
415.821	94.06
416.044	87.06
416.267	96.06
416.49	88.06
416.713	75.06
416.936	92.06
417.159	72.06
417.382	84.06
417.605	80.06
417.828	84.06
418.051	76.06
418.274	92.06
418.497	102.06
418.72	89.06
418.943	100.06
419.166	78.06
419.389	84.06
419.611	92.06
419.834	104.06
420.057	97.06
420.28	101.06
420.503	103.06
420.726	113.06
420.948	98.06
421.171	110.06
421.394	108.06
421.617	129.06
421.839	136.06
422.062	135.06
422.285	203.06
422.507	323.06
422.73	479.06
422.953	437.06
423.175	271.06
423.398	166.06
423.621	141.06
423.843	134.06
424.066	109.06
424.288	116.06
424.511	107.06
424.733	116.06
424.956	102.06
425.178	94.06
425.401	99.06
425.623	112.06
425.846	90.06
426.068	90.06
426.291	88.06
426.513	108.06
426.735	106.06
426.958	93.06
427.18	86.06
427.402	94.06
427.625	94.06
427.847	87.06
428.069	105.06
428.292	134.06
428.514	164.06
428.736	121.06
428.958	131.06
429.181	134.06
429.403	106.06
429.625	102.06
429.847	135.06
430.069	182.06
430.292	203.06
430.514	187.06
430.736	139.06
430.958	152.06
431.18	115.06
431.402	100.06
431.624	103.06
431.846	140.06
432.068	144.06
432.29	104.06
432.512	88.06
432.734	96.06
432.956	92.06
433.178	93.06
433.4	92.06
433.622	105.06
433.844	90.06
434.066	99.06
434.287	97.06
434.509	90.06
434.731	81.06
434.953	79.06
435.175	100.06
435.397	101.06
435.618	99.06
435.84	103.06
436.062	100.06
436.284	88.06
436.505	86.06
436.727	89.06
436.949	118.06
437.17	108.06
437.392	84.06
437.614	93.06
437.835	79.06
438.057	102.06
438.278	97.06
438.5	95.06
438.721	93.06
438.943	103.06
439.165	97.06
439.386	73.06
439.608	99.06
439.829	87.06
440.05	100.06
440.272	96.06
440.493	100.06
440.715	106.06
440.936	100.06
441.158	89.06
441.379	85.06
441.6	94.06
441.822	102.06
442.043	101.06
442.264	116.06
442.486	158.06
442.707	212.06
442.928	138.06
443.149	120.06
443.371	177.06
443.592	293.06
443.813	248.06
444.034	118.06
444.255	112.06
444.476	99.06
444.698	100.06
444.919	106.06
445.14	204.06
445.361	221.06
445.582	316.06
445.803	278.06
446.024	137.06
446.245	106.06
446.466	94.06
446.687	92.06
446.908	97.06
447.129	104.06
447.35	92.06
447.571	102.06
447.792	79.06
448.013	86.06
448.234	98.06
448.455	98.06
448.675	96.06
448.896	96.06
449.117	84.06
449.338	99.06
449.559	101.06
449.779	90.06
450	101.06
450.221	94.06
450.442	81.06
450.662	89.06
450.883	97.06
451.104	89.06
451.324	92.06
451.545	92.06
451.766	79.06
451.986	79.06
452.207	92.06
452.428	114.06
452.648	99.06
452.869	113.06
453.089	99.06
453.31	101.06
453.53	100.06
453.751	95.06
453.971	103.06
454.192	103.06
454.412	92.06
454.633	82.06
454.853	100.06
455.073	92.06
455.294	95.06
455.514	104.06
455.734	93.06
455.955	88.06
456.175	101.06
456.395	94.06
456.616	90.06
456.836	75.06
457.056	88.06
457.276	91.06
457.497	79.06
457.717	101.06
457.937	123.06
458.157	127.06
458.377	151.06
458.598	124.06
458.818	154.06
459.038	112.06
459.258	99.06
459.478	82.06
459.698	87.06
459.918	97.06
460.138	86.06
460.358	92.06
460.578	103.06
460.798	128.06
461.018	133.06
461.238	101.06
461.458	92.06
461.678	86.06
461.898	91.06
462.118	101.06
462.338	84.06
462.558	103.06
462.777	87.06
462.997	100.06
463.217	97.06
463.437	93.06
463.657	90.06
463.876	108.06
464.096	97.06
464.316	83.06
464.536	84.06
464.755	91.06
464.975	96.06
465.195	100.06
465.414	99.06
465.634	106.06
465.854	84.06
466.073	95.06
466.293	105.06
466.512	80.06
466.732	92.06
466.951	105.06
467.171	104.06
467.391	82.06
467.61	91.06
467.829	95.06
468.049	92.06
468.268	93.06
468.488	85.06
468.707	96.06
468.927	81.06
469.146	89.06
469.365	92.06
469.585	76.06
469.804	108.06
470.023	86.06
470.243	114.06
470.462	114.06
470.681	79.06
470.901	92.06
471.12	88.06
471.339	103.06
471.558	86.06
471.777	96.06
471.997	100.06
472.216	81.06
472.435	83.06
472.654	76.06
472.873	91.06
473.092	81.06
473.311	104.06
473.53	87.06
473.749	91.06
473.968	91.06
474.187	105.06
474.406	105.06
474.625	97.06
474.844	85.06
475.063	100.06
475.282	93.06
475.501	94.06
475.72	88.06
475.939	81.06
476.158	96.06
476.377	88.06
476.596	90.06
476.814	88.06
477.033	86.06
477.252	86.06
477.471	87.06
477.69	98.06
477.908	103.06
478.127	102.06
478.346	91.06
478.564	97.06
478.783	96.06
479.002	100.06
479.22	97.06
479.439	105.06
479.658	101.06
479.876	87.06
480.095	87.06
480.313	93.06
480.532	93.06
480.751	95.06
480.969	95.06
481.188	104.06
481.406	97.06
481.624	106.06
481.843	78.06
482.061	91.06
482.28	104.06
482.498	91.06
482.717	92.06
482.935	104.06
483.153	90.06
483.372	106.06
483.59	99.06
483.808	96.06
484.027	84.06
484.245	107.06
484.463	101.06
484.681	109.06
484.9	96.06
485.118	99.06
485.336	88.06
485.554	84.06
485.772	96.06
485.99	98.06
486.209	87.06
486.427	94.06
486.645	95.06
486.863	104.06
487.081	105.06
487.299	92.06
487.517	113.06
487.735	140.06
487.953	216.06
488.171	170.06
488.389	106.06
488.607	104.06
488.825	106.06
489.043	114.06
489.261	112.06
489.479	100.06
489.696	86.06
489.914	94.06
490.132	113.06
490.35	86.06
490.568	102.06
490.786	106.06
491.003	93.06
491.221	91.06
491.439	93.06
491.657	101.06
491.874	103.06
492.092	90.06
492.31	99.06
492.527	116.06
492.745	97.06
492.963	98.06
493.18	111.06
493.398	93.06
493.615	106.06
493.833	93.06
494.05	103.06
494.268	101.06
494.485	92.06
494.703	85.06
494.92	91.06
495.138	98.06
495.355	98.06
495.573	94.06
495.79	105.06
496.008	89.06
496.225	102.06
496.442	114.06
496.66	106.06
496.877	92.06
497.094	109.06
497.312	91.06
497.529	100.06
497.746	92.06
497.963	73.06
498.181	107.06
498.398	104.06
498.615	106.06
498.832	99.06
499.049	97.06
499.267	106.06
499.484	90.06
499.701	102.06
499.918	90.06
500.135	95.06
500.352	100.06
500.569	99.06
500.786	99.06
501.003	120.06
501.22	84.06
501.437	107.06
501.654	108.06
501.871	97.06
502.088	94.06
502.305	108.06
502.522	95.06
502.739	90.06
502.956	107.06
503.172	94.06
503.389	105.06
503.606	101.06
503.823	105.06
504.04	108.06
504.256	156.06
504.473	162.06
504.69	108.06
504.907	112.06
505.123	96.06
505.34	89.06
505.557	87.06
505.773	104.06
505.99	99.06
506.207	96.06
506.423	86.06
506.64	99.06
506.856	106.06
507.073	100.06
507.289	70.06
507.506	99.06
507.722	94.06
507.939	91.06
508.155	96.06
508.372	99.06
508.588	112.06
508.805	104.06
509.021	98.06
509.238	95.06
509.454	101.06
509.67	83.06
509.887	104.06
510.103	89.06
510.319	103.06
510.536	97.06
510.752	104.06
510.968	92.06
511.184	105.06
511.401	98.06
511.617	99.06
511.833	82.06
512.049	87.06
512.265	88.06
512.481	88.06
512.698	98.06
512.914	100.06
513.13	99.06
513.346	85.06
513.562	100.06
513.778	99.06
513.994	104.06
514.21	85.06
514.426	98.06
514.642	100.06
514.858	95.06
515.074	112.06
515.29	96.06
