Data from 10100_3_HRD10591_00019.txt Node
Date: Mon Jan 19 14:02:32 EST 2026
User: Yrep
Spectrometer: HR+D1059
Trigger mode: 1
Integration Time (sec): 1.000000E-1
Scans to average: 1
Electric dark correction enabled: true
Nonlinearity correction enabled: false
Boxcar width: 0
XAxis mode: Wavelengths
Number of Pixels in Spectrum: 2048
>>>>>Begin Spectral Data<<<<<
223.165	-25.69
223.4	-25.69
223.635	-25.69
223.869	-19.69
224.104	-23.69
224.338	-22.69
224.573	-12.69
224.808	-20.69
225.042	-3.69
225.277	-10.69
225.511	-3.69
225.746	10.31
225.98	3.31
226.215	13.31
226.449	24.31
226.683	23.31
226.918	29.31
227.152	39.31
227.387	37.31
227.621	32.31
227.856	46.31
228.09	44.31
228.324	50.31
228.559	63.31
228.793	52.31
229.027	62.31
229.262	63.31
229.496	68.31
229.73	68.31
229.964	77.31
230.199	60.31
230.433	73.31
230.667	64.31
230.901	80.31
231.136	65.31
231.37	67.31
231.604	78.31
231.838	81.31
232.072	80.31
232.306	72.31
232.541	72.31
232.775	77.31
233.009	71.31
233.243	88.31
233.477	71.31
233.711	68.31
233.945	72.31
234.179	80.31
234.413	73.31
234.647	73.31
234.881	79.31
235.115	74.31
235.349	72.31
235.583	73.31
235.817	86.31
236.051	65.31
236.285	80.31
236.519	80.31
236.753	69.31
236.987	75.31
237.221	64.31
237.455	69.31
237.689	77.31
237.922	71.31
238.156	85.31
238.39	73.31
238.624	66.31
238.858	70.31
239.091	64.31
239.325	62.31
239.559	72.31
239.793	64.31
240.027	67.31
240.26	67.31
240.494	83.31
240.728	60.31
240.961	57.31
241.195	86.31
241.429	75.31
241.662	70.31
241.896	78.31
242.13	71.31
242.363	74.31
242.597	70.31
242.83	76.31
243.064	79.31
243.298	83.31
243.531	63.31
243.765	70.31
243.998	65.31
244.232	72.31
244.465	85.31
244.699	80.31
244.932	80.31
245.166	63.31
245.399	77.31
245.633	68.31
245.866	69.31
246.099	76.31
246.333	66.31
246.566	63.31
246.8	82.31
247.033	76.31
247.266	72.31
247.5	81.31
247.733	73.31
247.966	85.31
248.2	66.31
248.433	69.31
248.666	69.31
248.899	80.31
249.133	72.31
249.366	88.31
249.599	92.31
249.832	71.31
250.066	78.31
250.299	84.31
250.532	64.31
250.765	58.31
250.998	90.31
251.231	77.31
251.465	86.31
251.698	72.31
251.931	82.31
252.164	80.31
252.397	87.31
252.63	73.31
252.863	74.31
253.096	90.31
253.329	64.31
253.562	72.31
253.795	94.31
254.028	73.31
254.261	79.31
254.494	72.31
254.727	74.31
254.96	73.31
255.193	68.31
255.426	71.31
255.659	69.31
255.892	71.31
256.124	72.31
256.357	78.31
256.59	89.31
256.823	74.31
257.056	79.31
257.289	70.31
257.521	76.31
257.754	79.31
257.987	83.31
258.22	77.31
258.452	78.31
258.685	74.31
258.918	79.31
259.151	82.31
259.383	85.31
259.616	78.31
259.849	77.31
260.081	66.31
260.314	88.31
260.547	79.31
260.779	75.31
261.012	64.31
261.244	73.31
261.477	86.31
261.71	75.31
261.942	77.31
262.175	71.31
262.407	69.31
262.64	84.31
262.872	78.31
263.105	76.31
263.337	78.31
263.57	83.31
263.802	72.31
264.035	78.31
264.267	104.31
264.499	73.31
264.732	98.31
264.964	81.31
265.197	70.31
265.429	68.31
265.661	83.31
265.894	93.31
266.126	85.31
266.358	79.31
266.591	82.31
266.823	89.31
267.055	72.31
267.287	82.31
267.52	84.31
267.752	80.31
267.984	87.31
268.216	81.31
268.448	79.31
268.681	87.31
268.913	98.31
269.145	83.31
269.377	77.31
269.609	78.31
269.841	70.31
270.073	84.31
270.306	80.31
270.538	75.31
270.77	86.31
271.002	73.31
271.234	74.31
271.466	81.31
271.698	74.31
271.93	79.31
272.162	79.31
272.394	87.31
272.626	81.31
272.858	77.31
273.09	95.31
273.322	96.31
273.553	82.31
273.785	104.31
274.017	98.31
274.249	75.31
274.481	88.31
274.713	67.31
274.945	89.31
275.176	89.31
275.408	69.31
275.64	85.31
275.872	73.31
276.104	66.31
276.335	79.31
276.567	82.31
276.799	80.31
277.031	66.31
277.262	68.31
277.494	75.31
277.726	85.31
277.957	72.31
278.189	77.31
278.421	80.31
278.652	87.31
278.884	78.31
279.115	81.31
279.347	91.31
279.579	82.31
279.81	81.31
280.042	77.31
280.273	83.31
280.505	84.31
280.736	84.31
280.968	87.31
281.199	95.31
281.431	97.31
281.662	92.31
281.894	72.31
282.125	97.31
282.356	75.31
282.588	81.31
282.819	83.31
283.051	80.31
283.282	90.31
283.513	84.31
283.745	75.31
283.976	91.31
284.207	98.31
284.439	59.31
284.67	88.31
284.901	75.31
285.132	68.31
285.364	76.31
285.595	87.31
285.826	78.31
286.057	88.31
286.288	87.31
286.52	71.31
286.751	79.31
286.982	97.31
287.213	81.31
287.444	85.31
287.675	80.31
287.906	84.31
288.138	78.31
288.369	94.31
288.6	70.31
288.831	74.31
289.062	79.31
289.293	74.31
289.524	87.31
289.755	93.31
289.986	81.31
290.217	94.31
290.448	89.31
290.679	76.31
290.91	85.31
291.141	71.31
291.371	84.31
291.602	70.31
291.833	75.31
292.064	82.31
292.295	83.31
292.526	81.31
292.757	104.31
292.987	80.31
293.218	64.31
293.449	89.31
293.68	82.31
293.91	78.31
294.141	94.31
294.372	101.31
294.603	101.31
294.833	76.31
295.064	82.31
295.295	80.31
295.525	89.31
295.756	77.31
295.987	74.31
296.217	70.31
296.448	84.31
296.679	74.31
296.909	62.31
297.14	82.31
297.37	74.31
297.601	72.31
297.831	96.31
298.062	77.31
298.292	81.31
298.523	90.31
298.753	78.31
298.984	80.31
299.214	88.31
299.445	77.31
299.675	80.31
299.905	89.31
300.136	78.31
300.366	96.31
300.597	93.31
300.827	90.31
301.057	86.31
301.288	81.31
301.518	98.31
301.748	84.31
301.979	95.31
302.209	74.31
302.439	74.31
302.669	80.31
302.9	78.31
303.13	75.31
303.36	76.31
303.59	80.31
303.82	81.31
304.051	101.31
304.281	85.31
304.511	89.31
304.741	86.31
304.971	87.31
305.201	80.31
305.431	84.31
305.661	95.31
305.891	83.31
306.121	81.31
306.352	81.31
306.582	91.31
306.812	81.31
307.042	73.31
307.272	84.31
307.502	80.31
307.731	87.31
307.961	89.31
308.191	92.31
308.421	85.31
308.651	85.31
308.881	91.31
309.111	89.31
309.341	86.31
309.571	88.31
309.8	73.31
310.03	87.31
310.26	88.31
310.49	81.31
310.72	91.31
310.949	85.31
311.179	97.31
311.409	81.31
311.639	72.31
311.868	78.31
312.098	88.31
312.328	85.31
312.557	88.31
312.787	82.31
313.017	81.31
313.246	84.31
313.476	93.31
313.706	74.31
313.935	78.31
314.165	86.31
314.394	69.31
314.624	84.31
314.853	78.31
315.083	84.31
315.312	83.31
315.542	74.31
315.771	80.31
316.001	84.31
316.23	83.31
316.46	80.31
316.689	81.31
316.919	89.31
317.148	86.31
317.377	88.31
317.607	73.31
317.836	99.31
318.065	88.31
318.295	86.31
318.524	89.31
318.753	81.31
318.983	77.31
319.212	87.31
319.441	80.31
319.67	80.31
319.9	92.31
320.129	91.31
320.358	91.31
320.587	90.31
320.816	74.31
321.046	88.31
321.275	82.31
321.504	89.31
321.733	94.31
321.962	77.31
322.191	86.31
322.42	87.31
322.649	84.31
322.878	76.31
323.108	85.31
323.337	86.31
323.566	78.31
323.795	72.31
324.024	68.31
324.253	81.31
324.482	77.31
324.71	88.31
324.939	73.31
325.168	70.31
325.397	70.31
325.626	89.31
325.855	82.31
326.084	88.31
326.313	65.31
326.542	66.31
326.77	86.31
326.999	86.31
327.228	86.31
327.457	86.31
327.686	89.31
327.914	95.31
328.143	92.31
328.372	74.31
328.6	91.31
328.829	96.31
329.058	92.31
329.287	92.31
329.515	87.31
329.744	102.31
329.972	82.31
330.201	86.31
330.43	68.31
330.658	83.31
330.887	78.31
331.115	77.31
331.344	92.31
331.572	80.31
331.801	82.31
332.03	87.31
332.258	74.31
332.486	82.31
332.715	82.31
332.943	85.31
333.172	94.31
333.4	87.31
333.629	83.31
333.857	82.31
334.085	91.31
334.314	85.31
334.542	82.31
334.771	83.31
334.999	78.31
335.227	74.31
335.455	80.31
335.684	85.31
335.912	84.31
336.14	82.31
336.369	84.31
336.597	81.31
336.825	98.31
337.053	74.31
337.281	90.31
337.51	92.31
337.738	84.31
337.966	93.31
338.194	73.31
338.422	79.31
338.65	84.31
338.878	98.31
339.106	78.31
339.334	86.31
339.562	76.31
339.79	71.31
340.018	78.31
340.246	75.31
340.474	83.31
340.702	79.31
340.93	70.31
341.158	74.31
341.386	78.31
341.614	87.31
341.842	74.31
342.07	76.31
342.298	71.31
342.526	83.31
342.754	71.31
342.981	76.31
343.209	68.31
343.437	106.31
343.665	82.31
343.893	78.31
344.12	78.31
344.348	87.31
344.576	82.31
344.804	97.31
345.031	87.31
345.259	86.31
345.487	82.31
345.714	96.31
345.942	84.31
346.17	72.31
346.397	84.31
346.625	66.31
346.853	73.31
347.08	70.31
347.308	80.31
347.535	79.31
347.763	96.31
347.99	75.31
348.218	95.31
348.445	91.31
348.673	80.31
348.9	83.31
349.128	82.31
349.355	78.31
349.583	77.31
349.81	94.31
350.037	82.31
350.265	97.31
350.492	78.31
350.72	93.31
350.947	72.31
351.174	89.31
351.402	76.31
351.629	92.31
351.856	68.31
352.083	82.31
352.311	74.31
352.538	80.31
352.765	83.31
352.992	85.31
353.22	82.31
353.447	84.31
353.674	72.31
353.901	75.31
354.128	92.31
354.355	77.31
354.583	82.31
354.81	86.31
355.037	100.31
355.264	79.31
355.491	92.31
355.718	96.31
355.945	84.31
356.172	74.31
356.399	82.31
356.626	81.31
356.853	80.31
357.08	94.31
357.307	82.31
357.534	85.31
357.761	80.31
357.988	80.31
358.215	82.31
358.441	89.31
358.668	95.31
358.895	81.31
359.122	77.31
359.349	93.31
359.576	94.31
359.802	74.31
360.029	93.31
360.256	93.31
360.483	86.31
360.709	85.31
360.936	90.31
361.163	94.31
361.39	82.31
361.616	85.31
361.843	88.31
362.07	83.31
362.296	78.31
362.523	83.31
362.749	88.31
362.976	89.31
363.203	89.31
363.429	81.31
363.656	81.31
363.882	83.31
364.109	86.31
364.335	96.31
364.562	88.31
364.788	76.31
365.015	97.31
365.241	79.31
365.468	90.31
365.694	76.31
365.92	92.31
366.147	86.31
366.373	87.31
366.599	81.31
366.826	77.31
367.052	87.31
367.278	92.31
367.505	74.31
367.731	88.31
367.957	90.31
368.184	90.31
368.41	81.31
368.636	79.31
368.862	88.31
369.089	94.31
369.315	100.31
369.541	72.31
369.767	77.31
369.993	86.31
370.219	73.31
370.445	96.31
370.672	78.31
370.898	67.31
371.124	66.31
371.35	80.31
371.576	92.31
371.802	74.31
372.028	96.31
372.254	83.31
372.48	96.31
372.706	97.31
372.932	86.31
373.158	73.31
373.384	84.31
373.61	82.31
373.835	90.31
374.061	69.31
374.287	84.31
374.513	85.31
374.739	82.31
374.965	68.31
375.191	79.31
375.416	79.31
375.642	92.31
375.868	80.31
376.094	74.31
376.319	96.31
376.545	78.31
376.771	72.31
376.997	92.31
377.222	98.31
377.448	91.31
377.674	83.31
377.899	78.31
378.125	86.31
378.35	72.31
378.576	76.31
378.802	93.31
379.027	93.31
379.253	81.31
379.478	78.31
379.704	78.31
379.929	66.31
380.155	90.31
380.38	85.31
380.606	80.31
380.831	79.31
381.057	87.31
381.282	81.31
381.507	67.31
381.733	78.31
381.958	74.31
382.184	74.31
382.409	70.31
382.634	67.31
382.86	84.31
383.085	78.31
383.31	88.31
383.535	82.31
383.761	93.31
383.986	74.31
384.211	82.31
384.436	84.31
384.662	87.31
384.887	96.31
385.112	84.31
385.337	99.31
385.562	78.31
385.787	75.31
386.013	82.31
386.238	80.31
386.463	78.31
386.688	79.31
386.913	88.31
387.138	78.31
387.363	92.31
387.588	94.31
387.813	84.31
388.038	86.31
388.263	75.31
388.488	94.31
388.713	96.31
388.938	83.31
389.163	82.31
389.387	93.31
389.612	88.31
389.837	79.31
390.062	91.31
390.287	86.31
390.512	82.31
390.736	73.31
390.961	58.31
391.186	78.31
391.411	75.31
391.636	80.31
391.86	73.31
392.085	77.31
392.31	100.31
392.534	78.31
392.759	96.31
392.984	94.31
393.208	92.31
393.433	108.31
393.658	95.31
393.882	76.31
394.107	79.31
394.331	101.31
394.556	78.31
394.78	92.31
395.005	88.31
395.229	78.31
395.454	79.31
395.678	87.31
395.903	83.31
396.127	79.31
396.352	88.31
396.576	98.31
396.801	99.31
397.025	97.31
397.249	77.31
397.474	83.31
397.698	83.31
397.922	79.31
398.147	78.31
398.371	76.31
398.595	84.31
398.82	83.31
399.044	86.31
399.268	69.31
399.492	83.31
399.717	79.31
399.941	65.31
400.165	88.31
400.389	72.31
400.613	72.31
400.837	87.31
401.062	88.31
401.286	76.31
401.51	87.31
401.734	84.31
401.958	75.31
402.182	97.31
402.406	89.31
402.63	85.31
402.854	81.31
403.078	75.31
403.302	76.31
403.526	89.31
403.75	93.31
403.974	85.31
404.198	90.31
404.422	82.31
404.645	75.31
404.869	84.31
405.093	86.31
405.317	82.31
405.541	88.31
405.765	81.31
405.988	96.31
406.212	76.31
406.436	84.31
406.66	90.31
406.883	96.31
407.107	88.31
407.331	72.31
407.555	72.31
407.778	89.31
408.002	89.31
408.226	84.31
408.449	69.31
408.673	90.31
408.896	72.31
409.12	73.31
409.344	89.31
409.567	87.31
409.791	93.31
410.014	110.31
410.238	86.31
410.461	84.31
410.685	76.31
410.908	82.31
411.132	85.31
411.355	72.31
411.578	85.31
411.802	76.31
412.025	82.31
412.249	85.31
412.472	80.31
412.695	78.31
412.919	87.31
413.142	82.31
413.365	85.31
413.589	86.31
413.812	87.31
414.035	75.31
414.258	106.31
414.482	89.31
414.705	74.31
414.928	89.31
415.151	68.31
415.374	86.31
415.597	72.31
415.821	73.31
416.044	101.31
416.267	82.31
416.49	86.31
416.713	78.31
416.936	81.31
417.159	78.31
417.382	80.31
417.605	85.31
417.828	84.31
418.051	80.31
418.274	74.31
418.497	85.31
418.72	65.31
418.943	72.31
419.166	79.31
419.389	83.31
419.611	64.31
419.834	81.31
420.057	82.31
420.28	84.31
420.503	81.31
420.726	80.31
420.948	82.31
421.171	81.31
421.394	85.31
421.617	96.31
421.839	88.31
422.062	80.31
422.285	90.31
422.507	123.31
422.73	132.31
422.953	126.31
423.175	118.31
423.398	80.31
423.621	84.31
423.843	77.31
424.066	93.31
424.288	72.31
424.511	66.31
424.733	87.31
424.956	76.31
425.178	68.31
425.401	73.31
425.623	76.31
425.846	82.31
426.068	91.31
426.291	85.31
426.513	80.31
426.735	90.31
426.958	87.31
427.18	82.31
427.402	78.31
427.625	80.31
427.847	72.31
428.069	84.31
428.292	89.31
428.514	82.31
428.736	84.31
428.958	75.31
429.181	82.31
429.403	93.31
429.625	85.31
429.847	85.31
430.069	88.31
430.292	93.31
430.514	96.31
430.736	93.31
430.958	87.31
431.18	87.31
431.402	81.31
431.624	82.31
431.846	79.31
432.068	101.31
432.29	86.31
432.512	77.31
432.734	85.31
432.956	73.31
433.178	96.31
433.4	83.31
433.622	85.31
433.844	87.31
434.066	82.31
434.287	91.31
434.509	76.31
434.731	76.31
434.953	79.31
435.175	74.31
435.397	91.31
435.618	92.31
435.84	80.31
436.062	73.31
436.284	84.31
436.505	79.31
436.727	68.31
436.949	87.31
437.17	83.31
437.392	73.31
437.614	85.31
437.835	75.31
438.057	84.31
438.278	71.31
438.5	70.31
438.721	98.31
438.943	95.31
439.165	71.31
439.386	82.31
439.608	86.31
439.829	72.31
440.05	65.31
440.272	87.31
440.493	80.31
440.715	67.31
440.936	86.31
441.158	96.31
441.379	72.31
441.6	75.31
441.822	73.31
442.043	83.31
442.264	88.31
442.486	92.31
442.707	86.31
442.928	74.31
443.149	72.31
443.371	96.31
443.592	95.31
443.813	84.31
444.034	92.31
444.255	84.31
444.476	65.31
444.698	76.31
444.919	68.31
445.14	150.31
445.361	127.31
445.582	116.31
445.803	112.31
446.024	95.31
446.245	81.31
446.466	94.31
446.687	78.31
446.908	76.31
447.129	77.31
447.35	78.31
447.571	79.31
447.792	78.31
448.013	53.31
448.234	83.31
448.455	81.31
448.675	90.31
448.896	92.31
449.117	80.31
449.338	89.31
449.559	80.31
449.779	81.31
450	92.31
450.221	93.31
450.442	73.31
450.662	71.31
450.883	86.31
451.104	83.31
451.324	94.31
451.545	77.31
451.766	85.31
451.986	80.31
452.207	74.31
452.428	82.31
452.648	76.31
452.869	93.31
453.089	87.31
453.31	80.31
453.53	85.31
453.751	81.31
453.971	75.31
454.192	90.31
454.412	80.31
454.633	76.31
454.853	88.31
455.073	77.31
455.294	75.31
455.514	75.31
455.734	85.31
455.955	84.31
456.175	82.31
456.395	77.31
456.616	83.31
456.836	90.31
457.056	89.31
457.276	88.31
457.497	96.31
457.717	74.31
457.937	86.31
458.157	102.31
458.377	91.31
458.598	78.31
458.818	84.31
459.038	84.31
459.258	79.31
459.478	70.31
459.698	72.31
459.918	93.31
460.138	88.31
460.358	88.31
460.578	80.31
460.798	72.31
461.018	93.31
461.238	79.31
461.458	87.31
461.678	93.31
461.898	80.31
462.118	82.31
462.338	73.31
462.558	91.31
462.777	95.31
462.997	88.31
463.217	83.31
463.437	82.31
463.657	86.31
463.876	80.31
464.096	72.31
464.316	78.31
464.536	77.31
464.755	86.31
464.975	65.31
465.195	82.31
465.414	88.31
465.634	74.31
465.854	78.31
466.073	76.31
466.293	92.31
466.512	76.31
466.732	84.31
466.951	70.31
467.171	80.31
467.391	80.31
467.61	93.31
467.829	88.31
468.049	73.31
468.268	74.31
468.488	79.31
468.707	90.31
468.927	90.31
469.146	83.31
469.365	58.31
469.585	83.31
469.804	86.31
470.023	85.31
470.243	92.31
470.462	72.31
470.681	89.31
470.901	90.31
471.12	87.31
471.339	89.31
471.558	82.31
471.777	85.31
471.997	93.31
472.216	86.31
472.435	79.31
472.654	79.31
472.873	89.31
473.092	79.31
473.311	63.31
473.53	94.31
473.749	82.31
473.968	84.31
474.187	76.31
474.406	75.31
474.625	85.31
474.844	103.31
475.063	87.31
475.282	79.31
475.501	86.31
475.72	81.31
475.939	73.31
476.158	92.31
476.377	79.31
476.596	86.31
476.814	78.31
477.033	89.31
477.252	81.31
477.471	73.31
477.69	78.31
477.908	74.31
478.127	78.31
478.346	80.31
478.564	82.31
478.783	85.31
479.002	82.31
479.22	76.31
479.439	86.31
479.658	91.31
479.876	79.31
480.095	100.31
480.313	80.31
480.532	97.31
480.751	84.31
480.969	72.31
481.188	74.31
481.406	76.31
481.624	77.31
481.843	85.31
482.061	87.31
482.28	87.31
482.498	88.31
482.717	80.31
482.935	86.31
483.153	88.31
483.372	84.31
483.59	77.31
483.808	84.31
484.027	87.31
484.245	77.31
484.463	99.31
484.681	100.31
484.9	77.31
485.118	81.31
485.336	89.31
485.554	80.31
485.772	82.31
485.99	82.31
486.209	98.31
486.427	87.31
486.645	73.31
486.863	71.31
487.081	78.31
487.299	90.31
487.517	82.31
487.735	85.31
487.953	98.31
488.171	100.31
488.389	93.31
488.607	80.31
488.825	88.31
489.043	92.31
489.261	94.31
489.479	69.31
489.696	84.31
489.914	76.31
490.132	78.31
490.35	79.31
490.568	84.31
490.786	72.31
491.003	80.31
491.221	80.31
491.439	95.31
491.657	86.31
491.874	78.31
492.092	99.31
492.31	88.31
492.527	76.31
492.745	76.31
492.963	78.31
493.18	75.31
493.398	71.31
493.615	83.31
493.833	79.31
494.05	94.31
494.268	91.31
494.485	86.31
494.703	76.31
494.92	92.31
495.138	83.31
495.355	79.31
495.573	81.31
495.79	90.31
496.008	83.31
496.225	81.31
496.442	80.31
496.66	80.31
496.877	77.31
497.094	96.31
497.312	77.31
497.529	80.31
497.746	78.31
497.963	80.31
498.181	82.31
498.398	74.31
498.615	88.31
498.832	72.31
499.049	94.31
499.267	88.31
499.484	80.31
499.701	80.31
499.918	93.31
500.135	89.31
500.352	78.31
500.569	71.31
500.786	83.31
501.003	85.31
501.22	89.31
501.437	87.31
501.654	85.31
501.871	84.31
502.088	64.31
502.305	81.31
502.522	74.31
502.739	80.31
502.956	86.31
503.172	84.31
503.389	74.31
503.606	77.31
503.823	99.31
504.04	92.31
504.256	84.31
504.473	102.31
504.69	82.31
504.907	86.31
505.123	87.31
505.34	85.31
505.557	80.31
505.773	81.31
505.99	80.31
506.207	72.31
506.423	89.31
506.64	93.31
506.856	85.31
507.073	70.31
507.289	73.31
507.506	91.31
507.722	80.31
507.939	94.31
508.155	99.31
508.372	87.31
508.588	88.31
508.805	73.31
509.021	87.31
509.238	71.31
509.454	81.31
509.67	80.31
509.887	86.31
510.103	80.31
510.319	92.31
510.536	85.31
510.752	88.31
510.968	85.31
511.184	67.31
511.401	82.31
511.617	88.31
511.833	80.31
512.049	91.31
512.265	80.31
512.481	76.31
512.698	88.31
512.914	89.31
513.13	79.31
513.346	78.31
513.562	73.31
513.778	95.31
513.994	91.31
514.21	84.31
514.426	77.31
514.642	81.31
514.858	94.31
515.074	84.31
515.29	94.31
515.506	83.31
515.721	97.31
515.937	77.31
516.153	88.31
516.369	72.31
516.585	78.31
516.801	82.31
517.016	86.31
517.232	80.31
517.448	68.31
517.664	96.31
517.879	75.31
518.095	101.31
518.311	68.31
518.527	91.31
518.742	73.31
518.958	78.31
519.173	94.31
519.389	82.31
519.605	79.31
519.82	88.31
