Data from 10100_3_HRD10591_00048.txt Node
Date: Mon Jan 19 14:02:46 EST 2026
User: Yrep
Spectrometer: HR+D1059
Trigger mode: 1
Integration Time (sec): 1.000000E-1
Scans to average: 1
Electric dark correction enabled: true
Nonlinearity correction enabled: false
Boxcar width: 0
XAxis mode: Wavelengths
Number of Pixels in Spectrum: 2048
>>>>>Begin Spectral Data<<<<<
223.165	-10.75
223.4	-10.75
223.635	-10.75
223.869	-10.75
224.104	-17.75
224.338	-15.75
224.573	-13.75
224.808	-17.75
225.042	-14.75
225.277	-18.75
225.511	4.25
225.746	-0.75
225.98	7.25
226.215	13.25
226.449	16.25
226.683	19.25
226.918	30.25
227.152	30.25
227.387	45.25
227.621	33.25
227.856	50.25
228.09	49.25
228.324	34.25
228.559	55.25
228.793	53.25
229.027	72.25
229.262	66.25
229.496	63.25
229.73	63.25
229.964	61.25
230.199	72.25
230.433	78.25
230.667	73.25
230.901	67.25
231.136	80.25
231.37	73.25
231.604	79.25
231.838	100.25
232.072	91.25
232.306	94.25
232.541	83.25
232.775	81.25
233.009	74.25
233.243	69.25
233.477	65.25
233.711	77.25
233.945	63.25
234.179	74.25
234.413	70.25
234.647	88.25
234.881	88.25
235.115	82.25
235.349	73.25
235.583	85.25
235.817	84.25
236.051	87.25
236.285	70.25
236.519	73.25
236.753	61.25
236.987	71.25
237.221	70.25
237.455	75.25
237.689	72.25
237.922	73.25
238.156	80.25
238.39	73.25
238.624	72.25
238.858	74.25
239.091	73.25
239.325	73.25
239.559	68.25
239.793	79.25
240.027	86.25
240.26	73.25
240.494	80.25
240.728	67.25
240.961	80.25
241.195	82.25
241.429	66.25
241.662	64.25
241.896	66.25
242.13	77.25
242.363	70.25
242.597	75.25
242.83	83.25
243.064	73.25
243.298	83.25
243.531	55.25
243.765	81.25
243.998	86.25
244.232	76.25
244.465	72.25
244.699	81.25
244.932	69.25
245.166	80.25
245.399	81.25
245.633	77.25
245.866	83.25
246.099	84.25
246.333	74.25
246.566	93.25
246.8	97.25
247.033	60.25
247.266	71.25
247.5	85.25
247.733	79.25
247.966	68.25
248.2	91.25
248.433	73.25
248.666	86.25
248.899	75.25
249.133	70.25
249.366	79.25
249.599	70.25
249.832	62.25
250.066	84.25
250.299	76.25
250.532	78.25
250.765	86.25
250.998	76.25
251.231	80.25
251.465	89.25
251.698	71.25
251.931	63.25
252.164	75.25
252.397	82.25
252.63	97.25
252.863	72.25
253.096	65.25
253.329	77.25
253.562	83.25
253.795	87.25
254.028	83.25
254.261	70.25
254.494	69.25
254.727	70.25
254.96	65.25
255.193	88.25
255.426	90.25
255.659	78.25
255.892	93.25
256.124	84.25
256.357	74.25
256.59	87.25
256.823	57.25
257.056	82.25
257.289	86.25
257.521	78.25
257.754	86.25
257.987	67.25
258.22	94.25
258.452	84.25
258.685	95.25
258.918	66.25
259.151	77.25
259.383	82.25
259.616	88.25
259.849	82.25
260.081	71.25
260.314	85.25
260.547	77.25
260.779	72.25
261.012	80.25
261.244	76.25
261.477	80.25
261.71	74.25
261.942	84.25
262.175	79.25
262.407	79.25
262.64	76.25
262.872	99.25
263.105	78.25
263.337	80.25
263.57	77.25
263.802	85.25
264.035	68.25
264.267	81.25
264.499	77.25
264.732	90.25
264.964	73.25
265.197	85.25
265.429	79.25
265.661	73.25
265.894	87.25
266.126	82.25
266.358	88.25
266.591	83.25
266.823	87.25
267.055	79.25
267.287	85.25
267.52	83.25
267.752	75.25
267.984	73.25
268.216	86.25
268.448	76.25
268.681	86.25
268.913	77.25
269.145	74.25
269.377	75.25
269.609	72.25
269.841	82.25
270.073	77.25
270.306	80.25
270.538	80.25
270.77	78.25
271.002	83.25
271.234	92.25
271.466	87.25
271.698	76.25
271.93	80.25
272.162	82.25
272.394	89.25
272.626	81.25
272.858	79.25
273.09	82.25
273.322	84.25
273.553	86.25
273.785	86.25
274.017	86.25
274.249	87.25
274.481	82.25
274.713	81.25
274.945	82.25
275.176	83.25
275.408	81.25
275.64	78.25
275.872	69.25
276.104	76.25
276.335	85.25
276.567	79.25
276.799	84.25
277.031	93.25
277.262	85.25
277.494	75.25
277.726	89.25
277.957	99.25
278.189	75.25
278.421	79.25
278.652	91.25
278.884	74.25
279.115	86.25
279.347	74.25
279.579	72.25
279.81	73.25
280.042	75.25
280.273	92.25
280.505	93.25
280.736	74.25
280.968	84.25
281.199	81.25
281.431	81.25
281.662	75.25
281.894	95.25
282.125	77.25
282.356	85.25
282.588	80.25
282.819	82.25
283.051	87.25
283.282	81.25
283.513	84.25
283.745	73.25
283.976	91.25
284.207	78.25
284.439	79.25
284.67	80.25
284.901	81.25
285.132	81.25
285.364	84.25
285.595	81.25
285.826	63.25
286.057	79.25
286.288	87.25
286.52	94.25
286.751	80.25
286.982	81.25
287.213	90.25
287.444	80.25
287.675	85.25
287.906	71.25
288.138	69.25
288.369	93.25
288.6	74.25
288.831	85.25
289.062	67.25
289.293	81.25
289.524	93.25
289.755	88.25
289.986	73.25
290.217	90.25
290.448	71.25
290.679	88.25
290.91	89.25
291.141	77.25
291.371	96.25
291.602	92.25
291.833	93.25
292.064	74.25
292.295	95.25
292.526	91.25
292.757	83.25
292.987	92.25
293.218	89.25
293.449	75.25
293.68	67.25
293.91	84.25
294.141	91.25
294.372	81.25
294.603	93.25
294.833	75.25
295.064	89.25
295.295	88.25
295.525	86.25
295.756	96.25
295.987	75.25
296.217	79.25
296.448	82.25
296.679	75.25
296.909	92.25
297.14	81.25
297.37	87.25
297.601	73.25
297.831	80.25
298.062	91.25
298.292	79.25
298.523	77.25
298.753	81.25
298.984	73.25
299.214	86.25
299.445	85.25
299.675	80.25
299.905	87.25
300.136	86.25
300.366	79.25
300.597	70.25
300.827	99.25
301.057	84.25
301.288	89.25
301.518	84.25
301.748	83.25
301.979	89.25
302.209	76.25
302.439	86.25
302.669	92.25
302.9	87.25
303.13	93.25
303.36	83.25
303.59	102.25
303.82	81.25
304.051	77.25
304.281	85.25
304.511	88.25
304.741	74.25
304.971	88.25
305.201	75.25
305.431	81.25
305.661	87.25
305.891	75.25
306.121	91.25
306.352	72.25
306.582	82.25
306.812	86.25
307.042	91.25
307.272	90.25
307.502	81.25
307.731	78.25
307.961	85.25
308.191	77.25
308.421	95.25
308.651	67.25
308.881	80.25
309.111	83.25
309.341	75.25
309.571	84.25
309.8	94.25
310.03	83.25
310.26	85.25
310.49	94.25
310.72	79.25
310.949	71.25
311.179	88.25
311.409	71.25
311.639	76.25
311.868	109.25
312.098	85.25
312.328	97.25
312.557	78.25
312.787	77.25
313.017	75.25
313.246	87.25
313.476	99.25
313.706	83.25
313.935	75.25
314.165	70.25
314.394	73.25
314.624	87.25
314.853	82.25
315.083	79.25
315.312	85.25
315.542	91.25
315.771	82.25
316.001	73.25
316.23	81.25
316.46	92.25
316.689	85.25
316.919	84.25
317.148	87.25
317.377	84.25
317.607	83.25
317.836	77.25
318.065	81.25
318.295	82.25
318.524	89.25
318.753	83.25
318.983	78.25
319.212	97.25
319.441	77.25
319.67	73.25
319.9	92.25
320.129	91.25
320.358	86.25
320.587	82.25
320.816	96.25
321.046	83.25
321.275	100.25
321.504	85.25
321.733	83.25
321.962	94.25
322.191	76.25
322.42	72.25
322.649	88.25
322.878	87.25
323.108	82.25
323.337	77.25
323.566	79.25
323.795	84.25
324.024	76.25
324.253	84.25
324.482	67.25
324.71	76.25
324.939	84.25
325.168	82.25
325.397	93.25
325.626	85.25
325.855	97.25
326.084	81.25
326.313	79.25
326.542	87.25
326.77	85.25
326.999	83.25
327.228	98.25
327.457	81.25
327.686	82.25
327.914	83.25
328.143	79.25
328.372	85.25
328.6	90.25
328.829	72.25
329.058	80.25
329.287	85.25
329.515	82.25
329.744	78.25
329.972	72.25
330.201	91.25
330.43	81.25
330.658	86.25
330.887	74.25
331.115	99.25
331.344	87.25
331.572	70.25
331.801	79.25
332.03	91.25
332.258	77.25
332.486	88.25
332.715	91.25
332.943	79.25
333.172	82.25
333.4	63.25
333.629	73.25
333.857	81.25
334.085	81.25
334.314	70.25
334.542	81.25
334.771	106.25
334.999	88.25
335.227	88.25
335.455	90.25
335.684	88.25
335.912	90.25
336.14	93.25
336.369	81.25
336.597	81.25
336.825	87.25
337.053	81.25
337.281	90.25
337.51	84.25
337.738	87.25
337.966	84.25
338.194	77.25
338.422	79.25
338.65	75.25
338.878	83.25
339.106	82.25
339.334	99.25
339.562	81.25
339.79	83.25
340.018	74.25
340.246	81.25
340.474	87.25
340.702	95.25
340.93	99.25
341.158	82.25
341.386	83.25
341.614	94.25
341.842	93.25
342.07	83.25
342.298	82.25
342.526	89.25
342.754	82.25
342.981	81.25
343.209	75.25
343.437	88.25
343.665	81.25
343.893	83.25
344.12	97.25
344.348	77.25
344.576	83.25
344.804	99.25
345.031	85.25
345.259	84.25
345.487	92.25
345.714	80.25
345.942	76.25
346.17	88.25
346.397	93.25
346.625	81.25
346.853	83.25
347.08	78.25
347.308	85.25
347.535	89.25
347.763	75.25
347.99	83.25
348.218	84.25
348.445	78.25
348.673	82.25
348.9	82.25
349.128	93.25
349.355	79.25
349.583	90.25
349.81	83.25
350.037	86.25
350.265	84.25
350.492	97.25
350.72	91.25
350.947	91.25
351.174	74.25
351.402	79.25
351.629	89.25
351.856	84.25
352.083	73.25
352.311	75.25
352.538	89.25
352.765	98.25
352.992	94.25
353.22	107.25
353.447	76.25
353.674	75.25
353.901	76.25
354.128	71.25
354.355	74.25
354.583	76.25
354.81	77.25
355.037	87.25
355.264	78.25
355.491	83.25
355.718	75.25
355.945	103.25
356.172	93.25
356.399	83.25
356.626	82.25
356.853	83.25
357.08	93.25
357.307	91.25
357.534	84.25
357.761	72.25
357.988	80.25
358.215	77.25
358.441	83.25
358.668	87.25
358.895	68.25
359.122	80.25
359.349	77.25
359.576	93.25
359.802	73.25
360.029	88.25
360.256	84.25
360.483	89.25
360.709	67.25
360.936	83.25
361.163	86.25
361.39	99.25
361.616	73.25
361.843	90.25
362.07	90.25
362.296	83.25
362.523	78.25
362.749	94.25
362.976	71.25
363.203	88.25
363.429	82.25
363.656	80.25
363.882	85.25
364.109	101.25
364.335	95.25
364.562	104.25
364.788	79.25
365.015	65.25
365.241	87.25
365.468	75.25
365.694	87.25
365.92	82.25
366.147	69.25
366.373	73.25
366.599	80.25
366.826	95.25
367.052	85.25
367.278	73.25
367.505	85.25
367.731	83.25
367.957	89.25
368.184	73.25
368.41	85.25
368.636	89.25
368.862	86.25
369.089	78.25
369.315	85.25
369.541	77.25
369.767	70.25
369.993	84.25
370.219	79.25
370.445	102.25
370.672	90.25
370.898	83.25
371.124	75.25
371.35	82.25
371.576	85.25
371.802	83.25
372.028	67.25
372.254	83.25
372.48	99.25
372.706	84.25
372.932	87.25
373.158	83.25
373.384	94.25
373.61	88.25
373.835	88.25
374.061	81.25
374.287	93.25
374.513	81.25
374.739	87.25
374.965	85.25
375.191	74.25
375.416	74.25
375.642	86.25
375.868	86.25
376.094	80.25
376.319	78.25
376.545	81.25
376.771	93.25
376.997	81.25
377.222	63.25
377.448	81.25
377.674	81.25
377.899	97.25
378.125	97.25
378.35	93.25
378.576	85.25
378.802	94.25
379.027	87.25
379.253	75.25
379.478	79.25
379.704	73.25
379.929	82.25
380.155	79.25
380.38	80.25
380.606	69.25
380.831	87.25
381.057	94.25
381.282	90.25
381.507	75.25
381.733	89.25
381.958	84.25
382.184	87.25
382.409	78.25
382.634	81.25
382.86	91.25
383.085	74.25
383.31	94.25
383.535	84.25
383.761	77.25
383.986	89.25
384.211	78.25
384.436	81.25
384.662	79.25
384.887	72.25
385.112	81.25
385.337	85.25
385.562	83.25
385.787	90.25
386.013	79.25
386.238	82.25
386.463	78.25
386.688	89.25
386.913	77.25
387.138	90.25
387.363	89.25
387.588	101.25
387.813	90.25
388.038	89.25
388.263	83.25
388.488	78.25
388.713	84.25
388.938	71.25
389.163	94.25
389.387	71.25
389.612	88.25
389.837	65.25
390.062	75.25
390.287	86.25
390.512	94.25
390.736	101.25
390.961	88.25
391.186	68.25
391.411	71.25
391.636	80.25
391.86	74.25
392.085	81.25
392.31	89.25
392.534	85.25
392.759	87.25
392.984	94.25
393.208	112.25
393.433	136.25
393.658	117.25
393.882	83.25
394.107	86.25
394.331	81.25
394.556	93.25
394.78	81.25
395.005	102.25
395.229	82.25
395.454	91.25
395.678	81.25
395.903	89.25
396.127	87.25
396.352	91.25
396.576	97.25
396.801	107.25
397.025	125.25
397.249	105.25
397.474	97.25
397.698	85.25
397.922	78.25
398.147	85.25
398.371	82.25
398.595	82.25
398.82	67.25
399.044	98.25
399.268	64.25
399.492	93.25
399.717	80.25
399.941	83.25
400.165	82.25
400.389	90.25
400.613	73.25
400.837	67.25
401.062	75.25
401.286	82.25
401.51	76.25
401.734	86.25
401.958	73.25
402.182	73.25
402.406	79.25
402.63	77.25
402.854	90.25
403.078	88.25
403.302	76.25
403.526	79.25
403.75	78.25
403.974	63.25
404.198	71.25
404.422	78.25
404.645	74.25
404.869	91.25
405.093	88.25
405.317	87.25
405.541	85.25
405.765	88.25
405.988	74.25
406.212	77.25
406.436	75.25
406.66	82.25
406.883	86.25
407.107	84.25
407.331	70.25
407.555	91.25
407.778	78.25
408.002	81.25
408.226	90.25
408.449	80.25
408.673	76.25
408.896	89.25
409.12	67.25
409.344	91.25
409.567	92.25
409.791	90.25
410.014	82.25
410.238	94.25
410.461	96.25
410.685	76.25
410.908	80.25
411.132	97.25
411.355	83.25
411.578	87.25
411.802	85.25
412.025	75.25
412.249	74.25
412.472	78.25
412.695	77.25
412.919	78.25
413.142	81.25
413.365	90.25
413.589	89.25
413.812	79.25
414.035	80.25
414.258	85.25
414.482	73.25
414.705	75.25
414.928	79.25
415.151	83.25
415.374	76.25
415.597	88.25
415.821	89.25
416.044	78.25
416.267	74.25
416.49	76.25
416.713	81.25
416.936	68.25
417.159	83.25
417.382	79.25
417.605	89.25
417.828	83.25
418.051	88.25
418.274	84.25
418.497	85.25
418.72	70.25
418.943	87.25
419.166	80.25
419.389	93.25
419.611	84.25
419.834	84.25
420.057	88.25
420.28	82.25
420.503	94.25
420.726	81.25
420.948	85.25
421.171	77.25
421.394	92.25
421.617	98.25
421.839	96.25
422.062	87.25
422.285	86.25
422.507	127.25
422.73	154.25
422.953	134.25
423.175	99.25
423.398	99.25
423.621	94.25
423.843	86.25
424.066	77.25
424.288	85.25
424.511	72.25
424.733	75.25
424.956	81.25
425.178	87.25
425.401	73.25
425.623	101.25
425.846	94.25
426.068	87.25
426.291	81.25
426.513	77.25
426.735	79.25
426.958	85.25
427.18	75.25
427.402	89.25
427.625	88.25
427.847	82.25
428.069	88.25
428.292	85.25
428.514	93.25
428.736	90.25
428.958	103.25
429.181	81.25
429.403	94.25
429.625	88.25
429.847	88.25
430.069	97.25
430.292	111.25
430.514	92.25
430.736	87.25
430.958	89.25
431.18	87.25
431.402	90.25
431.624	88.25
431.846	92.25
432.068	94.25
432.29	93.25
432.512	84.25
432.734	78.25
432.956	75.25
433.178	72.25
433.4	93.25
433.622	96.25
433.844	80.25
434.066	85.25
434.287	78.25
434.509	81.25
434.731	81.25
434.953	71.25
435.175	69.25
435.397	70.25
435.618	75.25
435.84	81.25
436.062	89.25
436.284	84.25
436.505	67.25
436.727	78.25
436.949	80.25
437.17	80.25
437.392	88.25
437.614	78.25
437.835	87.25
438.057	93.25
438.278	77.25
438.5	83.25
438.721	86.25
438.943	87.25
439.165	89.25
439.386	79.25
439.608	79.25
439.829	83.25
440.05	82.25
440.272	83.25
440.493	66.25
440.715	84.25
440.936	88.25
441.158	94.25
441.379	66.25
441.6	83.25
441.822	85.25
442.043	96.25
442.264	106.25
442.486	84.25
442.707	97.25
442.928	88.25
443.149	83.25
443.371	102.25
443.592	117.25
443.813	101.25
444.034	79.25
444.255	86.25
444.476	92.25
444.698	85.25
444.919	85.25
445.14	151.25
445.361	116.25
445.582	124.25
445.803	104.25
446.024	99.25
446.245	95.25
446.466	87.25
446.687	77.25
446.908	85.25
447.129	71.25
447.35	91.25
447.571	83.25
447.792	81.25
448.013	89.25
448.234	71.25
448.455	89.25
448.675	86.25
448.896	81.25
449.117	85.25
449.338	81.25
449.559	71.25
449.779	81.25
450	80.25
450.221	89.25
450.442	72.25
450.662	71.25
450.883	83.25
451.104	76.25
451.324	92.25
451.545	82.25
451.766	98.25
451.986	86.25
452.207	89.25
452.428	87.25
452.648	94.25
452.869	80.25
453.089	80.25
453.31	88.25
453.53	95.25
453.751	77.25
453.971	88.25
454.192	78.25
454.412	87.25
454.633	97.25
454.853	79.25
455.073	75.25
455.294	65.25
455.514	93.25
455.734	89.25
455.955	71.25
456.175	81.25
456.395	86.25
456.616	80.25
456.836	81.25
457.056	79.25
457.276	73.25
457.497	84.25
457.717	82.25
457.937	102.25
458.157	91.25
458.377	74.25
458.598	93.25
458.818	81.25
459.038	81.25
459.258	89.25
459.478	85.25
459.698	85.25
459.918	89.25
460.138	70.25
460.358	88.25
460.578	88.25
460.798	87.25
461.018	91.25
461.238	82.25
461.458	80.25
461.678	86.25
461.898	88.25
462.118	94.25
462.338	81.25
462.558	79.25
462.777	92.25
462.997	72.25
463.217	75.25
463.437	85.25
463.657	77.25
463.876	90.25
464.096	86.25
464.316	82.25
464.536	93.25
464.755	76.25
464.975	90.25
465.195	74.25
465.414	81.25
465.634	79.25
465.854	87.25
466.073	79.25
466.293	67.25
466.512	72.25
466.732	78.25
466.951	77.25
467.171	75.25
467.391	81.25
467.61	74.25
467.829	102.25
468.049	87.25
468.268	87.25
468.488	90.25
468.707	73.25
468.927	80.25
469.146	74.25
469.365	81.25
469.585	98.25
469.804	90.25
470.023	84.25
470.243	84.25
470.462	90.25
470.681	69.25
470.901	75.25
471.12	70.25
471.339	83.25
471.558	86.25
471.777	81.25
471.997	73.25
472.216	81.25
472.435	69.25
472.654	85.25
472.873	89.25
473.092	94.25
473.311	87.25
473.53	82.25
473.749	80.25
473.968	89.25
474.187	81.25
474.406	83.25
474.625	78.25
474.844	81.25
475.063	73.25
475.282	63.25
475.501	89.25
475.72	95.25
475.939	92.25
476.158	92.25
476.377	84.25
476.596	80.25
476.814	74.25
477.033	81.25
477.252	85.25
477.471	94.25
477.69	84.25
477.908	89.25
478.127	92.25
478.346	84.25
478.564	72.25
478.783	81.25
479.002	86.25
479.22	88.25
479.439	75.25
479.658	94.25
479.876	84.25
480.095	84.25
480.313	70.25
480.532	65.25
480.751	72.25
480.969	82.25
481.188	79.25
481.406	91.25
481.624	92.25
481.843	88.25
482.061	90.25
482.28	69.25
482.498	81.25
482.717	92.25
482.935	83.25
483.153	87.25
483.372	74.25
483.59	88.25
483.808	80.25
484.027	77.25
484.245	89.25
484.463	80.25
484.681	87.25
484.9	84.25
485.118	72.25
485.336	70.25
485.554	83.25
485.772	88.25
485.99	86.25
486.209	81.25
486.427	77.25
486.645	86.25
486.863	67.25
487.081	88.25
487.299	79.25
487.517	84.25
487.735	85.25
487.953	109.25
488.171	84.25
488.389	89.25
488.607	97.25
488.825	81.25
489.043	74.25
489.261	78.25
489.479	81.25
489.696	72.25
489.914	93.25
490.132	75.25
490.35	89.25
490.568	88.25
490.786	81.25
491.003	87.25
491.221	86.25
491.439	79.25
491.657	72.25
491.874	87.25
492.092	96.25
492.31	96.25
492.527	83.25
492.745	84.25
492.963	97.25
493.18	89.25
493.398	70.25
493.615	72.25
493.833	76.25
494.05	80.25
494.268	89.25
494.485	92.25
494.703	75.25
494.92	88.25
495.138	96.25
495.355	85.25
495.573	90.25
495.79	83.25
496.008	91.25
496.225	82.25
496.442	74.25
496.66	84.25
496.877	79.25
497.094	90.25
497.312	90.25
497.529	83.25
497.746	100.25
497.963	93.25
498.181	83.25
498.398	86.25
498.615	84.25
498.832	95.25
499.049	75.25
499.267	82.25
499.484	77.25
499.701	94.25
499.918	74.25
500.135	79.25
500.352	92.25
500.569	86.25
500.786	91.25
501.003	98.25
501.22	66.25
501.437	67.25
501.654	80.25
501.871	85.25
502.088	82.25
502.305	90.25
502.522	83.25
502.739	90.25
502.956	91.25
503.172	74.25
503.389	87.25
503.606	83.25
503.823	81.25
504.04	91.25
504.256	93.25
504.473	82.25
504.69	82.25
504.907	82.25
505.123	86.25
505.34	89.25
505.557	87.25
505.773	84.25
505.99	85.25
506.207	88.25
506.423	76.25
506.64	80.25
506.856	92.25
507.073	80.25
507.289	84.25
507.506	81.25
507.722	82.25
507.939	76.25
508.155	92.25
508.372	69.25
508.588	95.25
508.805	79.25
509.021	87.25
509.238	85.25
509.454	80.25
509.67	88.25
509.887	93.25
510.103	81.25
510.319	79.25
510.536	93.25
510.752	77.25
510.968	78.25
511.184	78.25
511.401	82.25
511.617	83.25
511.833	95.25
512.049	90.25
512.265	69.25
512.481	87.25
512.698	77.25
512.914	81.25
513.13	88.25
513.346	86.25
513.562	72.25
513.778	95.25
513.994	81.25
514.21	62.25
514.426	87.25
514.642	76.25
514.858	78.25
515.074	79.25
515.29	86.25
515.506	86.25
515.721	79.25
515.937	90.25
516.153	76.25
516.369	99.25
516.585	86.25
516.801	89.25
517.016	81.25
517.232	87.25
517.448	86.25
517.664	95.25
517.879	89.25
518.095	89.25
518.311	86.25
518.527	81.25
518.742	78.25
518.958	88.25
519.173	91.25
519.389	82.25
519.605	89.25
519.82	83.25
