Data from 10100_3_HRD10591_00046.txt Node
Date: Mon Jan 19 14:02:45 EST 2026
User: Yrep
Spectrometer: HR+D1059
Trigger mode: 1
Integration Time (sec): 1.000000E-1
Scans to average: 1
Electric dark correction enabled: true
Nonlinearity correction enabled: false
Boxcar width: 0
XAxis mode: Wavelengths
Number of Pixels in Spectrum: 2048
>>>>>Begin Spectral Data<<<<<
223.165	-18.94
223.4	-18.94
223.635	-18.94
223.869	-9.94
224.104	-9.94
224.338	-19.94
224.573	-32.94
224.808	-8.94
225.042	-10.94
225.277	-8.94
225.511	6.06
225.746	15.06
225.98	2.06
226.215	15.06
226.449	14.06
226.683	6.06
226.918	30.06
227.152	32.06
227.387	42.06
227.621	34.06
227.856	55.06
228.09	51.06
228.324	45.06
228.559	53.06
228.793	62.06
229.027	67.06
229.262	67.06
229.496	69.06
229.73	69.06
229.964	74.06
230.199	83.06
230.433	81.06
230.667	85.06
230.901	85.06
231.136	85.06
231.37	73.06
231.604	77.06
231.838	95.06
232.072	80.06
232.306	89.06
232.541	88.06
232.775	73.06
233.009	74.06
233.243	83.06
233.477	81.06
233.711	85.06
233.945	88.06
234.179	69.06
234.413	89.06
234.647	80.06
234.881	83.06
235.115	92.06
235.349	78.06
235.583	78.06
235.817	72.06
236.051	80.06
236.285	84.06
236.519	86.06
236.753	84.06
236.987	65.06
237.221	69.06
237.455	82.06
237.689	77.06
237.922	91.06
238.156	76.06
238.39	78.06
238.624	77.06
238.858	89.06
239.091	71.06
239.325	75.06
239.559	81.06
239.793	78.06
240.027	83.06
240.26	87.06
240.494	85.06
240.728	69.06
240.961	83.06
241.195	77.06
241.429	77.06
241.662	61.06
241.896	71.06
242.13	79.06
242.363	83.06
242.597	79.06
242.83	74.06
243.064	76.06
243.298	71.06
243.531	73.06
243.765	74.06
243.998	86.06
244.232	83.06
244.465	89.06
244.699	75.06
244.932	75.06
245.166	80.06
245.399	81.06
245.633	92.06
245.866	80.06
246.099	86.06
246.333	79.06
246.566	67.06
246.8	69.06
247.033	74.06
247.266	85.06
247.5	87.06
247.733	83.06
247.966	74.06
248.2	77.06
248.433	75.06
248.666	80.06
248.899	83.06
249.133	72.06
249.366	89.06
249.599	72.06
249.832	76.06
250.066	79.06
250.299	67.06
250.532	86.06
250.765	75.06
250.998	75.06
251.231	77.06
251.465	79.06
251.698	76.06
251.931	74.06
252.164	87.06
252.397	85.06
252.63	73.06
252.863	71.06
253.096	87.06
253.329	80.06
253.562	69.06
253.795	70.06
254.028	83.06
254.261	68.06
254.494	80.06
254.727	77.06
254.96	88.06
255.193	91.06
255.426	85.06
255.659	74.06
255.892	82.06
256.124	76.06
256.357	90.06
256.59	67.06
256.823	91.06
257.056	73.06
257.289	87.06
257.521	90.06
257.754	93.06
257.987	71.06
258.22	91.06
258.452	76.06
258.685	88.06
258.918	81.06
259.151	96.06
259.383	86.06
259.616	93.06
259.849	91.06
260.081	82.06
260.314	75.06
260.547	85.06
260.779	81.06
261.012	90.06
261.244	97.06
261.477	85.06
261.71	83.06
261.942	79.06
262.175	72.06
262.407	85.06
262.64	95.06
262.872	89.06
263.105	79.06
263.337	91.06
263.57	93.06
263.802	63.06
264.035	73.06
264.267	77.06
264.499	82.06
264.732	87.06
264.964	81.06
265.197	83.06
265.429	88.06
265.661	77.06
265.894	80.06
266.126	87.06
266.358	107.06
266.591	83.06
266.823	85.06
267.055	84.06
267.287	85.06
267.52	80.06
267.752	91.06
267.984	77.06
268.216	85.06
268.448	85.06
268.681	90.06
268.913	96.06
269.145	84.06
269.377	92.06
269.609	81.06
269.841	85.06
270.073	82.06
270.306	85.06
270.538	97.06
270.77	82.06
271.002	86.06
271.234	89.06
271.466	83.06
271.698	91.06
271.93	86.06
272.162	85.06
272.394	77.06
272.626	85.06
272.858	79.06
273.09	87.06
273.322	82.06
273.553	93.06
273.785	89.06
274.017	97.06
274.249	105.06
274.481	84.06
274.713	85.06
274.945	76.06
275.176	90.06
275.408	86.06
275.64	91.06
275.872	86.06
276.104	98.06
276.335	88.06
276.567	98.06
276.799	75.06
277.031	95.06
277.262	86.06
277.494	87.06
277.726	86.06
277.957	88.06
278.189	87.06
278.421	99.06
278.652	74.06
278.884	85.06
279.115	84.06
279.347	88.06
279.579	97.06
279.81	91.06
280.042	85.06
280.273	78.06
280.505	96.06
280.736	98.06
280.968	90.06
281.199	90.06
281.431	91.06
281.662	98.06
281.894	89.06
282.125	79.06
282.356	83.06
282.588	86.06
282.819	82.06
283.051	83.06
283.282	90.06
283.513	82.06
283.745	83.06
283.976	90.06
284.207	91.06
284.439	89.06
284.67	85.06
284.901	88.06
285.132	98.06
285.364	73.06
285.595	71.06
285.826	89.06
286.057	96.06
286.288	91.06
286.52	89.06
286.751	76.06
286.982	94.06
287.213	91.06
287.444	96.06
287.675	91.06
287.906	103.06
288.138	79.06
288.369	85.06
288.6	78.06
288.831	82.06
289.062	95.06
289.293	90.06
289.524	90.06
289.755	86.06
289.986	87.06
290.217	90.06
290.448	93.06
290.679	100.06
290.91	93.06
291.141	83.06
291.371	88.06
291.602	78.06
291.833	87.06
292.064	82.06
292.295	99.06
292.526	82.06
292.757	77.06
292.987	101.06
293.218	94.06
293.449	86.06
293.68	77.06
293.91	81.06
294.141	80.06
294.372	85.06
294.603	87.06
294.833	76.06
295.064	92.06
295.295	86.06
295.525	84.06
295.756	87.06
295.987	94.06
296.217	93.06
296.448	77.06
296.679	85.06
296.909	119.06
297.14	85.06
297.37	82.06
297.601	83.06
297.831	90.06
298.062	80.06
298.292	83.06
298.523	83.06
298.753	84.06
298.984	83.06
299.214	95.06
299.445	81.06
299.675	75.06
299.905	90.06
300.136	91.06
300.366	81.06
300.597	96.06
300.827	86.06
301.057	86.06
301.288	96.06
301.518	82.06
301.748	86.06
301.979	102.06
302.209	70.06
302.439	92.06
302.669	78.06
302.9	95.06
303.13	85.06
303.36	81.06
303.59	82.06
303.82	82.06
304.051	102.06
304.281	87.06
304.511	93.06
304.741	89.06
304.971	90.06
305.201	99.06
305.431	85.06
305.661	80.06
305.891	95.06
306.121	90.06
306.352	75.06
306.582	88.06
306.812	86.06
307.042	86.06
307.272	82.06
307.502	76.06
307.731	86.06
307.961	93.06
308.191	83.06
308.421	97.06
308.651	93.06
308.881	84.06
309.111	86.06
309.341	84.06
309.571	89.06
309.8	85.06
310.03	91.06
310.26	84.06
310.49	89.06
310.72	90.06
310.949	69.06
311.179	87.06
311.409	87.06
311.639	85.06
311.868	84.06
312.098	97.06
312.328	78.06
312.557	85.06
312.787	96.06
313.017	84.06
313.246	92.06
313.476	79.06
313.706	91.06
313.935	87.06
314.165	104.06
314.394	99.06
314.624	92.06
314.853	78.06
315.083	88.06
315.312	82.06
315.542	99.06
315.771	87.06
316.001	94.06
316.23	104.06
316.46	78.06
316.689	87.06
316.919	85.06
317.148	78.06
317.377	94.06
317.607	92.06
317.836	82.06
318.065	82.06
318.295	86.06
318.524	90.06
318.753	89.06
318.983	84.06
319.212	79.06
319.441	92.06
319.67	85.06
319.9	70.06
320.129	87.06
320.358	80.06
320.587	90.06
320.816	83.06
321.046	91.06
321.275	81.06
321.504	86.06
321.733	87.06
321.962	107.06
322.191	84.06
322.42	73.06
322.649	82.06
322.878	99.06
323.108	89.06
323.337	93.06
323.566	95.06
323.795	86.06
324.024	86.06
324.253	77.06
324.482	85.06
324.71	73.06
324.939	104.06
325.168	96.06
325.397	67.06
325.626	77.06
325.855	85.06
326.084	90.06
326.313	90.06
326.542	86.06
326.77	90.06
326.999	87.06
327.228	76.06
327.457	78.06
327.686	95.06
327.914	100.06
328.143	93.06
328.372	91.06
328.6	89.06
328.829	86.06
329.058	95.06
329.287	74.06
329.515	84.06
329.744	89.06
329.972	92.06
330.201	85.06
330.43	93.06
330.658	88.06
330.887	86.06
331.115	83.06
331.344	97.06
331.572	91.06
331.801	85.06
332.03	84.06
332.258	95.06
332.486	87.06
332.715	84.06
332.943	91.06
333.172	84.06
333.4	97.06
333.629	79.06
333.857	82.06
334.085	115.06
334.314	92.06
334.542	89.06
334.771	88.06
334.999	84.06
335.227	97.06
335.455	106.06
335.684	88.06
335.912	85.06
336.14	88.06
336.369	77.06
336.597	94.06
336.825	79.06
337.053	87.06
337.281	83.06
337.51	71.06
337.738	94.06
337.966	76.06
338.194	75.06
338.422	79.06
338.65	86.06
338.878	89.06
339.106	89.06
339.334	81.06
339.562	82.06
339.79	73.06
340.018	89.06
340.246	79.06
340.474	88.06
340.702	83.06
340.93	86.06
341.158	99.06
341.386	85.06
341.614	93.06
341.842	93.06
342.07	69.06
342.298	86.06
342.526	93.06
342.754	94.06
342.981	90.06
343.209	78.06
343.437	105.06
343.665	79.06
343.893	92.06
344.12	97.06
344.348	98.06
344.576	98.06
344.804	93.06
345.031	83.06
345.259	95.06
345.487	89.06
345.714	77.06
345.942	72.06
346.17	78.06
346.397	87.06
346.625	91.06
346.853	97.06
347.08	69.06
347.308	76.06
347.535	80.06
347.763	93.06
347.99	103.06
348.218	87.06
348.445	89.06
348.673	93.06
348.9	83.06
349.128	87.06
349.355	91.06
349.583	106.06
349.81	89.06
350.037	94.06
350.265	84.06
350.492	74.06
350.72	79.06
350.947	90.06
351.174	85.06
351.402	84.06
351.629	87.06
351.856	90.06
352.083	75.06
352.311	79.06
352.538	80.06
352.765	79.06
352.992	85.06
353.22	105.06
353.447	85.06
353.674	92.06
353.901	86.06
354.128	91.06
354.355	89.06
354.583	83.06
354.81	93.06
355.037	93.06
355.264	85.06
355.491	77.06
355.718	81.06
355.945	87.06
356.172	87.06
356.399	77.06
356.626	71.06
356.853	79.06
357.08	98.06
357.307	94.06
357.534	87.06
357.761	89.06
357.988	90.06
358.215	89.06
358.441	89.06
358.668	86.06
358.895	86.06
359.122	85.06
359.349	92.06
359.576	104.06
359.802	87.06
360.029	96.06
360.256	89.06
360.483	84.06
360.709	88.06
360.936	98.06
361.163	89.06
361.39	98.06
361.616	99.06
361.843	89.06
362.07	94.06
362.296	102.06
362.523	84.06
362.749	77.06
362.976	85.06
363.203	113.06
363.429	79.06
363.656	101.06
363.882	89.06
364.109	98.06
364.335	101.06
364.562	89.06
364.788	90.06
365.015	87.06
365.241	90.06
365.468	79.06
365.694	82.06
365.92	89.06
366.147	87.06
366.373	94.06
366.599	97.06
366.826	90.06
367.052	97.06
367.278	87.06
367.505	100.06
367.731	77.06
367.957	95.06
368.184	90.06
368.41	80.06
368.636	85.06
368.862	84.06
369.089	75.06
369.315	77.06
369.541	90.06
369.767	99.06
369.993	91.06
370.219	85.06
370.445	90.06
370.672	86.06
370.898	93.06
371.124	85.06
371.35	86.06
371.576	79.06
371.802	85.06
372.028	93.06
372.254	94.06
372.48	87.06
372.706	83.06
372.932	84.06
373.158	85.06
373.384	93.06
373.61	90.06
373.835	77.06
374.061	77.06
374.287	79.06
374.513	82.06
374.739	81.06
374.965	90.06
375.191	79.06
375.416	67.06
375.642	87.06
375.868	103.06
376.094	77.06
376.319	77.06
376.545	99.06
376.771	94.06
376.997	89.06
377.222	99.06
377.448	86.06
377.674	74.06
377.899	77.06
378.125	83.06
378.35	92.06
378.576	79.06
378.802	85.06
379.027	81.06
379.253	79.06
379.478	86.06
379.704	83.06
379.929	97.06
380.155	88.06
380.38	92.06
380.606	79.06
380.831	79.06
381.057	79.06
381.282	100.06
381.507	91.06
381.733	91.06
381.958	90.06
382.184	88.06
382.409	85.06
382.634	86.06
382.86	100.06
383.085	93.06
383.31	87.06
383.535	89.06
383.761	82.06
383.986	85.06
384.211	85.06
384.436	84.06
384.662	94.06
384.887	88.06
385.112	82.06
385.337	76.06
385.562	96.06
385.787	87.06
386.013	92.06
386.238	100.06
386.463	81.06
386.688	91.06
386.913	86.06
387.138	65.06
387.363	80.06
387.588	91.06
387.813	85.06
388.038	86.06
388.263	89.06
388.488	90.06
388.713	88.06
388.938	85.06
389.163	88.06
389.387	83.06
389.612	84.06
389.837	89.06
390.062	98.06
390.287	74.06
390.512	98.06
390.736	81.06
390.961	74.06
391.186	80.06
391.411	87.06
391.636	62.06
391.86	90.06
392.085	83.06
392.31	76.06
392.534	89.06
392.759	100.06
392.984	101.06
393.208	114.06
393.433	119.06
393.658	96.06
393.882	87.06
394.107	80.06
394.331	87.06
394.556	94.06
394.78	87.06
395.005	76.06
395.229	79.06
395.454	82.06
395.678	94.06
395.903	91.06
396.127	107.06
396.352	105.06
396.576	94.06
396.801	106.06
397.025	107.06
397.249	78.06
397.474	90.06
397.698	68.06
397.922	95.06
398.147	79.06
398.371	92.06
398.595	85.06
398.82	83.06
399.044	84.06
399.268	75.06
399.492	93.06
399.717	77.06
399.941	89.06
400.165	92.06
400.389	73.06
400.613	104.06
400.837	76.06
401.062	87.06
401.286	91.06
401.51	97.06
401.734	91.06
401.958	85.06
402.182	83.06
402.406	81.06
402.63	92.06
402.854	77.06
403.078	80.06
403.302	79.06
403.526	84.06
403.75	97.06
403.974	82.06
404.198	81.06
404.422	93.06
404.645	94.06
404.869	87.06
405.093	77.06
405.317	79.06
405.541	101.06
405.765	87.06
405.988	74.06
406.212	77.06
406.436	84.06
406.66	89.06
406.883	84.06
407.107	87.06
407.331	86.06
407.555	100.06
407.778	81.06
408.002	87.06
408.226	90.06
408.449	97.06
408.673	92.06
408.896	87.06
409.12	72.06
409.344	85.06
409.567	81.06
409.791	92.06
410.014	88.06
410.238	85.06
410.461	87.06
410.685	93.06
410.908	92.06
411.132	87.06
411.355	80.06
411.578	77.06
411.802	74.06
412.025	90.06
412.249	84.06
412.472	80.06
412.695	85.06
412.919	86.06
413.142	83.06
413.365	90.06
413.589	85.06
413.812	85.06
414.035	78.06
414.258	76.06
414.482	79.06
414.705	99.06
414.928	76.06
415.151	78.06
415.374	92.06
415.597	90.06
415.821	74.06
416.044	86.06
416.267	83.06
416.49	69.06
416.713	93.06
416.936	82.06
417.159	77.06
417.382	81.06
417.605	82.06
417.828	82.06
418.051	82.06
418.274	92.06
418.497	78.06
418.72	63.06
418.943	86.06
419.166	105.06
419.389	95.06
419.611	70.06
419.834	79.06
420.057	87.06
420.28	83.06
420.503	98.06
420.726	91.06
420.948	76.06
421.171	85.06
421.394	97.06
421.617	87.06
421.839	85.06
422.062	90.06
422.285	94.06
422.507	120.06
422.73	156.06
422.953	145.06
423.175	109.06
423.398	90.06
423.621	87.06
423.843	97.06
424.066	82.06
424.288	82.06
424.511	80.06
424.733	87.06
424.956	94.06
425.178	83.06
425.401	84.06
425.623	89.06
425.846	78.06
426.068	93.06
426.291	79.06
426.513	97.06
426.735	99.06
426.958	95.06
427.18	85.06
427.402	80.06
427.625	84.06
427.847	72.06
428.069	82.06
428.292	87.06
428.514	80.06
428.736	88.06
428.958	91.06
429.181	90.06
429.403	79.06
429.625	80.06
429.847	87.06
430.069	92.06
430.292	88.06
430.514	94.06
430.736	101.06
430.958	104.06
431.18	83.06
431.402	97.06
431.624	84.06
431.846	106.06
432.068	96.06
432.29	82.06
432.512	97.06
432.734	79.06
432.956	96.06
433.178	96.06
433.4	84.06
433.622	101.06
433.844	92.06
434.066	79.06
434.287	79.06
434.509	86.06
434.731	92.06
434.953	80.06
435.175	75.06
435.397	93.06
435.618	97.06
435.84	90.06
436.062	89.06
436.284	95.06
436.505	67.06
436.727	90.06
436.949	83.06
437.17	94.06
437.392	82.06
437.614	83.06
437.835	83.06
438.057	75.06
438.278	82.06
438.5	82.06
438.721	83.06
438.943	86.06
439.165	77.06
439.386	85.06
439.608	89.06
439.829	85.06
440.05	84.06
440.272	71.06
440.493	88.06
440.715	87.06
440.936	105.06
441.158	98.06
441.379	85.06
441.6	93.06
441.822	93.06
442.043	99.06
442.264	95.06
442.486	84.06
442.707	84.06
442.928	98.06
443.149	76.06
443.371	91.06
443.592	95.06
443.813	113.06
444.034	89.06
444.255	91.06
444.476	86.06
444.698	90.06
444.919	85.06
445.14	153.06
445.361	119.06
445.582	123.06
445.803	127.06
446.024	80.06
446.245	79.06
446.466	83.06
446.687	84.06
446.908	86.06
447.129	85.06
447.35	95.06
447.571	84.06
447.792	83.06
448.013	95.06
448.234	94.06
448.455	80.06
448.675	85.06
448.896	72.06
449.117	93.06
449.338	89.06
449.559	106.06
449.779	76.06
450	76.06
450.221	86.06
450.442	82.06
450.662	83.06
450.883	103.06
451.104	94.06
451.324	94.06
451.545	89.06
451.766	80.06
451.986	80.06
452.207	77.06
452.428	87.06
452.648	90.06
452.869	84.06
453.089	80.06
453.31	80.06
453.53	74.06
453.751	80.06
453.971	88.06
454.192	104.06
454.412	80.06
454.633	76.06
454.853	94.06
455.073	89.06
455.294	78.06
455.514	86.06
455.734	95.06
455.955	105.06
456.175	86.06
456.395	87.06
456.616	80.06
456.836	89.06
457.056	78.06
457.276	81.06
457.497	89.06
457.717	86.06
457.937	86.06
458.157	94.06
458.377	98.06
458.598	102.06
458.818	83.06
459.038	90.06
459.258	87.06
459.478	78.06
459.698	97.06
459.918	80.06
460.138	89.06
460.358	99.06
460.578	84.06
460.798	79.06
461.018	105.06
461.238	85.06
461.458	85.06
461.678	78.06
461.898	90.06
462.118	87.06
462.338	85.06
462.558	70.06
462.777	89.06
462.997	89.06
463.217	86.06
463.437	87.06
463.657	90.06
463.876	89.06
464.096	80.06
464.316	75.06
464.536	78.06
464.755	77.06
464.975	75.06
465.195	94.06
465.414	86.06
465.634	83.06
465.854	96.06
466.073	101.06
466.293	91.06
466.512	85.06
466.732	94.06
466.951	102.06
467.171	86.06
467.391	87.06
467.61	97.06
467.829	87.06
468.049	89.06
468.268	92.06
468.488	90.06
468.707	103.06
468.927	85.06
469.146	73.06
469.365	102.06
469.585	91.06
469.804	74.06
470.023	93.06
470.243	87.06
470.462	88.06
470.681	75.06
470.901	89.06
471.12	70.06
471.339	89.06
471.558	85.06
471.777	90.06
471.997	88.06
472.216	87.06
472.435	90.06
472.654	94.06
472.873	85.06
473.092	84.06
473.311	102.06
473.53	90.06
473.749	86.06
473.968	87.06
474.187	87.06
474.406	88.06
474.625	69.06
474.844	85.06
475.063	94.06
475.282	79.06
475.501	71.06
475.72	97.06
475.939	85.06
476.158	87.06
476.377	63.06
476.596	89.06
476.814	88.06
477.033	94.06
477.252	89.06
477.471	80.06
477.69	79.06
477.908	91.06
478.127	86.06
478.346	93.06
478.564	94.06
478.783	89.06
479.002	83.06
479.22	92.06
479.439	88.06
479.658	77.06
479.876	74.06
480.095	97.06
480.313	94.06
480.532	83.06
480.751	90.06
480.969	76.06
481.188	81.06
481.406	93.06
481.624	84.06
481.843	84.06
482.061	78.06
482.28	83.06
482.498	86.06
482.717	77.06
482.935	75.06
483.153	80.06
483.372	86.06
483.59	82.06
483.808	82.06
484.027	83.06
484.245	84.06
484.463	77.06
484.681	90.06
484.9	83.06
485.118	81.06
485.336	84.06
485.554	95.06
485.772	88.06
485.99	103.06
486.209	83.06
486.427	92.06
486.645	74.06
486.863	74.06
487.081	78.06
487.299	95.06
487.517	84.06
487.735	89.06
487.953	98.06
488.171	94.06
488.389	86.06
488.607	87.06
488.825	86.06
489.043	76.06
489.261	91.06
489.479	78.06
489.696	104.06
489.914	85.06
490.132	86.06
490.35	75.06
490.568	79.06
490.786	107.06
491.003	82.06
491.221	87.06
491.439	85.06
491.657	68.06
491.874	81.06
492.092	78.06
492.31	96.06
492.527	87.06
492.745	77.06
492.963	91.06
493.18	71.06
493.398	90.06
493.615	75.06
493.833	95.06
494.05	77.06
494.268	91.06
494.485	91.06
494.703	89.06
494.92	86.06
495.138	89.06
495.355	91.06
495.573	89.06
495.79	79.06
496.008	83.06
496.225	100.06
496.442	73.06
496.66	95.06
496.877	83.06
497.094	85.06
497.312	88.06
497.529	90.06
497.746	93.06
497.963	100.06
498.181	85.06
498.398	71.06
498.615	95.06
498.832	87.06
499.049	91.06
499.267	84.06
499.484	86.06
499.701	94.06
499.918	82.06
500.135	78.06
500.352	83.06
500.569	83.06
500.786	80.06
501.003	94.06
501.22	75.06
501.437	87.06
501.654	102.06
501.871	80.06
502.088	82.06
502.305	85.06
502.522	74.06
502.739	89.06
502.956	84.06
503.172	93.06
503.389	95.06
503.606	79.06
503.823	100.06
504.04	87.06
504.256	98.06
504.473	93.06
504.69	89.06
504.907	93.06
505.123	95.06
505.34	85.06
505.557	89.06
505.773	86.06
505.99	85.06
506.207	96.06
506.423	83.06
506.64	79.06
506.856	93.06
507.073	98.06
507.289	83.06
507.506	97.06
507.722	87.06
507.939	93.06
508.155	83.06
508.372	96.06
508.588	92.06
508.805	77.06
509.021	66.06
509.238	92.06
509.454	78.06
509.67	72.06
509.887	74.06
510.103	71.06
510.319	80.06
510.536	89.06
510.752	71.06
510.968	98.06
511.184	99.06
511.401	79.06
511.617	89.06
511.833	89.06
512.049	90.06
512.265	80.06
512.481	87.06
512.698	97.06
512.914	68.06
513.13	73.06
513.346	103.06
513.562	91.06
513.778	87.06
513.994	98.06
514.21	102.06
514.426	87.06
514.642	89.06
514.858	87.06
515.074	92.06
515.29	98.06
515.506	88.06
515.721	81.06
515.937	85.06
516.153	88.06
516.369	86.06
516.585	77.06
516.801	97.06
517.016	90.06
517.232	73.06
517.448	90.06
517.664	85.06
517.879	85.06
518.095	76.06
518.311	87.06
518.527	100.06
518.742	80.06
518.958	95.06
519.173	111.06
