Data from 10100_3_HRD10591_00018.txt Node
Date: Mon Jan 19 14:02:31 EST 2026
User: Yrep
Spectrometer: HR+D1059
Trigger mode: 1
Integration Time (sec): 1.000000E-1
Scans to average: 1
Electric dark correction enabled: true
Nonlinearity correction enabled: false
Boxcar width: 0
XAxis mode: Wavelengths
Number of Pixels in Spectrum: 2048
>>>>>Begin Spectral Data<<<<<
223.165	-14.06
223.4	-14.06
223.635	-14.06
223.869	-12.06
224.104	-22.06
224.338	-13.06
224.573	-12.06
224.808	-20.06
225.042	-9.06
225.277	-6.06
225.511	-8.06
225.746	5.94
225.98	2.94
226.215	7.94
226.449	20.94
226.683	4.94
226.918	34.94
227.152	38.94
227.387	44.94
227.621	32.94
227.856	52.94
228.09	33.94
228.324	45.94
228.559	61.94
228.793	63.94
229.027	59.94
229.262	56.94
229.496	65.94
229.73	81.94
229.964	63.94
230.199	65.94
230.433	73.94
230.667	67.94
230.901	74.94
231.136	69.94
231.37	57.94
231.604	66.94
231.838	66.94
232.072	73.94
232.306	84.94
232.541	85.94
232.775	76.94
233.009	81.94
233.243	77.94
233.477	79.94
233.711	82.94
233.945	89.94
234.179	92.94
234.413	87.94
234.647	66.94
234.881	93.94
235.115	87.94
235.349	65.94
235.583	68.94
235.817	67.94
236.051	74.94
236.285	71.94
236.519	73.94
236.753	68.94
236.987	72.94
237.221	85.94
237.455	72.94
237.689	74.94
237.922	64.94
238.156	72.94
238.39	87.94
238.624	62.94
238.858	76.94
239.091	75.94
239.325	75.94
239.559	60.94
239.793	66.94
240.027	72.94
240.26	80.94
240.494	73.94
240.728	75.94
240.961	69.94
241.195	67.94
241.429	73.94
241.662	62.94
241.896	73.94
242.13	68.94
242.363	76.94
242.597	67.94
242.83	72.94
243.064	73.94
243.298	76.94
243.531	83.94
243.765	74.94
243.998	74.94
244.232	78.94
244.465	68.94
244.699	78.94
244.932	61.94
245.166	82.94
245.399	72.94
245.633	62.94
245.866	70.94
246.099	79.94
246.333	84.94
246.566	64.94
246.8	67.94
247.033	75.94
247.266	77.94
247.5	80.94
247.733	84.94
247.966	83.94
248.2	70.94
248.433	73.94
248.666	82.94
248.899	69.94
249.133	81.94
249.366	85.94
249.599	76.94
249.832	84.94
250.066	81.94
250.299	68.94
250.532	88.94
250.765	68.94
250.998	87.94
251.231	83.94
251.465	78.94
251.698	73.94
251.931	70.94
252.164	72.94
252.397	80.94
252.63	85.94
252.863	81.94
253.096	83.94
253.329	76.94
253.562	81.94
253.795	66.94
254.028	81.94
254.261	73.94
254.494	84.94
254.727	80.94
254.96	73.94
255.193	79.94
255.426	64.94
255.659	73.94
255.892	82.94
256.124	72.94
256.357	78.94
256.59	79.94
256.823	81.94
257.056	86.94
257.289	75.94
257.521	70.94
257.754	106.94
257.987	62.94
258.22	79.94
258.452	75.94
258.685	86.94
258.918	80.94
259.151	82.94
259.383	75.94
259.616	77.94
259.849	72.94
260.081	88.94
260.314	86.94
260.547	71.94
260.779	80.94
261.012	63.94
261.244	79.94
261.477	84.94
261.71	71.94
261.942	72.94
262.175	65.94
262.407	76.94
262.64	83.94
262.872	71.94
263.105	77.94
263.337	86.94
263.57	69.94
263.802	100.94
264.035	82.94
264.267	67.94
264.499	96.94
264.732	79.94
264.964	86.94
265.197	79.94
265.429	85.94
265.661	81.94
265.894	65.94
266.126	89.94
266.358	76.94
266.591	73.94
266.823	84.94
267.055	77.94
267.287	67.94
267.52	66.94
267.752	92.94
267.984	85.94
268.216	74.94
268.448	92.94
268.681	72.94
268.913	81.94
269.145	78.94
269.377	80.94
269.609	83.94
269.841	89.94
270.073	78.94
270.306	72.94
270.538	86.94
270.77	74.94
271.002	67.94
271.234	75.94
271.466	79.94
271.698	74.94
271.93	71.94
272.162	74.94
272.394	75.94
272.626	83.94
272.858	77.94
273.09	87.94
273.322	76.94
273.553	71.94
273.785	82.94
274.017	95.94
274.249	81.94
274.481	64.94
274.713	78.94
274.945	81.94
275.176	75.94
275.408	59.94
275.64	73.94
275.872	74.94
276.104	87.94
276.335	74.94
276.567	79.94
276.799	86.94
277.031	74.94
277.262	87.94
277.494	76.94
277.726	75.94
277.957	81.94
278.189	77.94
278.421	83.94
278.652	74.94
278.884	84.94
279.115	67.94
279.347	67.94
279.579	100.94
279.81	81.94
280.042	68.94
280.273	88.94
280.505	98.94
280.736	70.94
280.968	85.94
281.199	80.94
281.431	78.94
281.662	89.94
281.894	65.94
282.125	83.94
282.356	92.94
282.588	85.94
282.819	85.94
283.051	79.94
283.282	87.94
283.513	79.94
283.745	70.94
283.976	80.94
284.207	83.94
284.439	83.94
284.67	81.94
284.901	79.94
285.132	82.94
285.364	76.94
285.595	80.94
285.826	85.94
286.057	79.94
286.288	77.94
286.52	85.94
286.751	72.94
286.982	91.94
287.213	93.94
287.444	82.94
287.675	72.94
287.906	83.94
288.138	77.94
288.369	73.94
288.6	74.94
288.831	71.94
289.062	68.94
289.293	84.94
289.524	74.94
289.755	83.94
289.986	84.94
290.217	92.94
290.448	82.94
290.679	94.94
290.91	86.94
291.141	76.94
291.371	78.94
291.602	97.94
291.833	78.94
292.064	88.94
292.295	76.94
292.526	83.94
292.757	82.94
292.987	82.94
293.218	68.94
293.449	64.94
293.68	75.94
293.91	79.94
294.141	100.94
294.372	83.94
294.603	81.94
294.833	76.94
295.064	79.94
295.295	82.94
295.525	92.94
295.756	86.94
295.987	69.94
296.217	74.94
296.448	73.94
296.679	77.94
296.909	72.94
297.14	73.94
297.37	86.94
297.601	79.94
297.831	71.94
298.062	67.94
298.292	97.94
298.523	81.94
298.753	76.94
298.984	97.94
299.214	85.94
299.445	83.94
299.675	80.94
299.905	75.94
300.136	81.94
300.366	84.94
300.597	94.94
300.827	84.94
301.057	86.94
301.288	85.94
301.518	70.94
301.748	81.94
301.979	88.94
302.209	81.94
302.439	82.94
302.669	88.94
302.9	99.94
303.13	78.94
303.36	82.94
303.59	82.94
303.82	104.94
304.051	93.94
304.281	90.94
304.511	82.94
304.741	91.94
304.971	91.94
305.201	98.94
305.431	79.94
305.661	97.94
305.891	91.94
306.121	86.94
306.352	89.94
306.582	73.94
306.812	78.94
307.042	77.94
307.272	81.94
307.502	70.94
307.731	97.94
307.961	86.94
308.191	93.94
308.421	93.94
308.651	74.94
308.881	84.94
309.111	87.94
309.341	71.94
309.571	81.94
309.8	87.94
310.03	77.94
310.26	77.94
310.49	73.94
310.72	79.94
310.949	92.94
311.179	77.94
311.409	77.94
311.639	74.94
311.868	82.94
312.098	73.94
312.328	85.94
312.557	87.94
312.787	84.94
313.017	88.94
313.246	77.94
313.476	90.94
313.706	81.94
313.935	74.94
314.165	87.94
314.394	95.94
314.624	82.94
314.853	80.94
315.083	92.94
315.312	83.94
315.542	71.94
315.771	62.94
316.001	82.94
316.23	89.94
316.46	84.94
316.689	89.94
316.919	79.94
317.148	82.94
317.377	83.94
317.607	95.94
317.836	76.94
318.065	78.94
318.295	88.94
318.524	94.94
318.753	92.94
318.983	85.94
319.212	83.94
319.441	81.94
319.67	80.94
319.9	77.94
320.129	83.94
320.358	87.94
320.587	92.94
320.816	84.94
321.046	89.94
321.275	98.94
321.504	83.94
321.733	78.94
321.962	100.94
322.191	89.94
322.42	78.94
322.649	71.94
322.878	87.94
323.108	92.94
323.337	91.94
323.566	71.94
323.795	92.94
324.024	73.94
324.253	70.94
324.482	86.94
324.71	85.94
324.939	90.94
325.168	87.94
325.397	80.94
325.626	80.94
325.855	74.94
326.084	86.94
326.313	84.94
326.542	95.94
326.77	91.94
326.999	97.94
327.228	89.94
327.457	75.94
327.686	84.94
327.914	79.94
328.143	88.94
328.372	88.94
328.6	72.94
328.829	80.94
329.058	83.94
329.287	87.94
329.515	75.94
329.744	89.94
329.972	92.94
330.201	88.94
330.43	91.94
330.658	87.94
330.887	79.94
331.115	84.94
331.344	94.94
331.572	79.94
331.801	85.94
332.03	92.94
332.258	77.94
332.486	92.94
332.715	70.94
332.943	87.94
333.172	91.94
333.4	94.94
333.629	83.94
333.857	80.94
334.085	82.94
334.314	84.94
334.542	77.94
334.771	80.94
334.999	96.94
335.227	78.94
335.455	74.94
335.684	86.94
335.912	99.94
336.14	86.94
336.369	100.94
336.597	79.94
336.825	91.94
337.053	71.94
337.281	91.94
337.51	89.94
337.738	93.94
337.966	96.94
338.194	75.94
338.422	79.94
338.65	60.94
338.878	82.94
339.106	69.94
339.334	86.94
339.562	85.94
339.79	93.94
340.018	90.94
340.246	85.94
340.474	88.94
340.702	87.94
340.93	72.94
341.158	79.94
341.386	83.94
341.614	85.94
341.842	92.94
342.07	79.94
342.298	86.94
342.526	79.94
342.754	85.94
342.981	90.94
343.209	85.94
343.437	95.94
343.665	86.94
343.893	79.94
344.12	88.94
344.348	81.94
344.576	99.94
344.804	83.94
345.031	87.94
345.259	88.94
345.487	97.94
345.714	74.94
345.942	79.94
346.17	86.94
346.397	82.94
346.625	88.94
346.853	83.94
347.08	82.94
347.308	88.94
347.535	88.94
347.763	82.94
347.99	88.94
348.218	96.94
348.445	84.94
348.673	81.94
348.9	107.94
349.128	87.94
349.355	86.94
349.583	83.94
349.81	89.94
350.037	84.94
350.265	91.94
350.492	92.94
350.72	102.94
350.947	72.94
351.174	88.94
351.402	80.94
351.629	84.94
351.856	89.94
352.083	77.94
352.311	88.94
352.538	78.94
352.765	79.94
352.992	89.94
353.22	100.94
353.447	86.94
353.674	80.94
353.901	97.94
354.128	86.94
354.355	87.94
354.583	77.94
354.81	92.94
355.037	77.94
355.264	83.94
355.491	92.94
355.718	85.94
355.945	82.94
356.172	86.94
356.399	86.94
356.626	77.94
356.853	79.94
357.08	107.94
357.307	86.94
357.534	89.94
357.761	97.94
357.988	99.94
358.215	94.94
358.441	97.94
358.668	92.94
358.895	95.94
359.122	85.94
359.349	92.94
359.576	83.94
359.802	80.94
360.029	90.94
360.256	84.94
360.483	88.94
360.709	93.94
360.936	91.94
361.163	92.94
361.39	91.94
361.616	77.94
361.843	87.94
362.07	92.94
362.296	92.94
362.523	102.94
362.749	96.94
362.976	91.94
363.203	92.94
363.429	91.94
363.656	89.94
363.882	92.94
364.109	90.94
364.335	102.94
364.562	104.94
364.788	96.94
365.015	86.94
365.241	97.94
365.468	79.94
365.694	82.94
365.92	95.94
366.147	85.94
366.373	81.94
366.599	83.94
366.826	80.94
367.052	81.94
367.278	86.94
367.505	82.94
367.731	87.94
367.957	87.94
368.184	72.94
368.41	77.94
368.636	72.94
368.862	73.94
369.089	101.94
369.315	88.94
369.541	79.94
369.767	86.94
369.993	83.94
370.219	83.94
370.445	91.94
370.672	72.94
370.898	87.94
371.124	74.94
371.35	80.94
371.576	82.94
371.802	104.94
372.028	82.94
372.254	99.94
372.48	86.94
372.706	75.94
372.932	87.94
373.158	93.94
373.384	97.94
373.61	98.94
373.835	87.94
374.061	91.94
374.287	85.94
374.513	84.94
374.739	89.94
374.965	92.94
375.191	81.94
375.416	78.94
375.642	86.94
375.868	80.94
376.094	90.94
376.319	87.94
376.545	84.94
376.771	87.94
376.997	77.94
377.222	72.94
377.448	82.94
377.674	71.94
377.899	81.94
378.125	86.94
378.35	80.94
378.576	79.94
378.802	71.94
379.027	70.94
379.253	79.94
379.478	88.94
379.704	78.94
379.929	93.94
380.155	79.94
380.38	82.94
380.606	87.94
380.831	83.94
381.057	99.94
381.282	88.94
381.507	83.94
381.733	89.94
381.958	89.94
382.184	88.94
382.409	85.94
382.634	87.94
382.86	99.94
383.085	77.94
383.31	100.94
383.535	75.94
383.761	87.94
383.986	87.94
384.211	89.94
384.436	72.94
384.662	88.94
384.887	83.94
385.112	83.94
385.337	86.94
385.562	83.94
385.787	96.94
386.013	83.94
386.238	73.94
386.463	84.94
386.688	91.94
386.913	88.94
387.138	85.94
387.363	86.94
387.588	86.94
387.813	106.94
388.038	101.94
388.263	88.94
388.488	92.94
388.713	74.94
388.938	73.94
389.163	91.94
389.387	78.94
389.612	74.94
389.837	102.94
390.062	81.94
390.287	78.94
390.512	86.94
390.736	77.94
390.961	88.94
391.186	83.94
391.411	77.94
391.636	92.94
391.86	92.94
392.085	92.94
392.31	80.94
392.534	81.94
392.759	92.94
392.984	102.94
393.208	152.94
393.433	181.94
393.658	139.94
393.882	105.94
394.107	92.94
394.331	90.94
394.556	91.94
394.78	91.94
395.005	76.94
395.229	81.94
395.454	91.94
395.678	73.94
395.903	103.94
396.127	98.94
396.352	100.94
396.576	125.94
396.801	145.94
397.025	152.94
397.249	111.94
397.474	108.94
397.698	95.94
397.922	91.94
398.147	86.94
398.371	76.94
398.595	90.94
398.82	94.94
399.044	86.94
399.268	72.94
399.492	57.94
399.717	88.94
399.941	96.94
400.165	94.94
400.389	83.94
400.613	81.94
400.837	84.94
401.062	88.94
401.286	76.94
401.51	95.94
401.734	81.94
401.958	72.94
402.182	74.94
402.406	88.94
402.63	78.94
402.854	78.94
403.078	85.94
403.302	81.94
403.526	92.94
403.75	86.94
403.974	89.94
404.198	69.94
404.422	76.94
404.645	83.94
404.869	82.94
405.093	80.94
405.317	71.94
405.541	77.94
405.765	76.94
405.988	96.94
406.212	96.94
406.436	90.94
406.66	91.94
406.883	84.94
407.107	82.94
407.331	86.94
407.555	73.94
407.778	96.94
408.002	85.94
408.226	105.94
408.449	87.94
408.673	84.94
408.896	87.94
409.12	86.94
409.344	82.94
409.567	103.94
409.791	75.94
410.014	85.94
410.238	88.94
410.461	88.94
410.685	85.94
410.908	98.94
411.132	86.94
411.355	99.94
411.578	72.94
411.802	84.94
412.025	100.94
412.249	84.94
412.472	66.94
412.695	81.94
412.919	67.94
413.142	80.94
413.365	79.94
413.589	79.94
413.812	73.94
414.035	77.94
414.258	94.94
414.482	85.94
414.705	77.94
414.928	97.94
415.151	89.94
415.374	89.94
415.597	78.94
415.821	82.94
416.044	94.94
416.267	89.94
416.49	72.94
416.713	83.94
416.936	76.94
417.159	88.94
417.382	78.94
417.605	84.94
417.828	88.94
418.051	93.94
418.274	85.94
418.497	83.94
418.72	92.94
418.943	77.94
419.166	77.94
419.389	87.94
419.611	98.94
419.834	86.94
420.057	91.94
420.28	92.94
420.503	88.94
420.726	80.94
420.948	82.94
421.171	78.94
421.394	90.94
421.617	98.94
421.839	92.94
422.062	123.94
422.285	130.94
422.507	167.94
422.73	199.94
422.953	192.94
423.175	144.94
423.398	112.94
423.621	100.94
423.843	97.94
424.066	99.94
424.288	79.94
424.511	92.94
424.733	89.94
424.956	85.94
425.178	83.94
425.401	67.94
425.623	92.94
425.846	84.94
426.068	84.94
426.291	93.94
426.513	84.94
426.735	83.94
426.958	63.94
427.18	82.94
427.402	88.94
427.625	74.94
427.847	93.94
428.069	89.94
428.292	91.94
428.514	107.94
428.736	86.94
428.958	108.94
429.181	89.94
429.403	83.94
429.625	89.94
429.847	88.94
430.069	117.94
430.292	121.94
430.514	108.94
430.736	101.94
430.958	108.94
431.18	88.94
431.402	100.94
431.624	81.94
431.846	93.94
432.068	105.94
432.29	73.94
432.512	80.94
432.734	86.94
432.956	78.94
433.178	94.94
433.4	78.94
433.622	88.94
433.844	79.94
434.066	83.94
434.287	82.94
434.509	78.94
434.731	66.94
434.953	69.94
435.175	88.94
435.397	93.94
435.618	96.94
435.84	79.94
436.062	83.94
436.284	84.94
436.505	95.94
436.727	89.94
436.949	93.94
437.17	65.94
437.392	84.94
437.614	80.94
437.835	89.94
438.057	88.94
438.278	78.94
438.5	82.94
438.721	83.94
438.943	80.94
439.165	77.94
439.386	88.94
439.608	79.94
439.829	82.94
440.05	85.94
440.272	90.94
440.493	83.94
440.715	70.94
440.936	80.94
441.158	79.94
441.379	87.94
441.6	77.94
441.822	89.94
442.043	81.94
442.264	80.94
442.486	97.94
442.707	118.94
442.928	87.94
443.149	96.94
443.371	110.94
443.592	137.94
443.813	138.94
444.034	106.94
444.255	89.94
444.476	94.94
444.698	88.94
444.919	91.94
445.14	183.94
445.361	149.94
445.582	174.94
445.803	155.94
446.024	107.94
446.245	73.94
446.466	98.94
446.687	84.94
446.908	68.94
447.129	87.94
447.35	84.94
447.571	84.94
447.792	88.94
448.013	66.94
448.234	65.94
448.455	79.94
448.675	73.94
448.896	92.94
449.117	90.94
449.338	73.94
449.559	85.94
449.779	76.94
450	60.94
450.221	69.94
450.442	83.94
450.662	87.94
450.883	91.94
451.104	87.94
451.324	66.94
451.545	77.94
451.766	77.94
451.986	88.94
452.207	96.94
452.428	93.94
452.648	88.94
452.869	86.94
453.089	81.94
453.31	79.94
453.53	76.94
453.751	83.94
453.971	98.94
454.192	78.94
454.412	78.94
454.633	82.94
454.853	77.94
455.073	75.94
455.294	72.94
455.514	87.94
455.734	85.94
455.955	85.94
456.175	72.94
456.395	88.94
456.616	76.94
456.836	91.94
457.056	75.94
457.276	84.94
457.497	86.94
457.717	82.94
457.937	101.94
458.157	107.94
458.377	107.94
458.598	98.94
458.818	98.94
459.038	69.94
459.258	81.94
459.478	88.94
459.698	80.94
459.918	87.94
460.138	81.94
460.358	78.94
460.578	100.94
460.798	88.94
461.018	100.94
461.238	82.94
461.458	86.94
461.678	93.94
461.898	83.94
462.118	83.94
462.338	72.94
462.558	89.94
462.777	81.94
462.997	79.94
463.217	60.94
463.437	87.94
463.657	67.94
463.876	74.94
464.096	87.94
464.316	81.94
464.536	84.94
464.755	78.94
464.975	77.94
465.195	84.94
465.414	81.94
465.634	94.94
465.854	85.94
466.073	75.94
466.293	88.94
466.512	88.94
466.732	77.94
466.951	88.94
467.171	84.94
467.391	70.94
467.61	99.94
467.829	91.94
468.049	79.94
468.268	84.94
468.488	77.94
468.707	83.94
468.927	91.94
469.146	90.94
469.365	102.94
469.585	89.94
469.804	83.94
470.023	70.94
470.243	71.94
470.462	93.94
470.681	88.94
470.901	73.94
471.12	74.94
471.339	76.94
471.558	79.94
471.777	80.94
471.997	64.94
472.216	85.94
472.435	77.94
472.654	70.94
472.873	79.94
473.092	76.94
473.311	82.94
473.53	76.94
473.749	85.94
473.968	99.94
474.187	83.94
474.406	79.94
474.625	85.94
474.844	98.94
475.063	85.94
475.282	85.94
475.501	91.94
475.72	91.94
475.939	83.94
476.158	86.94
476.377	80.94
476.596	92.94
476.814	81.94
477.033	102.94
477.252	76.94
477.471	79.94
477.69	90.94
477.908	93.94
478.127	95.94
478.346	76.94
478.564	87.94
478.783	86.94
479.002	80.94
479.22	86.94
479.439	79.94
479.658	68.94
479.876	85.94
480.095	76.94
480.313	87.94
480.532	83.94
480.751	83.94
480.969	85.94
481.188	85.94
481.406	88.94
481.624	70.94
481.843	77.94
482.061	70.94
482.28	81.94
482.498	95.94
482.717	69.94
482.935	91.94
483.153	78.94
483.372	84.94
483.59	85.94
483.808	77.94
484.027	66.94
484.245	79.94
484.463	83.94
484.681	79.94
484.9	88.94
485.118	92.94
485.336	64.94
485.554	82.94
485.772	77.94
485.99	72.94
486.209	95.94
486.427	83.94
486.645	87.94
486.863	94.94
487.081	100.94
487.299	74.94
487.517	89.94
487.735	101.94
487.953	133.94
488.171	113.94
488.389	84.94
488.607	83.94
488.825	85.94
489.043	70.94
489.261	73.94
489.479	68.94
489.696	93.94
489.914	77.94
490.132	92.94
490.35	89.94
490.568	90.94
490.786	97.94
491.003	99.94
491.221	89.94
491.439	81.94
491.657	89.94
491.874	87.94
492.092	91.94
492.31	76.94
492.527	79.94
492.745	84.94
492.963	87.94
493.18	86.94
493.398	84.94
493.615	85.94
493.833	80.94
494.05	79.94
494.268	83.94
494.485	89.94
494.703	84.94
494.92	89.94
495.138	77.94
495.355	82.94
495.573	97.94
495.79	97.94
496.008	95.94
496.225	92.94
496.442	84.94
496.66	96.94
496.877	94.94
497.094	83.94
497.312	69.94
497.529	84.94
497.746	89.94
497.963	87.94
498.181	75.94
498.398	89.94
498.615	83.94
498.832	77.94
499.049	99.94
499.267	93.94
499.484	84.94
499.701	91.94
499.918	83.94
500.135	92.94
500.352	93.94
500.569	81.94
500.786	86.94
501.003	103.94
501.22	80.94
501.437	93.94
501.654	85.94
501.871	87.94
502.088	84.94
502.305	75.94
502.522	89.94
502.739	92.94
502.956	79.94
503.172	82.94
503.389	87.94
503.606	83.94
503.823	94.94
504.04	92.94
504.256	105.94
504.473	113.94
504.69	93.94
504.907	86.94
505.123	85.94
505.34	87.94
505.557	84.94
505.773	87.94
505.99	99.94
506.207	85.94
506.423	89.94
506.64	80.94
506.856	89.94
507.073	81.94
507.289	80.94
507.506	84.94
507.722	82.94
507.939	83.94
508.155	85.94
508.372	77.94
508.588	87.94
508.805	85.94
509.021	91.94
509.238	91.94
509.454	76.94
509.67	82.94
509.887	72.94
510.103	80.94
510.319	98.94
510.536	79.94
510.752	91.94
510.968	91.94
511.184	80.94
511.401	65.94
511.617	86.94
511.833	71.94
512.049	92.94
512.265	84.94
512.481	76.94
512.698	60.94
512.914	88.94
513.13	89.94
513.346	88.94
513.562	82.94
513.778	93.94
513.994	94.94
514.21	84.94
514.426	88.94
514.642	96.94
514.858	82.94
515.074	87.94
515.29	91.94
515.506	94.94
515.721	85.94
515.937	76.94
516.153	88.94
516.369	81.94
516.585	81.94
516.801	86.94
517.016	91.94
517.232	82.94
517.448	88.94
517.664	86.94
517.879	81.94
518.095	92.94
518.311	81.94
518.527	72.94
518.742	103.94
518.958	109.94
519.173	130.94
