Data from 10100_3_HRD10591_00005.txt Node
Date: Mon Jan 19 14:02:25 EST 2026
User: Yrep
Spectrometer: HR+D1059
Trigger mode: 1
Integration Time (sec): 1.000000E-1
Scans to average: 1
Electric dark correction enabled: true
Nonlinearity correction enabled: false
Boxcar width: 0
XAxis mode: Wavelengths
Number of Pixels in Spectrum: 2048
>>>>>Begin Spectral Data<<<<<
223.165	-18.5
223.4	-18.5
223.635	-18.5
223.869	-18.5
224.104	-13.5
224.338	-9.5
224.573	-5.5
224.808	-10.5
225.042	-18.5
225.277	-4.5
225.511	-0.5
225.746	-4.5
225.98	9.5
226.215	2.5
226.449	26.5
226.683	14.5
226.918	18.5
227.152	32.5
227.387	26.5
227.621	28.5
227.856	49.5
228.09	49.5
228.324	44.5
228.559	70.5
228.793	70.5
229.027	56.5
229.262	66.5
229.496	69.5
229.73	66.5
229.964	48.5
230.199	71.5
230.433	72.5
230.667	57.5
230.901	82.5
231.136	62.5
231.37	77.5
231.604	91.5
231.838	78.5
232.072	92.5
232.306	82.5
232.541	69.5
232.775	94.5
233.009	76.5
233.243	83.5
233.477	84.5
233.711	90.5
233.945	70.5
234.179	64.5
234.413	83.5
234.647	70.5
234.881	69.5
235.115	73.5
235.349	90.5
235.583	79.5
235.817	78.5
236.051	70.5
236.285	80.5
236.519	71.5
236.753	71.5
236.987	92.5
237.221	64.5
237.455	66.5
237.689	73.5
237.922	74.5
238.156	70.5
238.39	66.5
238.624	72.5
238.858	69.5
239.091	70.5
239.325	79.5
239.559	71.5
239.793	72.5
240.027	83.5
240.26	61.5
240.494	67.5
240.728	75.5
240.961	70.5
241.195	82.5
241.429	79.5
241.662	67.5
241.896	69.5
242.13	80.5
242.363	75.5
242.597	62.5
242.83	86.5
243.064	78.5
243.298	66.5
243.531	69.5
243.765	78.5
243.998	94.5
244.232	88.5
244.465	73.5
244.699	65.5
244.932	80.5
245.166	69.5
245.399	71.5
245.633	79.5
245.866	67.5
246.099	78.5
246.333	62.5
246.566	83.5
246.8	86.5
247.033	83.5
247.266	65.5
247.5	56.5
247.733	70.5
247.966	78.5
248.2	59.5
248.433	81.5
248.666	72.5
248.899	84.5
249.133	90.5
249.366	87.5
249.599	68.5
249.832	62.5
250.066	70.5
250.299	91.5
250.532	78.5
250.765	75.5
250.998	78.5
251.231	75.5
251.465	75.5
251.698	75.5
251.931	83.5
252.164	68.5
252.397	67.5
252.63	69.5
252.863	88.5
253.096	82.5
253.329	71.5
253.562	68.5
253.795	82.5
254.028	78.5
254.261	88.5
254.494	76.5
254.727	84.5
254.96	83.5
255.193	76.5
255.426	87.5
255.659	76.5
255.892	83.5
256.124	79.5
256.357	76.5
256.59	84.5
256.823	87.5
257.056	72.5
257.289	71.5
257.521	76.5
257.754	74.5
257.987	74.5
258.22	78.5
258.452	78.5
258.685	75.5
258.918	78.5
259.151	89.5
259.383	88.5
259.616	85.5
259.849	76.5
260.081	72.5
260.314	83.5
260.547	79.5
260.779	83.5
261.012	83.5
261.244	83.5
261.477	85.5
261.71	68.5
261.942	65.5
262.175	66.5
262.407	68.5
262.64	72.5
262.872	81.5
263.105	67.5
263.337	86.5
263.57	86.5
263.802	71.5
264.035	77.5
264.267	73.5
264.499	80.5
264.732	82.5
264.964	74.5
265.197	82.5
265.429	82.5
265.661	87.5
265.894	71.5
266.126	90.5
266.358	80.5
266.591	73.5
266.823	80.5
267.055	86.5
267.287	74.5
267.52	66.5
267.752	84.5
267.984	73.5
268.216	86.5
268.448	100.5
268.681	83.5
268.913	79.5
269.145	80.5
269.377	69.5
269.609	80.5
269.841	74.5
270.073	80.5
270.306	82.5
270.538	91.5
270.77	67.5
271.002	75.5
271.234	76.5
271.466	81.5
271.698	63.5
271.93	86.5
272.162	74.5
272.394	83.5
272.626	76.5
272.858	80.5
273.09	88.5
273.322	72.5
273.553	93.5
273.785	78.5
274.017	87.5
274.249	86.5
274.481	95.5
274.713	95.5
274.945	81.5
275.176	86.5
275.408	90.5
275.64	90.5
275.872	69.5
276.104	63.5
276.335	68.5
276.567	83.5
276.799	81.5
277.031	72.5
277.262	80.5
277.494	80.5
277.726	83.5
277.957	84.5
278.189	82.5
278.421	91.5
278.652	82.5
278.884	75.5
279.115	73.5
279.347	78.5
279.579	79.5
279.81	92.5
280.042	86.5
280.273	83.5
280.505	63.5
280.736	75.5
280.968	74.5
281.199	77.5
281.431	87.5
281.662	72.5
281.894	76.5
282.125	76.5
282.356	85.5
282.588	90.5
282.819	77.5
283.051	88.5
283.282	90.5
283.513	87.5
283.745	86.5
283.976	88.5
284.207	95.5
284.439	84.5
284.67	90.5
284.901	81.5
285.132	75.5
285.364	86.5
285.595	82.5
285.826	82.5
286.057	69.5
286.288	76.5
286.52	82.5
286.751	68.5
286.982	85.5
287.213	65.5
287.444	85.5
287.675	79.5
287.906	83.5
288.138	90.5
288.369	86.5
288.6	86.5
288.831	80.5
289.062	76.5
289.293	85.5
289.524	76.5
289.755	92.5
289.986	78.5
290.217	68.5
290.448	88.5
290.679	84.5
290.91	90.5
291.141	83.5
291.371	83.5
291.602	75.5
291.833	78.5
292.064	71.5
292.295	83.5
292.526	73.5
292.757	92.5
292.987	75.5
293.218	78.5
293.449	63.5
293.68	80.5
293.91	82.5
294.141	74.5
294.372	75.5
294.603	98.5
294.833	75.5
295.064	77.5
295.295	76.5
295.525	91.5
295.756	62.5
295.987	79.5
296.217	79.5
296.448	79.5
296.679	99.5
296.909	91.5
297.14	95.5
297.37	84.5
297.601	86.5
297.831	84.5
298.062	78.5
298.292	88.5
298.523	88.5
298.753	85.5
298.984	87.5
299.214	79.5
299.445	82.5
299.675	77.5
299.905	83.5
300.136	90.5
300.366	87.5
300.597	85.5
300.827	79.5
301.057	78.5
301.288	71.5
301.518	86.5
301.748	79.5
301.979	92.5
302.209	93.5
302.439	83.5
302.669	82.5
302.9	69.5
303.13	86.5
303.36	80.5
303.59	78.5
303.82	74.5
304.051	82.5
304.281	75.5
304.511	83.5
304.741	76.5
304.971	96.5
305.201	79.5
305.431	98.5
305.661	79.5
305.891	73.5
306.121	89.5
306.352	91.5
306.582	91.5
306.812	94.5
307.042	84.5
307.272	91.5
307.502	72.5
307.731	87.5
307.961	82.5
308.191	90.5
308.421	83.5
308.651	89.5
308.881	96.5
309.111	82.5
309.341	83.5
309.571	86.5
309.8	90.5
310.03	74.5
310.26	86.5
310.49	73.5
310.72	85.5
310.949	91.5
311.179	68.5
311.409	86.5
311.639	90.5
311.868	79.5
312.098	94.5
312.328	78.5
312.557	84.5
312.787	74.5
313.017	83.5
313.246	65.5
313.476	82.5
313.706	92.5
313.935	93.5
314.165	79.5
314.394	103.5
314.624	87.5
314.853	90.5
315.083	84.5
315.312	93.5
315.542	79.5
315.771	85.5
316.001	86.5
316.23	90.5
316.46	74.5
316.689	78.5
316.919	86.5
317.148	64.5
317.377	92.5
317.607	91.5
317.836	86.5
318.065	87.5
318.295	88.5
318.524	82.5
318.753	85.5
318.983	97.5
319.212	83.5
319.441	69.5
319.67	86.5
319.9	73.5
320.129	92.5
320.358	87.5
320.587	84.5
320.816	86.5
321.046	87.5
321.275	91.5
321.504	78.5
321.733	71.5
321.962	98.5
322.191	79.5
322.42	91.5
322.649	89.5
322.878	94.5
323.108	79.5
323.337	72.5
323.566	87.5
323.795	88.5
324.024	81.5
324.253	84.5
324.482	64.5
324.71	71.5
324.939	78.5
325.168	82.5
325.397	97.5
325.626	80.5
325.855	90.5
326.084	86.5
326.313	87.5
326.542	73.5
326.77	86.5
326.999	90.5
327.228	75.5
327.457	82.5
327.686	83.5
327.914	83.5
328.143	84.5
328.372	83.5
328.6	83.5
328.829	88.5
329.058	88.5
329.287	99.5
329.515	84.5
329.744	87.5
329.972	83.5
330.201	91.5
330.43	86.5
330.658	76.5
330.887	90.5
331.115	75.5
331.344	95.5
331.572	101.5
331.801	73.5
332.03	95.5
332.258	90.5
332.486	83.5
332.715	93.5
332.943	73.5
333.172	90.5
333.4	80.5
333.629	95.5
333.857	75.5
334.085	88.5
334.314	95.5
334.542	97.5
334.771	82.5
334.999	94.5
335.227	74.5
335.455	92.5
335.684	89.5
335.912	111.5
336.14	95.5
336.369	105.5
336.597	83.5
336.825	82.5
337.053	81.5
337.281	78.5
337.51	81.5
337.738	78.5
337.966	82.5
338.194	87.5
338.422	100.5
338.65	86.5
338.878	93.5
339.106	84.5
339.334	60.5
339.562	65.5
339.79	80.5
340.018	87.5
340.246	88.5
340.474	78.5
340.702	78.5
340.93	81.5
341.158	76.5
341.386	76.5
341.614	97.5
341.842	81.5
342.07	68.5
342.298	83.5
342.526	92.5
342.754	85.5
342.981	79.5
343.209	77.5
343.437	94.5
343.665	78.5
343.893	86.5
344.12	81.5
344.348	90.5
344.576	65.5
344.804	84.5
345.031	76.5
345.259	83.5
345.487	76.5
345.714	89.5
345.942	80.5
346.17	91.5
346.397	98.5
346.625	90.5
346.853	87.5
347.08	87.5
347.308	87.5
347.535	95.5
347.763	89.5
347.99	79.5
348.218	81.5
348.445	84.5
348.673	101.5
348.9	88.5
349.128	85.5
349.355	84.5
349.583	86.5
349.81	85.5
350.037	75.5
350.265	96.5
350.492	90.5
350.72	90.5
350.947	92.5
351.174	83.5
351.402	87.5
351.629	87.5
351.856	74.5
352.083	72.5
352.311	76.5
352.538	88.5
352.765	83.5
352.992	87.5
353.22	105.5
353.447	83.5
353.674	84.5
353.901	74.5
354.128	84.5
354.355	73.5
354.583	83.5
354.81	87.5
355.037	88.5
355.264	84.5
355.491	82.5
355.718	94.5
355.945	95.5
356.172	87.5
356.399	85.5
356.626	102.5
356.853	96.5
357.08	81.5
357.307	72.5
357.534	76.5
357.761	80.5
357.988	81.5
358.215	101.5
358.441	83.5
358.668	82.5
358.895	81.5
359.122	79.5
359.349	91.5
359.576	80.5
359.802	68.5
360.029	81.5
360.256	69.5
360.483	92.5
360.709	87.5
360.936	99.5
361.163	93.5
361.39	89.5
361.616	94.5
361.843	108.5
362.07	90.5
362.296	100.5
362.523	107.5
362.749	99.5
362.976	131.5
363.203	126.5
363.429	108.5
363.656	99.5
363.882	102.5
364.109	115.5
364.335	131.5
364.562	136.5
364.788	115.5
365.015	99.5
365.241	80.5
365.468	90.5
365.694	93.5
365.92	84.5
366.147	74.5
366.373	85.5
366.599	83.5
366.826	80.5
367.052	73.5
367.278	73.5
367.505	87.5
367.731	82.5
367.957	108.5
368.184	92.5
368.41	78.5
368.636	79.5
368.862	72.5
369.089	90.5
369.315	84.5
369.541	80.5
369.767	77.5
369.993	80.5
370.219	81.5
370.445	98.5
370.672	82.5
370.898	90.5
371.124	82.5
371.35	86.5
371.576	94.5
371.802	90.5
372.028	83.5
372.254	85.5
372.48	108.5
372.706	98.5
372.932	90.5
373.158	82.5
373.384	91.5
373.61	106.5
373.835	108.5
374.061	89.5
374.287	92.5
374.513	80.5
374.739	108.5
374.965	93.5
375.191	102.5
375.416	94.5
375.642	91.5
375.868	87.5
376.094	82.5
376.319	71.5
376.545	91.5
376.771	84.5
376.997	72.5
377.222	86.5
377.448	92.5
377.674	79.5
377.899	74.5
378.125	86.5
378.35	75.5
378.576	72.5
378.802	88.5
379.027	87.5
379.253	79.5
379.478	99.5
379.704	86.5
379.929	98.5
380.155	87.5
380.38	87.5
380.606	81.5
380.831	84.5
381.057	87.5
381.282	88.5
381.507	85.5
381.733	87.5
381.958	95.5
382.184	95.5
382.409	102.5
382.634	82.5
382.86	101.5
383.085	95.5
383.31	107.5
383.535	85.5
383.761	82.5
383.986	95.5
384.211	90.5
384.436	92.5
384.662	84.5
384.887	93.5
385.112	90.5
385.337	85.5
385.562	89.5
385.787	92.5
386.013	95.5
386.238	99.5
386.463	99.5
386.688	91.5
386.913	83.5
387.138	99.5
387.363	88.5
387.588	105.5
387.813	106.5
388.038	103.5
388.263	94.5
388.488	103.5
388.713	84.5
388.938	99.5
389.163	102.5
389.387	99.5
389.612	91.5
389.837	88.5
390.062	98.5
390.287	83.5
390.512	90.5
390.736	88.5
390.961	94.5
391.186	80.5
391.411	84.5
391.636	91.5
391.86	99.5
392.085	100.5
392.31	102.5
392.534	104.5
392.759	124.5
392.984	148.5
393.208	215.5
393.433	319.5
393.658	262.5
393.882	155.5
394.107	117.5
394.331	107.5
394.556	128.5
394.78	114.5
395.005	92.5
395.229	78.5
395.454	91.5
395.678	111.5
395.903	119.5
396.127	130.5
396.352	145.5
396.576	152.5
396.801	230.5
397.025	252.5
397.249	150.5
397.474	109.5
397.698	110.5
397.922	94.5
398.147	85.5
398.371	85.5
398.595	93.5
398.82	84.5
399.044	88.5
399.268	93.5
399.492	91.5
399.717	85.5
399.941	88.5
400.165	89.5
400.389	88.5
400.613	69.5
400.837	91.5
401.062	96.5
401.286	91.5
401.51	80.5
401.734	84.5
401.958	92.5
402.182	99.5
402.406	79.5
402.63	82.5
402.854	92.5
403.078	94.5
403.302	96.5
403.526	94.5
403.75	70.5
403.974	72.5
404.198	90.5
404.422	84.5
404.645	99.5
404.869	94.5
405.093	83.5
405.317	89.5
405.541	71.5
405.765	82.5
405.988	80.5
406.212	85.5
406.436	64.5
406.66	95.5
406.883	80.5
407.107	87.5
407.331	94.5
407.555	86.5
407.778	98.5
408.002	120.5
408.226	92.5
408.449	77.5
408.673	94.5
408.896	89.5
409.12	99.5
409.344	104.5
409.567	103.5
409.791	94.5
410.014	100.5
410.238	94.5
410.461	106.5
410.685	84.5
410.908	92.5
411.132	79.5
411.355	96.5
411.578	96.5
411.802	90.5
412.025	79.5
412.249	76.5
412.472	86.5
412.695	96.5
412.919	106.5
413.142	94.5
413.365	73.5
413.589	75.5
413.812	87.5
414.035	81.5
414.258	86.5
414.482	88.5
414.705	102.5
414.928	78.5
415.151	102.5
415.374	80.5
415.597	64.5
415.821	73.5
416.044	66.5
416.267	78.5
416.49	86.5
416.713	78.5
416.936	86.5
417.159	87.5
417.382	82.5
417.605	78.5
417.828	94.5
418.051	85.5
418.274	101.5
418.497	97.5
418.72	82.5
418.943	87.5
419.166	83.5
419.389	86.5
419.611	96.5
419.834	84.5
420.057	87.5
420.28	89.5
420.503	103.5
420.726	99.5
420.948	93.5
421.171	101.5
421.394	100.5
421.617	127.5
421.839	132.5
422.062	163.5
422.285	205.5
422.507	277.5
422.73	349.5
422.953	325.5
423.175	246.5
423.398	163.5
423.621	131.5
423.843	115.5
424.066	114.5
424.288	108.5
424.511	84.5
424.733	91.5
424.956	93.5
425.178	116.5
425.401	92.5
425.623	100.5
425.846	93.5
426.068	85.5
426.291	91.5
426.513	90.5
426.735	98.5
426.958	90.5
427.18	102.5
427.402	94.5
427.625	85.5
427.847	91.5
428.069	102.5
428.292	120.5
428.514	142.5
428.736	114.5
428.958	125.5
429.181	110.5
429.403	89.5
429.625	100.5
429.847	123.5
430.069	170.5
430.292	189.5
430.514	163.5
430.736	147.5
430.958	150.5
431.18	98.5
431.402	97.5
431.624	88.5
431.846	124.5
432.068	136.5
432.29	107.5
432.512	92.5
432.734	101.5
432.956	93.5
433.178	91.5
433.4	83.5
433.622	94.5
433.844	84.5
434.066	86.5
434.287	94.5
434.509	87.5
434.731	66.5
434.953	85.5
435.175	98.5
435.397	94.5
435.618	101.5
435.84	89.5
436.062	102.5
436.284	84.5
436.505	94.5
436.727	80.5
436.949	84.5
437.17	91.5
437.392	81.5
437.614	87.5
437.835	78.5
438.057	83.5
438.278	84.5
438.5	99.5
438.721	88.5
438.943	89.5
439.165	83.5
439.386	78.5
439.608	100.5
439.829	82.5
440.05	71.5
440.272	93.5
440.493	79.5
440.715	96.5
440.936	84.5
441.158	82.5
441.379	98.5
441.6	82.5
441.822	83.5
442.043	100.5
442.264	106.5
442.486	141.5
442.707	173.5
442.928	134.5
443.149	112.5
443.371	160.5
443.592	262.5
443.813	227.5
444.034	122.5
444.255	100.5
444.476	94.5
444.698	94.5
444.919	100.5
445.14	190.5
445.361	218.5
445.582	281.5
445.803	259.5
446.024	131.5
446.245	91.5
446.466	84.5
446.687	84.5
446.908	89.5
447.129	92.5
447.35	84.5
447.571	84.5
447.792	76.5
448.013	72.5
448.234	91.5
448.455	84.5
448.675	76.5
448.896	78.5
449.117	96.5
449.338	87.5
449.559	103.5
449.779	95.5
450	86.5
450.221	97.5
450.442	75.5
450.662	103.5
450.883	87.5
451.104	84.5
451.324	80.5
451.545	78.5
451.766	84.5
451.986	79.5
452.207	96.5
452.428	73.5
452.648	86.5
452.869	93.5
453.089	108.5
453.31	85.5
453.53	78.5
453.751	88.5
453.971	85.5
454.192	90.5
454.412	80.5
454.633	92.5
454.853	83.5
455.073	77.5
455.294	90.5
455.514	91.5
455.734	82.5
455.955	86.5
456.175	76.5
456.395	80.5
456.616	75.5
456.836	79.5
457.056	89.5
457.276	73.5
457.497	93.5
457.717	83.5
457.937	118.5
458.157	146.5
458.377	160.5
458.598	142.5
458.818	148.5
459.038	116.5
459.258	88.5
459.478	92.5
459.698	82.5
459.918	89.5
460.138	95.5
460.358	95.5
460.578	85.5
460.798	114.5
461.018	103.5
461.238	100.5
461.458	103.5
461.678	91.5
461.898	81.5
462.118	83.5
462.338	70.5
462.558	92.5
462.777	95.5
462.997	84.5
463.217	75.5
463.437	90.5
463.657	76.5
463.876	81.5
464.096	96.5
464.316	88.5
464.536	82.5
464.755	72.5
464.975	83.5
465.195	82.5
465.414	80.5
465.634	82.5
465.854	85.5
466.073	82.5
466.293	89.5
466.512	85.5
466.732	73.5
466.951	79.5
467.171	93.5
467.391	84.5
467.61	86.5
467.829	64.5
468.049	88.5
468.268	79.5
468.488	85.5
468.707	86.5
468.927	89.5
469.146	102.5
469.365	92.5
469.585	86.5
469.804	84.5
470.023	86.5
470.243	91.5
470.462	85.5
470.681	90.5
470.901	92.5
471.12	88.5
471.339	88.5
471.558	77.5
471.777	94.5
471.997	93.5
472.216	84.5
472.435	93.5
472.654	85.5
472.873	84.5
473.092	83.5
473.311	102.5
473.53	93.5
473.749	90.5
473.968	83.5
474.187	88.5
474.406	88.5
474.625	84.5
474.844	86.5
475.063	84.5
475.282	87.5
475.501	76.5
475.72	90.5
475.939	89.5
476.158	83.5
476.377	87.5
476.596	81.5
476.814	64.5
477.033	83.5
477.252	88.5
477.471	89.5
477.69	88.5
477.908	82.5
478.127	96.5
478.346	105.5
478.564	98.5
478.783	88.5
479.002	90.5
479.22	82.5
479.439	80.5
479.658	93.5
479.876	80.5
480.095	92.5
480.313	94.5
480.532	99.5
480.751	96.5
480.969	92.5
481.188	91.5
481.406	98.5
481.624	79.5
481.843	90.5
482.061	75.5
482.28	76.5
482.498	84.5
482.717	99.5
482.935	80.5
483.153	94.5
483.372	94.5
483.59	87.5
483.808	78.5
484.027	87.5
484.245	87.5
484.463	94.5
484.681	98.5
484.9	90.5
485.118	102.5
485.336	98.5
485.554	87.5
485.772	97.5
485.99	87.5
486.209	90.5
486.427	88.5
486.645	96.5
486.863	98.5
487.081	87.5
487.299	101.5
487.517	100.5
487.735	120.5
487.953	207.5
488.171	173.5
488.389	111.5
488.607	100.5
488.825	99.5
489.043	96.5
489.261	100.5
489.479	86.5
489.696	103.5
489.914	96.5
490.132	97.5
490.35	86.5
490.568	92.5
490.786	92.5
491.003	85.5
491.221	101.5
491.439	92.5
491.657	83.5
491.874	87.5
492.092	81.5
492.31	102.5
492.527	90.5
492.745	87.5
492.963	94.5
493.18	93.5
493.398	100.5
493.615	111.5
493.833	95.5
494.05	90.5
494.268	90.5
494.485	94.5
494.703	90.5
494.92	83.5
495.138	93.5
495.355	84.5
495.573	96.5
495.79	95.5
496.008	112.5
496.225	99.5
496.442	90.5
496.66	94.5
496.877	100.5
497.094	96.5
497.312	94.5
497.529	83.5
497.746	84.5
497.963	92.5
498.181	101.5
498.398	95.5
498.615	95.5
498.832	96.5
499.049	89.5
499.267	94.5
499.484	93.5
499.701	88.5
499.918	100.5
500.135	98.5
500.352	91.5
500.569	95.5
500.786	89.5
501.003	101.5
501.22	90.5
501.437	91.5
501.654	102.5
501.871	108.5
502.088	82.5
502.305	103.5
502.522	90.5
502.739	112.5
502.956	103.5
503.172	84.5
503.389	85.5
503.606	77.5
503.823	110.5
504.04	116.5
504.256	161.5
504.473	163.5
504.69	111.5
504.907	101.5
505.123	89.5
505.34	87.5
505.557	86.5
505.773	86.5
505.99	99.5
506.207	92.5
506.423	90.5
506.64	101.5
506.856	102.5
507.073	85.5
507.289	96.5
507.506	96.5
507.722	86.5
507.939	87.5
508.155	94.5
508.372	98.5
508.588	91.5
508.805	87.5
509.021	96.5
509.238	92.5
509.454	85.5
509.67	99.5
509.887	90.5
510.103	95.5
510.319	84.5
510.536	92.5
510.752	92.5
510.968	79.5
511.184	90.5
511.401	92.5
511.617	95.5
511.833	82.5
512.049	99.5
512.265	90.5
512.481	89.5
512.698	94.5
512.914	94.5
513.13	91.5
513.346	96.5
513.562	98.5
513.778	86.5
513.994	98.5
514.21	100.5
514.426	94.5
514.642	87.5
514.858	86.5
515.074	72.5
515.29	102.5
515.506	78.5
515.721	91.5
515.937	90.5
516.153	105.5
516.369	99.5
516.585	101.5
516.801	100.5
517.016	98.5
517.232	88.5
517.448	96.5
517.664	89.5
517.879	95.5
518.095	104.5
518.311	100.5
518.527	123.5
518.742	133.5
518.958	188.5
519.173	209.5
519.389	115.5
519.605	100.5
519.82	99.5
520.036	100.5
520.251	81.5
520.467	95.5
520.682	80.5
520.898	77.5
521.113	99.5
521.329	92.5
521.544	94.5
521.76	98.5
521.975	92.5
522.19	96.5
522.406	91.5
522.621	88.5
522.836	94.5
523.052	95.5
523.267	107.5
523.482	75.5
523.698	100.5
523.913	105.5
524.128	90.5
524.343	98.5
524.559	92.5
524.774	88.5
524.989	105.5
525.204	98.5
525.419	107.5
525.634	114.5
525.849	106.5
526.064	139.5
526.28	278.5
526.495	370.5
526.71	400.5
526.925	262.5
527.14	306.5
527.355	279.5
527.57	131.5
527.785	116.5
527.999	107.5
528.214	98.5
528.429	103.5
528.644	96.5
528.859	102.5
529.074	87.5
529.289	99.5
529.503	91.5
529.718	105.5
529.933	114.5
530.148	108.5
530.363	107.5
530.577	127.5
530.792	111.5
531.007	102.5
531.221	93.5
531.436	102.5
531.651	99.5
531.865	102.5
532.08	104.5
532.295	107.5
532.509	106.5
532.724	109.5
532.938	124.5
533.153	107.5
533.367	116.5
533.582	108.5
533.796	113.5
534.011	110.5
534.225	109.5
534.44	119.5
534.654	114.5
534.868	126.5
535.083	193.5
535.297	162.5
535.511	116.5
535.726	115.5
535.94	93.5
536.154	111.5
536.369	114.5
536.583	106.5
536.797	111.5
537.011	117.5
