Data from Mixheat3_HRD10591_00006.txt Node
Date: Fri Dec 27 15:10:28 EST 2024
User: Yrep
Spectrometer: HR+D1059
Trigger mode: 1
Integration Time (sec): 1.000000E-1
Scans to average: 1
Electric dark correction enabled: true
Nonlinearity correction enabled: false
Boxcar width: 0
XAxis mode: Wavelengths
Number of Pixels in Spectrum: 2048
>>>>>Begin Spectral Data<<<<<
223.165	-28.75
223.4	-28.75
223.635	-28.75
223.869	-19.75
224.104	-33.75
224.338	-11.75
224.573	-17.75
224.808	-4.75
225.042	-6.75
225.277	3.25
225.511	-3.75
225.746	3.25
225.98	26.25
226.215	10.25
226.449	10.25
226.683	30.25
226.918	22.25
227.152	21.25
227.387	34.25
227.621	38.25
227.856	54.25
228.09	47.25
228.324	48.25
228.559	55.25
228.793	71.25
229.027	56.25
229.262	62.25
229.496	67.25
229.73	59.25
229.964	60.25
230.199	69.25
230.433	73.25
230.667	79.25
230.901	78.25
231.136	70.25
231.37	68.25
231.604	84.25
231.838	70.25
232.072	76.25
232.306	79.25
232.541	84.25
232.775	77.25
233.009	86.25
233.243	88.25
233.477	79.25
233.711	85.25
233.945	72.25
234.179	75.25
234.413	78.25
234.647	88.25
234.881	88.25
235.115	94.25
235.349	72.25
235.583	83.25
235.817	77.25
236.051	76.25
236.285	87.25
236.519	72.25
236.753	79.25
236.987	85.25
237.221	77.25
237.455	82.25
237.689	63.25
237.922	78.25
238.156	82.25
238.39	74.25
238.624	53.25
238.858	70.25
239.091	72.25
239.325	85.25
239.559	59.25
239.793	74.25
240.027	82.25
240.26	74.25
240.494	80.25
240.728	85.25
240.961	81.25
241.195	83.25
241.429	75.25
241.662	81.25
241.896	79.25
242.13	82.25
242.363	82.25
242.597	81.25
242.83	85.25
243.064	79.25
243.298	76.25
243.531	81.25
243.765	92.25
243.998	85.25
244.232	83.25
244.465	83.25
244.699	67.25
244.932	86.25
245.166	66.25
245.399	89.25
245.633	68.25
245.866	78.25
246.099	70.25
246.333	80.25
246.566	95.25
246.8	83.25
247.033	79.25
247.266	74.25
247.5	84.25
247.733	70.25
247.966	87.25
248.2	82.25
248.433	76.25
248.666	76.25
248.899	71.25
249.133	78.25
249.366	80.25
249.599	69.25
249.832	80.25
250.066	78.25
250.299	80.25
250.532	76.25
250.765	79.25
250.998	82.25
251.231	73.25
251.465	88.25
251.698	67.25
251.931	71.25
252.164	69.25
252.397	74.25
252.63	83.25
252.863	80.25
253.096	70.25
253.329	82.25
253.562	82.25
253.795	84.25
254.028	79.25
254.261	66.25
254.494	72.25
254.727	94.25
254.96	86.25
255.193	82.25
255.426	71.25
255.659	77.25
255.892	88.25
256.124	75.25
256.357	76.25
256.59	73.25
256.823	84.25
257.056	98.25
257.289	82.25
257.521	75.25
257.754	81.25
257.987	68.25
258.22	86.25
258.452	69.25
258.685	67.25
258.918	76.25
259.151	85.25
259.383	83.25
259.616	74.25
259.849	75.25
260.081	81.25
260.314	87.25
260.547	83.25
260.779	77.25
261.012	79.25
261.244	85.25
261.477	86.25
261.71	79.25
261.942	75.25
262.175	87.25
262.407	82.25
262.64	79.25
262.872	75.25
263.105	74.25
263.337	92.25
263.57	91.25
263.802	75.25
264.035	70.25
264.267	94.25
264.499	86.25
264.732	79.25
264.964	79.25
265.197	84.25
265.429	75.25
265.661	85.25
265.894	87.25
266.126	86.25
266.358	72.25
266.591	82.25
266.823	94.25
267.055	79.25
267.287	78.25
267.52	85.25
267.752	82.25
267.984	83.25
268.216	82.25
268.448	80.25
268.681	88.25
268.913	96.25
269.145	78.25
269.377	86.25
269.609	65.25
269.841	83.25
270.073	78.25
270.306	90.25
270.538	80.25
270.77	73.25
271.002	76.25
271.234	67.25
271.466	83.25
271.698	86.25
271.93	79.25
272.162	82.25
272.394	87.25
272.626	68.25
272.858	82.25
273.09	95.25
273.322	85.25
273.553	83.25
273.785	86.25
274.017	77.25
274.249	98.25
274.481	87.25
274.713	79.25
274.945	95.25
275.176	88.25
275.408	81.25
275.64	95.25
275.872	82.25
276.104	89.25
276.335	91.25
276.567	82.25
276.799	80.25
277.031	75.25
277.262	92.25
277.494	92.25
277.726	88.25
277.957	88.25
278.189	77.25
278.421	88.25
278.652	80.25
278.884	96.25
279.115	84.25
279.347	87.25
279.579	67.25
279.81	87.25
280.042	94.25
280.273	87.25
280.505	87.25
280.736	64.25
280.968	76.25
281.199	72.25
281.431	85.25
281.662	73.25
281.894	75.25
282.125	74.25
282.356	92.25
282.588	90.25
282.819	78.25
283.051	88.25
283.282	95.25
283.513	90.25
283.745	88.25
283.976	94.25
284.207	96.25
284.439	82.25
284.67	78.25
284.901	85.25
285.132	74.25
285.364	86.25
285.595	78.25
285.826	105.25
286.057	82.25
286.288	87.25
286.52	73.25
286.751	77.25
286.982	90.25
287.213	81.25
287.444	60.25
287.675	82.25
287.906	94.25
288.138	84.25
288.369	88.25
288.6	98.25
288.831	87.25
289.062	92.25
289.293	79.25
289.524	78.25
289.755	87.25
289.986	91.25
290.217	80.25
290.448	84.25
290.679	83.25
290.91	80.25
291.141	91.25
291.371	89.25
291.602	80.25
291.833	83.25
292.064	96.25
292.295	86.25
292.526	90.25
292.757	82.25
292.987	81.25
293.218	90.25
293.449	78.25
293.68	95.25
293.91	93.25
294.141	76.25
294.372	81.25
294.603	85.25
294.833	89.25
295.064	89.25
295.295	79.25
295.525	83.25
295.756	90.25
295.987	101.25
296.217	95.25
296.448	91.25
296.679	95.25
296.909	84.25
297.14	107.25
297.37	103.25
297.601	78.25
297.831	82.25
298.062	88.25
298.292	69.25
298.523	79.25
298.753	88.25
298.984	80.25
299.214	71.25
299.445	83.25
299.675	91.25
299.905	80.25
300.136	88.25
300.366	84.25
300.597	78.25
300.827	89.25
301.057	96.25
301.288	86.25
301.518	79.25
301.748	81.25
301.979	94.25
302.209	82.25
302.439	85.25
302.669	85.25
302.9	89.25
303.13	85.25
303.36	93.25
303.59	101.25
303.82	82.25
304.051	97.25
304.281	88.25
304.511	77.25
304.741	94.25
304.971	76.25
305.201	87.25
305.431	80.25
305.661	88.25
305.891	76.25
306.121	87.25
306.352	82.25
306.582	93.25
306.812	82.25
307.042	56.25
307.272	72.25
307.502	66.25
307.731	78.25
307.961	74.25
308.191	87.25
308.421	98.25
308.651	88.25
308.881	70.25
309.111	85.25
309.341	80.25
309.571	76.25
309.8	91.25
310.03	92.25
310.26	88.25
310.49	76.25
310.72	80.25
310.949	95.25
311.179	80.25
311.409	79.25
311.639	92.25
311.868	104.25
312.098	80.25
312.328	75.25
312.557	75.25
312.787	82.25
313.017	94.25
313.246	86.25
313.476	81.25
313.706	54.25
313.935	74.25
314.165	90.25
314.394	94.25
314.624	96.25
314.853	84.25
315.083	91.25
315.312	86.25
315.542	74.25
315.771	104.25
316.001	92.25
316.23	86.25
316.46	82.25
316.689	75.25
316.919	73.25
317.148	88.25
317.377	84.25
317.607	89.25
317.836	82.25
318.065	84.25
318.295	97.25
318.524	90.25
318.753	82.25
318.983	87.25
319.212	91.25
319.441	84.25
319.67	81.25
319.9	83.25
320.129	80.25
320.358	75.25
320.587	85.25
320.816	81.25
321.046	76.25
321.275	89.25
321.504	86.25
321.733	79.25
321.962	88.25
322.191	101.25
322.42	84.25
322.649	79.25
322.878	89.25
323.108	94.25
323.337	88.25
323.566	93.25
323.795	86.25
324.024	94.25
324.253	89.25
324.482	87.25
324.71	78.25
324.939	90.25
325.168	97.25
325.397	91.25
325.626	93.25
325.855	83.25
326.084	72.25
326.313	83.25
326.542	95.25
326.77	85.25
326.999	75.25
327.228	84.25
327.457	85.25
327.686	85.25
327.914	75.25
328.143	82.25
328.372	80.25
328.6	92.25
328.829	85.25
329.058	60.25
329.287	79.25
329.515	78.25
329.744	96.25
329.972	86.25
330.201	91.25
330.43	84.25
330.658	80.25
330.887	91.25
331.115	82.25
331.344	87.25
331.572	89.25
331.801	84.25
332.03	77.25
332.258	89.25
332.486	82.25
332.715	87.25
332.943	90.25
333.172	96.25
333.4	90.25
333.629	84.25
333.857	88.25
334.085	94.25
334.314	85.25
334.542	68.25
334.771	84.25
334.999	86.25
335.227	75.25
335.455	99.25
335.684	87.25
335.912	98.25
336.14	77.25
336.369	81.25
336.597	70.25
336.825	82.25
337.053	74.25
337.281	72.25
337.51	82.25
337.738	99.25
337.966	89.25
338.194	72.25
338.422	82.25
338.65	87.25
338.878	92.25
339.106	79.25
339.334	96.25
339.562	83.25
339.79	86.25
340.018	86.25
340.246	66.25
340.474	85.25
340.702	90.25
340.93	92.25
341.158	83.25
341.386	80.25
341.614	92.25
341.842	92.25
342.07	80.25
342.298	90.25
342.526	84.25
342.754	91.25
342.981	88.25
343.209	101.25
343.437	106.25
343.665	84.25
343.893	89.25
344.12	94.25
344.348	80.25
344.576	88.25
344.804	77.25
345.031	92.25
345.259	102.25
345.487	82.25
345.714	80.25
345.942	86.25
346.17	78.25
346.397	84.25
346.625	74.25
346.853	74.25
347.08	90.25
347.308	91.25
347.535	78.25
347.763	78.25
347.99	79.25
348.218	78.25
348.445	85.25
348.673	96.25
348.9	88.25
349.128	84.25
349.355	88.25
349.583	90.25
349.81	96.25
350.037	91.25
350.265	87.25
350.492	84.25
350.72	91.25
350.947	75.25
351.174	84.25
351.402	74.25
351.629	86.25
351.856	86.25
352.083	91.25
352.311	80.25
352.538	89.25
352.765	85.25
352.992	79.25
353.22	75.25
353.447	90.25
353.674	94.25
353.901	85.25
354.128	88.25
354.355	70.25
354.583	76.25
354.81	94.25
355.037	77.25
355.264	95.25
355.491	80.25
355.718	88.25
355.945	82.25
356.172	75.25
356.399	98.25
356.626	91.25
356.853	71.25
357.08	93.25
357.307	85.25
357.534	76.25
357.761	79.25
357.988	88.25
358.215	88.25
358.441	88.25
358.668	95.25
358.895	89.25
359.122	71.25
359.349	70.25
359.576	72.25
359.802	72.25
360.029	79.25
360.256	87.25
360.483	83.25
360.709	88.25
360.936	97.25
361.163	84.25
361.39	79.25
361.616	85.25
361.843	83.25
362.07	82.25
362.296	90.25
362.523	84.25
362.749	77.25
362.976	76.25
363.203	87.25
363.429	80.25
363.656	81.25
363.882	89.25
364.109	90.25
364.335	90.25
364.562	91.25
364.788	74.25
365.015	72.25
365.241	83.25
365.468	91.25
365.694	83.25
365.92	90.25
366.147	77.25
366.373	75.25
366.599	90.25
366.826	79.25
367.052	77.25
367.278	81.25
367.505	78.25
367.731	84.25
367.957	93.25
368.184	73.25
368.41	83.25
368.636	101.25
368.862	87.25
369.089	82.25
369.315	82.25
369.541	81.25
369.767	91.25
369.993	70.25
370.219	72.25
370.445	76.25
370.672	78.25
370.898	71.25
371.124	92.25
371.35	91.25
371.576	78.25
371.802	89.25
372.028	79.25
372.254	84.25
372.48	79.25
372.706	77.25
372.932	84.25
373.158	87.25
373.384	75.25
373.61	83.25
373.835	95.25
374.061	91.25
374.287	89.25
374.513	76.25
374.739	78.25
374.965	80.25
375.191	76.25
375.416	96.25
375.642	92.25
375.868	100.25
376.094	88.25
376.319	84.25
376.545	64.25
376.771	82.25
376.997	89.25
377.222	79.25
377.448	96.25
377.674	84.25
377.899	89.25
378.125	78.25
378.35	77.25
378.576	82.25
378.802	88.25
379.027	89.25
379.253	95.25
379.478	83.25
379.704	93.25
379.929	73.25
380.155	89.25
380.38	94.25
380.606	101.25
380.831	68.25
381.057	91.25
381.282	87.25
381.507	82.25
381.733	80.25
381.958	82.25
382.184	81.25
382.409	79.25
382.634	90.25
382.86	96.25
383.085	87.25
383.31	78.25
383.535	95.25
383.761	72.25
383.986	91.25
384.211	80.25
384.436	79.25
384.662	78.25
384.887	85.25
385.112	89.25
385.337	77.25
385.562	83.25
385.787	70.25
386.013	98.25
386.238	93.25
386.463	96.25
386.688	89.25
386.913	70.25
387.138	93.25
387.363	84.25
387.588	90.25
387.813	82.25
388.038	87.25
388.263	84.25
388.488	78.25
388.713	80.25
388.938	82.25
389.163	84.25
389.387	82.25
389.612	85.25
389.837	79.25
390.062	62.25
390.287	88.25
390.512	96.25
390.736	75.25
390.961	89.25
391.186	82.25
391.411	89.25
391.636	88.25
391.86	94.25
392.085	84.25
392.31	77.25
392.534	87.25
392.759	89.25
392.984	98.25
393.208	88.25
393.433	103.25
393.658	102.25
393.882	84.25
394.107	93.25
394.331	96.25
394.556	84.25
394.78	93.25
395.005	93.25
395.229	89.25
395.454	98.25
395.678	85.25
395.903	83.25
396.127	85.25
396.352	98.25
396.576	87.25
396.801	95.25
397.025	106.25
397.249	93.25
397.474	94.25
397.698	85.25
397.922	82.25
398.147	88.25
398.371	88.25
398.595	92.25
398.82	79.25
399.044	78.25
399.268	80.25
399.492	83.25
399.717	71.25
399.941	86.25
400.165	87.25
400.389	98.25
400.613	76.25
400.837	70.25
401.062	100.25
401.286	88.25
401.51	79.25
401.734	91.25
401.958	83.25
402.182	69.25
402.406	91.25
402.63	94.25
402.854	74.25
403.078	82.25
403.302	95.25
403.526	63.25
403.75	91.25
403.974	87.25
404.198	103.25
404.422	98.25
404.645	103.25
404.869	92.25
405.093	87.25
405.317	82.25
405.541	85.25
405.765	75.25
405.988	90.25
406.212	88.25
406.436	77.25
406.66	101.25
406.883	70.25
407.107	71.25
407.331	84.25
407.555	79.25
407.778	86.25
408.002	89.25
408.226	87.25
408.449	86.25
408.673	87.25
408.896	84.25
409.12	83.25
409.344	75.25
409.567	80.25
409.791	95.25
410.014	82.25
410.238	82.25
410.461	75.25
410.685	87.25
410.908	78.25
411.132	83.25
411.355	71.25
411.578	78.25
411.802	83.25
412.025	78.25
412.249	79.25
412.472	79.25
412.695	79.25
412.919	85.25
413.142	92.25
413.365	74.25
413.589	74.25
413.812	80.25
414.035	75.25
414.258	94.25
414.482	92.25
414.705	68.25
414.928	87.25
415.151	74.25
415.374	76.25
415.597	86.25
415.821	91.25
416.044	85.25
416.267	87.25
416.49	86.25
416.713	90.25
416.936	78.25
417.159	75.25
417.382	95.25
417.605	75.25
417.828	87.25
418.051	79.25
418.274	78.25
418.497	75.25
418.72	84.25
418.943	88.25
419.166	83.25
419.389	83.25
419.611	75.25
419.834	89.25
420.057	86.25
420.28	82.25
420.503	82.25
420.726	78.25
420.948	85.25
421.171	85.25
421.394	98.25
421.617	84.25
421.839	85.25
422.062	92.25
422.285	91.25
422.507	107.25
422.73	146.25
422.953	116.25
423.175	103.25
423.398	94.25
423.621	91.25
423.843	81.25
424.066	64.25
424.288	82.25
424.511	93.25
424.733	75.25
424.956	88.25
425.178	98.25
425.401	93.25
425.623	78.25
425.846	84.25
426.068	74.25
426.291	78.25
426.513	88.25
426.735	82.25
426.958	89.25
427.18	82.25
427.402	85.25
427.625	101.25
427.847	87.25
428.069	84.25
428.292	88.25
428.514	88.25
428.736	87.25
428.958	80.25
429.181	90.25
429.403	98.25
429.625	92.25
429.847	95.25
430.069	80.25
430.292	106.25
430.514	103.25
430.736	102.25
430.958	79.25
431.18	84.25
431.402	82.25
431.624	74.25
431.846	80.25
432.068	94.25
432.29	81.25
432.512	90.25
432.734	76.25
432.956	82.25
433.178	90.25
433.4	85.25
433.622	92.25
433.844	77.25
434.066	77.25
434.287	69.25
434.509	86.25
434.731	85.25
434.953	78.25
435.175	78.25
435.397	87.25
435.618	58.25
435.84	85.25
436.062	99.25
436.284	72.25
436.505	79.25
436.727	78.25
436.949	86.25
437.17	84.25
437.392	79.25
437.614	86.25
437.835	84.25
438.057	88.25
438.278	80.25
438.5	87.25
438.721	75.25
438.943	89.25
439.165	89.25
439.386	88.25
439.608	77.25
439.829	80.25
440.05	87.25
440.272	75.25
440.493	76.25
440.715	76.25
440.936	87.25
441.158	82.25
441.379	80.25
441.6	86.25
441.822	72.25
442.043	99.25
442.264	71.25
442.486	99.25
442.707	91.25
442.928	89.25
443.149	86.25
443.371	109.25
443.592	112.25
443.813	118.25
444.034	86.25
444.255	88.25
444.476	80.25
444.698	89.25
444.919	94.25
445.14	147.25
445.361	114.25
445.582	124.25
445.803	95.25
446.024	77.25
446.245	77.25
446.466	70.25
446.687	80.25
446.908	90.25
447.129	92.25
447.35	74.25
447.571	77.25
447.792	89.25
448.013	87.25
448.234	77.25
448.455	67.25
448.675	80.25
448.896	79.25
449.117	83.25
449.338	70.25
449.559	83.25
449.779	84.25
450	74.25
450.221	103.25
450.442	90.25
450.662	85.25
450.883	90.25
451.104	86.25
451.324	77.25
451.545	65.25
451.766	87.25
451.986	79.25
452.207	77.25
452.428	98.25
452.648	101.25
452.869	74.25
453.089	75.25
453.31	90.25
453.53	63.25
453.751	89.25
453.971	75.25
454.192	85.25
454.412	85.25
454.633	86.25
454.853	86.25
455.073	84.25
455.294	92.25
455.514	79.25
455.734	86.25
455.955	83.25
456.175	75.25
456.395	77.25
456.616	78.25
456.836	79.25
457.056	95.25
457.276	90.25
457.497	71.25
457.717	75.25
457.937	93.25
458.157	82.25
458.377	89.25
458.598	89.25
458.818	82.25
459.038	95.25
459.258	91.25
459.478	75.25
459.698	80.25
459.918	89.25
460.138	86.25
460.358	91.25
460.578	98.25
460.798	93.25
461.018	80.25
461.238	86.25
461.458	68.25
461.678	86.25
461.898	86.25
462.118	70.25
462.338	82.25
462.558	69.25
462.777	93.25
462.997	97.25
463.217	91.25
463.437	75.25
463.657	87.25
463.876	76.25
464.096	93.25
464.316	79.25
464.536	83.25
464.755	74.25
464.975	78.25
465.195	92.25
465.414	83.25
465.634	80.25
465.854	90.25
466.073	79.25
466.293	77.25
466.512	75.25
466.732	75.25
466.951	83.25
467.171	85.25
467.391	87.25
467.61	87.25
467.829	81.25
468.049	81.25
468.268	90.25
468.488	79.25
468.707	79.25
468.927	85.25
469.146	73.25
469.365	92.25
469.585	86.25
469.804	80.25
470.023	87.25
470.243	92.25
470.462	88.25
470.681	84.25
470.901	83.25
471.12	78.25
471.339	73.25
471.558	79.25
471.777	81.25
471.997	76.25
472.216	79.25
472.435	82.25
472.654	88.25
472.873	84.25
473.092	93.25
473.311	88.25
473.53	85.25
473.749	88.25
473.968	88.25
474.187	86.25
474.406	82.25
474.625	83.25
474.844	78.25
475.063	78.25
475.282	72.25
475.501	86.25
475.72	90.25
475.939	92.25
476.158	86.25
476.377	96.25
476.596	66.25
476.814	90.25
477.033	84.25
477.252	72.25
477.471	76.25
477.69	100.25
477.908	80.25
478.127	81.25
478.346	84.25
478.564	90.25
478.783	85.25
479.002	74.25
479.22	89.25
479.439	83.25
479.658	76.25
479.876	77.25
480.095	80.25
480.313	81.25
480.532	90.25
480.751	77.25
480.969	82.25
481.188	70.25
481.406	85.25
481.624	86.25
481.843	72.25
482.061	83.25
482.28	91.25
482.498	86.25
482.717	79.25
482.935	83.25
483.153	85.25
483.372	92.25
483.59	81.25
483.808	80.25
484.027	89.25
484.245	72.25
484.463	81.25
484.681	86.25
484.9	79.25
485.118	102.25
485.336	79.25
485.554	87.25
485.772	90.25
485.99	87.25
486.209	81.25
486.427	89.25
486.645	84.25
486.863	91.25
487.081	93.25
487.299	77.25
487.517	92.25
487.735	86.25
487.953	95.25
488.171	88.25
488.389	92.25
488.607	85.25
488.825	82.25
489.043	79.25
489.261	88.25
489.479	75.25
489.696	82.25
489.914	85.25
490.132	94.25
490.35	83.25
490.568	81.25
490.786	81.25
491.003	85.25
491.221	94.25
491.439	81.25
491.657	82.25
491.874	87.25
492.092	85.25
492.31	96.25
492.527	81.25
492.745	88.25
492.963	87.25
493.18	72.25
493.398	81.25
493.615	71.25
493.833	88.25
494.05	91.25
494.268	94.25
494.485	88.25
494.703	87.25
494.92	77.25
495.138	86.25
495.355	82.25
495.573	78.25
495.79	74.25
496.008	83.25
496.225	95.25
496.442	79.25
496.66	97.25
496.877	80.25
497.094	83.25
497.312	77.25
497.529	96.25
497.746	89.25
497.963	84.25
498.181	70.25
498.398	81.25
498.615	88.25
498.832	87.25
499.049	93.25
499.267	88.25
499.484	79.25
499.701	86.25
499.918	88.25
500.135	81.25
500.352	78.25
500.569	89.25
500.786	91.25
501.003	93.25
501.22	84.25
501.437	84.25
501.654	84.25
501.871	84.25
502.088	82.25
502.305	81.25
502.522	74.25
502.739	73.25
502.956	82.25
503.172	85.25
503.389	82.25
503.606	81.25
503.823	93.25
504.04	89.25
504.256	91.25
504.473	93.25
504.69	86.25
504.907	90.25
505.123	78.25
505.34	82.25
505.557	98.25
505.773	92.25
505.99	79.25
506.207	85.25
506.423	80.25
506.64	85.25
506.856	93.25
507.073	80.25
507.289	81.25
507.506	103.25
507.722	91.25
507.939	78.25
508.155	86.25
508.372	98.25
508.588	83.25
508.805	82.25
509.021	80.25
509.238	85.25
509.454	88.25
509.67	75.25
509.887	85.25
510.103	96.25
510.319	81.25
510.536	108.25
510.752	90.25
510.968	75.25
511.184	83.25
511.401	83.25
511.617	92.25
511.833	77.25
512.049	85.25
512.265	78.25
512.481	90.25
512.698	94.25
512.914	83.25
513.13	92.25
513.346	84.25
513.562	99.25
513.778	89.25
513.994	92.25
514.21	82.25
514.426	94.25
514.642	81.25
514.858	85.25
515.074	80.25
515.29	91.25
515.506	84.25
515.721	83.25
515.937	89.25
516.153	85.25
516.369	85.25
516.585	93.25
516.801	88.25
517.016	83.25
517.232	84.25
517.448	87.25
517.664	98.25
517.879	84.25
518.095	91.25
518.311	79.25
518.527	80.25
518.742	80.25
518.958	106.25
519.173	98.25
519.389	81.25
519.605	93.25
