Data from Mixheat3_HRD10591_00019.txt Node
Date: Fri Dec 27 15:10:41 EST 2024
User: Yrep
Spectrometer: HR+D1059
Trigger mode: 1
Integration Time (sec): 1.000000E-1
Scans to average: 1
Electric dark correction enabled: true
Nonlinearity correction enabled: false
Boxcar width: 0
XAxis mode: Wavelengths
Number of Pixels in Spectrum: 2048
>>>>>Begin Spectral Data<<<<<
223.165	-26.06
223.4	-26.06
223.635	-26.06
223.869	-12.06
224.104	-13.06
224.338	-5.06
224.573	-25.06
224.808	-18.06
225.042	-8.06
225.277	-6.06
225.511	-2.06
225.746	1.94
225.98	0.94
226.215	12.94
226.449	18.94
226.683	23.94
226.918	34.94
227.152	21.94
227.387	39.94
227.621	41.94
227.856	37.94
228.09	56.94
228.324	63.94
228.559	62.94
228.793	56.94
229.027	64.94
229.262	65.94
229.496	72.94
229.73	73.94
229.964	66.94
230.199	66.94
230.433	73.94
230.667	73.94
230.901	61.94
231.136	74.94
231.37	85.94
231.604	99.94
231.838	88.94
232.072	94.94
232.306	68.94
232.541	85.94
232.775	86.94
233.009	74.94
233.243	95.94
233.477	79.94
233.711	83.94
233.945	78.94
234.179	73.94
234.413	90.94
234.647	78.94
234.881	75.94
235.115	81.94
235.349	85.94
235.583	85.94
235.817	76.94
236.051	93.94
236.285	79.94
236.519	70.94
236.753	73.94
236.987	79.94
237.221	84.94
237.455	66.94
237.689	77.94
237.922	77.94
238.156	70.94
238.39	85.94
238.624	79.94
238.858	91.94
239.091	84.94
239.325	87.94
239.559	65.94
239.793	69.94
240.027	79.94
240.26	88.94
240.494	73.94
240.728	85.94
240.961	98.94
241.195	67.94
241.429	74.94
241.662	64.94
241.896	86.94
242.13	71.94
242.363	75.94
242.597	75.94
242.83	65.94
243.064	71.94
243.298	72.94
243.531	72.94
243.765	81.94
243.998	63.94
244.232	85.94
244.465	83.94
244.699	80.94
244.932	79.94
245.166	77.94
245.399	77.94
245.633	68.94
245.866	75.94
246.099	74.94
246.333	69.94
246.566	82.94
246.8	70.94
247.033	78.94
247.266	73.94
247.5	63.94
247.733	85.94
247.966	81.94
248.2	66.94
248.433	101.94
248.666	81.94
248.899	74.94
249.133	72.94
249.366	77.94
249.599	68.94
249.832	76.94
250.066	74.94
250.299	70.94
250.532	73.94
250.765	73.94
250.998	70.94
251.231	61.94
251.465	80.94
251.698	71.94
251.931	74.94
252.164	77.94
252.397	74.94
252.63	79.94
252.863	75.94
253.096	78.94
253.329	88.94
253.562	82.94
253.795	83.94
254.028	85.94
254.261	82.94
254.494	68.94
254.727	81.94
254.96	89.94
255.193	75.94
255.426	74.94
255.659	78.94
255.892	93.94
256.124	72.94
256.357	66.94
256.59	89.94
256.823	73.94
257.056	85.94
257.289	75.94
257.521	85.94
257.754	88.94
257.987	87.94
258.22	66.94
258.452	79.94
258.685	96.94
258.918	81.94
259.151	97.94
259.383	91.94
259.616	91.94
259.849	78.94
260.081	77.94
260.314	90.94
260.547	74.94
260.779	83.94
261.012	80.94
261.244	82.94
261.477	95.94
261.71	86.94
261.942	68.94
262.175	80.94
262.407	79.94
262.64	80.94
262.872	83.94
263.105	76.94
263.337	90.94
263.57	86.94
263.802	79.94
264.035	87.94
264.267	76.94
264.499	77.94
264.732	82.94
264.964	85.94
265.197	64.94
265.429	80.94
265.661	86.94
265.894	79.94
266.126	84.94
266.358	87.94
266.591	71.94
266.823	84.94
267.055	84.94
267.287	76.94
267.52	79.94
267.752	92.94
267.984	89.94
268.216	94.94
268.448	85.94
268.681	88.94
268.913	77.94
269.145	79.94
269.377	88.94
269.609	96.94
269.841	84.94
270.073	80.94
270.306	70.94
270.538	76.94
270.77	80.94
271.002	71.94
271.234	81.94
271.466	83.94
271.698	80.94
271.93	76.94
272.162	100.94
272.394	81.94
272.626	85.94
272.858	74.94
273.09	78.94
273.322	77.94
273.553	75.94
273.785	95.94
274.017	79.94
274.249	76.94
274.481	83.94
274.713	70.94
274.945	69.94
275.176	78.94
275.408	76.94
275.64	72.94
275.872	82.94
276.104	75.94
276.335	87.94
276.567	81.94
276.799	91.94
277.031	83.94
277.262	72.94
277.494	73.94
277.726	76.94
277.957	76.94
278.189	81.94
278.421	86.94
278.652	70.94
278.884	76.94
279.115	83.94
279.347	82.94
279.579	77.94
279.81	77.94
280.042	79.94
280.273	77.94
280.505	80.94
280.736	86.94
280.968	81.94
281.199	83.94
281.431	86.94
281.662	83.94
281.894	79.94
282.125	84.94
282.356	86.94
282.588	61.94
282.819	76.94
283.051	75.94
283.282	86.94
283.513	91.94
283.745	94.94
283.976	75.94
284.207	86.94
284.439	93.94
284.67	78.94
284.901	87.94
285.132	72.94
285.364	75.94
285.595	99.94
285.826	76.94
286.057	79.94
286.288	76.94
286.52	84.94
286.751	97.94
286.982	85.94
287.213	89.94
287.444	87.94
287.675	90.94
287.906	82.94
288.138	89.94
288.369	93.94
288.6	87.94
288.831	73.94
289.062	64.94
289.293	75.94
289.524	95.94
289.755	83.94
289.986	75.94
290.217	79.94
290.448	67.94
290.679	77.94
290.91	87.94
291.141	71.94
291.371	97.94
291.602	76.94
291.833	74.94
292.064	85.94
292.295	80.94
292.526	81.94
292.757	75.94
292.987	77.94
293.218	81.94
293.449	88.94
293.68	91.94
293.91	80.94
294.141	83.94
294.372	76.94
294.603	81.94
294.833	80.94
295.064	74.94
295.295	94.94
295.525	93.94
295.756	91.94
295.987	81.94
296.217	81.94
296.448	77.94
296.679	79.94
296.909	96.94
297.14	80.94
297.37	79.94
297.601	83.94
297.831	96.94
298.062	79.94
298.292	97.94
298.523	71.94
298.753	87.94
298.984	81.94
299.214	81.94
299.445	84.94
299.675	87.94
299.905	71.94
300.136	90.94
300.366	88.94
300.597	75.94
300.827	79.94
301.057	82.94
301.288	99.94
301.518	90.94
301.748	95.94
301.979	99.94
302.209	66.94
302.439	76.94
302.669	85.94
302.9	97.94
303.13	81.94
303.36	74.94
303.59	80.94
303.82	96.94
304.051	98.94
304.281	96.94
304.511	92.94
304.741	98.94
304.971	73.94
305.201	82.94
305.431	82.94
305.661	88.94
305.891	83.94
306.121	79.94
306.352	93.94
306.582	75.94
306.812	83.94
307.042	70.94
307.272	95.94
307.502	81.94
307.731	93.94
307.961	91.94
308.191	78.94
308.421	93.94
308.651	76.94
308.881	86.94
309.111	91.94
309.341	94.94
309.571	98.94
309.8	87.94
310.03	87.94
310.26	86.94
310.49	90.94
310.72	81.94
310.949	78.94
311.179	82.94
311.409	88.94
311.639	97.94
311.868	95.94
312.098	79.94
312.328	85.94
312.557	94.94
312.787	82.94
313.017	88.94
313.246	100.94
313.476	90.94
313.706	81.94
313.935	87.94
314.165	99.94
314.394	78.94
314.624	89.94
314.853	87.94
315.083	83.94
315.312	71.94
315.542	78.94
315.771	90.94
316.001	82.94
316.23	90.94
316.46	78.94
316.689	72.94
316.919	74.94
317.148	77.94
317.377	92.94
317.607	88.94
317.836	77.94
318.065	89.94
318.295	79.94
318.524	90.94
318.753	90.94
318.983	83.94
319.212	79.94
319.441	81.94
319.67	96.94
319.9	78.94
320.129	83.94
320.358	81.94
320.587	91.94
320.816	78.94
321.046	81.94
321.275	97.94
321.504	85.94
321.733	91.94
321.962	93.94
322.191	80.94
322.42	77.94
322.649	78.94
322.878	97.94
323.108	93.94
323.337	87.94
323.566	77.94
323.795	73.94
324.024	73.94
324.253	87.94
324.482	82.94
324.71	86.94
324.939	82.94
325.168	87.94
325.397	81.94
325.626	82.94
325.855	81.94
326.084	87.94
326.313	102.94
326.542	96.94
326.77	90.94
326.999	81.94
327.228	86.94
327.457	68.94
327.686	96.94
327.914	81.94
328.143	101.94
328.372	75.94
328.6	76.94
328.829	91.94
329.058	93.94
329.287	78.94
329.515	82.94
329.744	93.94
329.972	87.94
330.201	76.94
330.43	84.94
330.658	87.94
330.887	73.94
331.115	79.94
331.344	84.94
331.572	96.94
331.801	85.94
332.03	79.94
332.258	87.94
332.486	89.94
332.715	87.94
332.943	76.94
333.172	87.94
333.4	85.94
333.629	90.94
333.857	92.94
334.085	99.94
334.314	105.94
334.542	101.94
334.771	87.94
334.999	88.94
335.227	87.94
335.455	75.94
335.684	82.94
335.912	101.94
336.14	80.94
336.369	89.94
336.597	82.94
336.825	89.94
337.053	85.94
337.281	73.94
337.51	77.94
337.738	85.94
337.966	87.94
338.194	77.94
338.422	81.94
338.65	83.94
338.878	96.94
339.106	95.94
339.334	87.94
339.562	81.94
339.79	96.94
340.018	88.94
340.246	95.94
340.474	96.94
340.702	93.94
340.93	97.94
341.158	85.94
341.386	85.94
341.614	97.94
341.842	98.94
342.07	76.94
342.298	83.94
342.526	91.94
342.754	79.94
342.981	93.94
343.209	75.94
343.437	103.94
343.665	79.94
343.893	74.94
344.12	80.94
344.348	82.94
344.576	86.94
344.804	107.94
345.031	82.94
345.259	87.94
345.487	91.94
345.714	78.94
345.942	97.94
346.17	86.94
346.397	81.94
346.625	81.94
346.853	83.94
347.08	75.94
347.308	92.94
347.535	78.94
347.763	81.94
347.99	85.94
348.218	91.94
348.445	85.94
348.673	77.94
348.9	86.94
349.128	86.94
349.355	76.94
349.583	70.94
349.81	86.94
350.037	82.94
350.265	73.94
350.492	89.94
350.72	74.94
350.947	86.94
351.174	93.94
351.402	86.94
351.629	93.94
351.856	76.94
352.083	81.94
352.311	97.94
352.538	87.94
352.765	103.94
352.992	93.94
353.22	81.94
353.447	95.94
353.674	94.94
353.901	88.94
354.128	88.94
354.355	79.94
354.583	83.94
354.81	87.94
355.037	83.94
355.264	84.94
355.491	87.94
355.718	96.94
355.945	78.94
356.172	108.94
356.399	82.94
356.626	91.94
356.853	86.94
357.08	95.94
357.307	70.94
357.534	89.94
357.761	83.94
357.988	92.94
358.215	95.94
358.441	88.94
358.668	94.94
358.895	89.94
359.122	71.94
359.349	87.94
359.576	70.94
359.802	86.94
360.029	92.94
360.256	77.94
360.483	93.94
360.709	87.94
360.936	93.94
361.163	79.94
361.39	79.94
361.616	81.94
361.843	100.94
362.07	91.94
362.296	74.94
362.523	85.94
362.749	85.94
362.976	88.94
363.203	94.94
363.429	79.94
363.656	92.94
363.882	85.94
364.109	86.94
364.335	92.94
364.562	96.94
364.788	79.94
365.015	86.94
365.241	80.94
365.468	91.94
365.694	92.94
365.92	78.94
366.147	92.94
366.373	90.94
366.599	82.94
366.826	89.94
367.052	76.94
367.278	78.94
367.505	85.94
367.731	89.94
367.957	73.94
368.184	77.94
368.41	65.94
368.636	88.94
368.862	85.94
369.089	97.94
369.315	79.94
369.541	78.94
369.767	92.94
369.993	90.94
370.219	82.94
370.445	87.94
370.672	91.94
370.898	100.94
371.124	85.94
371.35	77.94
371.576	82.94
371.802	81.94
372.028	89.94
372.254	92.94
372.48	75.94
372.706	96.94
372.932	101.94
373.158	90.94
373.384	81.94
373.61	92.94
373.835	90.94
374.061	64.94
374.287	80.94
374.513	76.94
374.739	89.94
374.965	96.94
375.191	83.94
375.416	92.94
375.642	86.94
375.868	78.94
376.094	93.94
376.319	88.94
376.545	87.94
376.771	92.94
376.997	102.94
377.222	93.94
377.448	90.94
377.674	87.94
377.899	91.94
378.125	83.94
378.35	80.94
378.576	86.94
378.802	90.94
379.027	87.94
379.253	79.94
379.478	83.94
379.704	86.94
379.929	80.94
380.155	76.94
380.38	86.94
380.606	82.94
380.831	75.94
381.057	89.94
381.282	94.94
381.507	87.94
381.733	66.94
381.958	94.94
382.184	90.94
382.409	73.94
382.634	90.94
382.86	87.94
383.085	87.94
383.31	74.94
383.535	89.94
383.761	86.94
383.986	78.94
384.211	88.94
384.436	86.94
384.662	90.94
384.887	82.94
385.112	86.94
385.337	73.94
385.562	78.94
385.787	83.94
386.013	88.94
386.238	83.94
386.463	87.94
386.688	111.94
386.913	76.94
387.138	95.94
387.363	84.94
387.588	84.94
387.813	80.94
388.038	85.94
388.263	89.94
388.488	83.94
388.713	84.94
388.938	90.94
389.163	86.94
389.387	87.94
389.612	90.94
389.837	93.94
390.062	77.94
390.287	90.94
390.512	92.94
390.736	95.94
390.961	79.94
391.186	79.94
391.411	84.94
391.636	87.94
391.86	82.94
392.085	87.94
392.31	82.94
392.534	93.94
392.759	98.94
392.984	95.94
393.208	105.94
393.433	109.94
393.658	121.94
393.882	97.94
394.107	88.94
394.331	88.94
394.556	105.94
394.78	82.94
395.005	92.94
395.229	82.94
395.454	78.94
395.678	82.94
395.903	84.94
396.127	114.94
396.352	121.94
396.576	94.94
396.801	103.94
397.025	104.94
397.249	99.94
397.474	85.94
397.698	83.94
397.922	84.94
398.147	82.94
398.371	82.94
398.595	89.94
398.82	73.94
399.044	92.94
399.268	76.94
399.492	87.94
399.717	89.94
399.941	78.94
400.165	85.94
400.389	85.94
400.613	88.94
400.837	91.94
401.062	83.94
401.286	85.94
401.51	89.94
401.734	73.94
401.958	82.94
402.182	85.94
402.406	93.94
402.63	83.94
402.854	86.94
403.078	79.94
403.302	89.94
403.526	95.94
403.75	78.94
403.974	94.94
404.198	96.94
404.422	109.94
404.645	113.94
404.869	96.94
405.093	86.94
405.317	96.94
405.541	78.94
405.765	85.94
405.988	73.94
406.212	88.94
406.436	85.94
406.66	95.94
406.883	90.94
407.107	90.94
407.331	92.94
407.555	79.94
407.778	87.94
408.002	80.94
408.226	82.94
408.449	85.94
408.673	77.94
408.896	84.94
409.12	77.94
409.344	80.94
409.567	91.94
409.791	93.94
410.014	86.94
410.238	80.94
410.461	91.94
410.685	87.94
410.908	68.94
411.132	90.94
411.355	80.94
411.578	85.94
411.802	94.94
412.025	85.94
412.249	78.94
412.472	88.94
412.695	71.94
412.919	85.94
413.142	87.94
413.365	87.94
413.589	85.94
413.812	81.94
414.035	93.94
414.258	93.94
414.482	76.94
414.705	76.94
414.928	87.94
415.151	80.94
415.374	86.94
415.597	86.94
415.821	83.94
416.044	81.94
416.267	84.94
416.49	88.94
416.713	69.94
416.936	86.94
417.159	87.94
417.382	97.94
417.605	78.94
417.828	85.94
418.051	83.94
418.274	96.94
418.497	77.94
418.72	94.94
418.943	73.94
419.166	105.94
419.389	82.94
419.611	90.94
419.834	86.94
420.057	87.94
420.28	89.94
420.503	87.94
420.726	78.94
420.948	85.94
421.171	77.94
421.394	77.94
421.617	88.94
421.839	86.94
422.062	86.94
422.285	101.94
422.507	119.94
422.73	148.94
422.953	149.94
423.175	108.94
423.398	77.94
423.621	91.94
423.843	85.94
424.066	92.94
424.288	79.94
424.511	80.94
424.733	86.94
424.956	84.94
425.178	80.94
425.401	90.94
425.623	81.94
425.846	79.94
426.068	89.94
426.291	90.94
426.513	86.94
426.735	98.94
426.958	89.94
427.18	86.94
427.402	75.94
427.625	88.94
427.847	77.94
428.069	79.94
428.292	86.94
428.514	92.94
428.736	95.94
428.958	94.94
429.181	87.94
429.403	85.94
429.625	88.94
429.847	97.94
430.069	107.94
430.292	94.94
430.514	105.94
430.736	87.94
430.958	96.94
431.18	79.94
431.402	81.94
431.624	86.94
431.846	111.94
432.068	102.94
432.29	72.94
432.512	88.94
432.734	79.94
432.956	82.94
433.178	96.94
433.4	75.94
433.622	83.94
433.844	90.94
434.066	82.94
434.287	98.94
434.509	87.94
434.731	87.94
434.953	76.94
435.175	73.94
435.397	90.94
435.618	84.94
435.84	76.94
436.062	74.94
436.284	84.94
436.505	87.94
436.727	78.94
436.949	79.94
437.17	75.94
437.392	80.94
437.614	83.94
437.835	71.94
438.057	77.94
438.278	79.94
438.5	89.94
438.721	73.94
438.943	80.94
439.165	87.94
439.386	78.94
439.608	81.94
439.829	85.94
440.05	92.94
440.272	82.94
440.493	81.94
440.715	81.94
440.936	97.94
441.158	93.94
441.379	94.94
441.6	80.94
441.822	85.94
442.043	86.94
442.264	89.94
442.486	96.94
442.707	92.94
442.928	85.94
443.149	93.94
443.371	107.94
443.592	121.94
443.813	108.94
444.034	89.94
444.255	85.94
444.476	86.94
444.698	88.94
444.919	77.94
445.14	141.94
445.361	129.94
445.582	141.94
445.803	114.94
446.024	81.94
446.245	92.94
446.466	92.94
446.687	82.94
446.908	83.94
447.129	99.94
447.35	96.94
447.571	84.94
447.792	84.94
448.013	80.94
448.234	82.94
448.455	77.94
448.675	76.94
448.896	86.94
449.117	83.94
449.338	88.94
449.559	94.94
449.779	90.94
450	78.94
450.221	70.94
450.442	89.94
450.662	82.94
450.883	81.94
451.104	85.94
451.324	89.94
451.545	90.94
451.766	91.94
451.986	83.94
452.207	77.94
452.428	79.94
452.648	92.94
452.869	87.94
453.089	87.94
453.31	87.94
453.53	83.94
453.751	97.94
453.971	83.94
454.192	81.94
454.412	86.94
454.633	92.94
454.853	92.94
455.073	69.94
455.294	79.94
455.514	75.94
455.734	84.94
455.955	103.94
456.175	93.94
456.395	73.94
456.616	91.94
456.836	90.94
457.056	90.94
457.276	90.94
457.497	90.94
457.717	89.94
457.937	93.94
458.157	83.94
458.377	90.94
458.598	82.94
458.818	84.94
459.038	86.94
459.258	84.94
459.478	92.94
459.698	92.94
459.918	87.94
460.138	96.94
460.358	75.94
460.578	80.94
460.798	101.94
461.018	87.94
461.238	81.94
461.458	82.94
461.678	88.94
461.898	80.94
462.118	85.94
462.338	93.94
462.558	82.94
462.777	72.94
462.997	86.94
463.217	79.94
463.437	75.94
463.657	83.94
463.876	80.94
464.096	74.94
464.316	77.94
464.536	72.94
464.755	87.94
464.975	96.94
465.195	87.94
465.414	83.94
465.634	82.94
465.854	83.94
466.073	88.94
466.293	86.94
466.512	90.94
466.732	86.94
466.951	71.94
467.171	87.94
467.391	77.94
467.61	80.94
467.829	80.94
468.049	77.94
468.268	82.94
468.488	99.94
468.707	88.94
468.927	72.94
469.146	76.94
469.365	82.94
469.585	77.94
469.804	94.94
470.023	70.94
470.243	77.94
470.462	95.94
470.681	80.94
470.901	83.94
471.12	88.94
471.339	87.94
471.558	89.94
471.777	78.94
471.997	76.94
472.216	91.94
472.435	82.94
472.654	85.94
472.873	83.94
473.092	73.94
473.311	89.94
473.53	90.94
473.749	88.94
473.968	88.94
474.187	84.94
474.406	79.94
474.625	78.94
474.844	85.94
475.063	88.94
475.282	91.94
475.501	87.94
475.72	78.94
475.939	91.94
476.158	85.94
476.377	74.94
476.596	81.94
476.814	94.94
477.033	83.94
477.252	84.94
477.471	73.94
477.69	90.94
477.908	89.94
478.127	85.94
478.346	86.94
478.564	82.94
478.783	80.94
479.002	84.94
479.22	81.94
479.439	85.94
479.658	78.94
479.876	93.94
480.095	80.94
480.313	81.94
480.532	95.94
480.751	80.94
480.969	86.94
481.188	86.94
481.406	86.94
481.624	83.94
481.843	80.94
482.061	75.94
482.28	82.94
482.498	92.94
482.717	86.94
482.935	81.94
483.153	90.94
483.372	97.94
483.59	82.94
483.808	81.94
484.027	86.94
484.245	89.94
484.463	84.94
484.681	95.94
484.9	75.94
485.118	88.94
485.336	69.94
485.554	74.94
485.772	73.94
485.99	78.94
486.209	89.94
486.427	73.94
486.645	82.94
486.863	83.94
487.081	89.94
487.299	90.94
487.517	87.94
487.735	99.94
487.953	102.94
488.171	87.94
488.389	77.94
488.607	92.94
488.825	78.94
489.043	79.94
489.261	89.94
489.479	73.94
489.696	88.94
489.914	92.94
490.132	78.94
490.35	99.94
490.568	105.94
490.786	77.94
491.003	87.94
491.221	88.94
491.439	95.94
491.657	76.94
491.874	99.94
492.092	92.94
492.31	88.94
492.527	88.94
492.745	83.94
492.963	78.94
493.18	85.94
493.398	79.94
493.615	83.94
493.833	88.94
494.05	97.94
494.268	70.94
494.485	77.94
494.703	75.94
494.92	97.94
495.138	89.94
495.355	100.94
495.573	67.94
495.79	82.94
496.008	73.94
496.225	89.94
496.442	95.94
496.66	96.94
496.877	95.94
497.094	87.94
497.312	87.94
497.529	92.94
497.746	90.94
497.963	84.94
498.181	91.94
498.398	93.94
498.615	89.94
498.832	78.94
499.049	83.94
499.267	92.94
499.484	94.94
499.701	87.94
499.918	80.94
500.135	94.94
500.352	78.94
500.569	83.94
500.786	86.94
501.003	87.94
501.22	73.94
501.437	82.94
501.654	88.94
501.871	79.94
502.088	82.94
502.305	88.94
502.522	94.94
502.739	85.94
502.956	82.94
503.172	90.94
503.389	74.94
503.606	89.94
503.823	89.94
504.04	94.94
504.256	82.94
504.473	91.94
504.69	99.94
504.907	85.94
505.123	82.94
505.34	86.94
505.557	97.94
505.773	71.94
505.99	75.94
506.207	75.94
506.423	85.94
506.64	87.94
506.856	89.94
507.073	89.94
507.289	87.94
507.506	82.94
507.722	83.94
507.939	92.94
508.155	78.94
508.372	87.94
508.588	82.94
508.805	78.94
509.021	83.94
509.238	95.94
509.454	90.94
509.67	75.94
509.887	77.94
510.103	87.94
510.319	97.94
510.536	94.94
510.752	86.94
510.968	93.94
511.184	65.94
511.401	80.94
511.617	79.94
511.833	81.94
512.049	81.94
512.265	88.94
512.481	79.94
512.698	86.94
512.914	89.94
513.13	93.94
513.346	86.94
513.562	89.94
513.778	79.94
513.994	87.94
514.21	84.94
514.426	81.94
514.642	81.94
514.858	79.94
515.074	82.94
515.29	82.94
515.506	103.94
515.721	80.94
515.937	70.94
516.153	75.94
516.369	71.94
516.585	88.94
516.801	89.94
517.016	82.94
517.232	77.94
517.448	93.94
517.664	81.94
517.879	88.94
518.095	84.94
518.311	83.94
518.527	95.94
518.742	98.94
518.958	92.94
519.173	88.94
519.389	82.94
519.605	91.94
