Data from Mixheat3_HRD10591_00017.txt Node
Date: Fri Dec 27 15:10:39 EST 2024
User: Yrep
Spectrometer: HR+D1059
Trigger mode: 1
Integration Time (sec): 1.000000E-1
Scans to average: 1
Electric dark correction enabled: true
Nonlinearity correction enabled: false
Boxcar width: 0
XAxis mode: Wavelengths
Number of Pixels in Spectrum: 2048
>>>>>Begin Spectral Data<<<<<
223.165	-16.81
223.4	-16.81
223.635	-16.81
223.869	-10.81
224.104	-5.81
224.338	-29.81
224.573	-13.81
224.808	-10.81
225.042	-14.81
225.277	-7.81
225.511	7.19
225.746	-0.81
225.98	8.19
226.215	14.19
226.449	9.19
226.683	14.19
226.918	17.19
227.152	41.19
227.387	43.19
227.621	40.19
227.856	43.19
228.09	57.19
228.324	45.19
228.559	65.19
228.793	41.19
229.027	54.19
229.262	79.19
229.496	62.19
229.73	70.19
229.964	77.19
230.199	74.19
230.433	81.19
230.667	64.19
230.901	78.19
231.136	93.19
231.37	93.19
231.604	94.19
231.838	80.19
232.072	64.19
232.306	94.19
232.541	91.19
232.775	81.19
233.009	90.19
233.243	95.19
233.477	61.19
233.711	82.19
233.945	81.19
234.179	98.19
234.413	80.19
234.647	78.19
234.881	73.19
235.115	84.19
235.349	81.19
235.583	93.19
235.817	94.19
236.051	84.19
236.285	84.19
236.519	85.19
236.753	89.19
236.987	72.19
237.221	77.19
237.455	73.19
237.689	87.19
237.922	74.19
238.156	88.19
238.39	65.19
238.624	76.19
238.858	88.19
239.091	67.19
239.325	82.19
239.559	70.19
239.793	87.19
240.027	77.19
240.26	64.19
240.494	83.19
240.728	79.19
240.961	81.19
241.195	78.19
241.429	82.19
241.662	78.19
241.896	79.19
242.13	80.19
242.363	78.19
242.597	86.19
242.83	80.19
243.064	81.19
243.298	73.19
243.531	72.19
243.765	64.19
243.998	79.19
244.232	81.19
244.465	68.19
244.699	88.19
244.932	77.19
245.166	85.19
245.399	78.19
245.633	73.19
245.866	89.19
246.099	76.19
246.333	76.19
246.566	83.19
246.8	50.19
247.033	83.19
247.266	83.19
247.5	90.19
247.733	89.19
247.966	76.19
248.2	80.19
248.433	64.19
248.666	80.19
248.899	88.19
249.133	86.19
249.366	83.19
249.599	77.19
249.832	86.19
250.066	88.19
250.299	75.19
250.532	79.19
250.765	85.19
250.998	87.19
251.231	82.19
251.465	89.19
251.698	81.19
251.931	74.19
252.164	70.19
252.397	79.19
252.63	73.19
252.863	80.19
253.096	79.19
253.329	79.19
253.562	78.19
253.795	81.19
254.028	79.19
254.261	81.19
254.494	89.19
254.727	86.19
254.96	81.19
255.193	82.19
255.426	76.19
255.659	82.19
255.892	85.19
256.124	93.19
256.357	81.19
256.59	71.19
256.823	78.19
257.056	83.19
257.289	72.19
257.521	85.19
257.754	88.19
257.987	84.19
258.22	86.19
258.452	88.19
258.685	80.19
258.918	82.19
259.151	89.19
259.383	83.19
259.616	90.19
259.849	70.19
260.081	80.19
260.314	85.19
260.547	93.19
260.779	68.19
261.012	75.19
261.244	77.19
261.477	92.19
261.71	75.19
261.942	66.19
262.175	78.19
262.407	90.19
262.64	80.19
262.872	71.19
263.105	98.19
263.337	93.19
263.57	71.19
263.802	88.19
264.035	94.19
264.267	72.19
264.499	76.19
264.732	83.19
264.964	96.19
265.197	86.19
265.429	104.19
265.661	78.19
265.894	83.19
266.126	67.19
266.358	88.19
266.591	96.19
266.823	74.19
267.055	73.19
267.287	82.19
267.52	74.19
267.752	77.19
267.984	95.19
268.216	82.19
268.448	67.19
268.681	90.19
268.913	86.19
269.145	94.19
269.377	82.19
269.609	84.19
269.841	81.19
270.073	89.19
270.306	80.19
270.538	77.19
270.77	73.19
271.002	82.19
271.234	80.19
271.466	88.19
271.698	92.19
271.93	83.19
272.162	89.19
272.394	83.19
272.626	93.19
272.858	93.19
273.09	85.19
273.322	78.19
273.553	83.19
273.785	89.19
274.017	85.19
274.249	82.19
274.481	89.19
274.713	72.19
274.945	81.19
275.176	70.19
275.408	99.19
275.64	97.19
275.872	90.19
276.104	82.19
276.335	77.19
276.567	77.19
276.799	85.19
277.031	73.19
277.262	94.19
277.494	87.19
277.726	93.19
277.957	91.19
278.189	78.19
278.421	73.19
278.652	93.19
278.884	96.19
279.115	83.19
279.347	86.19
279.579	73.19
279.81	110.19
280.042	71.19
280.273	79.19
280.505	79.19
280.736	97.19
280.968	75.19
281.199	96.19
281.431	67.19
281.662	81.19
281.894	83.19
282.125	72.19
282.356	79.19
282.588	79.19
282.819	90.19
283.051	79.19
283.282	76.19
283.513	78.19
283.745	87.19
283.976	101.19
284.207	83.19
284.439	87.19
284.67	86.19
284.901	95.19
285.132	91.19
285.364	91.19
285.595	80.19
285.826	78.19
286.057	72.19
286.288	94.19
286.52	77.19
286.751	95.19
286.982	99.19
287.213	71.19
287.444	86.19
287.675	88.19
287.906	86.19
288.138	87.19
288.369	89.19
288.6	80.19
288.831	73.19
289.062	87.19
289.293	93.19
289.524	76.19
289.755	89.19
289.986	98.19
290.217	81.19
290.448	66.19
290.679	91.19
290.91	85.19
291.141	86.19
291.371	82.19
291.602	78.19
291.833	74.19
292.064	85.19
292.295	102.19
292.526	87.19
292.757	92.19
292.987	85.19
293.218	75.19
293.449	96.19
293.68	98.19
293.91	81.19
294.141	80.19
294.372	104.19
294.603	89.19
294.833	76.19
295.064	79.19
295.295	74.19
295.525	87.19
295.756	97.19
295.987	78.19
296.217	93.19
296.448	79.19
296.679	89.19
296.909	109.19
297.14	69.19
297.37	81.19
297.601	79.19
297.831	89.19
298.062	87.19
298.292	96.19
298.523	72.19
298.753	91.19
298.984	87.19
299.214	83.19
299.445	86.19
299.675	85.19
299.905	79.19
300.136	95.19
300.366	87.19
300.597	69.19
300.827	80.19
301.057	80.19
301.288	93.19
301.518	81.19
301.748	87.19
301.979	90.19
302.209	83.19
302.439	80.19
302.669	78.19
302.9	93.19
303.13	98.19
303.36	93.19
303.59	71.19
303.82	82.19
304.051	82.19
304.281	78.19
304.511	81.19
304.741	80.19
304.971	85.19
305.201	75.19
305.431	86.19
305.661	98.19
305.891	96.19
306.121	77.19
306.352	88.19
306.582	88.19
306.812	92.19
307.042	93.19
307.272	76.19
307.502	89.19
307.731	77.19
307.961	96.19
308.191	93.19
308.421	70.19
308.651	85.19
308.881	96.19
309.111	94.19
309.341	96.19
309.571	105.19
309.8	89.19
310.03	91.19
310.26	91.19
310.49	82.19
310.72	77.19
310.949	76.19
311.179	85.19
311.409	88.19
311.639	88.19
311.868	82.19
312.098	88.19
312.328	74.19
312.557	81.19
312.787	89.19
313.017	83.19
313.246	85.19
313.476	88.19
313.706	70.19
313.935	93.19
314.165	89.19
314.394	85.19
314.624	83.19
314.853	78.19
315.083	95.19
315.312	98.19
315.542	81.19
315.771	85.19
316.001	74.19
316.23	76.19
316.46	92.19
316.689	85.19
316.919	85.19
317.148	82.19
317.377	85.19
317.607	85.19
317.836	75.19
318.065	85.19
318.295	93.19
318.524	81.19
318.753	79.19
318.983	82.19
319.212	85.19
319.441	77.19
319.67	88.19
319.9	82.19
320.129	80.19
320.358	97.19
320.587	98.19
320.816	90.19
321.046	80.19
321.275	89.19
321.504	87.19
321.733	79.19
321.962	75.19
322.191	96.19
322.42	81.19
322.649	77.19
322.878	99.19
323.108	77.19
323.337	87.19
323.566	78.19
323.795	88.19
324.024	91.19
324.253	86.19
324.482	89.19
324.71	99.19
324.939	90.19
325.168	85.19
325.397	72.19
325.626	80.19
325.855	83.19
326.084	84.19
326.313	91.19
326.542	72.19
326.77	86.19
326.999	91.19
327.228	87.19
327.457	75.19
327.686	81.19
327.914	92.19
328.143	77.19
328.372	71.19
328.6	88.19
328.829	77.19
329.058	74.19
329.287	99.19
329.515	90.19
329.744	86.19
329.972	94.19
330.201	92.19
330.43	82.19
330.658	77.19
330.887	80.19
331.115	83.19
331.344	97.19
331.572	86.19
331.801	83.19
332.03	75.19
332.258	95.19
332.486	77.19
332.715	72.19
332.943	78.19
333.172	87.19
333.4	83.19
333.629	79.19
333.857	84.19
334.085	89.19
334.314	90.19
334.542	75.19
334.771	86.19
334.999	79.19
335.227	80.19
335.455	81.19
335.684	101.19
335.912	83.19
336.14	74.19
336.369	97.19
336.597	82.19
336.825	86.19
337.053	81.19
337.281	79.19
337.51	78.19
337.738	85.19
337.966	89.19
338.194	95.19
338.422	103.19
338.65	73.19
338.878	90.19
339.106	90.19
339.334	88.19
339.562	88.19
339.79	89.19
340.018	85.19
340.246	86.19
340.474	91.19
340.702	78.19
340.93	94.19
341.158	78.19
341.386	74.19
341.614	84.19
341.842	93.19
342.07	90.19
342.298	80.19
342.526	87.19
342.754	89.19
342.981	73.19
343.209	83.19
343.437	89.19
343.665	85.19
343.893	90.19
344.12	102.19
344.348	96.19
344.576	102.19
344.804	87.19
345.031	93.19
345.259	81.19
345.487	85.19
345.714	86.19
345.942	86.19
346.17	84.19
346.397	85.19
346.625	78.19
346.853	89.19
347.08	92.19
347.308	92.19
347.535	85.19
347.763	78.19
347.99	93.19
348.218	91.19
348.445	78.19
348.673	73.19
348.9	86.19
349.128	79.19
349.355	80.19
349.583	84.19
349.81	83.19
350.037	75.19
350.265	78.19
350.492	89.19
350.72	85.19
350.947	97.19
351.174	86.19
351.402	95.19
351.629	95.19
351.856	80.19
352.083	83.19
352.311	95.19
352.538	88.19
352.765	88.19
352.992	101.19
353.22	84.19
353.447	92.19
353.674	78.19
353.901	78.19
354.128	84.19
354.355	89.19
354.583	79.19
354.81	90.19
355.037	88.19
355.264	85.19
355.491	80.19
355.718	85.19
355.945	88.19
356.172	79.19
356.399	84.19
356.626	81.19
356.853	96.19
357.08	87.19
357.307	87.19
357.534	87.19
357.761	88.19
357.988	90.19
358.215	95.19
358.441	82.19
358.668	89.19
358.895	87.19
359.122	80.19
359.349	83.19
359.576	85.19
359.802	87.19
360.029	79.19
360.256	84.19
360.483	89.19
360.709	77.19
360.936	91.19
361.163	80.19
361.39	80.19
361.616	78.19
361.843	96.19
362.07	90.19
362.296	82.19
362.523	90.19
362.749	80.19
362.976	89.19
363.203	83.19
363.429	83.19
363.656	83.19
363.882	80.19
364.109	89.19
364.335	95.19
364.562	88.19
364.788	73.19
365.015	74.19
365.241	92.19
365.468	94.19
365.694	89.19
365.92	76.19
366.147	84.19
366.373	85.19
366.599	89.19
366.826	79.19
367.052	77.19
367.278	73.19
367.505	87.19
367.731	102.19
367.957	85.19
368.184	92.19
368.41	75.19
368.636	83.19
368.862	89.19
369.089	71.19
369.315	70.19
369.541	93.19
369.767	82.19
369.993	83.19
370.219	91.19
370.445	71.19
370.672	88.19
370.898	92.19
371.124	74.19
371.35	78.19
371.576	86.19
371.802	76.19
372.028	85.19
372.254	76.19
372.48	80.19
372.706	95.19
372.932	87.19
373.158	72.19
373.384	95.19
373.61	79.19
373.835	81.19
374.061	93.19
374.287	87.19
374.513	78.19
374.739	82.19
374.965	67.19
375.191	75.19
375.416	86.19
375.642	101.19
375.868	97.19
376.094	75.19
376.319	86.19
376.545	77.19
376.771	82.19
376.997	83.19
377.222	72.19
377.448	84.19
377.674	80.19
377.899	89.19
378.125	78.19
378.35	89.19
378.576	89.19
378.802	90.19
379.027	91.19
379.253	80.19
379.478	87.19
379.704	73.19
379.929	84.19
380.155	90.19
380.38	77.19
380.606	82.19
380.831	101.19
381.057	95.19
381.282	101.19
381.507	92.19
381.733	88.19
381.958	75.19
382.184	85.19
382.409	92.19
382.634	83.19
382.86	78.19
383.085	92.19
383.31	85.19
383.535	96.19
383.761	80.19
383.986	83.19
384.211	87.19
384.436	87.19
384.662	97.19
384.887	88.19
385.112	85.19
385.337	72.19
385.562	75.19
385.787	94.19
386.013	80.19
386.238	64.19
386.463	85.19
386.688	93.19
386.913	89.19
387.138	68.19
387.363	77.19
387.588	88.19
387.813	70.19
388.038	82.19
388.263	89.19
388.488	78.19
388.713	84.19
388.938	73.19
389.163	73.19
389.387	90.19
389.612	81.19
389.837	95.19
390.062	86.19
390.287	79.19
390.512	91.19
390.736	89.19
390.961	87.19
391.186	72.19
391.411	73.19
391.636	74.19
391.86	71.19
392.085	93.19
392.31	74.19
392.534	74.19
392.759	80.19
392.984	79.19
393.208	103.19
393.433	111.19
393.658	87.19
393.882	78.19
394.107	89.19
394.331	96.19
394.556	93.19
394.78	87.19
395.005	84.19
395.229	90.19
395.454	94.19
395.678	87.19
395.903	79.19
396.127	104.19
396.352	105.19
396.576	93.19
396.801	90.19
397.025	103.19
397.249	81.19
397.474	98.19
397.698	91.19
397.922	90.19
398.147	73.19
398.371	80.19
398.595	74.19
398.82	85.19
399.044	88.19
399.268	71.19
399.492	78.19
399.717	77.19
399.941	91.19
400.165	79.19
400.389	82.19
400.613	81.19
400.837	78.19
401.062	87.19
401.286	89.19
401.51	93.19
401.734	99.19
401.958	74.19
402.182	97.19
402.406	87.19
402.63	98.19
402.854	78.19
403.078	81.19
403.302	87.19
403.526	80.19
403.75	73.19
403.974	86.19
404.198	106.19
404.422	91.19
404.645	103.19
404.869	96.19
405.093	98.19
405.317	75.19
405.541	75.19
405.765	81.19
405.988	83.19
406.212	78.19
406.436	82.19
406.66	92.19
406.883	88.19
407.107	79.19
407.331	74.19
407.555	85.19
407.778	85.19
408.002	79.19
408.226	86.19
408.449	89.19
408.673	77.19
408.896	90.19
409.12	82.19
409.344	90.19
409.567	84.19
409.791	83.19
410.014	99.19
410.238	69.19
410.461	93.19
410.685	83.19
410.908	91.19
411.132	71.19
411.355	86.19
411.578	85.19
411.802	86.19
412.025	77.19
412.249	72.19
412.472	68.19
412.695	69.19
412.919	76.19
413.142	89.19
413.365	75.19
413.589	78.19
413.812	78.19
414.035	82.19
414.258	95.19
414.482	82.19
414.705	81.19
414.928	84.19
415.151	73.19
415.374	71.19
415.597	89.19
415.821	93.19
416.044	88.19
416.267	86.19
416.49	80.19
416.713	89.19
416.936	80.19
417.159	87.19
417.382	85.19
417.605	67.19
417.828	99.19
418.051	75.19
418.274	85.19
418.497	84.19
418.72	77.19
418.943	78.19
419.166	103.19
419.389	83.19
419.611	86.19
419.834	82.19
420.057	92.19
420.28	94.19
420.503	91.19
420.726	70.19
420.948	82.19
421.171	86.19
421.394	72.19
421.617	75.19
421.839	82.19
422.062	88.19
422.285	103.19
422.507	102.19
422.73	138.19
422.953	130.19
423.175	101.19
423.398	90.19
423.621	88.19
423.843	95.19
424.066	85.19
424.288	91.19
424.511	73.19
424.733	78.19
424.956	83.19
425.178	85.19
425.401	87.19
425.623	85.19
425.846	86.19
426.068	81.19
426.291	75.19
426.513	82.19
426.735	92.19
426.958	90.19
427.18	92.19
427.402	94.19
427.625	81.19
427.847	89.19
428.069	75.19
428.292	84.19
428.514	91.19
428.736	88.19
428.958	104.19
429.181	92.19
429.403	78.19
429.625	84.19
429.847	75.19
430.069	85.19
430.292	118.19
430.514	90.19
430.736	93.19
430.958	98.19
431.18	75.19
431.402	92.19
431.624	90.19
431.846	88.19
432.068	86.19
432.29	77.19
432.512	77.19
432.734	77.19
432.956	87.19
433.178	88.19
433.4	69.19
433.622	83.19
433.844	96.19
434.066	86.19
434.287	84.19
434.509	82.19
434.731	93.19
434.953	91.19
435.175	78.19
435.397	77.19
435.618	76.19
435.84	82.19
436.062	86.19
436.284	94.19
436.505	87.19
436.727	77.19
436.949	87.19
437.17	87.19
437.392	83.19
437.614	83.19
437.835	68.19
438.057	79.19
438.278	77.19
438.5	81.19
438.721	91.19
438.943	95.19
439.165	75.19
439.386	86.19
439.608	80.19
439.829	79.19
440.05	72.19
440.272	88.19
440.493	76.19
440.715	83.19
440.936	90.19
441.158	102.19
441.379	72.19
441.6	81.19
441.822	80.19
442.043	95.19
442.264	85.19
442.486	90.19
442.707	109.19
442.928	103.19
443.149	101.19
443.371	108.19
443.592	91.19
443.813	91.19
444.034	83.19
444.255	79.19
444.476	86.19
444.698	85.19
444.919	87.19
445.14	143.19
445.361	124.19
445.582	131.19
445.803	93.19
446.024	83.19
446.245	80.19
446.466	79.19
446.687	89.19
446.908	72.19
447.129	77.19
447.35	87.19
447.571	89.19
447.792	76.19
448.013	94.19
448.234	83.19
448.455	80.19
448.675	72.19
448.896	90.19
449.117	86.19
449.338	69.19
449.559	92.19
449.779	77.19
450	99.19
450.221	86.19
450.442	78.19
450.662	85.19
450.883	99.19
451.104	75.19
451.324	78.19
451.545	84.19
451.766	85.19
451.986	82.19
452.207	66.19
452.428	77.19
452.648	95.19
452.869	93.19
453.089	93.19
453.31	82.19
453.53	97.19
453.751	87.19
453.971	73.19
454.192	78.19
454.412	82.19
454.633	85.19
454.853	88.19
455.073	87.19
455.294	91.19
455.514	106.19
455.734	81.19
455.955	85.19
456.175	83.19
456.395	101.19
456.616	77.19
456.836	86.19
457.056	79.19
457.276	82.19
457.497	84.19
457.717	86.19
457.937	82.19
458.157	92.19
458.377	84.19
458.598	103.19
458.818	84.19
459.038	83.19
459.258	86.19
459.478	79.19
459.698	78.19
459.918	94.19
460.138	83.19
460.358	77.19
460.578	66.19
460.798	91.19
461.018	82.19
461.238	90.19
461.458	83.19
461.678	67.19
461.898	86.19
462.118	87.19
462.338	92.19
462.558	102.19
462.777	75.19
462.997	85.19
463.217	83.19
463.437	90.19
463.657	84.19
463.876	93.19
464.096	80.19
464.316	79.19
464.536	79.19
464.755	86.19
464.975	87.19
465.195	83.19
465.414	75.19
465.634	72.19
465.854	78.19
466.073	73.19
466.293	85.19
466.512	79.19
466.732	90.19
466.951	86.19
467.171	79.19
467.391	81.19
467.61	88.19
467.829	86.19
468.049	74.19
468.268	66.19
468.488	73.19
468.707	78.19
468.927	70.19
469.146	86.19
469.365	84.19
469.585	93.19
469.804	67.19
470.023	82.19
470.243	99.19
470.462	81.19
470.681	92.19
470.901	84.19
471.12	82.19
471.339	79.19
471.558	98.19
471.777	82.19
471.997	93.19
472.216	79.19
472.435	73.19
472.654	73.19
472.873	97.19
473.092	81.19
473.311	77.19
473.53	90.19
473.749	80.19
473.968	83.19
474.187	87.19
474.406	87.19
474.625	77.19
474.844	83.19
475.063	91.19
475.282	78.19
475.501	88.19
475.72	91.19
475.939	82.19
476.158	67.19
476.377	85.19
476.596	84.19
476.814	78.19
477.033	91.19
477.252	87.19
477.471	78.19
477.69	86.19
477.908	96.19
478.127	92.19
478.346	97.19
478.564	83.19
478.783	86.19
479.002	84.19
479.22	95.19
479.439	91.19
479.658	86.19
479.876	82.19
480.095	92.19
480.313	73.19
480.532	81.19
480.751	82.19
480.969	86.19
481.188	97.19
481.406	77.19
481.624	87.19
481.843	68.19
482.061	71.19
482.28	65.19
482.498	93.19
482.717	81.19
482.935	91.19
483.153	98.19
483.372	99.19
483.59	83.19
483.808	95.19
484.027	106.19
484.245	85.19
484.463	81.19
484.681	106.19
484.9	93.19
485.118	90.19
485.336	77.19
485.554	81.19
485.772	77.19
485.99	85.19
486.209	88.19
486.427	87.19
486.645	80.19
486.863	92.19
487.081	79.19
487.299	102.19
487.517	85.19
487.735	76.19
487.953	96.19
488.171	91.19
488.389	89.19
488.607	94.19
488.825	85.19
489.043	71.19
489.261	84.19
489.479	81.19
489.696	87.19
489.914	90.19
490.132	80.19
490.35	90.19
490.568	87.19
490.786	72.19
491.003	87.19
491.221	90.19
491.439	86.19
491.657	82.19
491.874	95.19
492.092	73.19
492.31	80.19
492.527	96.19
492.745	87.19
492.963	76.19
493.18	98.19
493.398	104.19
493.615	101.19
493.833	73.19
494.05	95.19
494.268	91.19
494.485	80.19
494.703	89.19
494.92	82.19
495.138	97.19
495.355	96.19
495.573	89.19
495.79	88.19
496.008	88.19
496.225	103.19
496.442	103.19
496.66	92.19
496.877	85.19
497.094	92.19
497.312	86.19
497.529	94.19
497.746	86.19
497.963	79.19
498.181	98.19
498.398	97.19
498.615	89.19
498.832	97.19
499.049	91.19
499.267	83.19
499.484	80.19
499.701	85.19
499.918	86.19
500.135	93.19
500.352	89.19
500.569	91.19
500.786	100.19
501.003	90.19
501.22	80.19
501.437	87.19
501.654	98.19
501.871	97.19
502.088	81.19
502.305	78.19
502.522	86.19
502.739	91.19
502.956	77.19
503.172	83.19
503.389	86.19
503.606	91.19
503.823	91.19
504.04	84.19
504.256	98.19
504.473	86.19
504.69	95.19
504.907	95.19
505.123	78.19
505.34	94.19
505.557	89.19
505.773	75.19
505.99	88.19
506.207	98.19
506.423	93.19
506.64	77.19
506.856	86.19
507.073	86.19
507.289	85.19
507.506	81.19
507.722	96.19
507.939	97.19
508.155	80.19
508.372	80.19
508.588	73.19
508.805	85.19
509.021	89.19
509.238	98.19
509.454	95.19
509.67	82.19
509.887	88.19
510.103	79.19
510.319	77.19
510.536	78.19
510.752	72.19
510.968	69.19
511.184	94.19
511.401	87.19
511.617	90.19
511.833	78.19
512.049	75.19
512.265	87.19
512.481	74.19
512.698	89.19
512.914	102.19
513.13	86.19
513.346	80.19
513.562	96.19
513.778	91.19
513.994	81.19
514.21	81.19
514.426	94.19
514.642	83.19
514.858	97.19
515.074	83.19
515.29	86.19
515.506	91.19
515.721	85.19
515.937	90.19
516.153	82.19
516.369	83.19
516.585	79.19
516.801	94.19
517.016	90.19
517.232	97.19
517.448	79.19
517.664	90.19
517.879	83.19
518.095	81.19
518.311	94.19
518.527	93.19
518.742	76.19
518.958	87.19
519.173	98.19
519.389	73.19
519.605	77.19
