Data from Mixheat3_HRD10591_00008.txt Node
Date: Fri Dec 27 15:10:30 EST 2024
User: Yrep
Spectrometer: HR+D1059
Trigger mode: 1
Integration Time (sec): 1.000000E-1
Scans to average: 1
Electric dark correction enabled: true
Nonlinearity correction enabled: false
Boxcar width: 0
XAxis mode: Wavelengths
Number of Pixels in Spectrum: 2048
>>>>>Begin Spectral Data<<<<<
223.165	-25.5
223.4	-25.5
223.635	-25.5
223.869	-23.5
224.104	-4.5
224.338	-14.5
224.573	-17.5
224.808	-6.5
225.042	-4.5
225.277	-2.5
225.511	5.5
225.746	-1.5
225.98	10.5
226.215	22.5
226.449	-0.5
226.683	13.5
226.918	18.5
227.152	30.5
227.387	34.5
227.621	38.5
227.856	43.5
228.09	57.5
228.324	59.5
228.559	59.5
228.793	67.5
229.027	50.5
229.262	59.5
229.496	71.5
229.73	48.5
229.964	66.5
230.199	83.5
230.433	77.5
230.667	77.5
230.901	77.5
231.136	71.5
231.37	80.5
231.604	96.5
231.838	80.5
232.072	89.5
232.306	83.5
232.541	79.5
232.775	82.5
233.009	80.5
233.243	75.5
233.477	75.5
233.711	90.5
233.945	91.5
234.179	84.5
234.413	74.5
234.647	71.5
234.881	90.5
235.115	90.5
235.349	90.5
235.583	86.5
235.817	77.5
236.051	71.5
236.285	81.5
236.519	80.5
236.753	78.5
236.987	70.5
237.221	82.5
237.455	72.5
237.689	74.5
237.922	80.5
238.156	67.5
238.39	63.5
238.624	87.5
238.858	85.5
239.091	77.5
239.325	79.5
239.559	77.5
239.793	74.5
240.027	72.5
240.26	78.5
240.494	76.5
240.728	84.5
240.961	71.5
241.195	77.5
241.429	70.5
241.662	71.5
241.896	68.5
242.13	79.5
242.363	84.5
242.597	78.5
242.83	83.5
243.064	72.5
243.298	86.5
243.531	74.5
243.765	93.5
243.998	89.5
244.232	65.5
244.465	83.5
244.699	81.5
244.932	81.5
245.166	86.5
245.399	72.5
245.633	79.5
245.866	85.5
246.099	71.5
246.333	84.5
246.566	79.5
246.8	84.5
247.033	63.5
247.266	76.5
247.5	71.5
247.733	84.5
247.966	79.5
248.2	68.5
248.433	83.5
248.666	70.5
248.899	73.5
249.133	76.5
249.366	67.5
249.599	78.5
249.832	83.5
250.066	95.5
250.299	73.5
250.532	74.5
250.765	79.5
250.998	85.5
251.231	70.5
251.465	68.5
251.698	76.5
251.931	74.5
252.164	76.5
252.397	69.5
252.63	79.5
252.863	89.5
253.096	78.5
253.329	84.5
253.562	79.5
253.795	89.5
254.028	95.5
254.261	75.5
254.494	66.5
254.727	73.5
254.96	81.5
255.193	84.5
255.426	78.5
255.659	85.5
255.892	75.5
256.124	74.5
256.357	70.5
256.59	74.5
256.823	76.5
257.056	79.5
257.289	76.5
257.521	89.5
257.754	88.5
257.987	86.5
258.22	84.5
258.452	92.5
258.685	73.5
258.918	74.5
259.151	82.5
259.383	84.5
259.616	94.5
259.849	81.5
260.081	84.5
260.314	75.5
260.547	83.5
260.779	78.5
261.012	81.5
261.244	88.5
261.477	91.5
261.71	72.5
261.942	77.5
262.175	84.5
262.407	90.5
262.64	73.5
262.872	88.5
263.105	81.5
263.337	92.5
263.57	71.5
263.802	90.5
264.035	87.5
264.267	92.5
264.499	81.5
264.732	63.5
264.964	75.5
265.197	83.5
265.429	80.5
265.661	83.5
265.894	76.5
266.126	84.5
266.358	73.5
266.591	84.5
266.823	76.5
267.055	89.5
267.287	89.5
267.52	79.5
267.752	98.5
267.984	76.5
268.216	76.5
268.448	88.5
268.681	79.5
268.913	74.5
269.145	83.5
269.377	77.5
269.609	80.5
269.841	80.5
270.073	78.5
270.306	72.5
270.538	96.5
270.77	83.5
271.002	78.5
271.234	88.5
271.466	87.5
271.698	72.5
271.93	71.5
272.162	86.5
272.394	80.5
272.626	83.5
272.858	74.5
273.09	72.5
273.322	71.5
273.553	74.5
273.785	97.5
274.017	88.5
274.249	82.5
274.481	62.5
274.713	81.5
274.945	77.5
275.176	85.5
275.408	82.5
275.64	73.5
275.872	92.5
276.104	85.5
276.335	85.5
276.567	75.5
276.799	95.5
277.031	86.5
277.262	91.5
277.494	82.5
277.726	86.5
277.957	83.5
278.189	78.5
278.421	70.5
278.652	77.5
278.884	82.5
279.115	80.5
279.347	99.5
279.579	90.5
279.81	75.5
280.042	86.5
280.273	79.5
280.505	76.5
280.736	85.5
280.968	84.5
281.199	86.5
281.431	85.5
281.662	85.5
281.894	94.5
282.125	85.5
282.356	64.5
282.588	72.5
282.819	90.5
283.051	81.5
283.282	84.5
283.513	89.5
283.745	78.5
283.976	88.5
284.207	88.5
284.439	102.5
284.67	87.5
284.901	85.5
285.132	82.5
285.364	87.5
285.595	88.5
285.826	89.5
286.057	94.5
286.288	86.5
286.52	79.5
286.751	84.5
286.982	77.5
287.213	80.5
287.444	90.5
287.675	79.5
287.906	82.5
288.138	77.5
288.369	79.5
288.6	102.5
288.831	88.5
289.062	79.5
289.293	78.5
289.524	79.5
289.755	88.5
289.986	80.5
290.217	80.5
290.448	72.5
290.679	95.5
290.91	94.5
291.141	81.5
291.371	80.5
291.602	86.5
291.833	95.5
292.064	88.5
292.295	83.5
292.526	80.5
292.757	98.5
292.987	86.5
293.218	78.5
293.449	96.5
293.68	87.5
293.91	89.5
294.141	89.5
294.372	79.5
294.603	75.5
294.833	78.5
295.064	86.5
295.295	81.5
295.525	77.5
295.756	75.5
295.987	85.5
296.217	82.5
296.448	91.5
296.679	89.5
296.909	106.5
297.14	78.5
297.37	85.5
297.601	95.5
297.831	81.5
298.062	90.5
298.292	78.5
298.523	81.5
298.753	82.5
298.984	102.5
299.214	88.5
299.445	78.5
299.675	82.5
299.905	86.5
300.136	82.5
300.366	78.5
300.597	74.5
300.827	80.5
301.057	73.5
301.288	75.5
301.518	85.5
301.748	78.5
301.979	91.5
302.209	82.5
302.439	93.5
302.669	80.5
302.9	91.5
303.13	106.5
303.36	80.5
303.59	90.5
303.82	97.5
304.051	75.5
304.281	95.5
304.511	71.5
304.741	79.5
304.971	94.5
305.201	95.5
305.431	90.5
305.661	87.5
305.891	93.5
306.121	85.5
306.352	77.5
306.582	76.5
306.812	94.5
307.042	76.5
307.272	94.5
307.502	86.5
307.731	99.5
307.961	79.5
308.191	83.5
308.421	86.5
308.651	87.5
308.881	83.5
309.111	83.5
309.341	86.5
309.571	96.5
309.8	82.5
310.03	72.5
310.26	86.5
310.49	84.5
310.72	76.5
310.949	83.5
311.179	83.5
311.409	92.5
311.639	82.5
311.868	85.5
312.098	62.5
312.328	73.5
312.557	80.5
312.787	81.5
313.017	98.5
313.246	78.5
313.476	86.5
313.706	83.5
313.935	93.5
314.165	72.5
314.394	83.5
314.624	73.5
314.853	91.5
315.083	84.5
315.312	78.5
315.542	74.5
315.771	83.5
316.001	83.5
316.23	80.5
316.46	86.5
316.689	84.5
316.919	77.5
317.148	80.5
317.377	86.5
317.607	73.5
317.836	88.5
318.065	80.5
318.295	88.5
318.524	89.5
318.753	74.5
318.983	86.5
319.212	81.5
319.441	82.5
319.67	98.5
319.9	91.5
320.129	93.5
320.358	82.5
320.587	94.5
320.816	79.5
321.046	89.5
321.275	79.5
321.504	78.5
321.733	86.5
321.962	79.5
322.191	81.5
322.42	85.5
322.649	93.5
322.878	100.5
323.108	102.5
323.337	89.5
323.566	87.5
323.795	88.5
324.024	93.5
324.253	87.5
324.482	83.5
324.71	79.5
324.939	71.5
325.168	90.5
325.397	80.5
325.626	76.5
325.855	87.5
326.084	88.5
326.313	88.5
326.542	66.5
326.77	87.5
326.999	85.5
327.228	100.5
327.457	91.5
327.686	83.5
327.914	89.5
328.143	77.5
328.372	80.5
328.6	81.5
328.829	100.5
329.058	90.5
329.287	82.5
329.515	81.5
329.744	82.5
329.972	86.5
330.201	91.5
330.43	78.5
330.658	94.5
330.887	86.5
331.115	76.5
331.344	82.5
331.572	92.5
331.801	90.5
332.03	79.5
332.258	93.5
332.486	77.5
332.715	79.5
332.943	86.5
333.172	84.5
333.4	79.5
333.629	86.5
333.857	75.5
334.085	77.5
334.314	87.5
334.542	79.5
334.771	79.5
334.999	83.5
335.227	88.5
335.455	86.5
335.684	74.5
335.912	86.5
336.14	79.5
336.369	85.5
336.597	84.5
336.825	93.5
337.053	89.5
337.281	65.5
337.51	88.5
337.738	91.5
337.966	76.5
338.194	66.5
338.422	103.5
338.65	80.5
338.878	82.5
339.106	83.5
339.334	78.5
339.562	88.5
339.79	86.5
340.018	76.5
340.246	91.5
340.474	93.5
340.702	84.5
340.93	72.5
341.158	78.5
341.386	69.5
341.614	85.5
341.842	80.5
342.07	77.5
342.298	83.5
342.526	83.5
342.754	78.5
342.981	81.5
343.209	77.5
343.437	91.5
343.665	84.5
343.893	77.5
344.12	101.5
344.348	96.5
344.576	89.5
344.804	81.5
345.031	90.5
345.259	76.5
345.487	83.5
345.714	65.5
345.942	77.5
346.17	71.5
346.397	81.5
346.625	74.5
346.853	84.5
347.08	84.5
347.308	81.5
347.535	84.5
347.763	83.5
347.99	86.5
348.218	87.5
348.445	83.5
348.673	87.5
348.9	77.5
349.128	73.5
349.355	98.5
349.583	87.5
349.81	88.5
350.037	56.5
350.265	86.5
350.492	76.5
350.72	74.5
350.947	81.5
351.174	85.5
351.402	81.5
351.629	84.5
351.856	81.5
352.083	88.5
352.311	79.5
352.538	85.5
352.765	80.5
352.992	89.5
353.22	83.5
353.447	70.5
353.674	92.5
353.901	83.5
354.128	87.5
354.355	79.5
354.583	81.5
354.81	89.5
355.037	83.5
355.264	94.5
355.491	86.5
355.718	90.5
355.945	91.5
356.172	94.5
356.399	84.5
356.626	71.5
356.853	86.5
357.08	96.5
357.307	82.5
357.534	92.5
357.761	84.5
357.988	85.5
358.215	88.5
358.441	94.5
358.668	93.5
358.895	82.5
359.122	84.5
359.349	89.5
359.576	85.5
359.802	94.5
360.029	76.5
360.256	95.5
360.483	69.5
360.709	93.5
360.936	91.5
361.163	78.5
361.39	85.5
361.616	84.5
361.843	81.5
362.07	79.5
362.296	82.5
362.523	79.5
362.749	89.5
362.976	79.5
363.203	88.5
363.429	76.5
363.656	78.5
363.882	79.5
364.109	89.5
364.335	86.5
364.562	98.5
364.788	86.5
365.015	93.5
365.241	80.5
365.468	82.5
365.694	75.5
365.92	78.5
366.147	93.5
366.373	77.5
366.599	81.5
366.826	86.5
367.052	78.5
367.278	79.5
367.505	83.5
367.731	94.5
367.957	89.5
368.184	86.5
368.41	86.5
368.636	83.5
368.862	95.5
369.089	88.5
369.315	87.5
369.541	88.5
369.767	78.5
369.993	89.5
370.219	75.5
370.445	77.5
370.672	74.5
370.898	85.5
371.124	75.5
371.35	87.5
371.576	79.5
371.802	68.5
372.028	84.5
372.254	85.5
372.48	68.5
372.706	68.5
372.932	77.5
373.158	81.5
373.384	96.5
373.61	86.5
373.835	78.5
374.061	77.5
374.287	83.5
374.513	80.5
374.739	79.5
374.965	87.5
375.191	98.5
375.416	87.5
375.642	80.5
375.868	83.5
376.094	66.5
376.319	73.5
376.545	84.5
376.771	84.5
376.997	93.5
377.222	88.5
377.448	83.5
377.674	79.5
377.899	92.5
378.125	95.5
378.35	85.5
378.576	91.5
378.802	99.5
379.027	81.5
379.253	95.5
379.478	100.5
379.704	76.5
379.929	71.5
380.155	85.5
380.38	87.5
380.606	81.5
380.831	79.5
381.057	86.5
381.282	92.5
381.507	86.5
381.733	72.5
381.958	79.5
382.184	95.5
382.409	74.5
382.634	93.5
382.86	75.5
383.085	86.5
383.31	77.5
383.535	68.5
383.761	74.5
383.986	89.5
384.211	93.5
384.436	85.5
384.662	87.5
384.887	74.5
385.112	94.5
385.337	89.5
385.562	72.5
385.787	88.5
386.013	86.5
386.238	79.5
386.463	76.5
386.688	90.5
386.913	83.5
387.138	77.5
387.363	70.5
387.588	83.5
387.813	93.5
388.038	74.5
388.263	90.5
388.488	87.5
388.713	94.5
388.938	86.5
389.163	82.5
389.387	84.5
389.612	85.5
389.837	84.5
390.062	78.5
390.287	86.5
390.512	101.5
390.736	92.5
390.961	82.5
391.186	68.5
391.411	68.5
391.636	81.5
391.86	92.5
392.085	77.5
392.31	89.5
392.534	85.5
392.759	83.5
392.984	80.5
393.208	107.5
393.433	105.5
393.658	96.5
393.882	93.5
394.107	84.5
394.331	93.5
394.556	96.5
394.78	100.5
395.005	91.5
395.229	78.5
395.454	82.5
395.678	80.5
395.903	91.5
396.127	98.5
396.352	87.5
396.576	102.5
396.801	96.5
397.025	119.5
397.249	95.5
397.474	99.5
397.698	88.5
397.922	82.5
398.147	77.5
398.371	86.5
398.595	87.5
398.82	90.5
399.044	90.5
399.268	84.5
399.492	86.5
399.717	92.5
399.941	91.5
400.165	77.5
400.389	72.5
400.613	69.5
400.837	73.5
401.062	72.5
401.286	84.5
401.51	87.5
401.734	69.5
401.958	70.5
402.182	65.5
402.406	80.5
402.63	88.5
402.854	83.5
403.078	73.5
403.302	62.5
403.526	84.5
403.75	70.5
403.974	87.5
404.198	88.5
404.422	107.5
404.645	91.5
404.869	99.5
405.093	84.5
405.317	78.5
405.541	96.5
405.765	77.5
405.988	70.5
406.212	89.5
406.436	79.5
406.66	91.5
406.883	94.5
407.107	81.5
407.331	79.5
407.555	83.5
407.778	89.5
408.002	79.5
408.226	78.5
408.449	61.5
408.673	68.5
408.896	79.5
409.12	84.5
409.344	93.5
409.567	100.5
409.791	99.5
410.014	89.5
410.238	89.5
410.461	67.5
410.685	78.5
410.908	74.5
411.132	84.5
411.355	85.5
411.578	89.5
411.802	86.5
412.025	79.5
412.249	86.5
412.472	78.5
412.695	77.5
412.919	89.5
413.142	75.5
413.365	89.5
413.589	74.5
413.812	82.5
414.035	87.5
414.258	71.5
414.482	81.5
414.705	72.5
414.928	71.5
415.151	73.5
415.374	89.5
415.597	88.5
415.821	96.5
416.044	87.5
416.267	89.5
416.49	69.5
416.713	78.5
416.936	69.5
417.159	87.5
417.382	80.5
417.605	75.5
417.828	84.5
418.051	77.5
418.274	99.5
418.497	74.5
418.72	73.5
418.943	84.5
419.166	85.5
419.389	80.5
419.611	92.5
419.834	80.5
420.057	77.5
420.28	87.5
420.503	95.5
420.726	77.5
420.948	92.5
421.171	70.5
421.394	85.5
421.617	77.5
421.839	82.5
422.062	94.5
422.285	88.5
422.507	117.5
422.73	140.5
422.953	136.5
423.175	102.5
423.398	99.5
423.621	84.5
423.843	87.5
424.066	86.5
424.288	75.5
424.511	86.5
424.733	79.5
424.956	75.5
425.178	90.5
425.401	81.5
425.623	81.5
425.846	83.5
426.068	79.5
426.291	84.5
426.513	99.5
426.735	90.5
426.958	85.5
427.18	70.5
427.402	76.5
427.625	78.5
427.847	83.5
428.069	82.5
428.292	83.5
428.514	93.5
428.736	100.5
428.958	102.5
429.181	81.5
429.403	69.5
429.625	91.5
429.847	94.5
430.069	90.5
430.292	110.5
430.514	105.5
430.736	77.5
430.958	80.5
431.18	81.5
431.402	90.5
431.624	98.5
431.846	72.5
432.068	87.5
432.29	80.5
432.512	76.5
432.734	80.5
432.956	78.5
433.178	78.5
433.4	71.5
433.622	94.5
433.844	78.5
434.066	80.5
434.287	75.5
434.509	72.5
434.731	97.5
434.953	96.5
435.175	90.5
435.397	87.5
435.618	86.5
435.84	63.5
436.062	83.5
436.284	87.5
436.505	84.5
436.727	91.5
436.949	86.5
437.17	79.5
437.392	70.5
437.614	82.5
437.835	72.5
438.057	75.5
438.278	87.5
438.5	86.5
438.721	72.5
438.943	87.5
439.165	78.5
439.386	77.5
439.608	94.5
439.829	83.5
440.05	77.5
440.272	83.5
440.493	80.5
440.715	74.5
440.936	94.5
441.158	90.5
441.379	87.5
441.6	85.5
441.822	77.5
442.043	86.5
442.264	80.5
442.486	97.5
442.707	86.5
442.928	86.5
443.149	85.5
443.371	102.5
443.592	118.5
443.813	112.5
444.034	86.5
444.255	86.5
444.476	87.5
444.698	80.5
444.919	78.5
445.14	128.5
445.361	153.5
445.582	142.5
445.803	105.5
446.024	91.5
446.245	75.5
446.466	86.5
446.687	86.5
446.908	89.5
447.129	75.5
447.35	80.5
447.571	88.5
447.792	74.5
448.013	82.5
448.234	80.5
448.455	82.5
448.675	79.5
448.896	68.5
449.117	90.5
449.338	75.5
449.559	73.5
449.779	74.5
450	74.5
450.221	84.5
450.442	64.5
450.662	74.5
450.883	66.5
451.104	91.5
451.324	87.5
451.545	98.5
451.766	73.5
451.986	74.5
452.207	87.5
452.428	77.5
452.648	75.5
452.869	88.5
453.089	86.5
453.31	87.5
453.53	83.5
453.751	91.5
453.971	83.5
454.192	69.5
454.412	84.5
454.633	75.5
454.853	77.5
455.073	75.5
455.294	61.5
455.514	80.5
455.734	81.5
455.955	86.5
456.175	91.5
456.395	75.5
456.616	88.5
456.836	83.5
457.056	84.5
457.276	82.5
457.497	72.5
457.717	83.5
457.937	75.5
458.157	79.5
458.377	87.5
458.598	78.5
458.818	85.5
459.038	73.5
459.258	70.5
459.478	80.5
459.698	74.5
459.918	95.5
460.138	77.5
460.358	74.5
460.578	78.5
460.798	94.5
461.018	88.5
461.238	67.5
461.458	94.5
461.678	102.5
461.898	89.5
462.118	91.5
462.338	89.5
462.558	75.5
462.777	82.5
462.997	88.5
463.217	77.5
463.437	81.5
463.657	84.5
463.876	79.5
464.096	82.5
464.316	80.5
464.536	79.5
464.755	72.5
464.975	87.5
465.195	71.5
465.414	94.5
465.634	87.5
465.854	76.5
466.073	72.5
466.293	85.5
466.512	85.5
466.732	83.5
466.951	85.5
467.171	82.5
467.391	79.5
467.61	77.5
467.829	81.5
468.049	91.5
468.268	93.5
468.488	79.5
468.707	86.5
468.927	83.5
469.146	86.5
469.365	85.5
469.585	72.5
469.804	69.5
470.023	80.5
470.243	82.5
470.462	78.5
470.681	75.5
470.901	91.5
471.12	101.5
471.339	94.5
471.558	75.5
471.777	67.5
471.997	74.5
472.216	85.5
472.435	70.5
472.654	69.5
472.873	86.5
473.092	82.5
473.311	85.5
473.53	82.5
473.749	71.5
473.968	83.5
474.187	79.5
474.406	84.5
474.625	88.5
474.844	75.5
475.063	89.5
475.282	70.5
475.501	82.5
475.72	68.5
475.939	85.5
476.158	86.5
476.377	78.5
476.596	84.5
476.814	96.5
477.033	106.5
477.252	89.5
477.471	79.5
477.69	68.5
477.908	68.5
478.127	78.5
478.346	89.5
478.564	83.5
478.783	86.5
479.002	87.5
479.22	94.5
479.439	88.5
479.658	92.5
479.876	93.5
480.095	81.5
480.313	91.5
480.532	79.5
480.751	79.5
480.969	82.5
481.188	80.5
481.406	89.5
481.624	91.5
481.843	85.5
482.061	86.5
482.28	88.5
482.498	73.5
482.717	87.5
482.935	73.5
483.153	70.5
483.372	79.5
483.59	74.5
483.808	79.5
484.027	85.5
484.245	87.5
484.463	82.5
484.681	87.5
484.9	81.5
485.118	82.5
485.336	81.5
485.554	79.5
485.772	81.5
485.99	95.5
486.209	87.5
486.427	81.5
486.645	77.5
486.863	82.5
487.081	82.5
487.299	80.5
487.517	87.5
487.735	94.5
487.953	84.5
488.171	88.5
488.389	87.5
488.607	94.5
488.825	74.5
489.043	78.5
489.261	71.5
489.479	84.5
489.696	97.5
489.914	82.5
490.132	90.5
490.35	86.5
490.568	75.5
490.786	90.5
491.003	87.5
491.221	84.5
491.439	109.5
491.657	96.5
491.874	104.5
492.092	86.5
492.31	80.5
492.527	91.5
492.745	83.5
492.963	79.5
493.18	77.5
493.398	91.5
493.615	71.5
493.833	85.5
494.05	78.5
494.268	81.5
494.485	75.5
494.703	73.5
494.92	77.5
495.138	99.5
495.355	95.5
495.573	94.5
495.79	85.5
496.008	75.5
496.225	95.5
496.442	98.5
496.66	84.5
496.877	96.5
497.094	80.5
497.312	86.5
497.529	79.5
497.746	98.5
497.963	92.5
498.181	82.5
498.398	80.5
498.615	84.5
498.832	72.5
499.049	82.5
499.267	93.5
499.484	94.5
499.701	87.5
499.918	72.5
500.135	94.5
500.352	78.5
500.569	81.5
500.786	87.5
501.003	83.5
501.22	86.5
501.437	84.5
501.654	70.5
501.871	75.5
502.088	92.5
502.305	74.5
502.522	87.5
502.739	75.5
502.956	79.5
503.172	88.5
503.389	85.5
503.606	72.5
503.823	81.5
504.04	80.5
504.256	79.5
504.473	96.5
504.69	99.5
504.907	84.5
505.123	88.5
505.34	83.5
505.557	91.5
505.773	74.5
505.99	81.5
506.207	84.5
506.423	85.5
506.64	67.5
506.856	81.5
507.073	104.5
507.289	92.5
507.506	82.5
507.722	79.5
507.939	77.5
508.155	93.5
508.372	86.5
508.588	78.5
508.805	94.5
509.021	92.5
509.238	92.5
509.454	91.5
509.67	80.5
509.887	81.5
510.103	93.5
510.319	87.5
510.536	94.5
510.752	73.5
510.968	93.5
511.184	69.5
511.401	84.5
511.617	85.5
511.833	91.5
512.049	91.5
512.265	89.5
512.481	72.5
512.698	79.5
512.914	85.5
513.13	95.5
513.346	91.5
513.562	72.5
513.778	85.5
513.994	72.5
514.21	90.5
514.426	92.5
514.642	90.5
514.858	86.5
515.074	83.5
515.29	95.5
515.506	99.5
515.721	78.5
515.937	85.5
516.153	85.5
516.369	78.5
516.585	87.5
516.801	72.5
517.016	84.5
517.232	86.5
517.448	89.5
517.664	86.5
517.879	92.5
518.095	86.5
518.311	101.5
518.527	90.5
518.742	92.5
518.958	98.5
519.173	101.5
519.389	80.5
519.605	95.5
519.82	86.5
520.036	76.5
520.251	79.5
520.467	64.5
520.682	75.5
520.898	101.5
521.113	68.5
521.329	82.5
521.544	80.5
521.76	91.5
521.975	82.5
522.19	83.5
522.406	77.5
522.621	76.5
522.836	86.5
523.052	84.5
523.267	98.5
523.482	86.5
523.698	73.5
523.913	98.5
524.128	75.5
524.343	85.5
524.559	85.5
524.774	86.5
524.989	90.5
525.204	85.5
525.419	99.5
525.634	88.5
525.849	93.5
526.064	88.5
526.28	113.5
526.495	115.5
526.71	123.5
526.925	118.5
527.14	126.5
527.355	122.5
527.57	78.5
527.785	79.5
527.999	69.5
528.214	92.5
528.429	80.5
528.644	80.5
528.859	89.5
529.074	94.5
529.289	76.5
529.503	90.5
529.718	90.5
529.933	88.5
530.148	74.5
530.363	87.5
530.577	75.5
530.792	86.5
531.007	69.5
531.221	80.5
531.436	69.5
531.651	98.5
531.865	81.5
532.08	88.5
532.295	98.5
532.509	89.5
532.724	87.5
532.938	75.5
533.153	92.5
533.367	82.5
533.582	88.5
533.796	76.5
534.011	86.5
534.225	95.5
534.44	90.5
534.654	84.5
534.868	76.5
535.083	106.5
535.297	92.5
535.511	91.5
535.726	100.5
535.94	84.5
536.154	79.5
536.369	82.5
536.583	85.5
536.797	86.5
537.011	80.5
537.225	73.5
537.44	87.5
537.654	91.5
537.868	76.5
538.082	73.5
538.296	78.5
538.51	89.5
538.724	92.5
538.938	98.5
539.153	92.5
539.367	98.5
539.581	97.5
539.795	81.5
540.009	86.5
