Data from Mixheat3_HRD10591_00016.txt Node
Date: Fri Dec 27 15:10:38 EST 2024
User: Yrep
Spectrometer: HR+D1059
Trigger mode: 1
Integration Time (sec): 1.000000E-1
Scans to average: 1
Electric dark correction enabled: true
Nonlinearity correction enabled: false
Boxcar width: 0
XAxis mode: Wavelengths
Number of Pixels in Spectrum: 2048
>>>>>Begin Spectral Data<<<<<
223.165	-8.56
223.4	-8.56
223.635	-8.56
223.869	-32.56
224.104	-23.56
224.338	-12.56
224.573	-13.56
224.808	-19.56
225.042	2.44
225.277	7.44
225.511	-2.56
225.746	21.44
225.98	8.44
226.215	-6.56
226.449	22.44
226.683	15.44
226.918	17.44
227.152	24.44
227.387	33.44
227.621	36.44
227.856	47.44
228.09	41.44
228.324	64.44
228.559	54.44
228.793	62.44
229.027	72.44
229.262	56.44
229.496	61.44
229.73	62.44
229.964	71.44
230.199	84.44
230.433	64.44
230.667	62.44
230.901	60.44
231.136	76.44
231.37	84.44
231.604	73.44
231.838	84.44
232.072	61.44
232.306	75.44
232.541	84.44
232.775	79.44
233.009	61.44
233.243	76.44
233.477	75.44
233.711	64.44
233.945	70.44
234.179	79.44
234.413	66.44
234.647	84.44
234.881	80.44
235.115	85.44
235.349	79.44
235.583	68.44
235.817	78.44
236.051	75.44
236.285	72.44
236.519	76.44
236.753	63.44
236.987	74.44
237.221	62.44
237.455	70.44
237.689	67.44
237.922	71.44
238.156	72.44
238.39	81.44
238.624	76.44
238.858	87.44
239.091	78.44
239.325	68.44
239.559	74.44
239.793	73.44
240.027	77.44
240.26	54.44
240.494	67.44
240.728	79.44
240.961	80.44
241.195	87.44
241.429	78.44
241.662	80.44
241.896	65.44
242.13	71.44
242.363	64.44
242.597	68.44
242.83	60.44
243.064	76.44
243.298	68.44
243.531	66.44
243.765	66.44
243.998	62.44
244.232	58.44
244.465	75.44
244.699	69.44
244.932	70.44
245.166	67.44
245.399	69.44
245.633	96.44
245.866	85.44
246.099	73.44
246.333	69.44
246.566	76.44
246.8	71.44
247.033	87.44
247.266	75.44
247.5	74.44
247.733	87.44
247.966	72.44
248.2	75.44
248.433	68.44
248.666	73.44
248.899	75.44
249.133	73.44
249.366	75.44
249.599	70.44
249.832	97.44
250.066	78.44
250.299	76.44
250.532	74.44
250.765	67.44
250.998	80.44
251.231	76.44
251.465	71.44
251.698	65.44
251.931	76.44
252.164	71.44
252.397	77.44
252.63	69.44
252.863	71.44
253.096	76.44
253.329	71.44
253.562	67.44
253.795	72.44
254.028	71.44
254.261	68.44
254.494	67.44
254.727	88.44
254.96	81.44
255.193	73.44
255.426	66.44
255.659	75.44
255.892	87.44
256.124	67.44
256.357	78.44
256.59	84.44
256.823	74.44
257.056	72.44
257.289	67.44
257.521	69.44
257.754	59.44
257.987	73.44
258.22	87.44
258.452	79.44
258.685	60.44
258.918	74.44
259.151	68.44
259.383	70.44
259.616	67.44
259.849	85.44
260.081	81.44
260.314	82.44
260.547	72.44
260.779	82.44
261.012	74.44
261.244	76.44
261.477	75.44
261.71	75.44
261.942	71.44
262.175	59.44
262.407	81.44
262.64	85.44
262.872	90.44
263.105	78.44
263.337	76.44
263.57	67.44
263.802	87.44
264.035	75.44
264.267	47.44
264.499	67.44
264.732	80.44
264.964	73.44
265.197	82.44
265.429	74.44
265.661	79.44
265.894	76.44
266.126	70.44
266.358	72.44
266.591	75.44
266.823	76.44
267.055	77.44
267.287	84.44
267.52	75.44
267.752	79.44
267.984	67.44
268.216	92.44
268.448	76.44
268.681	82.44
268.913	79.44
269.145	80.44
269.377	69.44
269.609	77.44
269.841	81.44
270.073	80.44
270.306	83.44
270.538	64.44
270.77	69.44
271.002	63.44
271.234	81.44
271.466	73.44
271.698	74.44
271.93	76.44
272.162	77.44
272.394	84.44
272.626	83.44
272.858	82.44
273.09	82.44
273.322	85.44
273.553	73.44
273.785	81.44
274.017	84.44
274.249	71.44
274.481	76.44
274.713	71.44
274.945	82.44
275.176	78.44
275.408	74.44
275.64	74.44
275.872	78.44
276.104	73.44
276.335	83.44
276.567	75.44
276.799	79.44
277.031	68.44
277.262	71.44
277.494	67.44
277.726	74.44
277.957	86.44
278.189	84.44
278.421	60.44
278.652	77.44
278.884	78.44
279.115	72.44
279.347	92.44
279.579	84.44
279.81	75.44
280.042	71.44
280.273	80.44
280.505	75.44
280.736	79.44
280.968	75.44
281.199	67.44
281.431	76.44
281.662	81.44
281.894	78.44
282.125	88.44
282.356	71.44
282.588	76.44
282.819	77.44
283.051	69.44
283.282	80.44
283.513	84.44
283.745	67.44
283.976	64.44
284.207	75.44
284.439	71.44
284.67	85.44
284.901	93.44
285.132	97.44
285.364	74.44
285.595	86.44
285.826	80.44
286.057	77.44
286.288	80.44
286.52	64.44
286.751	82.44
286.982	81.44
287.213	73.44
287.444	76.44
287.675	81.44
287.906	83.44
288.138	81.44
288.369	76.44
288.6	76.44
288.831	72.44
289.062	79.44
289.293	73.44
289.524	79.44
289.755	86.44
289.986	71.44
290.217	73.44
290.448	81.44
290.679	81.44
290.91	84.44
291.141	81.44
291.371	81.44
291.602	90.44
291.833	74.44
292.064	89.44
292.295	97.44
292.526	84.44
292.757	81.44
292.987	89.44
293.218	78.44
293.449	75.44
293.68	88.44
293.91	87.44
294.141	97.44
294.372	82.44
294.603	69.44
294.833	88.44
295.064	81.44
295.295	82.44
295.525	76.44
295.756	83.44
295.987	79.44
296.217	84.44
296.448	80.44
296.679	80.44
296.909	78.44
297.14	75.44
297.37	82.44
297.601	73.44
297.831	77.44
298.062	68.44
298.292	80.44
298.523	76.44
298.753	78.44
298.984	77.44
299.214	88.44
299.445	73.44
299.675	75.44
299.905	83.44
300.136	72.44
300.366	76.44
300.597	80.44
300.827	77.44
301.057	85.44
301.288	88.44
301.518	67.44
301.748	76.44
301.979	95.44
302.209	71.44
302.439	84.44
302.669	85.44
302.9	91.44
303.13	81.44
303.36	97.44
303.59	86.44
303.82	78.44
304.051	89.44
304.281	85.44
304.511	79.44
304.741	84.44
304.971	92.44
305.201	83.44
305.431	73.44
305.661	78.44
305.891	79.44
306.121	84.44
306.352	61.44
306.582	73.44
306.812	91.44
307.042	88.44
307.272	80.44
307.502	73.44
307.731	78.44
307.961	72.44
308.191	96.44
308.421	81.44
308.651	87.44
308.881	68.44
309.111	92.44
309.341	76.44
309.571	84.44
309.8	83.44
310.03	80.44
310.26	80.44
310.49	75.44
310.72	58.44
310.949	83.44
311.179	64.44
311.409	87.44
311.639	78.44
311.868	72.44
312.098	74.44
312.328	103.44
312.557	83.44
312.787	75.44
313.017	86.44
313.246	72.44
313.476	80.44
313.706	80.44
313.935	79.44
314.165	72.44
314.394	76.44
314.624	83.44
314.853	87.44
315.083	73.44
315.312	77.44
315.542	75.44
315.771	90.44
316.001	75.44
316.23	69.44
316.46	66.44
316.689	78.44
316.919	86.44
317.148	76.44
317.377	93.44
317.607	84.44
317.836	75.44
318.065	82.44
318.295	85.44
318.524	95.44
318.753	86.44
318.983	75.44
319.212	74.44
319.441	80.44
319.67	72.44
319.9	70.44
320.129	73.44
320.358	86.44
320.587	86.44
320.816	83.44
321.046	91.44
321.275	75.44
321.504	83.44
321.733	78.44
321.962	75.44
322.191	82.44
322.42	87.44
322.649	71.44
322.878	75.44
323.108	85.44
323.337	81.44
323.566	66.44
323.795	85.44
324.024	96.44
324.253	86.44
324.482	76.44
324.71	78.44
324.939	90.44
325.168	88.44
325.397	71.44
325.626	79.44
325.855	74.44
326.084	81.44
326.313	76.44
326.542	79.44
326.77	68.44
326.999	67.44
327.228	80.44
327.457	75.44
327.686	84.44
327.914	66.44
328.143	71.44
328.372	68.44
328.6	79.44
328.829	75.44
329.058	86.44
329.287	86.44
329.515	71.44
329.744	82.44
329.972	81.44
330.201	81.44
330.43	72.44
330.658	58.44
330.887	70.44
331.115	72.44
331.344	67.44
331.572	84.44
331.801	71.44
332.03	60.44
332.258	82.44
332.486	78.44
332.715	86.44
332.943	70.44
333.172	86.44
333.4	71.44
333.629	90.44
333.857	91.44
334.085	61.44
334.314	82.44
334.542	72.44
334.771	72.44
334.999	72.44
335.227	77.44
335.455	79.44
335.684	89.44
335.912	88.44
336.14	88.44
336.369	95.44
336.597	84.44
336.825	79.44
337.053	65.44
337.281	87.44
337.51	74.44
337.738	76.44
337.966	76.44
338.194	75.44
338.422	72.44
338.65	80.44
338.878	81.44
339.106	83.44
339.334	91.44
339.562	77.44
339.79	82.44
340.018	84.44
340.246	72.44
340.474	86.44
340.702	69.44
340.93	69.44
341.158	69.44
341.386	76.44
341.614	70.44
341.842	90.44
342.07	79.44
342.298	84.44
342.526	84.44
342.754	77.44
342.981	75.44
343.209	67.44
343.437	99.44
343.665	85.44
343.893	74.44
344.12	77.44
344.348	84.44
344.576	86.44
344.804	85.44
345.031	81.44
345.259	82.44
345.487	66.44
345.714	68.44
345.942	78.44
346.17	71.44
346.397	84.44
346.625	70.44
346.853	83.44
347.08	71.44
347.308	99.44
347.535	87.44
347.763	95.44
347.99	72.44
348.218	86.44
348.445	74.44
348.673	76.44
348.9	80.44
349.128	80.44
349.355	72.44
349.583	71.44
349.81	74.44
350.037	77.44
350.265	81.44
350.492	88.44
350.72	69.44
350.947	88.44
351.174	75.44
351.402	73.44
351.629	86.44
351.856	82.44
352.083	76.44
352.311	85.44
352.538	86.44
352.765	67.44
352.992	75.44
353.22	80.44
353.447	82.44
353.674	74.44
353.901	80.44
354.128	81.44
354.355	87.44
354.583	81.44
354.81	82.44
355.037	90.44
355.264	80.44
355.491	82.44
355.718	65.44
355.945	79.44
356.172	83.44
356.399	85.44
356.626	83.44
356.853	76.44
357.08	73.44
357.307	64.44
357.534	79.44
357.761	82.44
357.988	87.44
358.215	63.44
358.441	77.44
358.668	71.44
358.895	81.44
359.122	75.44
359.349	83.44
359.576	78.44
359.802	76.44
360.029	79.44
360.256	81.44
360.483	88.44
360.709	82.44
360.936	86.44
361.163	72.44
361.39	68.44
361.616	83.44
361.843	91.44
362.07	80.44
362.296	86.44
362.523	72.44
362.749	83.44
362.976	88.44
363.203	88.44
363.429	83.44
363.656	84.44
363.882	83.44
364.109	85.44
364.335	85.44
364.562	79.44
364.788	68.44
365.015	68.44
365.241	76.44
365.468	91.44
365.694	72.44
365.92	94.44
366.147	79.44
366.373	91.44
366.599	76.44
366.826	85.44
367.052	84.44
367.278	69.44
367.505	82.44
367.731	83.44
367.957	69.44
368.184	76.44
368.41	64.44
368.636	72.44
368.862	94.44
369.089	76.44
369.315	71.44
369.541	89.44
369.767	85.44
369.993	92.44
370.219	64.44
370.445	67.44
370.672	71.44
370.898	73.44
371.124	77.44
371.35	74.44
371.576	74.44
371.802	81.44
372.028	76.44
372.254	75.44
372.48	91.44
372.706	70.44
372.932	78.44
373.158	69.44
373.384	83.44
373.61	84.44
373.835	89.44
374.061	75.44
374.287	81.44
374.513	65.44
374.739	77.44
374.965	81.44
375.191	85.44
375.416	85.44
375.642	90.44
375.868	85.44
376.094	84.44
376.319	72.44
376.545	76.44
376.771	61.44
376.997	83.44
377.222	84.44
377.448	84.44
377.674	80.44
377.899	80.44
378.125	96.44
378.35	80.44
378.576	90.44
378.802	83.44
379.027	72.44
379.253	77.44
379.478	87.44
379.704	77.44
379.929	67.44
380.155	92.44
380.38	76.44
380.606	76.44
380.831	84.44
381.057	90.44
381.282	87.44
381.507	69.44
381.733	72.44
381.958	74.44
382.184	73.44
382.409	77.44
382.634	74.44
382.86	65.44
383.085	94.44
383.31	77.44
383.535	81.44
383.761	79.44
383.986	78.44
384.211	78.44
384.436	94.44
384.662	68.44
384.887	79.44
385.112	79.44
385.337	85.44
385.562	74.44
385.787	62.44
386.013	76.44
386.238	62.44
386.463	80.44
386.688	88.44
386.913	74.44
387.138	75.44
387.363	67.44
387.588	93.44
387.813	87.44
388.038	73.44
388.263	72.44
388.488	83.44
388.713	87.44
388.938	86.44
389.163	88.44
389.387	72.44
389.612	88.44
389.837	75.44
390.062	92.44
390.287	75.44
390.512	70.44
390.736	85.44
390.961	81.44
391.186	76.44
391.411	85.44
391.636	77.44
391.86	88.44
392.085	85.44
392.31	65.44
392.534	79.44
392.759	79.44
392.984	87.44
393.208	87.44
393.433	108.44
393.658	91.44
393.882	75.44
394.107	82.44
394.331	78.44
394.556	76.44
394.78	89.44
395.005	82.44
395.229	75.44
395.454	77.44
395.678	74.44
395.903	81.44
396.127	85.44
396.352	80.44
396.576	81.44
396.801	84.44
397.025	95.44
397.249	92.44
397.474	88.44
397.698	73.44
397.922	84.44
398.147	71.44
398.371	78.44
398.595	74.44
398.82	83.44
399.044	84.44
399.268	90.44
399.492	74.44
399.717	75.44
399.941	81.44
400.165	85.44
400.389	74.44
400.613	90.44
400.837	76.44
401.062	77.44
401.286	72.44
401.51	70.44
401.734	74.44
401.958	80.44
402.182	87.44
402.406	79.44
402.63	84.44
402.854	65.44
403.078	73.44
403.302	90.44
403.526	81.44
403.75	67.44
403.974	73.44
404.198	87.44
404.422	115.44
404.645	112.44
404.869	119.44
405.093	87.44
405.317	71.44
405.541	76.44
405.765	88.44
405.988	55.44
406.212	79.44
406.436	58.44
406.66	77.44
406.883	77.44
407.107	67.44
407.331	75.44
407.555	68.44
407.778	84.44
408.002	79.44
408.226	85.44
408.449	76.44
408.673	69.44
408.896	86.44
409.12	83.44
409.344	68.44
409.567	86.44
409.791	84.44
410.014	85.44
410.238	76.44
410.461	90.44
410.685	80.44
410.908	74.44
411.132	67.44
411.355	61.44
411.578	61.44
411.802	76.44
412.025	63.44
412.249	88.44
412.472	64.44
412.695	80.44
412.919	67.44
413.142	78.44
413.365	74.44
413.589	84.44
413.812	78.44
414.035	77.44
414.258	82.44
414.482	80.44
414.705	77.44
414.928	82.44
415.151	67.44
415.374	90.44
415.597	86.44
415.821	81.44
416.044	90.44
416.267	77.44
416.49	64.44
416.713	73.44
416.936	89.44
417.159	80.44
417.382	75.44
417.605	81.44
417.828	90.44
418.051	75.44
418.274	80.44
418.497	86.44
418.72	80.44
418.943	83.44
419.166	72.44
419.389	66.44
419.611	56.44
419.834	66.44
420.057	77.44
420.28	60.44
420.503	85.44
420.726	73.44
420.948	97.44
421.171	76.44
421.394	69.44
421.617	76.44
421.839	83.44
422.062	74.44
422.285	92.44
422.507	124.44
422.73	136.44
422.953	121.44
423.175	98.44
423.398	74.44
423.621	89.44
423.843	78.44
424.066	87.44
424.288	83.44
424.511	74.44
424.733	76.44
424.956	69.44
425.178	68.44
425.401	88.44
425.623	68.44
425.846	71.44
426.068	69.44
426.291	89.44
426.513	86.44
426.735	66.44
426.958	79.44
427.18	77.44
427.402	67.44
427.625	74.44
427.847	75.44
428.069	67.44
428.292	83.44
428.514	101.44
428.736	83.44
428.958	93.44
429.181	93.44
429.403	76.44
429.625	75.44
429.847	109.44
430.069	102.44
430.292	109.44
430.514	98.44
430.736	75.44
430.958	88.44
431.18	75.44
431.402	80.44
431.624	88.44
431.846	81.44
432.068	83.44
432.29	93.44
432.512	83.44
432.734	73.44
432.956	95.44
433.178	89.44
433.4	83.44
433.622	70.44
433.844	73.44
434.066	85.44
434.287	76.44
434.509	76.44
434.731	80.44
434.953	72.44
435.175	74.44
435.397	76.44
435.618	79.44
435.84	69.44
436.062	59.44
436.284	72.44
436.505	70.44
436.727	76.44
436.949	75.44
437.17	82.44
437.392	76.44
437.614	72.44
437.835	79.44
438.057	82.44
438.278	73.44
438.5	73.44
438.721	86.44
438.943	83.44
439.165	72.44
439.386	74.44
439.608	68.44
439.829	69.44
440.05	84.44
440.272	70.44
440.493	87.44
440.715	74.44
440.936	75.44
441.158	65.44
441.379	82.44
441.6	72.44
441.822	76.44
442.043	83.44
442.264	76.44
442.486	103.44
442.707	105.44
442.928	90.44
443.149	93.44
443.371	96.44
443.592	108.44
443.813	114.44
444.034	78.44
444.255	83.44
444.476	71.44
444.698	87.44
444.919	82.44
445.14	138.44
445.361	122.44
445.582	131.44
445.803	88.44
446.024	68.44
446.245	79.44
446.466	73.44
446.687	76.44
446.908	75.44
447.129	76.44
447.35	74.44
447.571	75.44
447.792	81.44
448.013	80.44
448.234	76.44
448.455	66.44
448.675	77.44
448.896	75.44
449.117	65.44
449.338	83.44
449.559	80.44
449.779	79.44
450	74.44
450.221	83.44
450.442	87.44
450.662	86.44
450.883	83.44
451.104	73.44
451.324	83.44
451.545	80.44
451.766	83.44
451.986	79.44
452.207	70.44
452.428	70.44
452.648	83.44
452.869	73.44
453.089	73.44
453.31	73.44
453.53	84.44
453.751	88.44
453.971	80.44
454.192	75.44
454.412	63.44
454.633	75.44
454.853	77.44
455.073	72.44
455.294	69.44
455.514	83.44
455.734	77.44
455.955	80.44
456.175	67.44
456.395	86.44
456.616	86.44
456.836	77.44
457.056	75.44
457.276	79.44
457.497	76.44
457.717	85.44
457.937	85.44
458.157	79.44
458.377	72.44
458.598	75.44
458.818	87.44
459.038	66.44
459.258	71.44
459.478	79.44
459.698	76.44
459.918	67.44
460.138	78.44
460.358	79.44
460.578	68.44
460.798	90.44
461.018	95.44
461.238	87.44
461.458	77.44
461.678	80.44
461.898	77.44
462.118	87.44
462.338	87.44
462.558	79.44
462.777	88.44
462.997	75.44
463.217	76.44
463.437	85.44
463.657	90.44
463.876	60.44
464.096	80.44
464.316	70.44
464.536	69.44
464.755	87.44
464.975	71.44
465.195	89.44
465.414	75.44
465.634	73.44
465.854	72.44
466.073	73.44
466.293	71.44
466.512	85.44
466.732	79.44
466.951	77.44
467.171	70.44
467.391	68.44
467.61	72.44
467.829	91.44
468.049	90.44
468.268	74.44
468.488	71.44
468.707	87.44
468.927	78.44
469.146	83.44
469.365	65.44
469.585	76.44
469.804	79.44
470.023	74.44
470.243	71.44
470.462	81.44
470.681	78.44
470.901	79.44
471.12	78.44
471.339	77.44
471.558	81.44
471.777	73.44
471.997	78.44
472.216	79.44
472.435	73.44
472.654	89.44
472.873	76.44
473.092	73.44
473.311	85.44
473.53	78.44
473.749	78.44
473.968	84.44
474.187	81.44
474.406	73.44
474.625	71.44
474.844	93.44
475.063	60.44
475.282	65.44
475.501	84.44
475.72	79.44
475.939	78.44
476.158	86.44
476.377	103.44
476.596	79.44
476.814	83.44
477.033	71.44
477.252	93.44
477.471	79.44
477.69	71.44
477.908	89.44
478.127	89.44
478.346	76.44
478.564	86.44
478.783	77.44
479.002	71.44
479.22	80.44
479.439	83.44
479.658	79.44
479.876	74.44
480.095	65.44
480.313	87.44
480.532	80.44
480.751	72.44
480.969	78.44
481.188	93.44
481.406	83.44
481.624	86.44
481.843	88.44
482.061	74.44
482.28	88.44
482.498	88.44
482.717	77.44
482.935	68.44
483.153	84.44
483.372	86.44
483.59	87.44
483.808	72.44
484.027	85.44
484.245	71.44
484.463	82.44
484.681	96.44
484.9	72.44
485.118	95.44
485.336	88.44
485.554	87.44
485.772	84.44
485.99	82.44
486.209	85.44
486.427	75.44
486.645	72.44
486.863	90.44
487.081	73.44
487.299	81.44
487.517	83.44
487.735	89.44
487.953	76.44
488.171	92.44
488.389	80.44
488.607	69.44
488.825	79.44
489.043	79.44
489.261	80.44
489.479	83.44
489.696	81.44
489.914	75.44
490.132	85.44
490.35	85.44
490.568	81.44
490.786	76.44
491.003	72.44
491.221	81.44
491.439	81.44
491.657	76.44
491.874	73.44
492.092	75.44
492.31	75.44
492.527	71.44
492.745	86.44
492.963	78.44
493.18	89.44
493.398	67.44
493.615	88.44
493.833	78.44
494.05	70.44
494.268	85.44
494.485	86.44
494.703	76.44
494.92	76.44
495.138	81.44
495.355	92.44
495.573	92.44
495.79	75.44
496.008	75.44
496.225	83.44
496.442	84.44
496.66	75.44
496.877	86.44
497.094	91.44
497.312	82.44
497.529	83.44
497.746	84.44
497.963	80.44
498.181	97.44
498.398	76.44
498.615	84.44
498.832	80.44
499.049	68.44
499.267	94.44
499.484	66.44
499.701	72.44
499.918	89.44
500.135	73.44
500.352	81.44
500.569	70.44
500.786	85.44
501.003	83.44
501.22	72.44
501.437	79.44
501.654	82.44
501.871	79.44
502.088	82.44
502.305	85.44
502.522	77.44
502.739	93.44
502.956	97.44
503.172	82.44
503.389	76.44
503.606	76.44
503.823	81.44
504.04	80.44
504.256	69.44
504.473	91.44
504.69	89.44
504.907	83.44
505.123	85.44
505.34	82.44
505.557	93.44
505.773	103.44
505.99	75.44
506.207	67.44
506.423	77.44
506.64	90.44
506.856	66.44
507.073	71.44
507.289	92.44
507.506	87.44
507.722	85.44
507.939	85.44
508.155	72.44
508.372	78.44
508.588	70.44
508.805	83.44
509.021	87.44
509.238	81.44
509.454	67.44
509.67	82.44
509.887	64.44
510.103	88.44
510.319	82.44
510.536	91.44
510.752	71.44
510.968	80.44
511.184	81.44
511.401	68.44
511.617	70.44
511.833	86.44
512.049	84.44
512.265	72.44
512.481	68.44
512.698	79.44
512.914	78.44
513.13	80.44
513.346	79.44
513.562	78.44
513.778	76.44
513.994	75.44
514.21	82.44
514.426	76.44
514.642	90.44
514.858	81.44
515.074	74.44
515.29	92.44
515.506	78.44
515.721	88.44
515.937	79.44
516.153	70.44
516.369	79.44
516.585	80.44
516.801	85.44
517.016	68.44
517.232	68.44
517.448	75.44
517.664	77.44
517.879	69.44
518.095	75.44
518.311	70.44
518.527	88.44
518.742	82.44
518.958	90.44
519.173	101.44
519.389	75.44
519.605	81.44
519.82	75.44
520.036	84.44
