Data from Mixheat3_HRD10591_00007.txt Node
Date: Fri Dec 27 15:10:29 EST 2024
User: Yrep
Spectrometer: HR+D1059
Trigger mode: 1
Integration Time (sec): 1.000000E-1
Scans to average: 1
Electric dark correction enabled: true
Nonlinearity correction enabled: false
Boxcar width: 0
XAxis mode: Wavelengths
Number of Pixels in Spectrum: 2048
>>>>>Begin Spectral Data<<<<<
223.165	-15.94
223.4	-15.94
223.635	-15.94
223.869	-26.94
224.104	-25.94
224.338	-30.94
224.573	-11.94
224.808	-9.94
225.042	-17.94
225.277	-6.94
225.511	-1.94
225.746	1.06
225.98	17.06
226.215	18.06
226.449	19.06
226.683	34.06
226.918	25.06
227.152	34.06
227.387	34.06
227.621	48.06
227.856	40.06
228.09	42.06
228.324	43.06
228.559	50.06
228.793	58.06
229.027	57.06
229.262	58.06
229.496	75.06
229.73	63.06
229.964	85.06
230.199	78.06
230.433	73.06
230.667	66.06
230.901	82.06
231.136	84.06
231.37	88.06
231.604	81.06
231.838	85.06
232.072	74.06
232.306	84.06
232.541	72.06
232.775	92.06
233.009	97.06
233.243	82.06
233.477	81.06
233.711	81.06
233.945	71.06
234.179	85.06
234.413	81.06
234.647	88.06
234.881	89.06
235.115	79.06
235.349	66.06
235.583	72.06
235.817	83.06
236.051	81.06
236.285	69.06
236.519	68.06
236.753	72.06
236.987	71.06
237.221	73.06
237.455	60.06
237.689	73.06
237.922	78.06
238.156	76.06
238.39	80.06
238.624	62.06
238.858	81.06
239.091	78.06
239.325	72.06
239.559	68.06
239.793	77.06
240.027	79.06
240.26	78.06
240.494	75.06
240.728	76.06
240.961	72.06
241.195	69.06
241.429	74.06
241.662	84.06
241.896	80.06
242.13	91.06
242.363	71.06
242.597	73.06
242.83	73.06
243.064	82.06
243.298	62.06
243.531	62.06
243.765	65.06
243.998	76.06
244.232	78.06
244.465	86.06
244.699	79.06
244.932	72.06
245.166	87.06
245.399	87.06
245.633	76.06
245.866	80.06
246.099	74.06
246.333	62.06
246.566	70.06
246.8	74.06
247.033	78.06
247.266	92.06
247.5	77.06
247.733	62.06
247.966	87.06
248.2	66.06
248.433	73.06
248.666	68.06
248.899	75.06
249.133	83.06
249.366	78.06
249.599	81.06
249.832	78.06
250.066	91.06
250.299	74.06
250.532	77.06
250.765	81.06
250.998	73.06
251.231	89.06
251.465	76.06
251.698	68.06
251.931	82.06
252.164	74.06
252.397	68.06
252.63	89.06
252.863	71.06
253.096	83.06
253.329	76.06
253.562	74.06
253.795	76.06
254.028	78.06
254.261	73.06
254.494	70.06
254.727	77.06
254.96	78.06
255.193	76.06
255.426	79.06
255.659	77.06
255.892	98.06
256.124	80.06
256.357	81.06
256.59	80.06
256.823	88.06
257.056	70.06
257.289	72.06
257.521	64.06
257.754	77.06
257.987	72.06
258.22	82.06
258.452	84.06
258.685	66.06
258.918	73.06
259.151	73.06
259.383	83.06
259.616	92.06
259.849	72.06
260.081	75.06
260.314	82.06
260.547	87.06
260.779	68.06
261.012	72.06
261.244	74.06
261.477	85.06
261.71	78.06
261.942	77.06
262.175	71.06
262.407	76.06
262.64	69.06
262.872	83.06
263.105	84.06
263.337	82.06
263.57	72.06
263.802	74.06
264.035	73.06
264.267	76.06
264.499	69.06
264.732	88.06
264.964	87.06
265.197	76.06
265.429	73.06
265.661	79.06
265.894	67.06
266.126	88.06
266.358	88.06
266.591	86.06
266.823	69.06
267.055	62.06
267.287	68.06
267.52	88.06
267.752	66.06
267.984	79.06
268.216	82.06
268.448	103.06
268.681	82.06
268.913	82.06
269.145	89.06
269.377	98.06
269.609	90.06
269.841	79.06
270.073	77.06
270.306	71.06
270.538	68.06
270.77	90.06
271.002	70.06
271.234	76.06
271.466	81.06
271.698	88.06
271.93	62.06
272.162	82.06
272.394	84.06
272.626	80.06
272.858	80.06
273.09	79.06
273.322	77.06
273.553	89.06
273.785	93.06
274.017	70.06
274.249	69.06
274.481	74.06
274.713	82.06
274.945	71.06
275.176	66.06
275.408	88.06
275.64	71.06
275.872	71.06
276.104	77.06
276.335	85.06
276.567	74.06
276.799	78.06
277.031	77.06
277.262	78.06
277.494	102.06
277.726	77.06
277.957	92.06
278.189	98.06
278.421	83.06
278.652	76.06
278.884	78.06
279.115	84.06
279.347	75.06
279.579	72.06
279.81	68.06
280.042	79.06
280.273	78.06
280.505	78.06
280.736	90.06
280.968	90.06
281.199	69.06
281.431	73.06
281.662	77.06
281.894	92.06
282.125	88.06
282.356	75.06
282.588	91.06
282.819	64.06
283.051	77.06
283.282	81.06
283.513	75.06
283.745	75.06
283.976	82.06
284.207	84.06
284.439	88.06
284.67	80.06
284.901	78.06
285.132	92.06
285.364	91.06
285.595	78.06
285.826	112.06
286.057	88.06
286.288	66.06
286.52	87.06
286.751	69.06
286.982	92.06
287.213	78.06
287.444	84.06
287.675	83.06
287.906	98.06
288.138	83.06
288.369	72.06
288.6	75.06
288.831	80.06
289.062	87.06
289.293	81.06
289.524	93.06
289.755	77.06
289.986	84.06
290.217	86.06
290.448	99.06
290.679	75.06
290.91	69.06
291.141	70.06
291.371	77.06
291.602	84.06
291.833	89.06
292.064	83.06
292.295	91.06
292.526	70.06
292.757	79.06
292.987	78.06
293.218	78.06
293.449	93.06
293.68	93.06
293.91	93.06
294.141	83.06
294.372	82.06
294.603	78.06
294.833	68.06
295.064	77.06
295.295	84.06
295.525	76.06
295.756	78.06
295.987	98.06
296.217	85.06
296.448	88.06
296.679	79.06
296.909	78.06
297.14	71.06
297.37	73.06
297.601	91.06
297.831	84.06
298.062	89.06
298.292	70.06
298.523	94.06
298.753	77.06
298.984	68.06
299.214	79.06
299.445	86.06
299.675	75.06
299.905	83.06
300.136	80.06
300.366	79.06
300.597	77.06
300.827	82.06
301.057	69.06
301.288	89.06
301.518	77.06
301.748	67.06
301.979	96.06
302.209	105.06
302.439	80.06
302.669	96.06
302.9	89.06
303.13	78.06
303.36	87.06
303.59	73.06
303.82	66.06
304.051	88.06
304.281	89.06
304.511	93.06
304.741	77.06
304.971	76.06
305.201	89.06
305.431	71.06
305.661	68.06
305.891	83.06
306.121	84.06
306.352	85.06
306.582	82.06
306.812	80.06
307.042	86.06
307.272	80.06
307.502	95.06
307.731	82.06
307.961	72.06
308.191	76.06
308.421	78.06
308.651	86.06
308.881	85.06
309.111	89.06
309.341	97.06
309.571	76.06
309.8	77.06
310.03	74.06
310.26	80.06
310.49	84.06
310.72	88.06
310.949	83.06
311.179	89.06
311.409	83.06
311.639	80.06
311.868	90.06
312.098	92.06
312.328	76.06
312.557	91.06
312.787	81.06
313.017	87.06
313.246	89.06
313.476	84.06
313.706	85.06
313.935	88.06
314.165	85.06
314.394	69.06
314.624	78.06
314.853	76.06
315.083	97.06
315.312	81.06
315.542	86.06
315.771	77.06
316.001	85.06
316.23	62.06
316.46	84.06
316.689	86.06
316.919	73.06
317.148	85.06
317.377	104.06
317.607	84.06
317.836	73.06
318.065	92.06
318.295	87.06
318.524	78.06
318.753	77.06
318.983	81.06
319.212	86.06
319.441	84.06
319.67	72.06
319.9	82.06
320.129	91.06
320.358	63.06
320.587	74.06
320.816	78.06
321.046	89.06
321.275	86.06
321.504	86.06
321.733	81.06
321.962	93.06
322.191	97.06
322.42	80.06
322.649	97.06
322.878	84.06
323.108	82.06
323.337	80.06
323.566	78.06
323.795	90.06
324.024	87.06
324.253	70.06
324.482	82.06
324.71	88.06
324.939	89.06
325.168	71.06
325.397	76.06
325.626	77.06
325.855	84.06
326.084	62.06
326.313	76.06
326.542	91.06
326.77	88.06
326.999	79.06
327.228	88.06
327.457	82.06
327.686	86.06
327.914	80.06
328.143	79.06
328.372	69.06
328.6	91.06
328.829	80.06
329.058	84.06
329.287	97.06
329.515	75.06
329.744	80.06
329.972	84.06
330.201	86.06
330.43	98.06
330.658	81.06
330.887	74.06
331.115	78.06
331.344	85.06
331.572	74.06
331.801	81.06
332.03	78.06
332.258	87.06
332.486	83.06
332.715	79.06
332.943	76.06
333.172	77.06
333.4	78.06
333.629	87.06
333.857	80.06
334.085	83.06
334.314	82.06
334.542	104.06
334.771	77.06
334.999	66.06
335.227	89.06
335.455	91.06
335.684	77.06
335.912	86.06
336.14	88.06
336.369	89.06
336.597	72.06
336.825	79.06
337.053	85.06
337.281	85.06
337.51	82.06
337.738	73.06
337.966	82.06
338.194	77.06
338.422	83.06
338.65	93.06
338.878	85.06
339.106	78.06
339.334	88.06
339.562	89.06
339.79	99.06
340.018	87.06
340.246	78.06
340.474	86.06
340.702	83.06
340.93	80.06
341.158	91.06
341.386	78.06
341.614	74.06
341.842	86.06
342.07	77.06
342.298	80.06
342.526	77.06
342.754	80.06
342.981	71.06
343.209	88.06
343.437	82.06
343.665	89.06
343.893	79.06
344.12	74.06
344.348	92.06
344.576	75.06
344.804	85.06
345.031	84.06
345.259	78.06
345.487	78.06
345.714	84.06
345.942	63.06
346.17	79.06
346.397	84.06
346.625	90.06
346.853	68.06
347.08	90.06
347.308	84.06
347.535	86.06
347.763	74.06
347.99	81.06
348.218	78.06
348.445	86.06
348.673	84.06
348.9	106.06
349.128	86.06
349.355	87.06
349.583	77.06
349.81	72.06
350.037	78.06
350.265	79.06
350.492	84.06
350.72	94.06
350.947	99.06
351.174	99.06
351.402	78.06
351.629	84.06
351.856	77.06
352.083	90.06
352.311	66.06
352.538	77.06
352.765	84.06
352.992	76.06
353.22	95.06
353.447	83.06
353.674	81.06
353.901	86.06
354.128	92.06
354.355	71.06
354.583	82.06
354.81	75.06
355.037	81.06
355.264	72.06
355.491	80.06
355.718	77.06
355.945	88.06
356.172	81.06
356.399	86.06
356.626	77.06
356.853	81.06
357.08	85.06
357.307	99.06
357.534	86.06
357.761	88.06
357.988	83.06
358.215	83.06
358.441	98.06
358.668	77.06
358.895	84.06
359.122	77.06
359.349	89.06
359.576	91.06
359.802	77.06
360.029	91.06
360.256	90.06
360.483	69.06
360.709	74.06
360.936	84.06
361.163	93.06
361.39	86.06
361.616	87.06
361.843	79.06
362.07	86.06
362.296	78.06
362.523	92.06
362.749	94.06
362.976	85.06
363.203	105.06
363.429	84.06
363.656	105.06
363.882	85.06
364.109	74.06
364.335	82.06
364.562	79.06
364.788	77.06
365.015	86.06
365.241	91.06
365.468	78.06
365.694	71.06
365.92	88.06
366.147	80.06
366.373	74.06
366.599	73.06
366.826	82.06
367.052	84.06
367.278	99.06
367.505	74.06
367.731	95.06
367.957	84.06
368.184	73.06
368.41	101.06
368.636	88.06
368.862	72.06
369.089	88.06
369.315	68.06
369.541	80.06
369.767	96.06
369.993	112.06
370.219	79.06
370.445	88.06
370.672	86.06
370.898	85.06
371.124	87.06
371.35	75.06
371.576	87.06
371.802	80.06
372.028	83.06
372.254	88.06
372.48	82.06
372.706	72.06
372.932	79.06
373.158	82.06
373.384	86.06
373.61	81.06
373.835	96.06
374.061	82.06
374.287	86.06
374.513	85.06
374.739	68.06
374.965	76.06
375.191	81.06
375.416	78.06
375.642	73.06
375.868	81.06
376.094	78.06
376.319	88.06
376.545	75.06
376.771	83.06
376.997	87.06
377.222	78.06
377.448	75.06
377.674	81.06
377.899	91.06
378.125	82.06
378.35	80.06
378.576	84.06
378.802	70.06
379.027	82.06
379.253	83.06
379.478	62.06
379.704	83.06
379.929	68.06
380.155	73.06
380.38	76.06
380.606	84.06
380.831	92.06
381.057	81.06
381.282	83.06
381.507	93.06
381.733	80.06
381.958	87.06
382.184	82.06
382.409	80.06
382.634	82.06
382.86	102.06
383.085	82.06
383.31	83.06
383.535	85.06
383.761	82.06
383.986	85.06
384.211	77.06
384.436	71.06
384.662	66.06
384.887	76.06
385.112	86.06
385.337	77.06
385.562	79.06
385.787	90.06
386.013	79.06
386.238	76.06
386.463	66.06
386.688	102.06
386.913	76.06
387.138	70.06
387.363	86.06
387.588	86.06
387.813	74.06
388.038	85.06
388.263	71.06
388.488	69.06
388.713	81.06
388.938	70.06
389.163	78.06
389.387	78.06
389.612	82.06
389.837	80.06
390.062	74.06
390.287	82.06
390.512	87.06
390.736	82.06
390.961	71.06
391.186	80.06
391.411	74.06
391.636	79.06
391.86	66.06
392.085	83.06
392.31	92.06
392.534	82.06
392.759	78.06
392.984	81.06
393.208	87.06
393.433	105.06
393.658	100.06
393.882	86.06
394.107	78.06
394.331	80.06
394.556	74.06
394.78	82.06
395.005	90.06
395.229	82.06
395.454	76.06
395.678	72.06
395.903	88.06
396.127	86.06
396.352	86.06
396.576	71.06
396.801	86.06
397.025	77.06
397.249	81.06
397.474	76.06
397.698	85.06
397.922	80.06
398.147	81.06
398.371	76.06
398.595	82.06
398.82	85.06
399.044	77.06
399.268	79.06
399.492	76.06
399.717	87.06
399.941	88.06
400.165	94.06
400.389	82.06
400.613	80.06
400.837	77.06
401.062	79.06
401.286	90.06
401.51	69.06
401.734	68.06
401.958	85.06
402.182	86.06
402.406	70.06
402.63	75.06
402.854	74.06
403.078	85.06
403.302	76.06
403.526	68.06
403.75	81.06
403.974	89.06
404.198	98.06
404.422	90.06
404.645	100.06
404.869	78.06
405.093	82.06
405.317	80.06
405.541	90.06
405.765	77.06
405.988	73.06
406.212	84.06
406.436	71.06
406.66	97.06
406.883	83.06
407.107	82.06
407.331	85.06
407.555	85.06
407.778	93.06
408.002	70.06
408.226	61.06
408.449	75.06
408.673	75.06
408.896	71.06
409.12	81.06
409.344	76.06
409.567	78.06
409.791	70.06
410.014	73.06
410.238	88.06
410.461	73.06
410.685	80.06
410.908	83.06
411.132	92.06
411.355	83.06
411.578	77.06
411.802	76.06
412.025	88.06
412.249	81.06
412.472	79.06
412.695	74.06
412.919	81.06
413.142	81.06
413.365	78.06
413.589	85.06
413.812	67.06
414.035	87.06
414.258	96.06
414.482	82.06
414.705	68.06
414.928	72.06
415.151	77.06
415.374	76.06
415.597	77.06
415.821	81.06
416.044	85.06
416.267	99.06
416.49	85.06
416.713	86.06
416.936	84.06
417.159	73.06
417.382	85.06
417.605	78.06
417.828	75.06
418.051	79.06
418.274	90.06
418.497	69.06
418.72	84.06
418.943	94.06
419.166	90.06
419.389	78.06
419.611	86.06
419.834	100.06
420.057	77.06
420.28	80.06
420.503	75.06
420.726	83.06
420.948	75.06
421.171	96.06
421.394	82.06
421.617	91.06
421.839	77.06
422.062	87.06
422.285	97.06
422.507	108.06
422.73	136.06
422.953	120.06
423.175	101.06
423.398	90.06
423.621	75.06
423.843	87.06
424.066	94.06
424.288	79.06
424.511	69.06
424.733	74.06
424.956	72.06
425.178	84.06
425.401	75.06
425.623	89.06
425.846	73.06
426.068	65.06
426.291	85.06
426.513	73.06
426.735	80.06
426.958	74.06
427.18	90.06
427.402	77.06
427.625	89.06
427.847	74.06
428.069	83.06
428.292	102.06
428.514	104.06
428.736	83.06
428.958	98.06
429.181	88.06
429.403	88.06
429.625	88.06
429.847	81.06
430.069	106.06
430.292	102.06
430.514	93.06
430.736	94.06
430.958	91.06
431.18	79.06
431.402	96.06
431.624	84.06
431.846	76.06
432.068	79.06
432.29	78.06
432.512	90.06
432.734	92.06
432.956	74.06
433.178	81.06
433.4	73.06
433.622	82.06
433.844	86.06
434.066	88.06
434.287	76.06
434.509	75.06
434.731	72.06
434.953	67.06
435.175	63.06
435.397	76.06
435.618	73.06
435.84	75.06
436.062	87.06
436.284	78.06
436.505	80.06
436.727	80.06
436.949	85.06
437.17	83.06
437.392	77.06
437.614	90.06
437.835	72.06
438.057	82.06
438.278	84.06
438.5	91.06
438.721	76.06
438.943	93.06
439.165	86.06
439.386	76.06
439.608	82.06
439.829	86.06
440.05	72.06
440.272	82.06
440.493	89.06
440.715	78.06
440.936	87.06
441.158	75.06
441.379	72.06
441.6	82.06
441.822	91.06
442.043	76.06
442.264	70.06
442.486	72.06
442.707	110.06
442.928	80.06
443.149	88.06
443.371	94.06
443.592	110.06
443.813	78.06
444.034	87.06
444.255	76.06
444.476	96.06
444.698	82.06
444.919	84.06
445.14	144.06
445.361	130.06
445.582	118.06
445.803	114.06
446.024	92.06
446.245	77.06
446.466	86.06
446.687	77.06
446.908	84.06
447.129	86.06
447.35	86.06
447.571	77.06
447.792	82.06
448.013	68.06
448.234	70.06
448.455	86.06
448.675	73.06
448.896	73.06
449.117	82.06
449.338	68.06
449.559	107.06
449.779	84.06
450	85.06
450.221	67.06
450.442	88.06
450.662	80.06
450.883	76.06
451.104	94.06
451.324	76.06
451.545	72.06
451.766	73.06
451.986	86.06
452.207	80.06
452.428	93.06
452.648	91.06
452.869	85.06
453.089	78.06
453.31	82.06
453.53	68.06
453.751	78.06
453.971	69.06
454.192	72.06
454.412	76.06
454.633	92.06
454.853	67.06
455.073	76.06
455.294	77.06
455.514	86.06
455.734	88.06
455.955	67.06
456.175	75.06
456.395	88.06
456.616	74.06
456.836	80.06
457.056	75.06
457.276	81.06
457.497	84.06
457.717	72.06
457.937	75.06
458.157	72.06
458.377	86.06
458.598	102.06
458.818	90.06
459.038	91.06
459.258	85.06
459.478	90.06
459.698	86.06
459.918	88.06
460.138	81.06
460.358	84.06
460.578	77.06
460.798	97.06
461.018	75.06
461.238	80.06
461.458	79.06
461.678	77.06
461.898	72.06
462.118	74.06
462.338	84.06
462.558	82.06
462.777	82.06
462.997	80.06
463.217	84.06
463.437	82.06
463.657	87.06
463.876	80.06
464.096	82.06
464.316	82.06
464.536	96.06
464.755	100.06
464.975	85.06
465.195	75.06
465.414	89.06
465.634	84.06
465.854	85.06
466.073	88.06
466.293	75.06
466.512	76.06
466.732	92.06
466.951	61.06
467.171	71.06
467.391	67.06
467.61	79.06
467.829	78.06
468.049	81.06
468.268	78.06
468.488	72.06
468.707	79.06
468.927	79.06
469.146	71.06
469.365	85.06
469.585	73.06
469.804	79.06
470.023	79.06
470.243	68.06
470.462	93.06
470.681	81.06
470.901	70.06
471.12	78.06
471.339	79.06
471.558	83.06
471.777	84.06
471.997	73.06
472.216	102.06
472.435	92.06
472.654	64.06
472.873	73.06
473.092	80.06
473.311	77.06
473.53	70.06
473.749	75.06
473.968	90.06
474.187	77.06
474.406	81.06
474.625	82.06
474.844	90.06
475.063	87.06
475.282	84.06
475.501	71.06
475.72	87.06
475.939	68.06
476.158	89.06
476.377	86.06
476.596	92.06
476.814	82.06
477.033	72.06
477.252	72.06
477.471	75.06
477.69	81.06
477.908	75.06
478.127	76.06
478.346	87.06
478.564	84.06
478.783	78.06
479.002	73.06
479.22	77.06
479.439	74.06
479.658	80.06
479.876	70.06
480.095	75.06
480.313	90.06
480.532	89.06
480.751	79.06
480.969	76.06
481.188	76.06
481.406	80.06
481.624	75.06
481.843	71.06
482.061	89.06
482.28	87.06
482.498	90.06
482.717	80.06
482.935	89.06
483.153	87.06
483.372	87.06
483.59	78.06
483.808	88.06
484.027	89.06
484.245	85.06
484.463	85.06
484.681	82.06
484.9	83.06
485.118	102.06
485.336	98.06
485.554	74.06
485.772	85.06
485.99	72.06
486.209	85.06
486.427	78.06
486.645	91.06
486.863	89.06
487.081	97.06
487.299	84.06
487.517	91.06
487.735	84.06
487.953	100.06
488.171	93.06
488.389	80.06
488.607	98.06
488.825	88.06
489.043	77.06
489.261	84.06
489.479	97.06
489.696	80.06
489.914	76.06
490.132	77.06
490.35	100.06
490.568	90.06
490.786	87.06
491.003	75.06
491.221	79.06
491.439	90.06
491.657	94.06
491.874	76.06
492.092	80.06
492.31	72.06
492.527	67.06
492.745	89.06
492.963	82.06
493.18	101.06
493.398	96.06
493.615	100.06
493.833	80.06
494.05	77.06
494.268	75.06
494.485	89.06
494.703	78.06
494.92	80.06
495.138	67.06
495.355	92.06
495.573	77.06
495.79	81.06
496.008	95.06
496.225	91.06
496.442	84.06
496.66	83.06
496.877	90.06
497.094	95.06
497.312	96.06
497.529	93.06
497.746	82.06
497.963	82.06
498.181	73.06
498.398	81.06
498.615	95.06
498.832	88.06
499.049	87.06
499.267	87.06
499.484	86.06
499.701	85.06
499.918	90.06
500.135	79.06
500.352	81.06
500.569	72.06
500.786	89.06
501.003	89.06
501.22	81.06
501.437	89.06
501.654	79.06
501.871	82.06
502.088	81.06
502.305	77.06
502.522	80.06
502.739	84.06
502.956	82.06
503.172	94.06
503.389	84.06
503.606	71.06
503.823	81.06
504.04	90.06
504.256	88.06
504.473	90.06
504.69	106.06
504.907	94.06
505.123	90.06
505.34	87.06
505.557	84.06
505.773	85.06
505.99	92.06
506.207	81.06
506.423	84.06
506.64	100.06
506.856	83.06
507.073	84.06
507.289	82.06
507.506	86.06
507.722	90.06
507.939	89.06
508.155	94.06
508.372	82.06
508.588	82.06
508.805	89.06
509.021	76.06
509.238	88.06
509.454	88.06
509.67	99.06
509.887	81.06
510.103	88.06
510.319	83.06
510.536	93.06
510.752	84.06
510.968	78.06
511.184	64.06
511.401	84.06
511.617	93.06
511.833	90.06
512.049	88.06
512.265	91.06
512.481	91.06
512.698	77.06
512.914	73.06
513.13	93.06
513.346	72.06
513.562	90.06
513.778	88.06
513.994	83.06
514.21	96.06
514.426	96.06
514.642	83.06
514.858	92.06
515.074	89.06
515.29	78.06
515.506	85.06
515.721	73.06
515.937	85.06
516.153	80.06
516.369	73.06
516.585	85.06
516.801	89.06
517.016	79.06
517.232	83.06
517.448	91.06
517.664	81.06
517.879	76.06
518.095	98.06
518.311	77.06
518.527	83.06
518.742	86.06
518.958	76.06
519.173	88.06
519.389	86.06
519.605	89.06
