Data from Mixheat3_HRD10591_00002.txt Node
Date: Fri Dec 27 15:10:24 EST 2024
User: Yrep
Spectrometer: HR+D1059
Trigger mode: 1
Integration Time (sec): 1.000000E-1
Scans to average: 1
Electric dark correction enabled: true
Nonlinearity correction enabled: false
Boxcar width: 0
XAxis mode: Wavelengths
Number of Pixels in Spectrum: 2048
>>>>>Begin Spectral Data<<<<<
223.165	-12.5
223.4	-12.5
223.635	-12.5
223.869	-23.5
224.104	-23.5
224.338	-12.5
224.573	-16.5
224.808	-16.5
225.042	0.5
225.277	-12.5
225.511	1.5
225.746	11.5
225.98	13.5
226.215	15.5
226.449	5.5
226.683	1.5
226.918	34.5
227.152	33.5
227.387	33.5
227.621	46.5
227.856	45.5
228.09	57.5
228.324	57.5
228.559	60.5
228.793	59.5
229.027	77.5
229.262	67.5
229.496	71.5
229.73	74.5
229.964	76.5
230.199	80.5
230.433	75.5
230.667	82.5
230.901	76.5
231.136	74.5
231.37	81.5
231.604	66.5
231.838	75.5
232.072	71.5
232.306	88.5
232.541	83.5
232.775	90.5
233.009	87.5
233.243	95.5
233.477	86.5
233.711	80.5
233.945	81.5
234.179	85.5
234.413	84.5
234.647	86.5
234.881	82.5
235.115	82.5
235.349	77.5
235.583	68.5
235.817	95.5
236.051	79.5
236.285	73.5
236.519	94.5
236.753	81.5
236.987	98.5
237.221	89.5
237.455	89.5
237.689	83.5
237.922	70.5
238.156	79.5
238.39	79.5
238.624	94.5
238.858	81.5
239.091	94.5
239.325	82.5
239.559	74.5
239.793	96.5
240.027	94.5
240.26	89.5
240.494	89.5
240.728	74.5
240.961	57.5
241.195	69.5
241.429	91.5
241.662	76.5
241.896	72.5
242.13	67.5
242.363	82.5
242.597	74.5
242.83	77.5
243.064	75.5
243.298	81.5
243.531	74.5
243.765	79.5
243.998	80.5
244.232	75.5
244.465	78.5
244.699	72.5
244.932	71.5
245.166	84.5
245.399	65.5
245.633	86.5
245.866	82.5
246.099	74.5
246.333	83.5
246.566	74.5
246.8	85.5
247.033	83.5
247.266	72.5
247.5	78.5
247.733	85.5
247.966	85.5
248.2	84.5
248.433	80.5
248.666	82.5
248.899	70.5
249.133	76.5
249.366	81.5
249.599	80.5
249.832	79.5
250.066	93.5
250.299	78.5
250.532	84.5
250.765	85.5
250.998	80.5
251.231	85.5
251.465	84.5
251.698	87.5
251.931	84.5
252.164	78.5
252.397	75.5
252.63	83.5
252.863	82.5
253.096	85.5
253.329	94.5
253.562	83.5
253.795	83.5
254.028	77.5
254.261	64.5
254.494	75.5
254.727	86.5
254.96	82.5
255.193	82.5
255.426	77.5
255.659	71.5
255.892	74.5
256.124	83.5
256.357	98.5
256.59	93.5
256.823	69.5
257.056	81.5
257.289	81.5
257.521	82.5
257.754	75.5
257.987	87.5
258.22	84.5
258.452	82.5
258.685	95.5
258.918	91.5
259.151	72.5
259.383	76.5
259.616	69.5
259.849	87.5
260.081	79.5
260.314	84.5
260.547	86.5
260.779	88.5
261.012	85.5
261.244	81.5
261.477	91.5
261.71	85.5
261.942	92.5
262.175	81.5
262.407	73.5
262.64	89.5
262.872	84.5
263.105	86.5
263.337	84.5
263.57	86.5
263.802	99.5
264.035	83.5
264.267	85.5
264.499	98.5
264.732	81.5
264.964	102.5
265.197	82.5
265.429	85.5
265.661	82.5
265.894	75.5
266.126	88.5
266.358	81.5
266.591	88.5
266.823	85.5
267.055	93.5
267.287	94.5
267.52	92.5
267.752	85.5
267.984	86.5
268.216	80.5
268.448	89.5
268.681	90.5
268.913	77.5
269.145	96.5
269.377	78.5
269.609	79.5
269.841	83.5
270.073	95.5
270.306	78.5
270.538	86.5
270.77	80.5
271.002	90.5
271.234	73.5
271.466	85.5
271.698	87.5
271.93	82.5
272.162	88.5
272.394	81.5
272.626	79.5
272.858	86.5
273.09	93.5
273.322	90.5
273.553	92.5
273.785	87.5
274.017	98.5
274.249	75.5
274.481	82.5
274.713	86.5
274.945	89.5
275.176	90.5
275.408	87.5
275.64	70.5
275.872	71.5
276.104	91.5
276.335	81.5
276.567	90.5
276.799	82.5
277.031	74.5
277.262	77.5
277.494	84.5
277.726	90.5
277.957	84.5
278.189	91.5
278.421	73.5
278.652	96.5
278.884	98.5
279.115	92.5
279.347	85.5
279.579	71.5
279.81	78.5
280.042	78.5
280.273	81.5
280.505	85.5
280.736	86.5
280.968	73.5
281.199	92.5
281.431	76.5
281.662	95.5
281.894	79.5
282.125	80.5
282.356	67.5
282.588	71.5
282.819	90.5
283.051	76.5
283.282	92.5
283.513	89.5
283.745	89.5
283.976	79.5
284.207	83.5
284.439	87.5
284.67	93.5
284.901	86.5
285.132	81.5
285.364	92.5
285.595	76.5
285.826	82.5
286.057	93.5
286.288	78.5
286.52	81.5
286.751	98.5
286.982	84.5
287.213	87.5
287.444	78.5
287.675	91.5
287.906	96.5
288.138	87.5
288.369	81.5
288.6	93.5
288.831	98.5
289.062	93.5
289.293	84.5
289.524	82.5
289.755	93.5
289.986	82.5
290.217	95.5
290.448	92.5
290.679	93.5
290.91	89.5
291.141	80.5
291.371	96.5
291.602	96.5
291.833	83.5
292.064	94.5
292.295	82.5
292.526	78.5
292.757	92.5
292.987	91.5
293.218	76.5
293.449	87.5
293.68	85.5
293.91	85.5
294.141	85.5
294.372	89.5
294.603	85.5
294.833	84.5
295.064	81.5
295.295	79.5
295.525	83.5
295.756	79.5
295.987	96.5
296.217	73.5
296.448	91.5
296.679	76.5
296.909	96.5
297.14	80.5
297.37	93.5
297.601	89.5
297.831	90.5
298.062	94.5
298.292	78.5
298.523	90.5
298.753	93.5
298.984	104.5
299.214	81.5
299.445	58.5
299.675	78.5
299.905	94.5
300.136	70.5
300.366	79.5
300.597	87.5
300.827	108.5
301.057	84.5
301.288	103.5
301.518	98.5
301.748	85.5
301.979	97.5
302.209	91.5
302.439	84.5
302.669	87.5
302.9	85.5
303.13	84.5
303.36	86.5
303.59	92.5
303.82	72.5
304.051	77.5
304.281	95.5
304.511	78.5
304.741	77.5
304.971	91.5
305.201	81.5
305.431	81.5
305.661	89.5
305.891	90.5
306.121	70.5
306.352	87.5
306.582	68.5
306.812	88.5
307.042	93.5
307.272	89.5
307.502	82.5
307.731	77.5
307.961	65.5
308.191	78.5
308.421	95.5
308.651	101.5
308.881	83.5
309.111	90.5
309.341	77.5
309.571	95.5
309.8	94.5
310.03	89.5
310.26	78.5
310.49	79.5
310.72	95.5
310.949	92.5
311.179	73.5
311.409	85.5
311.639	91.5
311.868	94.5
312.098	91.5
312.328	90.5
312.557	91.5
312.787	79.5
313.017	86.5
313.246	90.5
313.476	82.5
313.706	85.5
313.935	89.5
314.165	90.5
314.394	90.5
314.624	83.5
314.853	90.5
315.083	81.5
315.312	91.5
315.542	92.5
315.771	91.5
316.001	89.5
316.23	86.5
316.46	91.5
316.689	70.5
316.919	89.5
317.148	83.5
317.377	89.5
317.607	102.5
317.836	86.5
318.065	89.5
318.295	85.5
318.524	98.5
318.753	81.5
318.983	103.5
319.212	98.5
319.441	81.5
319.67	76.5
319.9	70.5
320.129	88.5
320.358	81.5
320.587	90.5
320.816	85.5
321.046	75.5
321.275	82.5
321.504	104.5
321.733	88.5
321.962	95.5
322.191	106.5
322.42	88.5
322.649	94.5
322.878	87.5
323.108	82.5
323.337	75.5
323.566	94.5
323.795	97.5
324.024	82.5
324.253	87.5
324.482	82.5
324.71	83.5
324.939	84.5
325.168	78.5
325.397	85.5
325.626	89.5
325.855	91.5
326.084	86.5
326.313	79.5
326.542	89.5
326.77	87.5
326.999	91.5
327.228	84.5
327.457	80.5
327.686	87.5
327.914	86.5
328.143	93.5
328.372	86.5
328.6	74.5
328.829	89.5
329.058	96.5
329.287	82.5
329.515	84.5
329.744	96.5
329.972	90.5
330.201	87.5
330.43	96.5
330.658	88.5
330.887	78.5
331.115	90.5
331.344	81.5
331.572	91.5
331.801	90.5
332.03	79.5
332.258	91.5
332.486	83.5
332.715	87.5
332.943	71.5
333.172	89.5
333.4	96.5
333.629	87.5
333.857	88.5
334.085	87.5
334.314	90.5
334.542	87.5
334.771	80.5
334.999	82.5
335.227	86.5
335.455	82.5
335.684	79.5
335.912	95.5
336.14	94.5
336.369	80.5
336.597	97.5
336.825	79.5
337.053	89.5
337.281	84.5
337.51	80.5
337.738	95.5
337.966	79.5
338.194	89.5
338.422	97.5
338.65	104.5
338.878	92.5
339.106	86.5
339.334	94.5
339.562	91.5
339.79	105.5
340.018	88.5
340.246	95.5
340.474	91.5
340.702	94.5
340.93	69.5
341.158	102.5
341.386	88.5
341.614	85.5
341.842	77.5
342.07	79.5
342.298	95.5
342.526	77.5
342.754	91.5
342.981	74.5
343.209	82.5
343.437	106.5
343.665	83.5
343.893	77.5
344.12	101.5
344.348	85.5
344.576	89.5
344.804	84.5
345.031	89.5
345.259	75.5
345.487	95.5
345.714	88.5
345.942	86.5
346.17	93.5
346.397	88.5
346.625	88.5
346.853	89.5
347.08	73.5
347.308	93.5
347.535	104.5
347.763	80.5
347.99	81.5
348.218	88.5
348.445	85.5
348.673	91.5
348.9	94.5
349.128	82.5
349.355	88.5
349.583	93.5
349.81	87.5
350.037	99.5
350.265	84.5
350.492	90.5
350.72	84.5
350.947	93.5
351.174	75.5
351.402	96.5
351.629	95.5
351.856	78.5
352.083	95.5
352.311	73.5
352.538	93.5
352.765	83.5
352.992	101.5
353.22	94.5
353.447	71.5
353.674	82.5
353.901	77.5
354.128	75.5
354.355	78.5
354.583	74.5
354.81	83.5
355.037	90.5
355.264	92.5
355.491	83.5
355.718	88.5
355.945	88.5
356.172	88.5
356.399	85.5
356.626	83.5
356.853	83.5
357.08	90.5
357.307	87.5
357.534	81.5
357.761	85.5
357.988	85.5
358.215	83.5
358.441	91.5
358.668	84.5
358.895	84.5
359.122	93.5
359.349	103.5
359.576	102.5
359.802	87.5
360.029	82.5
360.256	89.5
360.483	70.5
360.709	92.5
360.936	87.5
361.163	84.5
361.39	87.5
361.616	90.5
361.843	99.5
362.07	102.5
362.296	88.5
362.523	86.5
362.749	90.5
362.976	106.5
363.203	89.5
363.429	85.5
363.656	85.5
363.882	87.5
364.109	95.5
364.335	108.5
364.562	93.5
364.788	84.5
365.015	94.5
365.241	92.5
365.468	81.5
365.694	76.5
365.92	76.5
366.147	101.5
366.373	77.5
366.599	75.5
366.826	78.5
367.052	97.5
367.278	94.5
367.505	85.5
367.731	84.5
367.957	88.5
368.184	83.5
368.41	83.5
368.636	86.5
368.862	92.5
369.089	82.5
369.315	86.5
369.541	88.5
369.767	85.5
369.993	74.5
370.219	74.5
370.445	90.5
370.672	96.5
370.898	77.5
371.124	94.5
371.35	86.5
371.576	95.5
371.802	79.5
372.028	84.5
372.254	79.5
372.48	114.5
372.706	85.5
372.932	90.5
373.158	104.5
373.384	96.5
373.61	92.5
373.835	103.5
374.061	82.5
374.287	87.5
374.513	88.5
374.739	80.5
374.965	93.5
375.191	81.5
375.416	110.5
375.642	73.5
375.868	93.5
376.094	85.5
376.319	89.5
376.545	86.5
376.771	81.5
376.997	78.5
377.222	80.5
377.448	101.5
377.674	90.5
377.899	81.5
378.125	95.5
378.35	74.5
378.576	73.5
378.802	74.5
379.027	88.5
379.253	96.5
379.478	89.5
379.704	76.5
379.929	85.5
380.155	86.5
380.38	96.5
380.606	92.5
380.831	87.5
381.057	79.5
381.282	81.5
381.507	78.5
381.733	91.5
381.958	75.5
382.184	96.5
382.409	83.5
382.634	84.5
382.86	93.5
383.085	87.5
383.31	93.5
383.535	74.5
383.761	81.5
383.986	89.5
384.211	92.5
384.436	90.5
384.662	95.5
384.887	68.5
385.112	83.5
385.337	86.5
385.562	94.5
385.787	101.5
386.013	103.5
386.238	93.5
386.463	102.5
386.688	94.5
386.913	71.5
387.138	87.5
387.363	96.5
387.588	87.5
387.813	99.5
388.038	89.5
388.263	95.5
388.488	85.5
388.713	91.5
388.938	80.5
389.163	90.5
389.387	93.5
389.612	85.5
389.837	75.5
390.062	78.5
390.287	88.5
390.512	79.5
390.736	77.5
390.961	80.5
391.186	85.5
391.411	83.5
391.636	87.5
391.86	87.5
392.085	83.5
392.31	96.5
392.534	85.5
392.759	94.5
392.984	88.5
393.208	114.5
393.433	114.5
393.658	108.5
393.882	81.5
394.107	96.5
394.331	94.5
394.556	113.5
394.78	90.5
395.005	93.5
395.229	76.5
395.454	89.5
395.678	87.5
395.903	105.5
396.127	108.5
396.352	110.5
396.576	108.5
396.801	104.5
397.025	115.5
397.249	105.5
397.474	93.5
397.698	96.5
397.922	87.5
398.147	87.5
398.371	81.5
398.595	95.5
398.82	92.5
399.044	85.5
399.268	82.5
399.492	87.5
399.717	93.5
399.941	86.5
400.165	97.5
400.389	89.5
400.613	95.5
400.837	71.5
401.062	105.5
401.286	102.5
401.51	85.5
401.734	94.5
401.958	86.5
402.182	80.5
402.406	82.5
402.63	91.5
402.854	99.5
403.078	91.5
403.302	94.5
403.526	91.5
403.75	89.5
403.974	79.5
404.198	88.5
404.422	109.5
404.645	115.5
404.869	125.5
405.093	87.5
405.317	101.5
405.541	87.5
405.765	104.5
405.988	90.5
406.212	84.5
406.436	83.5
406.66	87.5
406.883	99.5
407.107	85.5
407.331	76.5
407.555	89.5
407.778	85.5
408.002	83.5
408.226	82.5
408.449	84.5
408.673	90.5
408.896	95.5
409.12	89.5
409.344	87.5
409.567	94.5
409.791	94.5
410.014	71.5
410.238	92.5
410.461	76.5
410.685	102.5
410.908	88.5
411.132	76.5
411.355	82.5
411.578	87.5
411.802	88.5
412.025	91.5
412.249	78.5
412.472	76.5
412.695	95.5
412.919	82.5
413.142	101.5
413.365	90.5
413.589	85.5
413.812	81.5
414.035	86.5
414.258	74.5
414.482	80.5
414.705	95.5
414.928	87.5
415.151	87.5
415.374	77.5
415.597	88.5
415.821	92.5
416.044	102.5
416.267	78.5
416.49	87.5
416.713	82.5
416.936	85.5
417.159	79.5
417.382	83.5
417.605	83.5
417.828	85.5
418.051	81.5
418.274	82.5
418.497	76.5
418.72	74.5
418.943	84.5
419.166	104.5
419.389	87.5
419.611	94.5
419.834	92.5
420.057	88.5
420.28	102.5
420.503	90.5
420.726	89.5
420.948	91.5
421.171	91.5
421.394	82.5
421.617	96.5
421.839	88.5
422.062	84.5
422.285	102.5
422.507	142.5
422.73	162.5
422.953	149.5
423.175	104.5
423.398	95.5
423.621	93.5
423.843	95.5
424.066	69.5
424.288	81.5
424.511	87.5
424.733	88.5
424.956	85.5
425.178	83.5
425.401	76.5
425.623	92.5
425.846	91.5
426.068	82.5
426.291	103.5
426.513	83.5
426.735	83.5
426.958	95.5
427.18	73.5
427.402	78.5
427.625	90.5
427.847	90.5
428.069	87.5
428.292	98.5
428.514	99.5
428.736	90.5
428.958	106.5
429.181	97.5
429.403	88.5
429.625	86.5
429.847	89.5
430.069	93.5
430.292	109.5
430.514	108.5
430.736	79.5
430.958	96.5
431.18	94.5
431.402	81.5
431.624	81.5
431.846	96.5
432.068	115.5
432.29	89.5
432.512	87.5
432.734	91.5
432.956	87.5
433.178	82.5
433.4	89.5
433.622	97.5
433.844	78.5
434.066	78.5
434.287	79.5
434.509	83.5
434.731	95.5
434.953	92.5
435.175	79.5
435.397	90.5
435.618	90.5
435.84	86.5
436.062	91.5
436.284	77.5
436.505	85.5
436.727	79.5
436.949	68.5
437.17	82.5
437.392	91.5
437.614	88.5
437.835	87.5
438.057	81.5
438.278	77.5
438.5	71.5
438.721	82.5
438.943	82.5
439.165	84.5
439.386	70.5
439.608	77.5
439.829	96.5
440.05	82.5
440.272	78.5
440.493	96.5
440.715	88.5
440.936	86.5
441.158	82.5
441.379	85.5
441.6	80.5
441.822	92.5
442.043	75.5
442.264	99.5
442.486	108.5
442.707	99.5
442.928	111.5
443.149	86.5
443.371	121.5
443.592	139.5
443.813	128.5
444.034	96.5
444.255	82.5
444.476	95.5
444.698	77.5
444.919	82.5
445.14	164.5
445.361	141.5
445.582	145.5
445.803	126.5
446.024	78.5
446.245	91.5
446.466	88.5
446.687	76.5
446.908	82.5
447.129	96.5
447.35	98.5
447.571	88.5
447.792	86.5
448.013	69.5
448.234	87.5
448.455	88.5
448.675	83.5
448.896	74.5
449.117	76.5
449.338	88.5
449.559	82.5
449.779	77.5
450	73.5
450.221	84.5
450.442	87.5
450.662	81.5
450.883	78.5
451.104	84.5
451.324	87.5
451.545	90.5
451.766	91.5
451.986	82.5
452.207	79.5
452.428	79.5
452.648	86.5
452.869	93.5
453.089	93.5
453.31	81.5
453.53	91.5
453.751	83.5
453.971	75.5
454.192	72.5
454.412	74.5
454.633	86.5
454.853	87.5
455.073	72.5
455.294	81.5
455.514	87.5
455.734	91.5
455.955	81.5
456.175	100.5
456.395	84.5
456.616	80.5
456.836	84.5
457.056	95.5
457.276	91.5
457.497	95.5
457.717	69.5
457.937	90.5
458.157	83.5
458.377	89.5
458.598	88.5
458.818	82.5
459.038	91.5
459.258	90.5
459.478	85.5
459.698	79.5
459.918	82.5
460.138	82.5
460.358	77.5
460.578	99.5
460.798	114.5
461.018	104.5
461.238	83.5
461.458	72.5
461.678	80.5
461.898	95.5
462.118	86.5
462.338	103.5
462.558	90.5
462.777	77.5
462.997	83.5
463.217	83.5
463.437	81.5
463.657	80.5
463.876	97.5
464.096	77.5
464.316	85.5
464.536	82.5
464.755	87.5
464.975	92.5
465.195	91.5
465.414	86.5
465.634	94.5
465.854	78.5
466.073	87.5
466.293	78.5
466.512	67.5
466.732	89.5
466.951	75.5
467.171	98.5
467.391	87.5
467.61	95.5
467.829	78.5
468.049	69.5
468.268	83.5
468.488	87.5
468.707	85.5
468.927	83.5
469.146	75.5
469.365	80.5
469.585	79.5
469.804	81.5
470.023	89.5
470.243	83.5
470.462	107.5
470.681	89.5
470.901	82.5
471.12	81.5
471.339	91.5
471.558	91.5
471.777	81.5
471.997	78.5
472.216	83.5
472.435	88.5
472.654	94.5
472.873	87.5
473.092	63.5
473.311	92.5
473.53	94.5
473.749	89.5
473.968	88.5
474.187	101.5
474.406	80.5
474.625	99.5
474.844	80.5
475.063	82.5
475.282	97.5
475.501	87.5
475.72	101.5
475.939	91.5
476.158	89.5
476.377	81.5
476.596	80.5
476.814	92.5
477.033	73.5
477.252	85.5
477.471	89.5
477.69	88.5
477.908	74.5
478.127	79.5
478.346	83.5
478.564	89.5
478.783	89.5
479.002	80.5
479.22	96.5
479.439	83.5
479.658	93.5
479.876	76.5
480.095	88.5
480.313	88.5
480.532	80.5
480.751	84.5
480.969	101.5
481.188	93.5
481.406	92.5
481.624	95.5
481.843	84.5
482.061	84.5
482.28	80.5
482.498	89.5
482.717	95.5
482.935	82.5
483.153	91.5
483.372	85.5
483.59	97.5
483.808	93.5
484.027	72.5
484.245	91.5
484.463	94.5
484.681	84.5
484.9	83.5
485.118	66.5
485.336	95.5
485.554	89.5
485.772	72.5
485.99	84.5
486.209	72.5
486.427	90.5
486.645	89.5
486.863	74.5
487.081	88.5
487.299	82.5
487.517	98.5
487.735	103.5
487.953	119.5
488.171	104.5
488.389	93.5
488.607	93.5
488.825	86.5
489.043	86.5
489.261	94.5
489.479	88.5
489.696	95.5
489.914	87.5
490.132	86.5
490.35	96.5
490.568	80.5
490.786	76.5
491.003	100.5
491.221	81.5
491.439	93.5
491.657	75.5
491.874	98.5
492.092	90.5
492.31	82.5
492.527	77.5
492.745	98.5
492.963	88.5
493.18	89.5
493.398	106.5
493.615	83.5
493.833	87.5
494.05	101.5
494.268	97.5
494.485	90.5
494.703	91.5
494.92	91.5
495.138	104.5
495.355	88.5
495.573	94.5
495.79	84.5
496.008	77.5
496.225	89.5
496.442	80.5
496.66	102.5
496.877	105.5
497.094	103.5
497.312	88.5
497.529	96.5
497.746	84.5
497.963	83.5
498.181	91.5
498.398	85.5
498.615	97.5
498.832	86.5
499.049	82.5
499.267	92.5
499.484	88.5
499.701	92.5
499.918	85.5
500.135	82.5
500.352	99.5
500.569	105.5
500.786	87.5
501.003	86.5
501.22	79.5
501.437	102.5
501.654	95.5
501.871	107.5
502.088	94.5
502.305	103.5
502.522	78.5
502.739	89.5
502.956	87.5
503.172	96.5
503.389	86.5
503.606	86.5
503.823	83.5
504.04	91.5
504.256	95.5
504.473	93.5
504.69	90.5
504.907	89.5
505.123	72.5
505.34	100.5
505.557	91.5
505.773	92.5
505.99	94.5
506.207	95.5
506.423	107.5
506.64	90.5
506.856	81.5
507.073	94.5
507.289	86.5
507.506	90.5
507.722	80.5
507.939	75.5
508.155	88.5
508.372	89.5
508.588	83.5
508.805	93.5
509.021	87.5
509.238	78.5
509.454	81.5
509.67	92.5
509.887	83.5
510.103	82.5
510.319	97.5
510.536	107.5
510.752	85.5
510.968	99.5
511.184	86.5
511.401	87.5
511.617	84.5
511.833	85.5
512.049	90.5
512.265	91.5
512.481	83.5
512.698	94.5
512.914	112.5
513.13	105.5
513.346	80.5
513.562	95.5
513.778	100.5
513.994	80.5
514.21	96.5
514.426	78.5
514.642	82.5
514.858	90.5
515.074	94.5
515.29	89.5
515.506	89.5
515.721	86.5
515.937	78.5
516.153	88.5
516.369	95.5
516.585	95.5
516.801	95.5
517.016	88.5
517.232	82.5
517.448	81.5
517.664	86.5
517.879	89.5
518.095	83.5
518.311	82.5
518.527	96.5
518.742	101.5
518.958	109.5
519.173	104.5
519.389	82.5
519.605	83.5
519.82	94.5
520.036	98.5
520.251	96.5
520.467	102.5
520.682	82.5
520.898	93.5
521.113	79.5
521.329	79.5
521.544	90.5
521.76	93.5
521.975	79.5
522.19	90.5
522.406	71.5
522.621	86.5
522.836	95.5
523.052	96.5
523.267	90.5
523.482	94.5
523.698	80.5
523.913	83.5
524.128	82.5
524.343	85.5
524.559	86.5
524.774	81.5
524.989	98.5
525.204	100.5
525.419	103.5
525.634	102.5
525.849	88.5
526.064	96.5
526.28	133.5
526.495	157.5
526.71	152.5
526.925	126.5
527.14	162.5
527.355	132.5
527.57	107.5
527.785	77.5
527.999	87.5
528.214	90.5
528.429	80.5
528.644	82.5
528.859	76.5
529.074	100.5
529.289	91.5
529.503	92.5
529.718	76.5
529.933	97.5
530.148	86.5
530.363	92.5
530.577	81.5
530.792	88.5
531.007	105.5
531.221	93.5
531.436	91.5
531.651	85.5
531.865	89.5
532.08	79.5
532.295	97.5
532.509	90.5
532.724	95.5
532.938	82.5
533.153	89.5
533.367	92.5
533.582	85.5
533.796	86.5
534.011	103.5
534.225	92.5
534.44	87.5
534.654	103.5
534.868	112.5
535.083	119.5
535.297	95.5
535.511	94.5
535.726	90.5
535.94	92.5
536.154	103.5
536.369	103.5
536.583	83.5
536.797	91.5
537.011	82.5
537.225	96.5
537.44	86.5
537.654	98.5
537.868	91.5
538.082	79.5
538.296	88.5
538.51	83.5
538.724	94.5
538.938	83.5
