Data from Mixheat3_HRD10591_00004.txt Node
Date: Fri Dec 27 15:10:26 EST 2024
User: Yrep
Spectrometer: HR+D1059
Trigger mode: 1
Integration Time (sec): 1.000000E-1
Scans to average: 1
Electric dark correction enabled: true
Nonlinearity correction enabled: false
Boxcar width: 0
XAxis mode: Wavelengths
Number of Pixels in Spectrum: 2048
>>>>>Begin Spectral Data<<<<<
223.165	-19.44
223.4	-19.44
223.635	-19.44
223.869	-22.44
224.104	-16.44
224.338	0.56
224.573	-31.44
224.808	-8.44
225.042	-8.44
225.277	-19.44
225.511	1.56
225.746	9.56
225.98	-0.44
226.215	5.56
226.449	23.56
226.683	26.56
226.918	30.56
227.152	28.56
227.387	35.56
227.621	32.56
227.856	61.56
228.09	39.56
228.324	40.56
228.559	47.56
228.793	60.56
229.027	64.56
229.262	76.56
229.496	65.56
229.73	62.56
229.964	73.56
230.199	87.56
230.433	71.56
230.667	86.56
230.901	91.56
231.136	73.56
231.37	73.56
231.604	73.56
231.838	77.56
232.072	78.56
232.306	81.56
232.541	92.56
232.775	69.56
233.009	84.56
233.243	91.56
233.477	81.56
233.711	90.56
233.945	88.56
234.179	79.56
234.413	71.56
234.647	75.56
234.881	85.56
235.115	77.56
235.349	87.56
235.583	79.56
235.817	72.56
236.051	73.56
236.285	61.56
236.519	71.56
236.753	87.56
236.987	82.56
237.221	85.56
237.455	79.56
237.689	65.56
237.922	71.56
238.156	75.56
238.39	64.56
238.624	73.56
238.858	73.56
239.091	79.56
239.325	75.56
239.559	76.56
239.793	74.56
240.027	79.56
240.26	83.56
240.494	79.56
240.728	74.56
240.961	77.56
241.195	93.56
241.429	84.56
241.662	62.56
241.896	82.56
242.13	80.56
242.363	73.56
242.597	81.56
242.83	73.56
243.064	91.56
243.298	82.56
243.531	73.56
243.765	73.56
243.998	68.56
244.232	86.56
244.465	74.56
244.699	75.56
244.932	60.56
245.166	74.56
245.399	69.56
245.633	76.56
245.866	79.56
246.099	73.56
246.333	80.56
246.566	70.56
246.8	83.56
247.033	81.56
247.266	89.56
247.5	88.56
247.733	76.56
247.966	80.56
248.2	90.56
248.433	87.56
248.666	76.56
248.899	85.56
249.133	77.56
249.366	98.56
249.599	77.56
249.832	75.56
250.066	73.56
250.299	73.56
250.532	75.56
250.765	82.56
250.998	80.56
251.231	71.56
251.465	73.56
251.698	78.56
251.931	72.56
252.164	72.56
252.397	101.56
252.63	85.56
252.863	86.56
253.096	76.56
253.329	74.56
253.562	88.56
253.795	63.56
254.028	79.56
254.261	67.56
254.494	79.56
254.727	75.56
254.96	83.56
255.193	90.56
255.426	92.56
255.659	91.56
255.892	83.56
256.124	70.56
256.357	82.56
256.59	70.56
256.823	60.56
257.056	74.56
257.289	78.56
257.521	72.56
257.754	78.56
257.987	80.56
258.22	82.56
258.452	73.56
258.685	81.56
258.918	85.56
259.151	84.56
259.383	92.56
259.616	70.56
259.849	79.56
260.081	75.56
260.314	72.56
260.547	85.56
260.779	88.56
261.012	94.56
261.244	77.56
261.477	80.56
261.71	78.56
261.942	83.56
262.175	84.56
262.407	77.56
262.64	90.56
262.872	84.56
263.105	82.56
263.337	87.56
263.57	91.56
263.802	74.56
264.035	79.56
264.267	84.56
264.499	67.56
264.732	86.56
264.964	79.56
265.197	90.56
265.429	85.56
265.661	83.56
265.894	78.56
266.126	88.56
266.358	85.56
266.591	87.56
266.823	74.56
267.055	80.56
267.287	95.56
267.52	80.56
267.752	96.56
267.984	86.56
268.216	92.56
268.448	93.56
268.681	80.56
268.913	89.56
269.145	88.56
269.377	83.56
269.609	79.56
269.841	72.56
270.073	89.56
270.306	84.56
270.538	88.56
270.77	78.56
271.002	79.56
271.234	75.56
271.466	105.56
271.698	91.56
271.93	84.56
272.162	74.56
272.394	69.56
272.626	75.56
272.858	90.56
273.09	88.56
273.322	86.56
273.553	75.56
273.785	74.56
274.017	77.56
274.249	76.56
274.481	79.56
274.713	69.56
274.945	84.56
275.176	80.56
275.408	91.56
275.64	79.56
275.872	84.56
276.104	93.56
276.335	94.56
276.567	85.56
276.799	90.56
277.031	85.56
277.262	89.56
277.494	80.56
277.726	77.56
277.957	104.56
278.189	95.56
278.421	77.56
278.652	86.56
278.884	86.56
279.115	90.56
279.347	100.56
279.579	101.56
279.81	77.56
280.042	97.56
280.273	74.56
280.505	86.56
280.736	83.56
280.968	87.56
281.199	91.56
281.431	89.56
281.662	83.56
281.894	77.56
282.125	78.56
282.356	90.56
282.588	94.56
282.819	94.56
283.051	72.56
283.282	96.56
283.513	72.56
283.745	74.56
283.976	87.56
284.207	76.56
284.439	73.56
284.67	91.56
284.901	74.56
285.132	83.56
285.364	90.56
285.595	86.56
285.826	85.56
286.057	89.56
286.288	79.56
286.52	67.56
286.751	100.56
286.982	78.56
287.213	81.56
287.444	92.56
287.675	87.56
287.906	80.56
288.138	81.56
288.369	86.56
288.6	91.56
288.831	83.56
289.062	86.56
289.293	77.56
289.524	87.56
289.755	81.56
289.986	102.56
290.217	89.56
290.448	92.56
290.679	101.56
290.91	110.56
291.141	84.56
291.371	80.56
291.602	83.56
291.833	91.56
292.064	80.56
292.295	77.56
292.526	83.56
292.757	76.56
292.987	94.56
293.218	90.56
293.449	91.56
293.68	83.56
293.91	94.56
294.141	93.56
294.372	83.56
294.603	80.56
294.833	85.56
295.064	90.56
295.295	91.56
295.525	68.56
295.756	89.56
295.987	83.56
296.217	78.56
296.448	79.56
296.679	80.56
296.909	103.56
297.14	100.56
297.37	109.56
297.601	99.56
297.831	89.56
298.062	77.56
298.292	85.56
298.523	76.56
298.753	68.56
298.984	86.56
299.214	89.56
299.445	89.56
299.675	88.56
299.905	85.56
300.136	89.56
300.366	82.56
300.597	86.56
300.827	77.56
301.057	91.56
301.288	84.56
301.518	82.56
301.748	82.56
301.979	102.56
302.209	89.56
302.439	74.56
302.669	86.56
302.9	76.56
303.13	70.56
303.36	88.56
303.59	88.56
303.82	87.56
304.051	78.56
304.281	90.56
304.511	76.56
304.741	84.56
304.971	75.56
305.201	117.56
305.431	93.56
305.661	85.56
305.891	96.56
306.121	81.56
306.352	86.56
306.582	104.56
306.812	82.56
307.042	80.56
307.272	79.56
307.502	85.56
307.731	92.56
307.961	79.56
308.191	94.56
308.421	91.56
308.651	95.56
308.881	92.56
309.111	84.56
309.341	85.56
309.571	77.56
309.8	81.56
310.03	85.56
310.26	72.56
310.49	84.56
310.72	77.56
310.949	95.56
311.179	92.56
311.409	92.56
311.639	86.56
311.868	83.56
312.098	109.56
312.328	94.56
312.557	101.56
312.787	85.56
313.017	92.56
313.246	88.56
313.476	87.56
313.706	66.56
313.935	87.56
314.165	73.56
314.394	83.56
314.624	93.56
314.853	84.56
315.083	80.56
315.312	83.56
315.542	101.56
315.771	80.56
316.001	87.56
316.23	84.56
316.46	86.56
316.689	73.56
316.919	88.56
317.148	93.56
317.377	80.56
317.607	76.56
317.836	79.56
318.065	101.56
318.295	81.56
318.524	76.56
318.753	89.56
318.983	83.56
319.212	78.56
319.441	86.56
319.67	88.56
319.9	87.56
320.129	73.56
320.358	96.56
320.587	76.56
320.816	89.56
321.046	93.56
321.275	79.56
321.504	89.56
321.733	87.56
321.962	83.56
322.191	72.56
322.42	89.56
322.649	90.56
322.878	82.56
323.108	101.56
323.337	92.56
323.566	89.56
323.795	77.56
324.024	81.56
324.253	89.56
324.482	83.56
324.71	85.56
324.939	77.56
325.168	99.56
325.397	89.56
325.626	82.56
325.855	86.56
326.084	93.56
326.313	83.56
326.542	68.56
326.77	86.56
326.999	79.56
327.228	77.56
327.457	80.56
327.686	90.56
327.914	91.56
328.143	77.56
328.372	74.56
328.6	70.56
328.829	86.56
329.058	78.56
329.287	86.56
329.515	92.56
329.744	99.56
329.972	90.56
330.201	85.56
330.43	77.56
330.658	95.56
330.887	86.56
331.115	79.56
331.344	69.56
331.572	96.56
331.801	88.56
332.03	71.56
332.258	81.56
332.486	84.56
332.715	83.56
332.943	78.56
333.172	97.56
333.4	91.56
333.629	87.56
333.857	85.56
334.085	90.56
334.314	95.56
334.542	83.56
334.771	87.56
334.999	97.56
335.227	85.56
335.455	82.56
335.684	97.56
335.912	88.56
336.14	88.56
336.369	97.56
336.597	87.56
336.825	80.56
337.053	86.56
337.281	108.56
337.51	89.56
337.738	91.56
337.966	74.56
338.194	95.56
338.422	81.56
338.65	97.56
338.878	101.56
339.106	82.56
339.334	83.56
339.562	81.56
339.79	83.56
340.018	79.56
340.246	78.56
340.474	78.56
340.702	91.56
340.93	91.56
341.158	94.56
341.386	89.56
341.614	105.56
341.842	80.56
342.07	71.56
342.298	80.56
342.526	102.56
342.754	77.56
342.981	88.56
343.209	97.56
343.437	99.56
343.665	95.56
343.893	88.56
344.12	89.56
344.348	74.56
344.576	89.56
344.804	103.56
345.031	86.56
345.259	73.56
345.487	75.56
345.714	71.56
345.942	72.56
346.17	76.56
346.397	84.56
346.625	105.56
346.853	90.56
347.08	91.56
347.308	86.56
347.535	86.56
347.763	99.56
347.99	92.56
348.218	96.56
348.445	77.56
348.673	83.56
348.9	82.56
349.128	82.56
349.355	77.56
349.583	82.56
349.81	87.56
350.037	94.56
350.265	69.56
350.492	75.56
350.72	83.56
350.947	80.56
351.174	95.56
351.402	85.56
351.629	93.56
351.856	97.56
352.083	93.56
352.311	87.56
352.538	83.56
352.765	85.56
352.992	91.56
353.22	68.56
353.447	96.56
353.674	102.56
353.901	91.56
354.128	90.56
354.355	85.56
354.583	87.56
354.81	84.56
355.037	81.56
355.264	75.56
355.491	88.56
355.718	88.56
355.945	91.56
356.172	89.56
356.399	82.56
356.626	78.56
356.853	71.56
357.08	76.56
357.307	90.56
357.534	71.56
357.761	87.56
357.988	94.56
358.215	80.56
358.441	83.56
358.668	96.56
358.895	90.56
359.122	83.56
359.349	81.56
359.576	86.56
359.802	92.56
360.029	72.56
360.256	68.56
360.483	87.56
360.709	91.56
360.936	88.56
361.163	97.56
361.39	84.56
361.616	86.56
361.843	78.56
362.07	99.56
362.296	92.56
362.523	87.56
362.749	91.56
362.976	82.56
363.203	83.56
363.429	86.56
363.656	85.56
363.882	67.56
364.109	99.56
364.335	95.56
364.562	90.56
364.788	91.56
365.015	84.56
365.241	83.56
365.468	105.56
365.694	89.56
365.92	102.56
366.147	83.56
366.373	74.56
366.599	93.56
366.826	93.56
367.052	81.56
367.278	93.56
367.505	97.56
367.731	94.56
367.957	91.56
368.184	87.56
368.41	74.56
368.636	79.56
368.862	76.56
369.089	94.56
369.315	90.56
369.541	75.56
369.767	74.56
369.993	87.56
370.219	86.56
370.445	80.56
370.672	99.56
370.898	80.56
371.124	87.56
371.35	77.56
371.576	92.56
371.802	80.56
372.028	85.56
372.254	73.56
372.48	80.56
372.706	73.56
372.932	92.56
373.158	75.56
373.384	87.56
373.61	84.56
373.835	87.56
374.061	68.56
374.287	81.56
374.513	86.56
374.739	86.56
374.965	99.56
375.191	68.56
375.416	93.56
375.642	75.56
375.868	80.56
376.094	100.56
376.319	71.56
376.545	79.56
376.771	63.56
376.997	91.56
377.222	85.56
377.448	79.56
377.674	83.56
377.899	93.56
378.125	84.56
378.35	95.56
378.576	80.56
378.802	90.56
379.027	79.56
379.253	93.56
379.478	93.56
379.704	77.56
379.929	69.56
380.155	74.56
380.38	83.56
380.606	79.56
380.831	95.56
381.057	98.56
381.282	84.56
381.507	82.56
381.733	87.56
381.958	93.56
382.184	75.56
382.409	92.56
382.634	100.56
382.86	85.56
383.085	79.56
383.31	93.56
383.535	97.56
383.761	74.56
383.986	86.56
384.211	84.56
384.436	79.56
384.662	89.56
384.887	87.56
385.112	87.56
385.337	86.56
385.562	82.56
385.787	88.56
386.013	77.56
386.238	76.56
386.463	84.56
386.688	95.56
386.913	86.56
387.138	75.56
387.363	74.56
387.588	91.56
387.813	94.56
388.038	84.56
388.263	77.56
388.488	93.56
388.713	80.56
388.938	85.56
389.163	86.56
389.387	75.56
389.612	80.56
389.837	85.56
390.062	82.56
390.287	79.56
390.512	86.56
390.736	91.56
390.961	88.56
391.186	78.56
391.411	89.56
391.636	83.56
391.86	69.56
392.085	87.56
392.31	75.56
392.534	93.56
392.759	76.56
392.984	91.56
393.208	104.56
393.433	118.56
393.658	103.56
393.882	75.56
394.107	99.56
394.331	87.56
394.556	96.56
394.78	82.56
395.005	85.56
395.229	84.56
395.454	84.56
395.678	82.56
395.903	109.56
396.127	121.56
396.352	106.56
396.576	92.56
396.801	121.56
397.025	113.56
397.249	93.56
397.474	101.56
397.698	107.56
397.922	91.56
398.147	90.56
398.371	86.56
398.595	77.56
398.82	73.56
399.044	89.56
399.268	91.56
399.492	81.56
399.717	85.56
399.941	81.56
400.165	79.56
400.389	69.56
400.613	84.56
400.837	82.56
401.062	84.56
401.286	80.56
401.51	87.56
401.734	85.56
401.958	78.56
402.182	91.56
402.406	86.56
402.63	91.56
402.854	89.56
403.078	87.56
403.302	93.56
403.526	90.56
403.75	85.56
403.974	90.56
404.198	86.56
404.422	107.56
404.645	119.56
404.869	115.56
405.093	97.56
405.317	89.56
405.541	92.56
405.765	78.56
405.988	83.56
406.212	89.56
406.436	78.56
406.66	89.56
406.883	80.56
407.107	89.56
407.331	78.56
407.555	96.56
407.778	81.56
408.002	85.56
408.226	80.56
408.449	80.56
408.673	71.56
408.896	84.56
409.12	82.56
409.344	78.56
409.567	75.56
409.791	87.56
410.014	89.56
410.238	89.56
410.461	79.56
410.685	79.56
410.908	75.56
411.132	95.56
411.355	70.56
411.578	84.56
411.802	85.56
412.025	99.56
412.249	84.56
412.472	88.56
412.695	84.56
412.919	63.56
413.142	90.56
413.365	71.56
413.589	85.56
413.812	86.56
414.035	93.56
414.258	93.56
414.482	73.56
414.705	75.56
414.928	75.56
415.151	88.56
415.374	76.56
415.597	77.56
415.821	85.56
416.044	85.56
416.267	79.56
416.49	92.56
416.713	73.56
416.936	70.56
417.159	83.56
417.382	79.56
417.605	78.56
417.828	85.56
418.051	80.56
418.274	83.56
418.497	87.56
418.72	80.56
418.943	84.56
419.166	87.56
419.389	81.56
419.611	71.56
419.834	93.56
420.057	93.56
420.28	91.56
420.503	76.56
420.726	76.56
420.948	86.56
421.171	75.56
421.394	88.56
421.617	89.56
421.839	94.56
422.062	88.56
422.285	111.56
422.507	138.56
422.73	161.56
422.953	153.56
423.175	107.56
423.398	83.56
423.621	80.56
423.843	85.56
424.066	91.56
424.288	81.56
424.511	84.56
424.733	82.56
424.956	80.56
425.178	89.56
425.401	89.56
425.623	86.56
425.846	77.56
426.068	91.56
426.291	86.56
426.513	74.56
426.735	84.56
426.958	89.56
427.18	94.56
427.402	87.56
427.625	101.56
427.847	78.56
428.069	81.56
428.292	97.56
428.514	107.56
428.736	103.56
428.958	108.56
429.181	90.56
429.403	98.56
429.625	91.56
429.847	92.56
430.069	113.56
430.292	113.56
430.514	103.56
430.736	99.56
430.958	108.56
431.18	82.56
431.402	86.56
431.624	97.56
431.846	93.56
432.068	97.56
432.29	88.56
432.512	85.56
432.734	87.56
432.956	85.56
433.178	92.56
433.4	81.56
433.622	79.56
433.844	77.56
434.066	77.56
434.287	84.56
434.509	86.56
434.731	84.56
434.953	77.56
435.175	82.56
435.397	88.56
435.618	78.56
435.84	83.56
436.062	85.56
436.284	77.56
436.505	79.56
436.727	72.56
436.949	78.56
437.17	80.56
437.392	88.56
437.614	72.56
437.835	77.56
438.057	82.56
438.278	85.56
438.5	72.56
438.721	86.56
438.943	73.56
439.165	75.56
439.386	83.56
439.608	90.56
439.829	86.56
440.05	85.56
440.272	83.56
440.493	88.56
440.715	72.56
440.936	96.56
441.158	77.56
441.379	88.56
441.6	84.56
441.822	83.56
442.043	79.56
442.264	82.56
442.486	92.56
442.707	108.56
442.928	78.56
443.149	85.56
443.371	125.56
443.592	119.56
443.813	117.56
444.034	80.56
444.255	86.56
444.476	103.56
444.698	67.56
444.919	92.56
445.14	151.56
445.361	152.56
445.582	154.56
445.803	127.56
446.024	106.56
446.245	81.56
446.466	101.56
446.687	85.56
446.908	85.56
447.129	81.56
447.35	90.56
447.571	81.56
447.792	74.56
448.013	80.56
448.234	82.56
448.455	94.56
448.675	97.56
448.896	81.56
449.117	88.56
449.338	77.56
449.559	85.56
449.779	75.56
450	73.56
450.221	79.56
450.442	72.56
450.662	69.56
450.883	79.56
451.104	100.56
451.324	73.56
451.545	83.56
451.766	81.56
451.986	87.56
452.207	94.56
452.428	92.56
452.648	92.56
452.869	79.56
453.089	79.56
453.31	98.56
453.53	91.56
453.751	91.56
453.971	75.56
454.192	87.56
454.412	68.56
454.633	74.56
454.853	77.56
455.073	78.56
455.294	78.56
455.514	92.56
455.734	77.56
455.955	81.56
456.175	88.56
456.395	77.56
456.616	74.56
456.836	88.56
457.056	88.56
457.276	67.56
457.497	73.56
457.717	86.56
457.937	91.56
458.157	96.56
458.377	83.56
458.598	102.56
458.818	98.56
459.038	85.56
459.258	87.56
459.478	78.56
459.698	78.56
459.918	80.56
460.138	87.56
460.358	92.56
460.578	76.56
460.798	86.56
461.018	84.56
461.238	94.56
461.458	77.56
461.678	82.56
461.898	95.56
462.118	86.56
462.338	83.56
462.558	86.56
462.777	74.56
462.997	94.56
463.217	85.56
463.437	71.56
463.657	64.56
463.876	89.56
464.096	82.56
464.316	87.56
464.536	85.56
464.755	77.56
464.975	79.56
465.195	79.56
465.414	79.56
465.634	71.56
465.854	82.56
466.073	82.56
466.293	78.56
466.512	78.56
466.732	94.56
466.951	97.56
467.171	80.56
467.391	87.56
467.61	91.56
467.829	87.56
468.049	79.56
468.268	87.56
468.488	76.56
468.707	77.56
468.927	91.56
469.146	80.56
469.365	78.56
469.585	97.56
469.804	73.56
470.023	94.56
470.243	91.56
470.462	96.56
470.681	89.56
470.901	83.56
471.12	89.56
471.339	79.56
471.558	78.56
471.777	94.56
471.997	70.56
472.216	83.56
472.435	77.56
472.654	96.56
472.873	97.56
473.092	78.56
473.311	99.56
473.53	89.56
473.749	89.56
473.968	84.56
474.187	89.56
474.406	77.56
474.625	84.56
474.844	89.56
475.063	83.56
475.282	83.56
475.501	79.56
475.72	103.56
475.939	91.56
476.158	88.56
476.377	79.56
476.596	85.56
476.814	86.56
477.033	76.56
477.252	80.56
477.471	85.56
477.69	84.56
477.908	81.56
478.127	98.56
478.346	86.56
478.564	83.56
478.783	89.56
479.002	88.56
479.22	83.56
479.439	80.56
479.658	100.56
479.876	89.56
480.095	79.56
480.313	79.56
480.532	87.56
480.751	89.56
480.969	94.56
481.188	94.56
481.406	94.56
481.624	88.56
481.843	97.56
482.061	81.56
482.28	83.56
482.498	77.56
482.717	77.56
482.935	79.56
483.153	72.56
483.372	87.56
483.59	88.56
483.808	83.56
484.027	92.56
484.245	91.56
484.463	84.56
484.681	93.56
484.9	95.56
485.118	93.56
485.336	88.56
485.554	81.56
485.772	95.56
485.99	89.56
486.209	84.56
486.427	80.56
486.645	80.56
486.863	99.56
487.081	80.56
487.299	80.56
487.517	83.56
487.735	79.56
487.953	86.56
488.171	112.56
488.389	91.56
488.607	88.56
488.825	84.56
489.043	86.56
489.261	88.56
489.479	89.56
489.696	77.56
489.914	92.56
490.132	79.56
490.35	91.56
490.568	81.56
490.786	86.56
491.003	81.56
491.221	90.56
491.439	80.56
491.657	70.56
491.874	90.56
492.092	82.56
492.31	87.56
492.527	86.56
492.745	84.56
492.963	96.56
493.18	96.56
493.398	101.56
493.615	87.56
493.833	92.56
494.05	85.56
494.268	84.56
494.485	93.56
494.703	83.56
494.92	88.56
495.138	95.56
495.355	80.56
495.573	83.56
495.79	69.56
496.008	103.56
496.225	100.56
496.442	92.56
496.66	101.56
496.877	96.56
497.094	80.56
497.312	81.56
497.529	80.56
497.746	84.56
497.963	82.56
498.181	92.56
498.398	79.56
498.615	79.56
498.832	90.56
499.049	87.56
499.267	95.56
499.484	85.56
499.701	85.56
499.918	89.56
500.135	87.56
500.352	83.56
500.569	88.56
500.786	80.56
501.003	89.56
501.22	87.56
501.437	99.56
501.654	83.56
501.871	72.56
502.088	86.56
502.305	101.56
502.522	104.56
502.739	88.56
502.956	78.56
503.172	81.56
503.389	92.56
503.606	90.56
503.823	93.56
504.04	86.56
504.256	99.56
504.473	81.56
504.69	97.56
504.907	96.56
505.123	82.56
505.34	82.56
505.557	78.56
505.773	75.56
505.99	84.56
506.207	80.56
506.423	93.56
506.64	92.56
506.856	78.56
507.073	80.56
507.289	81.56
507.506	85.56
507.722	92.56
507.939	87.56
508.155	84.56
508.372	92.56
508.588	99.56
508.805	93.56
509.021	82.56
509.238	75.56
509.454	75.56
509.67	73.56
509.887	80.56
510.103	88.56
510.319	88.56
510.536	95.56
510.752	91.56
510.968	86.56
511.184	81.56
511.401	84.56
511.617	93.56
511.833	83.56
512.049	72.56
512.265	74.56
512.481	91.56
512.698	90.56
512.914	92.56
513.13	87.56
513.346	84.56
513.562	83.56
513.778	88.56
513.994	96.56
514.21	77.56
514.426	79.56
514.642	96.56
514.858	91.56
515.074	79.56
515.29	84.56
515.506	101.56
515.721	92.56
515.937	91.56
516.153	93.56
516.369	73.56
516.585	78.56
516.801	85.56
517.016	75.56
517.232	82.56
517.448	87.56
517.664	89.56
517.879	95.56
518.095	86.56
518.311	93.56
518.527	90.56
518.742	99.56
518.958	101.56
519.173	111.56
