Data from Mixheat3_HRD10591_00013.txt Node
Date: Fri Dec 27 15:10:35 EST 2024
User: Yrep
Spectrometer: HR+D1059
Trigger mode: 1
Integration Time (sec): 1.000000E-1
Scans to average: 1
Electric dark correction enabled: true
Nonlinearity correction enabled: false
Boxcar width: 0
XAxis mode: Wavelengths
Number of Pixels in Spectrum: 2048
>>>>>Begin Spectral Data<<<<<
223.165	-9
223.4	-9
223.635	-9
223.869	-17
224.104	-28
224.338	-18
224.573	-9
224.808	-7
225.042	4
225.277	0
225.511	1
225.746	0
225.98	12
226.215	7
226.449	2
226.683	16
226.918	20
227.152	26
227.387	34
227.621	57
227.856	44
228.09	58
228.324	49
228.559	49
228.793	53
229.027	63
229.262	70
229.496	61
229.73	72
229.964	78
230.199	91
230.433	62
230.667	87
230.901	87
231.136	84
231.37	77
231.604	83
231.838	86
232.072	92
232.306	79
232.541	93
232.775	94
233.009	90
233.243	96
233.477	88
233.711	84
233.945	89
234.179	85
234.413	76
234.647	79
234.881	78
235.115	74
235.349	78
235.583	84
235.817	73
236.051	81
236.285	82
236.519	76
236.753	84
236.987	73
237.221	80
237.455	87
237.689	78
237.922	66
238.156	90
238.39	78
238.624	71
238.858	62
239.091	82
239.325	83
239.559	96
239.793	87
240.027	82
240.26	78
240.494	80
240.728	86
240.961	70
241.195	90
241.429	76
241.662	76
241.896	78
242.13	77
242.363	77
242.597	63
242.83	81
243.064	92
243.298	78
243.531	82
243.765	76
243.998	75
244.232	70
244.465	81
244.699	77
244.932	87
245.166	71
245.399	71
245.633	67
245.866	84
246.099	82
246.333	69
246.566	80
246.8	74
247.033	78
247.266	86
247.5	82
247.733	77
247.966	71
248.2	86
248.433	80
248.666	69
248.899	87
249.133	74
249.366	67
249.599	85
249.832	73
250.066	82
250.299	73
250.532	75
250.765	74
250.998	72
251.231	73
251.465	66
251.698	81
251.931	89
252.164	68
252.397	87
252.63	78
252.863	71
253.096	76
253.329	94
253.562	94
253.795	88
254.028	76
254.261	77
254.494	82
254.727	85
254.96	88
255.193	82
255.426	90
255.659	61
255.892	81
256.124	90
256.357	72
256.59	88
256.823	92
257.056	73
257.289	75
257.521	76
257.754	86
257.987	92
258.22	78
258.452	87
258.685	82
258.918	81
259.151	103
259.383	79
259.616	73
259.849	91
260.081	74
260.314	91
260.547	78
260.779	83
261.012	70
261.244	82
261.477	86
261.71	77
261.942	80
262.175	83
262.407	73
262.64	77
262.872	85
263.105	81
263.337	87
263.57	93
263.802	81
264.035	84
264.267	76
264.499	87
264.732	81
264.964	92
265.197	91
265.429	95
265.661	91
265.894	88
266.126	76
266.358	82
266.591	82
266.823	86
267.055	82
267.287	87
267.52	82
267.752	71
267.984	82
268.216	89
268.448	93
268.681	79
268.913	75
269.145	80
269.377	74
269.609	80
269.841	93
270.073	81
270.306	75
270.538	81
270.77	95
271.002	75
271.234	89
271.466	80
271.698	77
271.93	77
272.162	79
272.394	103
272.626	82
272.858	91
273.09	85
273.322	68
273.553	72
273.785	82
274.017	93
274.249	76
274.481	90
274.713	83
274.945	91
275.176	81
275.408	75
275.64	80
275.872	80
276.104	83
276.335	78
276.567	97
276.799	82
277.031	80
277.262	69
277.494	91
277.726	80
277.957	83
278.189	74
278.421	85
278.652	83
278.884	74
279.115	90
279.347	91
279.579	80
279.81	88
280.042	80
280.273	79
280.505	80
280.736	85
280.968	82
281.199	82
281.431	88
281.662	95
281.894	88
282.125	97
282.356	90
282.588	70
282.819	94
283.051	81
283.282	86
283.513	83
283.745	81
283.976	86
284.207	93
284.439	83
284.67	97
284.901	97
285.132	92
285.364	76
285.595	85
285.826	72
286.057	81
286.288	84
286.52	93
286.751	87
286.982	92
287.213	73
287.444	94
287.675	84
287.906	78
288.138	86
288.369	102
288.6	94
288.831	93
289.062	101
289.293	87
289.524	79
289.755	78
289.986	81
290.217	83
290.448	79
290.679	82
290.91	91
291.141	88
291.371	77
291.602	95
291.833	93
292.064	88
292.295	89
292.526	67
292.757	84
292.987	93
293.218	86
293.449	98
293.68	90
293.91	91
294.141	81
294.372	97
294.603	86
294.833	71
295.064	81
295.295	87
295.525	75
295.756	88
295.987	98
296.217	80
296.448	82
296.679	78
296.909	84
297.14	86
297.37	75
297.601	91
297.831	76
298.062	80
298.292	88
298.523	84
298.753	80
298.984	85
299.214	91
299.445	94
299.675	91
299.905	87
300.136	79
300.366	101
300.597	106
300.827	91
301.057	89
301.288	94
301.518	89
301.748	91
301.979	107
302.209	88
302.439	81
302.669	96
302.9	75
303.13	80
303.36	81
303.59	83
303.82	91
304.051	91
304.281	102
304.511	87
304.741	100
304.971	82
305.201	93
305.431	84
305.661	75
305.891	72
306.121	77
306.352	84
306.582	79
306.812	73
307.042	78
307.272	85
307.502	89
307.731	70
307.961	85
308.191	79
308.421	102
308.651	87
308.881	97
309.111	86
309.341	86
309.571	78
309.8	90
310.03	108
310.26	95
310.49	95
310.72	79
310.949	88
311.179	88
311.409	75
311.639	94
311.868	90
312.098	83
312.328	97
312.557	104
312.787	87
313.017	85
313.246	82
313.476	74
313.706	88
313.935	100
314.165	92
314.394	82
314.624	89
314.853	83
315.083	91
315.312	88
315.542	82
315.771	97
316.001	83
316.23	89
316.46	77
316.689	88
316.919	97
317.148	95
317.377	84
317.607	87
317.836	97
318.065	80
318.295	95
318.524	89
318.753	77
318.983	71
319.212	89
319.441	86
319.67	90
319.9	89
320.129	81
320.358	84
320.587	90
320.816	87
321.046	85
321.275	87
321.504	77
321.733	89
321.962	89
322.191	78
322.42	96
322.649	77
322.878	91
323.108	87
323.337	83
323.566	74
323.795	69
324.024	86
324.253	100
324.482	94
324.71	96
324.939	88
325.168	83
325.397	80
325.626	96
325.855	85
326.084	90
326.313	89
326.542	97
326.77	83
326.999	90
327.228	95
327.457	84
327.686	76
327.914	94
328.143	82
328.372	90
328.6	91
328.829	81
329.058	83
329.287	69
329.515	79
329.744	93
329.972	105
330.201	95
330.43	94
330.658	96
330.887	85
331.115	83
331.344	83
331.572	96
331.801	68
332.03	85
332.258	78
332.486	89
332.715	90
332.943	91
333.172	84
333.4	76
333.629	72
333.857	91
334.085	77
334.314	91
334.542	89
334.771	79
334.999	96
335.227	87
335.455	91
335.684	88
335.912	91
336.14	94
336.369	84
336.597	80
336.825	87
337.053	83
337.281	77
337.51	82
337.738	96
337.966	96
338.194	78
338.422	90
338.65	86
338.878	87
339.106	88
339.334	90
339.562	94
339.79	84
340.018	81
340.246	70
340.474	92
340.702	90
340.93	90
341.158	76
341.386	78
341.614	86
341.842	94
342.07	77
342.298	81
342.526	88
342.754	81
342.981	85
343.209	77
343.437	101
343.665	83
343.893	83
344.12	76
344.348	81
344.576	93
344.804	80
345.031	90
345.259	98
345.487	70
345.714	83
345.942	75
346.17	89
346.397	94
346.625	89
346.853	84
347.08	90
347.308	80
347.535	89
347.763	95
347.99	93
348.218	86
348.445	73
348.673	89
348.9	89
349.128	89
349.355	82
349.583	88
349.81	99
350.037	86
350.265	84
350.492	87
350.72	90
350.947	81
351.174	104
351.402	92
351.629	80
351.856	75
352.083	74
352.311	81
352.538	82
352.765	87
352.992	86
353.22	83
353.447	85
353.674	89
353.901	71
354.128	89
354.355	85
354.583	75
354.81	82
355.037	94
355.264	89
355.491	84
355.718	87
355.945	84
356.172	90
356.399	92
356.626	78
356.853	79
357.08	92
357.307	83
357.534	80
357.761	105
357.988	89
358.215	84
358.441	85
358.668	73
358.895	77
359.122	71
359.349	83
359.576	92
359.802	101
360.029	73
360.256	86
360.483	78
360.709	93
360.936	96
361.163	89
361.39	83
361.616	92
361.843	99
362.07	102
362.296	100
362.523	77
362.749	72
362.976	79
363.203	85
363.429	87
363.656	76
363.882	80
364.109	82
364.335	99
364.562	97
364.788	88
365.015	99
365.241	77
365.468	79
365.694	80
365.92	86
366.147	90
366.373	83
366.599	82
366.826	88
367.052	85
367.278	87
367.505	82
367.731	94
367.957	78
368.184	89
368.41	88
368.636	93
368.862	92
369.089	89
369.315	72
369.541	79
369.767	95
369.993	85
370.219	97
370.445	106
370.672	91
370.898	76
371.124	104
371.35	76
371.576	83
371.802	83
372.028	80
372.254	86
372.48	87
372.706	75
372.932	81
373.158	89
373.384	88
373.61	90
373.835	78
374.061	92
374.287	90
374.513	89
374.739	89
374.965	89
375.191	77
375.416	87
375.642	74
375.868	63
376.094	85
376.319	79
376.545	80
376.771	91
376.997	75
377.222	87
377.448	87
377.674	77
377.899	88
378.125	79
378.35	76
378.576	86
378.802	85
379.027	82
379.253	95
379.478	92
379.704	79
379.929	84
380.155	83
380.38	94
380.606	79
380.831	80
381.057	80
381.282	86
381.507	85
381.733	91
381.958	98
382.184	92
382.409	89
382.634	107
382.86	80
383.085	74
383.31	88
383.535	87
383.761	92
383.986	89
384.211	88
384.436	84
384.662	88
384.887	85
385.112	84
385.337	90
385.562	101
385.787	84
386.013	86
386.238	81
386.463	81
386.688	96
386.913	73
387.138	86
387.363	75
387.588	90
387.813	76
388.038	97
388.263	100
388.488	101
388.713	81
388.938	86
389.163	84
389.387	86
389.612	80
389.837	70
390.062	90
390.287	79
390.512	78
390.736	101
390.961	99
391.186	97
391.411	93
391.636	85
391.86	86
392.085	91
392.31	96
392.534	89
392.759	92
392.984	88
393.208	97
393.433	103
393.658	100
393.882	89
394.107	84
394.331	83
394.556	95
394.78	94
395.005	103
395.229	85
395.454	94
395.678	82
395.903	99
396.127	99
396.352	92
396.576	86
396.801	95
397.025	105
397.249	74
397.474	99
397.698	93
397.922	80
398.147	88
398.371	84
398.595	84
398.82	74
399.044	67
399.268	98
399.492	70
399.717	94
399.941	82
400.165	88
400.389	94
400.613	81
400.837	65
401.062	94
401.286	81
401.51	97
401.734	99
401.958	94
402.182	89
402.406	95
402.63	95
402.854	95
403.078	92
403.302	91
403.526	79
403.75	84
403.974	77
404.198	87
404.422	108
404.645	99
404.869	101
405.093	80
405.317	84
405.541	95
405.765	85
405.988	90
406.212	84
406.436	84
406.66	75
406.883	94
407.107	80
407.331	79
407.555	85
407.778	76
408.002	88
408.226	83
408.449	85
408.673	93
408.896	101
409.12	78
409.344	77
409.567	79
409.791	74
410.014	80
410.238	89
410.461	87
410.685	96
410.908	68
411.132	79
411.355	77
411.578	86
411.802	81
412.025	92
412.249	95
412.472	93
412.695	83
412.919	93
413.142	82
413.365	77
413.589	80
413.812	88
414.035	93
414.258	68
414.482	83
414.705	78
414.928	80
415.151	83
415.374	70
415.597	91
415.821	82
416.044	83
416.267	80
416.49	67
416.713	92
416.936	84
417.159	90
417.382	87
417.605	86
417.828	74
418.051	93
418.274	100
418.497	82
418.72	94
418.943	79
419.166	78
419.389	98
419.611	84
419.834	93
420.057	76
420.28	70
420.503	89
420.726	98
420.948	87
421.171	88
421.394	70
421.617	71
421.839	90
422.062	108
422.285	112
422.507	129
422.73	140
422.953	136
423.175	102
423.398	99
423.621	92
423.843	105
424.066	75
424.288	95
424.511	91
424.733	97
424.956	90
425.178	75
425.401	87
425.623	87
425.846	87
426.068	89
426.291	74
426.513	75
426.735	69
426.958	81
427.18	87
427.402	85
427.625	83
427.847	83
428.069	91
428.292	92
428.514	96
428.736	82
428.958	99
429.181	90
429.403	96
429.625	85
429.847	95
430.069	91
430.292	98
430.514	107
430.736	98
430.958	96
431.18	83
431.402	84
431.624	75
431.846	88
432.068	103
432.29	100
432.512	89
432.734	74
432.956	82
433.178	96
433.4	74
433.622	94
433.844	86
434.066	91
434.287	89
434.509	72
434.731	91
434.953	92
435.175	92
435.397	84
435.618	76
435.84	83
436.062	84
436.284	74
436.505	87
436.727	76
436.949	85
437.17	72
437.392	90
437.614	84
437.835	88
438.057	82
438.278	90
438.5	95
438.721	85
438.943	97
439.165	75
439.386	90
439.608	75
439.829	73
440.05	80
440.272	76
440.493	86
440.715	81
440.936	82
441.158	84
441.379	82
441.6	69
441.822	91
442.043	80
442.264	93
442.486	86
442.707	102
442.928	93
443.149	91
443.371	94
443.592	100
443.813	105
444.034	96
444.255	86
444.476	91
444.698	77
444.919	78
445.14	147
445.361	119
445.582	110
445.803	108
446.024	96
446.245	92
446.466	88
446.687	82
446.908	87
447.129	92
447.35	91
447.571	81
447.792	84
448.013	88
448.234	95
448.455	103
448.675	84
448.896	77
449.117	88
449.338	81
449.559	100
449.779	99
450	87
450.221	79
450.442	88
450.662	79
450.883	95
451.104	95
451.324	78
451.545	85
451.766	87
451.986	94
452.207	91
452.428	91
452.648	93
452.869	82
453.089	85
453.31	76
453.53	88
453.751	92
453.971	93
454.192	96
454.412	79
454.633	91
454.853	85
455.073	86
455.294	69
455.514	93
455.734	79
455.955	78
456.175	80
456.395	76
456.616	84
456.836	89
457.056	85
457.276	90
457.497	80
457.717	81
457.937	91
458.157	85
458.377	99
458.598	94
458.818	100
459.038	89
459.258	83
459.478	75
459.698	82
459.918	80
460.138	93
460.358	92
460.578	97
460.798	93
461.018	93
461.238	87
461.458	81
461.678	79
461.898	84
462.118	87
462.338	104
462.558	88
462.777	80
462.997	89
463.217	88
463.437	77
463.657	83
463.876	79
464.096	90
464.316	97
464.536	85
464.755	78
464.975	87
465.195	95
465.414	83
465.634	87
465.854	92
466.073	100
466.293	73
466.512	83
466.732	84
466.951	82
467.171	79
467.391	83
467.61	89
467.829	84
468.049	82
468.268	87
468.488	98
468.707	90
468.927	94
469.146	82
469.365	87
469.585	99
469.804	89
470.023	79
470.243	96
470.462	83
470.681	80
470.901	93
471.12	86
471.339	93
471.558	81
471.777	80
471.997	88
472.216	90
472.435	84
472.654	97
472.873	103
473.092	89
473.311	88
473.53	79
473.749	79
473.968	86
474.187	89
474.406	88
474.625	88
474.844	92
475.063	83
475.282	80
475.501	90
475.72	88
475.939	75
476.158	82
476.377	88
476.596	97
476.814	90
477.033	76
477.252	85
477.471	79
477.69	73
477.908	75
478.127	79
478.346	72
478.564	88
478.783	82
479.002	97
479.22	81
479.439	96
479.658	66
479.876	88
480.095	88
480.313	85
480.532	101
480.751	83
480.969	80
481.188	76
481.406	82
481.624	84
481.843	85
482.061	90
482.28	85
482.498	89
482.717	77
482.935	73
483.153	85
483.372	84
483.59	102
483.808	95
484.027	84
484.245	88
484.463	82
484.681	86
484.9	76
485.118	96
485.336	85
485.554	81
485.772	79
485.99	80
486.209	86
486.427	102
486.645	82
486.863	82
487.081	88
487.299	90
487.517	93
487.735	90
487.953	91
488.171	100
488.389	90
488.607	79
488.825	102
489.043	83
489.261	96
489.479	89
489.696	79
489.914	71
490.132	74
490.35	88
490.568	79
490.786	93
491.003	95
491.221	78
491.439	88
491.657	78
491.874	86
492.092	95
492.31	74
492.527	81
492.745	96
492.963	88
493.18	91
493.398	87
493.615	87
493.833	100
494.05	97
494.268	91
494.485	92
494.703	87
494.92	79
495.138	98
495.355	90
495.573	90
495.79	79
496.008	79
496.225	82
496.442	75
496.66	93
496.877	92
497.094	80
497.312	91
497.529	98
497.746	81
497.963	87
498.181	90
498.398	89
498.615	110
498.832	95
499.049	82
499.267	95
499.484	88
499.701	91
499.918	99
500.135	91
500.352	81
500.569	84
500.786	91
501.003	83
501.22	85
501.437	73
501.654	93
501.871	99
502.088	81
502.305	82
502.522	76
502.739	95
502.956	91
503.172	92
503.389	88
503.606	93
503.823	96
504.04	92
504.256	92
504.473	95
504.69	84
504.907	105
505.123	84
505.34	65
505.557	88
505.773	93
505.99	90
506.207	91
506.423	86
506.64	96
506.856	86
507.073	76
507.289	92
507.506	91
507.722	86
507.939	88
508.155	93
508.372	96
508.588	84
508.805	83
509.021	85
509.238	76
509.454	77
509.67	70
509.887	88
510.103	91
510.319	88
510.536	95
510.752	102
510.968	82
511.184	90
511.401	92
511.617	103
511.833	82
512.049	84
512.265	77
512.481	89
512.698	81
512.914	93
513.13	76
513.346	90
513.562	99
513.778	90
513.994	84
514.21	79
514.426	88
514.642	86
514.858	86
515.074	67
515.29	84
515.506	76
515.721	91
515.937	105
516.153	83
516.369	90
516.585	76
516.801	81
517.016	82
517.232	84
517.448	96
517.664	77
517.879	103
518.095	81
518.311	85
518.527	89
518.742	99
518.958	97
519.173	107
519.389	83
519.605	77
519.82	84
520.036	97
520.251	90
520.467	78
520.682	76
520.898	84
521.113	91
521.329	87
521.544	90
521.76	77
521.975	82
522.19	78
522.406	88
522.621	86
522.836	72
523.052	87
523.267	84
523.482	94
523.698	85
523.913	82
524.128	86
524.343	103
524.559	95
524.774	90
524.989	83
525.204	88
525.419	71
525.634	86
525.849	91
526.064	87
526.28	108
526.495	106
526.71	114
526.925	113
527.14	125
527.355	102
527.57	92
527.785	102
527.999	85
528.214	91
528.429	101
528.644	94
528.859	73
529.074	85
529.289	88
529.503	88
529.718	84
529.933	88
530.148	85
530.363	85
530.577	73
530.792	102
531.007	89
531.221	80
531.436	76
531.651	66
531.865	70
532.08	84
532.295	91
532.509	82
532.724	111
532.938	95
533.153	95
533.367	93
533.582	100
533.796	83
534.011	91
534.225	85
534.44	82
534.654	99
534.868	99
535.083	99
535.297	88
535.511	97
535.726	93
535.94	94
536.154	95
536.369	87
536.583	75
536.797	85
537.011	84
537.225	75
537.44	79
537.654	74
537.868	99
538.082	78
538.296	86
538.51	91
538.724	89
538.938	85
539.153	105
539.367	84
539.581	94
539.795	82
540.009	83
540.222	112
540.436	100
540.65	88
540.864	68
541.078	82
541.292	88
541.506	76
541.72	96
541.934	85
542.147	108
542.361	81
542.575	83
542.789	74
543.002	93
543.216	94
543.43	84
543.644	84
543.857	101
544.071	87
544.285	91
544.498	80
544.712	95
544.925	82
545.139	87
545.352	93
545.566	106
545.779	93
545.993	107
546.206	81
546.42	71
546.633	82
546.847	74
547.06	103
547.274	86
547.487	94
547.7	93
547.914	83
548.127	91
548.34	84
548.554	91
548.767	105
548.98	92
549.193	96
549.407	77
549.62	86
549.833	92
550.046	108
550.259	85
550.473	105
550.686	108
550.899	102
551.112	103
551.325	95
551.538	115
551.751	111
551.964	94
552.177	81
552.39	107
552.603	109
552.816	99
553.029	98
553.242	101
553.455	103
553.667	93
553.88	99
554.093	108
554.306	102
554.519	107
554.732	90
554.944	91
555.157	100
555.37	106
555.583	100
555.795	111
556.008	97
556.221	98
556.433	96
556.646	99
556.859	97
557.071	109
557.284	79
557.496	93
557.709	95
557.921	94
558.134	85
558.346	102
558.559	90
558.771	101
558.984	131
559.196	129
559.409	99
559.621	137
559.833	113
560.046	106
560.258	114
560.47	99
560.683	96
560.895	101
561.107	93
561.32	107
561.532	103
561.744	78
561.956	87
562.168	83
562.381	92
562.593	95
562.805	106
563.017	91
563.229	97
563.441	106
563.653	81
563.865	75
564.077	92
564.289	93
564.501	96
564.713	91
564.925	89
565.137	75
565.349	91
565.561	99
565.773	77
565.985	84
566.197	76
566.408	82
566.62	80
566.832	89
567.044	78
567.255	101
567.467	83
567.679	80
567.891	80
568.102	94
568.314	100
568.526	95
568.737	93
568.949	95
569.161	88
569.372	105
569.584	87
569.795	78
570.007	83
570.218	92
570.43	85
570.641	95
570.853	91
571.064	94
571.276	91
571.487	73
571.698	92
571.91	85
572.121	81
572.333	95
572.544	89
572.755	83
572.966	89
573.178	90
573.389	92
573.6	83
573.811	93
574.023	85
574.234	106
574.445	93
574.656	78
574.867	85
575.078	90
575.289	73
575.501	80
575.712	89
575.923	97
576.134	78
576.345	76
576.556	89
576.767	93
576.978	75
577.188	91
577.399	89
577.61	90
577.821	96
578.032	92
578.243	81
578.454	109
578.665	98
578.875	90
579.086	77
579.297	88
579.508	90
579.718	100
579.929	92
580.14	93
580.35	112
580.561	101
580.772	88
580.982	82
581.193	89
581.403	89
581.614	99
581.825	95
582.035	92
582.246	79
582.456	68
582.667	93
582.877	92
583.087	87
583.298	101
583.508	88
583.719	82
583.929	95
584.139	108
584.35	92
584.56	79
584.77	92
584.981	81
585.191	93
585.401	93
585.611	97
585.821	95
586.032	105
586.242	84
586.452	79
586.662	85
586.872	94
587.082	88
587.292	72
587.502	92
587.713	90
587.923	82
588.133	106
588.343	88
588.553	89
588.762	92
