Data from Mixheat3_HRD10591_00011.txt Node
Date: Fri Dec 27 15:10:33 EST 2024
User: Yrep
Spectrometer: HR+D1059
Trigger mode: 1
Integration Time (sec): 1.000000E-1
Scans to average: 1
Electric dark correction enabled: true
Nonlinearity correction enabled: false
Boxcar width: 0
XAxis mode: Wavelengths
Number of Pixels in Spectrum: 2048
>>>>>Begin Spectral Data<<<<<
223.165	-23.25
223.4	-23.25
223.635	-23.25
223.869	-31.25
224.104	-24.25
224.338	-6.25
224.573	-7.25
224.808	-6.25
225.042	-6.25
225.277	5.75
225.511	-7.25
225.746	13.75
225.98	-6.25
226.215	12.75
226.449	6.75
226.683	17.75
226.918	31.75
227.152	29.75
227.387	42.75
227.621	52.75
227.856	43.75
228.09	49.75
228.324	61.75
228.559	55.75
228.793	58.75
229.027	73.75
229.262	71.75
229.496	70.75
229.73	79.75
229.964	77.75
230.199	77.75
230.433	63.75
230.667	76.75
230.901	83.75
231.136	67.75
231.37	96.75
231.604	76.75
231.838	81.75
232.072	87.75
232.306	87.75
232.541	91.75
232.775	76.75
233.009	83.75
233.243	60.75
233.477	72.75
233.711	87.75
233.945	79.75
234.179	92.75
234.413	86.75
234.647	78.75
234.881	86.75
235.115	81.75
235.349	74.75
235.583	92.75
235.817	83.75
236.051	90.75
236.285	56.75
236.519	81.75
236.753	84.75
236.987	83.75
237.221	78.75
237.455	80.75
237.689	87.75
237.922	81.75
238.156	77.75
238.39	94.75
238.624	80.75
238.858	79.75
239.091	78.75
239.325	85.75
239.559	74.75
239.793	77.75
240.027	65.75
240.26	85.75
240.494	73.75
240.728	72.75
240.961	84.75
241.195	86.75
241.429	69.75
241.662	78.75
241.896	58.75
242.13	84.75
242.363	83.75
242.597	82.75
242.83	89.75
243.064	80.75
243.298	88.75
243.531	67.75
243.765	82.75
243.998	80.75
244.232	92.75
244.465	73.75
244.699	80.75
244.932	89.75
245.166	90.75
245.399	86.75
245.633	83.75
245.866	74.75
246.099	63.75
246.333	83.75
246.566	94.75
246.8	84.75
247.033	85.75
247.266	81.75
247.5	77.75
247.733	78.75
247.966	76.75
248.2	79.75
248.433	78.75
248.666	69.75
248.899	72.75
249.133	85.75
249.366	69.75
249.599	87.75
249.832	84.75
250.066	85.75
250.299	80.75
250.532	88.75
250.765	73.75
250.998	75.75
251.231	82.75
251.465	85.75
251.698	85.75
251.931	89.75
252.164	78.75
252.397	63.75
252.63	86.75
252.863	72.75
253.096	99.75
253.329	75.75
253.562	99.75
253.795	85.75
254.028	90.75
254.261	90.75
254.494	81.75
254.727	88.75
254.96	79.75
255.193	87.75
255.426	72.75
255.659	84.75
255.892	88.75
256.124	74.75
256.357	81.75
256.59	81.75
256.823	75.75
257.056	87.75
257.289	88.75
257.521	95.75
257.754	89.75
257.987	79.75
258.22	88.75
258.452	84.75
258.685	79.75
258.918	88.75
259.151	79.75
259.383	81.75
259.616	81.75
259.849	84.75
260.081	88.75
260.314	77.75
260.547	88.75
260.779	86.75
261.012	76.75
261.244	85.75
261.477	84.75
261.71	68.75
261.942	70.75
262.175	83.75
262.407	83.75
262.64	87.75
262.872	89.75
263.105	82.75
263.337	96.75
263.57	82.75
263.802	75.75
264.035	83.75
264.267	76.75
264.499	70.75
264.732	93.75
264.964	88.75
265.197	74.75
265.429	80.75
265.661	83.75
265.894	79.75
266.126	79.75
266.358	82.75
266.591	84.75
266.823	98.75
267.055	91.75
267.287	97.75
267.52	78.75
267.752	103.75
267.984	91.75
268.216	79.75
268.448	87.75
268.681	95.75
268.913	80.75
269.145	87.75
269.377	90.75
269.609	90.75
269.841	77.75
270.073	75.75
270.306	91.75
270.538	96.75
270.77	84.75
271.002	87.75
271.234	80.75
271.466	87.75
271.698	76.75
271.93	88.75
272.162	89.75
272.394	93.75
272.626	101.75
272.858	85.75
273.09	96.75
273.322	87.75
273.553	79.75
273.785	93.75
274.017	79.75
274.249	87.75
274.481	88.75
274.713	95.75
274.945	77.75
275.176	96.75
275.408	91.75
275.64	88.75
275.872	92.75
276.104	84.75
276.335	86.75
276.567	80.75
276.799	86.75
277.031	87.75
277.262	98.75
277.494	91.75
277.726	79.75
277.957	85.75
278.189	89.75
278.421	92.75
278.652	78.75
278.884	79.75
279.115	83.75
279.347	81.75
279.579	92.75
279.81	87.75
280.042	77.75
280.273	87.75
280.505	77.75
280.736	96.75
280.968	83.75
281.199	79.75
281.431	98.75
281.662	92.75
281.894	78.75
282.125	76.75
282.356	95.75
282.588	87.75
282.819	100.75
283.051	73.75
283.282	82.75
283.513	76.75
283.745	79.75
283.976	83.75
284.207	82.75
284.439	88.75
284.67	85.75
284.901	91.75
285.132	73.75
285.364	87.75
285.595	73.75
285.826	84.75
286.057	70.75
286.288	79.75
286.52	91.75
286.751	89.75
286.982	81.75
287.213	87.75
287.444	83.75
287.675	84.75
287.906	99.75
288.138	97.75
288.369	82.75
288.6	91.75
288.831	69.75
289.062	90.75
289.293	90.75
289.524	85.75
289.755	95.75
289.986	81.75
290.217	87.75
290.448	85.75
290.679	68.75
290.91	82.75
291.141	84.75
291.371	84.75
291.602	88.75
291.833	87.75
292.064	93.75
292.295	87.75
292.526	91.75
292.757	69.75
292.987	90.75
293.218	79.75
293.449	83.75
293.68	91.75
293.91	81.75
294.141	88.75
294.372	75.75
294.603	83.75
294.833	84.75
295.064	106.75
295.295	101.75
295.525	87.75
295.756	80.75
295.987	88.75
296.217	88.75
296.448	90.75
296.679	101.75
296.909	73.75
297.14	88.75
297.37	87.75
297.601	88.75
297.831	90.75
298.062	91.75
298.292	89.75
298.523	89.75
298.753	72.75
298.984	83.75
299.214	100.75
299.445	97.75
299.675	85.75
299.905	84.75
300.136	86.75
300.366	84.75
300.597	91.75
300.827	91.75
301.057	75.75
301.288	79.75
301.518	82.75
301.748	82.75
301.979	115.75
302.209	82.75
302.439	91.75
302.669	88.75
302.9	96.75
303.13	79.75
303.36	83.75
303.59	88.75
303.82	84.75
304.051	81.75
304.281	96.75
304.511	105.75
304.741	83.75
304.971	77.75
305.201	93.75
305.431	91.75
305.661	87.75
305.891	88.75
306.121	85.75
306.352	88.75
306.582	88.75
306.812	85.75
307.042	79.75
307.272	75.75
307.502	95.75
307.731	82.75
307.961	93.75
308.191	106.75
308.421	106.75
308.651	89.75
308.881	81.75
309.111	78.75
309.341	90.75
309.571	97.75
309.8	91.75
310.03	80.75
310.26	82.75
310.49	93.75
310.72	92.75
310.949	84.75
311.179	74.75
311.409	82.75
311.639	84.75
311.868	78.75
312.098	87.75
312.328	86.75
312.557	97.75
312.787	96.75
313.017	85.75
313.246	77.75
313.476	87.75
313.706	75.75
313.935	81.75
314.165	91.75
314.394	100.75
314.624	79.75
314.853	99.75
315.083	85.75
315.312	84.75
315.542	90.75
315.771	81.75
316.001	79.75
316.23	91.75
316.46	92.75
316.689	84.75
316.919	79.75
317.148	88.75
317.377	86.75
317.607	85.75
317.836	76.75
318.065	83.75
318.295	82.75
318.524	93.75
318.753	86.75
318.983	84.75
319.212	80.75
319.441	91.75
319.67	83.75
319.9	80.75
320.129	80.75
320.358	79.75
320.587	77.75
320.816	80.75
321.046	83.75
321.275	88.75
321.504	94.75
321.733	72.75
321.962	94.75
322.191	92.75
322.42	77.75
322.649	91.75
322.878	103.75
323.108	104.75
323.337	93.75
323.566	71.75
323.795	89.75
324.024	80.75
324.253	74.75
324.482	81.75
324.71	85.75
324.939	91.75
325.168	84.75
325.397	88.75
325.626	84.75
325.855	79.75
326.084	84.75
326.313	79.75
326.542	87.75
326.77	78.75
326.999	93.75
327.228	86.75
327.457	99.75
327.686	85.75
327.914	74.75
328.143	84.75
328.372	87.75
328.6	95.75
328.829	80.75
329.058	86.75
329.287	87.75
329.515	88.75
329.744	88.75
329.972	91.75
330.201	86.75
330.43	74.75
330.658	91.75
330.887	84.75
331.115	81.75
331.344	89.75
331.572	91.75
331.801	66.75
332.03	87.75
332.258	96.75
332.486	84.75
332.715	87.75
332.943	81.75
333.172	90.75
333.4	76.75
333.629	99.75
333.857	84.75
334.085	88.75
334.314	79.75
334.542	102.75
334.771	77.75
334.999	90.75
335.227	85.75
335.455	91.75
335.684	91.75
335.912	108.75
336.14	95.75
336.369	93.75
336.597	91.75
336.825	74.75
337.053	77.75
337.281	75.75
337.51	94.75
337.738	89.75
337.966	84.75
338.194	76.75
338.422	83.75
338.65	95.75
338.878	90.75
339.106	89.75
339.334	87.75
339.562	71.75
339.79	81.75
340.018	80.75
340.246	81.75
340.474	85.75
340.702	90.75
340.93	88.75
341.158	88.75
341.386	85.75
341.614	85.75
341.842	76.75
342.07	87.75
342.298	89.75
342.526	91.75
342.754	87.75
342.981	83.75
343.209	91.75
343.437	100.75
343.665	104.75
343.893	91.75
344.12	104.75
344.348	99.75
344.576	93.75
344.804	85.75
345.031	73.75
345.259	82.75
345.487	76.75
345.714	86.75
345.942	74.75
346.17	91.75
346.397	81.75
346.625	91.75
346.853	92.75
347.08	77.75
347.308	83.75
347.535	83.75
347.763	69.75
347.99	89.75
348.218	76.75
348.445	81.75
348.673	78.75
348.9	84.75
349.128	89.75
349.355	87.75
349.583	85.75
349.81	81.75
350.037	88.75
350.265	90.75
350.492	97.75
350.72	85.75
350.947	90.75
351.174	93.75
351.402	88.75
351.629	80.75
351.856	86.75
352.083	86.75
352.311	90.75
352.538	88.75
352.765	83.75
352.992	96.75
353.22	99.75
353.447	90.75
353.674	88.75
353.901	92.75
354.128	83.75
354.355	89.75
354.583	90.75
354.81	84.75
355.037	98.75
355.264	81.75
355.491	94.75
355.718	89.75
355.945	72.75
356.172	78.75
356.399	90.75
356.626	77.75
356.853	73.75
357.08	93.75
357.307	82.75
357.534	85.75
357.761	93.75
357.988	88.75
358.215	84.75
358.441	79.75
358.668	88.75
358.895	83.75
359.122	85.75
359.349	75.75
359.576	82.75
359.802	88.75
360.029	96.75
360.256	84.75
360.483	88.75
360.709	63.75
360.936	76.75
361.163	95.75
361.39	80.75
361.616	67.75
361.843	86.75
362.07	88.75
362.296	85.75
362.523	88.75
362.749	78.75
362.976	84.75
363.203	118.75
363.429	103.75
363.656	89.75
363.882	93.75
364.109	88.75
364.335	94.75
364.562	86.75
364.788	75.75
365.015	100.75
365.241	82.75
365.468	93.75
365.694	82.75
365.92	75.75
366.147	93.75
366.373	85.75
366.599	112.75
366.826	83.75
367.052	82.75
367.278	103.75
367.505	89.75
367.731	90.75
367.957	88.75
368.184	77.75
368.41	70.75
368.636	89.75
368.862	84.75
369.089	83.75
369.315	87.75
369.541	87.75
369.767	94.75
369.993	88.75
370.219	71.75
370.445	93.75
370.672	100.75
370.898	89.75
371.124	81.75
371.35	80.75
371.576	91.75
371.802	87.75
372.028	85.75
372.254	90.75
372.48	91.75
372.706	82.75
372.932	75.75
373.158	87.75
373.384	88.75
373.61	88.75
373.835	93.75
374.061	91.75
374.287	91.75
374.513	92.75
374.739	84.75
374.965	100.75
375.191	92.75
375.416	82.75
375.642	92.75
375.868	89.75
376.094	108.75
376.319	78.75
376.545	91.75
376.771	85.75
376.997	82.75
377.222	86.75
377.448	86.75
377.674	78.75
377.899	95.75
378.125	63.75
378.35	93.75
378.576	92.75
378.802	105.75
379.027	85.75
379.253	100.75
379.478	82.75
379.704	91.75
379.929	79.75
380.155	81.75
380.38	68.75
380.606	80.75
380.831	85.75
381.057	99.75
381.282	93.75
381.507	82.75
381.733	85.75
381.958	98.75
382.184	89.75
382.409	102.75
382.634	96.75
382.86	91.75
383.085	93.75
383.31	90.75
383.535	81.75
383.761	88.75
383.986	84.75
384.211	80.75
384.436	76.75
384.662	77.75
384.887	75.75
385.112	81.75
385.337	88.75
385.562	86.75
385.787	83.75
386.013	96.75
386.238	76.75
386.463	80.75
386.688	100.75
386.913	90.75
387.138	82.75
387.363	87.75
387.588	81.75
387.813	98.75
388.038	91.75
388.263	88.75
388.488	82.75
388.713	87.75
388.938	92.75
389.163	89.75
389.387	85.75
389.612	74.75
389.837	80.75
390.062	78.75
390.287	95.75
390.512	70.75
390.736	81.75
390.961	79.75
391.186	80.75
391.411	91.75
391.636	92.75
391.86	77.75
392.085	80.75
392.31	87.75
392.534	91.75
392.759	97.75
392.984	91.75
393.208	98.75
393.433	132.75
393.658	111.75
393.882	85.75
394.107	87.75
394.331	87.75
394.556	109.75
394.78	80.75
395.005	100.75
395.229	90.75
395.454	97.75
395.678	88.75
395.903	92.75
396.127	113.75
396.352	95.75
396.576	93.75
396.801	128.75
397.025	121.75
397.249	98.75
397.474	97.75
397.698	91.75
397.922	88.75
398.147	82.75
398.371	93.75
398.595	85.75
398.82	80.75
399.044	85.75
399.268	80.75
399.492	80.75
399.717	90.75
399.941	65.75
400.165	85.75
400.389	88.75
400.613	89.75
400.837	86.75
401.062	73.75
401.286	89.75
401.51	82.75
401.734	75.75
401.958	95.75
402.182	95.75
402.406	87.75
402.63	84.75
402.854	84.75
403.078	89.75
403.302	77.75
403.526	83.75
403.75	94.75
403.974	101.75
404.198	89.75
404.422	118.75
404.645	124.75
404.869	116.75
405.093	115.75
405.317	87.75
405.541	83.75
405.765	71.75
405.988	92.75
406.212	106.75
406.436	83.75
406.66	87.75
406.883	82.75
407.107	85.75
407.331	88.75
407.555	106.75
407.778	94.75
408.002	79.75
408.226	76.75
408.449	87.75
408.673	96.75
408.896	85.75
409.12	92.75
409.344	88.75
409.567	92.75
409.791	81.75
410.014	99.75
410.238	81.75
410.461	91.75
410.685	72.75
410.908	92.75
411.132	89.75
411.355	96.75
411.578	89.75
411.802	81.75
412.025	79.75
412.249	91.75
412.472	89.75
412.695	77.75
412.919	73.75
413.142	89.75
413.365	92.75
413.589	80.75
413.812	92.75
414.035	91.75
414.258	84.75
414.482	86.75
414.705	75.75
414.928	71.75
415.151	81.75
415.374	71.75
415.597	79.75
415.821	88.75
416.044	84.75
416.267	91.75
416.49	96.75
416.713	75.75
416.936	83.75
417.159	83.75
417.382	87.75
417.605	97.75
417.828	80.75
418.051	73.75
418.274	82.75
418.497	79.75
418.72	84.75
418.943	84.75
419.166	90.75
419.389	78.75
419.611	80.75
419.834	86.75
420.057	82.75
420.28	89.75
420.503	104.75
420.726	79.75
420.948	96.75
421.171	97.75
421.394	104.75
421.617	76.75
421.839	91.75
422.062	107.75
422.285	120.75
422.507	142.75
422.73	178.75
422.953	159.75
423.175	115.75
423.398	103.75
423.621	109.75
423.843	106.75
424.066	93.75
424.288	84.75
424.511	89.75
424.733	80.75
424.956	92.75
425.178	89.75
425.401	76.75
425.623	79.75
425.846	90.75
426.068	93.75
426.291	80.75
426.513	85.75
426.735	91.75
426.958	93.75
427.18	74.75
427.402	83.75
427.625	99.75
427.847	83.75
428.069	88.75
428.292	110.75
428.514	106.75
428.736	92.75
428.958	98.75
429.181	104.75
429.403	81.75
429.625	94.75
429.847	109.75
430.069	113.75
430.292	111.75
430.514	124.75
430.736	119.75
430.958	111.75
431.18	89.75
431.402	74.75
431.624	101.75
431.846	105.75
432.068	110.75
432.29	82.75
432.512	93.75
432.734	94.75
432.956	96.75
433.178	96.75
433.4	83.75
433.622	98.75
433.844	86.75
434.066	83.75
434.287	78.75
434.509	82.75
434.731	73.75
434.953	85.75
435.175	88.75
435.397	82.75
435.618	81.75
435.84	91.75
436.062	83.75
436.284	84.75
436.505	95.75
436.727	88.75
436.949	97.75
437.17	89.75
437.392	86.75
437.614	77.75
437.835	83.75
438.057	87.75
438.278	85.75
438.5	95.75
438.721	96.75
438.943	81.75
439.165	80.75
439.386	79.75
439.608	101.75
439.829	79.75
440.05	94.75
440.272	87.75
440.493	89.75
440.715	90.75
440.936	78.75
441.158	100.75
441.379	78.75
441.6	95.75
441.822	79.75
442.043	89.75
442.264	92.75
442.486	93.75
442.707	99.75
442.928	90.75
443.149	99.75
443.371	117.75
443.592	128.75
443.813	110.75
444.034	76.75
444.255	82.75
444.476	99.75
444.698	84.75
444.919	84.75
445.14	158.75
445.361	151.75
445.582	156.75
445.803	137.75
446.024	101.75
446.245	86.75
446.466	91.75
446.687	76.75
446.908	89.75
447.129	81.75
447.35	98.75
447.571	76.75
447.792	89.75
448.013	80.75
448.234	111.75
448.455	70.75
448.675	105.75
448.896	83.75
449.117	89.75
449.338	88.75
449.559	88.75
449.779	83.75
450	97.75
450.221	80.75
450.442	74.75
450.662	100.75
450.883	90.75
451.104	95.75
451.324	73.75
451.545	98.75
451.766	99.75
451.986	97.75
452.207	90.75
452.428	80.75
452.648	79.75
452.869	82.75
453.089	83.75
453.31	76.75
453.53	98.75
453.751	84.75
453.971	90.75
454.192	85.75
454.412	92.75
454.633	92.75
454.853	75.75
455.073	78.75
455.294	89.75
455.514	95.75
455.734	77.75
455.955	95.75
456.175	86.75
456.395	91.75
456.616	99.75
456.836	89.75
457.056	87.75
457.276	71.75
457.497	87.75
457.717	92.75
457.937	93.75
458.157	85.75
458.377	108.75
458.598	92.75
458.818	89.75
459.038	92.75
459.258	86.75
459.478	90.75
459.698	88.75
459.918	87.75
460.138	75.75
460.358	84.75
460.578	91.75
460.798	101.75
461.018	94.75
461.238	94.75
461.458	94.75
461.678	71.75
461.898	86.75
462.118	91.75
462.338	94.75
462.558	80.75
462.777	82.75
462.997	87.75
463.217	86.75
463.437	73.75
463.657	81.75
463.876	90.75
464.096	98.75
464.316	85.75
464.536	89.75
464.755	83.75
464.975	83.75
465.195	88.75
465.414	92.75
465.634	78.75
465.854	87.75
466.073	93.75
466.293	80.75
466.512	75.75
466.732	85.75
466.951	85.75
467.171	92.75
467.391	76.75
467.61	103.75
467.829	85.75
468.049	82.75
468.268	92.75
468.488	76.75
468.707	79.75
468.927	88.75
469.146	82.75
469.365	92.75
469.585	91.75
469.804	84.75
470.023	86.75
470.243	89.75
470.462	93.75
470.681	83.75
470.901	92.75
471.12	104.75
471.339	83.75
471.558	87.75
471.777	84.75
471.997	81.75
472.216	88.75
472.435	82.75
472.654	68.75
472.873	82.75
473.092	98.75
473.311	97.75
473.53	100.75
473.749	92.75
473.968	95.75
474.187	84.75
474.406	92.75
474.625	95.75
474.844	88.75
475.063	89.75
475.282	91.75
475.501	86.75
475.72	100.75
475.939	87.75
476.158	80.75
476.377	83.75
476.596	83.75
476.814	103.75
477.033	96.75
477.252	92.75
477.471	95.75
477.69	103.75
477.908	91.75
478.127	98.75
478.346	87.75
478.564	84.75
478.783	80.75
479.002	89.75
479.22	74.75
479.439	93.75
479.658	89.75
479.876	84.75
480.095	64.75
480.313	90.75
480.532	82.75
480.751	90.75
480.969	85.75
481.188	93.75
481.406	97.75
481.624	72.75
481.843	87.75
482.061	85.75
482.28	94.75
482.498	71.75
482.717	86.75
482.935	90.75
483.153	75.75
483.372	91.75
483.59	86.75
483.808	79.75
484.027	96.75
484.245	79.75
484.463	93.75
484.681	106.75
484.9	90.75
485.118	89.75
485.336	83.75
485.554	89.75
485.772	103.75
485.99	95.75
486.209	79.75
486.427	85.75
486.645	84.75
486.863	84.75
487.081	99.75
487.299	77.75
487.517	87.75
487.735	94.75
487.953	106.75
488.171	102.75
488.389	96.75
488.607	85.75
488.825	82.75
489.043	87.75
489.261	87.75
489.479	92.75
489.696	97.75
489.914	87.75
490.132	78.75
490.35	80.75
490.568	81.75
490.786	92.75
491.003	92.75
491.221	87.75
491.439	91.75
491.657	77.75
491.874	90.75
492.092	79.75
492.31	87.75
492.527	95.75
492.745	95.75
492.963	97.75
493.18	96.75
493.398	88.75
493.615	89.75
493.833	107.75
494.05	87.75
494.268	91.75
494.485	81.75
494.703	81.75
494.92	87.75
495.138	88.75
495.355	92.75
495.573	90.75
495.79	77.75
496.008	92.75
496.225	85.75
496.442	71.75
496.66	95.75
496.877	82.75
497.094	91.75
497.312	84.75
497.529	91.75
497.746	102.75
497.963	86.75
498.181	88.75
498.398	87.75
498.615	92.75
498.832	92.75
499.049	82.75
499.267	86.75
499.484	80.75
499.701	107.75
499.918	95.75
500.135	94.75
500.352	82.75
500.569	100.75
500.786	98.75
501.003	91.75
501.22	75.75
501.437	81.75
501.654	83.75
501.871	78.75
502.088	89.75
502.305	84.75
502.522	82.75
502.739	93.75
502.956	96.75
503.172	89.75
503.389	97.75
503.606	97.75
503.823	76.75
504.04	84.75
504.256	91.75
504.473	81.75
504.69	98.75
504.907	109.75
505.123	86.75
505.34	100.75
505.557	102.75
505.773	81.75
505.99	87.75
506.207	81.75
506.423	90.75
506.64	89.75
506.856	85.75
507.073	73.75
507.289	96.75
507.506	96.75
507.722	85.75
507.939	86.75
508.155	86.75
508.372	88.75
508.588	88.75
508.805	83.75
509.021	96.75
509.238	83.75
509.454	83.75
509.67	85.75
509.887	92.75
510.103	89.75
510.319	87.75
510.536	95.75
510.752	84.75
510.968	80.75
511.184	96.75
511.401	114.75
511.617	89.75
511.833	79.75
512.049	93.75
512.265	77.75
512.481	76.75
512.698	81.75
512.914	81.75
513.13	88.75
513.346	81.75
513.562	88.75
513.778	97.75
513.994	82.75
514.21	90.75
514.426	94.75
514.642	75.75
514.858	99.75
515.074	98.75
515.29	92.75
515.506	98.75
515.721	83.75
515.937	81.75
516.153	96.75
516.369	105.75
516.585	96.75
516.801	97.75
517.016	95.75
517.232	94.75
517.448	79.75
517.664	91.75
517.879	93.75
518.095	84.75
518.311	89.75
518.527	94.75
518.742	84.75
