Data from Mixheat3_HRD10591_00014.txt Node
Date: Fri Dec 27 15:10:36 EST 2024
User: Yrep
Spectrometer: HR+D1059
Trigger mode: 1
Integration Time (sec): 1.000000E-1
Scans to average: 1
Electric dark correction enabled: true
Nonlinearity correction enabled: false
Boxcar width: 0
XAxis mode: Wavelengths
Number of Pixels in Spectrum: 2048
>>>>>Begin Spectral Data<<<<<
223.165	-37.12
223.4	-37.12
223.635	-37.12
223.869	-19.12
224.104	-4.12
224.338	-10.12
224.573	-17.12
224.808	-2.12
225.042	-18.12
225.277	-11.12
225.511	-8.12
225.746	7.88
225.98	5.88
226.215	2.88
226.449	4.88
226.683	32.88
226.918	49.88
227.152	22.88
227.387	40.88
227.621	43.88
227.856	40.88
228.09	50.88
228.324	46.88
228.559	51.88
228.793	59.88
229.027	68.88
229.262	57.88
229.496	71.88
229.73	69.88
229.964	93.88
230.199	72.88
230.433	74.88
230.667	73.88
230.901	61.88
231.136	73.88
231.37	84.88
231.604	67.88
231.838	81.88
232.072	75.88
232.306	74.88
232.541	83.88
232.775	91.88
233.009	94.88
233.243	81.88
233.477	95.88
233.711	96.88
233.945	74.88
234.179	97.88
234.413	84.88
234.647	80.88
234.881	68.88
235.115	79.88
235.349	76.88
235.583	71.88
235.817	94.88
236.051	97.88
236.285	87.88
236.519	75.88
236.753	84.88
236.987	79.88
237.221	79.88
237.455	84.88
237.689	79.88
237.922	69.88
238.156	85.88
238.39	79.88
238.624	87.88
238.858	88.88
239.091	88.88
239.325	68.88
239.559	89.88
239.793	84.88
240.027	100.88
240.26	94.88
240.494	83.88
240.728	65.88
240.961	89.88
241.195	86.88
241.429	74.88
241.662	78.88
241.896	77.88
242.13	80.88
242.363	85.88
242.597	74.88
242.83	84.88
243.064	69.88
243.298	77.88
243.531	69.88
243.765	74.88
243.998	83.88
244.232	82.88
244.465	81.88
244.699	73.88
244.932	77.88
245.166	88.88
245.399	89.88
245.633	86.88
245.866	73.88
246.099	63.88
246.333	80.88
246.566	82.88
246.8	91.88
247.033	90.88
247.266	84.88
247.5	80.88
247.733	74.88
247.966	79.88
248.2	73.88
248.433	75.88
248.666	85.88
248.899	90.88
249.133	96.88
249.366	95.88
249.599	88.88
249.832	70.88
250.066	75.88
250.299	83.88
250.532	82.88
250.765	74.88
250.998	78.88
251.231	86.88
251.465	75.88
251.698	75.88
251.931	85.88
252.164	89.88
252.397	88.88
252.63	76.88
252.863	58.88
253.096	93.88
253.329	84.88
253.562	83.88
253.795	81.88
254.028	84.88
254.261	79.88
254.494	88.88
254.727	86.88
254.96	75.88
255.193	77.88
255.426	77.88
255.659	96.88
255.892	73.88
256.124	80.88
256.357	78.88
256.59	81.88
256.823	93.88
257.056	79.88
257.289	78.88
257.521	87.88
257.754	79.88
257.987	75.88
258.22	95.88
258.452	85.88
258.685	81.88
258.918	84.88
259.151	71.88
259.383	89.88
259.616	68.88
259.849	72.88
260.081	78.88
260.314	96.88
260.547	76.88
260.779	79.88
261.012	99.88
261.244	74.88
261.477	98.88
261.71	85.88
261.942	79.88
262.175	78.88
262.407	81.88
262.64	80.88
262.872	84.88
263.105	78.88
263.337	87.88
263.57	98.88
263.802	85.88
264.035	76.88
264.267	92.88
264.499	85.88
264.732	81.88
264.964	87.88
265.197	93.88
265.429	90.88
265.661	69.88
265.894	95.88
266.126	97.88
266.358	88.88
266.591	87.88
266.823	93.88
267.055	101.88
267.287	88.88
267.52	91.88
267.752	80.88
267.984	95.88
268.216	70.88
268.448	89.88
268.681	77.88
268.913	74.88
269.145	88.88
269.377	70.88
269.609	65.88
269.841	89.88
270.073	79.88
270.306	79.88
270.538	78.88
270.77	83.88
271.002	79.88
271.234	75.88
271.466	98.88
271.698	100.88
271.93	81.88
272.162	85.88
272.394	80.88
272.626	85.88
272.858	87.88
273.09	98.88
273.322	81.88
273.553	91.88
273.785	89.88
274.017	83.88
274.249	98.88
274.481	87.88
274.713	79.88
274.945	95.88
275.176	85.88
275.408	86.88
275.64	94.88
275.872	88.88
276.104	74.88
276.335	81.88
276.567	83.88
276.799	80.88
277.031	75.88
277.262	81.88
277.494	79.88
277.726	91.88
277.957	80.88
278.189	85.88
278.421	77.88
278.652	81.88
278.884	93.88
279.115	74.88
279.347	89.88
279.579	88.88
279.81	92.88
280.042	85.88
280.273	91.88
280.505	95.88
280.736	82.88
280.968	99.88
281.199	84.88
281.431	78.88
281.662	91.88
281.894	89.88
282.125	77.88
282.356	91.88
282.588	88.88
282.819	100.88
283.051	81.88
283.282	103.88
283.513	87.88
283.745	86.88
283.976	72.88
284.207	92.88
284.439	98.88
284.67	87.88
284.901	93.88
285.132	93.88
285.364	95.88
285.595	79.88
285.826	87.88
286.057	91.88
286.288	89.88
286.52	87.88
286.751	96.88
286.982	87.88
287.213	74.88
287.444	77.88
287.675	74.88
287.906	81.88
288.138	83.88
288.369	93.88
288.6	82.88
288.831	88.88
289.062	103.88
289.293	85.88
289.524	83.88
289.755	77.88
289.986	81.88
290.217	84.88
290.448	91.88
290.679	90.88
290.91	90.88
291.141	103.88
291.371	87.88
291.602	89.88
291.833	81.88
292.064	89.88
292.295	88.88
292.526	95.88
292.757	79.88
292.987	90.88
293.218	81.88
293.449	79.88
293.68	89.88
293.91	88.88
294.141	92.88
294.372	91.88
294.603	96.88
294.833	99.88
295.064	78.88
295.295	83.88
295.525	92.88
295.756	86.88
295.987	79.88
296.217	87.88
296.448	87.88
296.679	97.88
296.909	82.88
297.14	107.88
297.37	90.88
297.601	84.88
297.831	104.88
298.062	98.88
298.292	107.88
298.523	85.88
298.753	86.88
298.984	83.88
299.214	94.88
299.445	82.88
299.675	87.88
299.905	82.88
300.136	101.88
300.366	83.88
300.597	82.88
300.827	92.88
301.057	78.88
301.288	90.88
301.518	89.88
301.748	79.88
301.979	100.88
302.209	97.88
302.439	84.88
302.669	73.88
302.9	89.88
303.13	79.88
303.36	85.88
303.59	89.88
303.82	95.88
304.051	93.88
304.281	87.88
304.511	76.88
304.741	82.88
304.971	92.88
305.201	99.88
305.431	87.88
305.661	92.88
305.891	89.88
306.121	87.88
306.352	84.88
306.582	83.88
306.812	90.88
307.042	74.88
307.272	96.88
307.502	94.88
307.731	79.88
307.961	77.88
308.191	72.88
308.421	85.88
308.651	96.88
308.881	92.88
309.111	90.88
309.341	68.88
309.571	86.88
309.8	96.88
310.03	90.88
310.26	91.88
310.49	92.88
310.72	95.88
310.949	88.88
311.179	85.88
311.409	92.88
311.639	82.88
311.868	104.88
312.098	82.88
312.328	91.88
312.557	90.88
312.787	79.88
313.017	80.88
313.246	76.88
313.476	92.88
313.706	79.88
313.935	91.88
314.165	98.88
314.394	78.88
314.624	78.88
314.853	88.88
315.083	79.88
315.312	90.88
315.542	95.88
315.771	100.88
316.001	92.88
316.23	87.88
316.46	80.88
316.689	95.88
316.919	67.88
317.148	88.88
317.377	94.88
317.607	78.88
317.836	101.88
318.065	93.88
318.295	92.88
318.524	88.88
318.753	85.88
318.983	86.88
319.212	75.88
319.441	75.88
319.67	80.88
319.9	77.88
320.129	100.88
320.358	93.88
320.587	106.88
320.816	75.88
321.046	96.88
321.275	79.88
321.504	98.88
321.733	86.88
321.962	75.88
322.191	70.88
322.42	99.88
322.649	84.88
322.878	78.88
323.108	87.88
323.337	91.88
323.566	83.88
323.795	91.88
324.024	83.88
324.253	92.88
324.482	80.88
324.71	86.88
324.939	91.88
325.168	94.88
325.397	90.88
325.626	85.88
325.855	90.88
326.084	82.88
326.313	92.88
326.542	91.88
326.77	91.88
326.999	85.88
327.228	92.88
327.457	93.88
327.686	98.88
327.914	96.88
328.143	98.88
328.372	88.88
328.6	82.88
328.829	98.88
329.058	81.88
329.287	85.88
329.515	89.88
329.744	81.88
329.972	88.88
330.201	101.88
330.43	84.88
330.658	92.88
330.887	96.88
331.115	77.88
331.344	96.88
331.572	109.88
331.801	87.88
332.03	70.88
332.258	80.88
332.486	93.88
332.715	84.88
332.943	96.88
333.172	100.88
333.4	84.88
333.629	94.88
333.857	99.88
334.085	86.88
334.314	82.88
334.542	88.88
334.771	91.88
334.999	83.88
335.227	84.88
335.455	89.88
335.684	98.88
335.912	87.88
336.14	84.88
336.369	77.88
336.597	82.88
336.825	100.88
337.053	94.88
337.281	95.88
337.51	102.88
337.738	81.88
337.966	81.88
338.194	76.88
338.422	89.88
338.65	100.88
338.878	93.88
339.106	85.88
339.334	88.88
339.562	94.88
339.79	84.88
340.018	100.88
340.246	82.88
340.474	85.88
340.702	97.88
340.93	93.88
341.158	88.88
341.386	95.88
341.614	94.88
341.842	86.88
342.07	83.88
342.298	74.88
342.526	95.88
342.754	91.88
342.981	83.88
343.209	83.88
343.437	95.88
343.665	90.88
343.893	102.88
344.12	90.88
344.348	101.88
344.576	98.88
344.804	85.88
345.031	90.88
345.259	97.88
345.487	80.88
345.714	85.88
345.942	86.88
346.17	89.88
346.397	85.88
346.625	88.88
346.853	89.88
347.08	80.88
347.308	106.88
347.535	85.88
347.763	86.88
347.99	92.88
348.218	80.88
348.445	77.88
348.673	92.88
348.9	84.88
349.128	89.88
349.355	108.88
349.583	79.88
349.81	75.88
350.037	80.88
350.265	79.88
350.492	95.88
350.72	90.88
350.947	85.88
351.174	92.88
351.402	81.88
351.629	78.88
351.856	89.88
352.083	89.88
352.311	91.88
352.538	85.88
352.765	92.88
352.992	108.88
353.22	90.88
353.447	84.88
353.674	98.88
353.901	87.88
354.128	84.88
354.355	83.88
354.583	82.88
354.81	99.88
355.037	91.88
355.264	83.88
355.491	79.88
355.718	84.88
355.945	89.88
356.172	85.88
356.399	92.88
356.626	71.88
356.853	80.88
357.08	84.88
357.307	96.88
357.534	85.88
357.761	95.88
357.988	92.88
358.215	94.88
358.441	80.88
358.668	87.88
358.895	92.88
359.122	98.88
359.349	92.88
359.576	87.88
359.802	92.88
360.029	85.88
360.256	80.88
360.483	91.88
360.709	85.88
360.936	79.88
361.163	91.88
361.39	82.88
361.616	81.88
361.843	88.88
362.07	99.88
362.296	95.88
362.523	82.88
362.749	58.88
362.976	87.88
363.203	97.88
363.429	97.88
363.656	86.88
363.882	84.88
364.109	92.88
364.335	85.88
364.562	88.88
364.788	100.88
365.015	89.88
365.241	80.88
365.468	95.88
365.694	111.88
365.92	81.88
366.147	95.88
366.373	81.88
366.599	74.88
366.826	93.88
367.052	80.88
367.278	87.88
367.505	85.88
367.731	100.88
367.957	82.88
368.184	83.88
368.41	80.88
368.636	88.88
368.862	82.88
369.089	90.88
369.315	77.88
369.541	91.88
369.767	85.88
369.993	92.88
370.219	92.88
370.445	100.88
370.672	84.88
370.898	76.88
371.124	88.88
371.35	69.88
371.576	90.88
371.802	95.88
372.028	87.88
372.254	85.88
372.48	85.88
372.706	66.88
372.932	84.88
373.158	71.88
373.384	75.88
373.61	91.88
373.835	72.88
374.061	89.88
374.287	89.88
374.513	79.88
374.739	85.88
374.965	107.88
375.191	89.88
375.416	87.88
375.642	77.88
375.868	82.88
376.094	88.88
376.319	85.88
376.545	90.88
376.771	93.88
376.997	85.88
377.222	98.88
377.448	100.88
377.674	77.88
377.899	84.88
378.125	86.88
378.35	98.88
378.576	76.88
378.802	87.88
379.027	87.88
379.253	92.88
379.478	71.88
379.704	90.88
379.929	85.88
380.155	89.88
380.38	96.88
380.606	79.88
380.831	78.88
381.057	78.88
381.282	85.88
381.507	92.88
381.733	95.88
381.958	88.88
382.184	66.88
382.409	97.88
382.634	100.88
382.86	82.88
383.085	94.88
383.31	78.88
383.535	83.88
383.761	96.88
383.986	84.88
384.211	94.88
384.436	82.88
384.662	96.88
384.887	90.88
385.112	80.88
385.337	88.88
385.562	93.88
385.787	83.88
386.013	80.88
386.238	80.88
386.463	69.88
386.688	100.88
386.913	92.88
387.138	92.88
387.363	82.88
387.588	101.88
387.813	96.88
388.038	80.88
388.263	89.88
388.488	85.88
388.713	80.88
388.938	92.88
389.163	88.88
389.387	105.88
389.612	96.88
389.837	79.88
390.062	80.88
390.287	95.88
390.512	91.88
390.736	96.88
390.961	82.88
391.186	91.88
391.411	93.88
391.636	91.88
391.86	91.88
392.085	94.88
392.31	77.88
392.534	85.88
392.759	101.88
392.984	90.88
393.208	95.88
393.433	120.88
393.658	89.88
393.882	94.88
394.107	95.88
394.331	99.88
394.556	89.88
394.78	102.88
395.005	86.88
395.229	101.88
395.454	76.88
395.678	79.88
395.903	93.88
396.127	92.88
396.352	99.88
396.576	106.88
396.801	100.88
397.025	97.88
397.249	87.88
397.474	78.88
397.698	84.88
397.922	77.88
398.147	83.88
398.371	75.88
398.595	80.88
398.82	93.88
399.044	93.88
399.268	78.88
399.492	80.88
399.717	85.88
399.941	92.88
400.165	91.88
400.389	83.88
400.613	101.88
400.837	86.88
401.062	89.88
401.286	87.88
401.51	88.88
401.734	75.88
401.958	88.88
402.182	82.88
402.406	80.88
402.63	85.88
402.854	81.88
403.078	103.88
403.302	94.88
403.526	76.88
403.75	94.88
403.974	89.88
404.198	92.88
404.422	109.88
404.645	107.88
404.869	100.88
405.093	103.88
405.317	103.88
405.541	92.88
405.765	82.88
405.988	76.88
406.212	87.88
406.436	88.88
406.66	75.88
406.883	93.88
407.107	81.88
407.331	89.88
407.555	88.88
407.778	95.88
408.002	79.88
408.226	89.88
408.449	85.88
408.673	63.88
408.896	96.88
409.12	93.88
409.344	93.88
409.567	87.88
409.791	77.88
410.014	89.88
410.238	84.88
410.461	83.88
410.685	77.88
410.908	81.88
411.132	88.88
411.355	83.88
411.578	101.88
411.802	82.88
412.025	78.88
412.249	80.88
412.472	90.88
412.695	89.88
412.919	83.88
413.142	84.88
413.365	94.88
413.589	104.88
413.812	74.88
414.035	89.88
414.258	76.88
414.482	81.88
414.705	78.88
414.928	88.88
415.151	81.88
415.374	87.88
415.597	87.88
415.821	88.88
416.044	91.88
416.267	90.88
416.49	67.88
416.713	74.88
416.936	72.88
417.159	81.88
417.382	100.88
417.605	67.88
417.828	84.88
418.051	85.88
418.274	81.88
418.497	83.88
418.72	88.88
418.943	70.88
419.166	92.88
419.389	91.88
419.611	94.88
419.834	100.88
420.057	95.88
420.28	82.88
420.503	85.88
420.726	87.88
420.948	95.88
421.171	83.88
421.394	97.88
421.617	74.88
421.839	84.88
422.062	92.88
422.285	96.88
422.507	121.88
422.73	138.88
422.953	131.88
423.175	99.88
423.398	92.88
423.621	87.88
423.843	84.88
424.066	95.88
424.288	79.88
424.511	76.88
424.733	79.88
424.956	91.88
425.178	89.88
425.401	87.88
425.623	90.88
425.846	95.88
426.068	84.88
426.291	103.88
426.513	81.88
426.735	96.88
426.958	85.88
427.18	84.88
427.402	99.88
427.625	94.88
427.847	90.88
428.069	87.88
428.292	90.88
428.514	104.88
428.736	96.88
428.958	105.88
429.181	88.88
429.403	85.88
429.625	96.88
429.847	95.88
430.069	95.88
430.292	89.88
430.514	88.88
430.736	88.88
430.958	97.88
431.18	88.88
431.402	92.88
431.624	90.88
431.846	94.88
432.068	88.88
432.29	91.88
432.512	88.88
432.734	81.88
432.956	84.88
433.178	86.88
433.4	76.88
433.622	88.88
433.844	78.88
434.066	85.88
434.287	79.88
434.509	93.88
434.731	84.88
434.953	88.88
435.175	82.88
435.397	85.88
435.618	86.88
435.84	73.88
436.062	86.88
436.284	67.88
436.505	82.88
436.727	86.88
436.949	81.88
437.17	86.88
437.392	89.88
437.614	82.88
437.835	87.88
438.057	81.88
438.278	83.88
438.5	87.88
438.721	77.88
438.943	92.88
439.165	81.88
439.386	87.88
439.608	86.88
439.829	65.88
440.05	85.88
440.272	81.88
440.493	98.88
440.715	82.88
440.936	94.88
441.158	85.88
441.379	67.88
441.6	85.88
441.822	70.88
442.043	83.88
442.264	83.88
442.486	82.88
442.707	100.88
442.928	103.88
443.149	84.88
443.371	94.88
443.592	104.88
443.813	107.88
444.034	92.88
444.255	91.88
444.476	97.88
444.698	88.88
444.919	90.88
445.14	145.88
445.361	124.88
445.582	113.88
445.803	108.88
446.024	87.88
446.245	81.88
446.466	87.88
446.687	84.88
446.908	81.88
447.129	82.88
447.35	92.88
447.571	87.88
447.792	77.88
448.013	77.88
448.234	88.88
448.455	83.88
448.675	90.88
448.896	75.88
449.117	93.88
449.338	81.88
449.559	94.88
449.779	81.88
450	79.88
450.221	77.88
450.442	95.88
450.662	92.88
450.883	96.88
451.104	76.88
451.324	67.88
451.545	82.88
451.766	90.88
451.986	91.88
452.207	83.88
452.428	92.88
452.648	96.88
452.869	101.88
453.089	82.88
453.31	78.88
453.53	98.88
453.751	90.88
453.971	79.88
454.192	83.88
454.412	77.88
454.633	85.88
454.853	94.88
455.073	84.88
455.294	71.88
455.514	100.88
455.734	91.88
455.955	79.88
456.175	80.88
456.395	97.88
456.616	90.88
456.836	100.88
457.056	73.88
457.276	82.88
457.497	80.88
457.717	83.88
457.937	88.88
458.157	89.88
458.377	86.88
458.598	95.88
458.818	95.88
459.038	80.88
459.258	108.88
459.478	99.88
459.698	93.88
459.918	80.88
460.138	103.88
460.358	85.88
460.578	85.88
460.798	104.88
461.018	77.88
461.238	96.88
461.458	77.88
461.678	94.88
461.898	66.88
462.118	74.88
462.338	85.88
462.558	94.88
462.777	88.88
462.997	86.88
463.217	87.88
463.437	86.88
463.657	81.88
463.876	83.88
464.096	84.88
464.316	78.88
464.536	75.88
464.755	101.88
464.975	79.88
465.195	84.88
465.414	92.88
465.634	94.88
465.854	81.88
466.073	84.88
466.293	81.88
466.512	92.88
466.732	81.88
466.951	78.88
467.171	87.88
467.391	79.88
467.61	87.88
467.829	105.88
468.049	79.88
468.268	84.88
468.488	88.88
468.707	89.88
468.927	91.88
469.146	73.88
469.365	81.88
469.585	95.88
469.804	79.88
470.023	97.88
470.243	93.88
470.462	101.88
470.681	88.88
470.901	80.88
471.12	94.88
471.339	84.88
471.558	85.88
471.777	76.88
471.997	79.88
472.216	76.88
472.435	96.88
472.654	84.88
472.873	100.88
473.092	92.88
473.311	90.88
473.53	81.88
473.749	97.88
473.968	92.88
474.187	95.88
474.406	95.88
474.625	80.88
474.844	103.88
475.063	95.88
475.282	83.88
475.501	95.88
475.72	80.88
475.939	89.88
476.158	77.88
476.377	83.88
476.596	83.88
476.814	99.88
477.033	71.88
477.252	87.88
477.471	90.88
477.69	91.88
477.908	90.88
478.127	83.88
478.346	81.88
478.564	99.88
478.783	84.88
479.002	92.88
479.22	95.88
479.439	90.88
479.658	77.88
479.876	91.88
480.095	93.88
480.313	85.88
480.532	108.88
480.751	83.88
480.969	83.88
481.188	89.88
481.406	84.88
481.624	77.88
481.843	76.88
482.061	88.88
482.28	72.88
482.498	81.88
482.717	89.88
482.935	76.88
483.153	97.88
483.372	75.88
483.59	82.88
483.808	85.88
484.027	79.88
484.245	88.88
484.463	90.88
484.681	97.88
484.9	81.88
485.118	80.88
485.336	87.88
485.554	79.88
485.772	84.88
485.99	82.88
486.209	103.88
486.427	99.88
486.645	94.88
486.863	77.88
487.081	93.88
487.299	89.88
487.517	94.88
487.735	92.88
487.953	100.88
488.171	103.88
488.389	86.88
488.607	83.88
488.825	100.88
489.043	82.88
489.261	79.88
489.479	86.88
489.696	66.88
489.914	62.88
490.132	91.88
490.35	90.88
490.568	93.88
490.786	92.88
491.003	84.88
491.221	87.88
491.439	95.88
491.657	95.88
491.874	88.88
492.092	83.88
492.31	77.88
492.527	87.88
492.745	85.88
492.963	82.88
493.18	75.88
493.398	86.88
493.615	83.88
493.833	85.88
494.05	99.88
494.268	87.88
494.485	95.88
494.703	85.88
494.92	91.88
495.138	87.88
495.355	98.88
495.573	100.88
495.79	89.88
496.008	87.88
496.225	95.88
496.442	89.88
496.66	79.88
496.877	90.88
497.094	87.88
497.312	83.88
497.529	86.88
497.746	87.88
497.963	69.88
498.181	95.88
498.398	81.88
498.615	93.88
498.832	84.88
499.049	85.88
499.267	93.88
499.484	91.88
499.701	75.88
499.918	85.88
500.135	80.88
500.352	86.88
500.569	86.88
500.786	83.88
501.003	80.88
501.22	79.88
501.437	91.88
501.654	83.88
501.871	91.88
502.088	75.88
502.305	78.88
502.522	79.88
502.739	77.88
502.956	89.88
503.172	84.88
503.389	98.88
503.606	88.88
503.823	86.88
504.04	92.88
504.256	101.88
504.473	95.88
504.69	83.88
504.907	97.88
505.123	86.88
505.34	91.88
505.557	78.88
505.773	96.88
505.99	85.88
506.207	92.88
506.423	76.88
506.64	81.88
506.856	73.88
507.073	99.88
507.289	100.88
507.506	87.88
507.722	85.88
507.939	90.88
508.155	93.88
508.372	80.88
508.588	93.88
508.805	80.88
509.021	98.88
509.238	84.88
509.454	83.88
509.67	91.88
509.887	88.88
510.103	80.88
510.319	98.88
510.536	83.88
510.752	88.88
510.968	92.88
511.184	79.88
511.401	92.88
511.617	91.88
511.833	91.88
512.049	89.88
512.265	84.88
512.481	82.88
512.698	84.88
512.914	95.88
513.13	89.88
513.346	92.88
513.562	94.88
513.778	85.88
513.994	73.88
514.21	81.88
514.426	93.88
514.642	76.88
514.858	94.88
515.074	84.88
515.29	84.88
515.506	97.88
515.721	77.88
515.937	81.88
516.153	83.88
516.369	80.88
516.585	95.88
516.801	95.88
517.016	90.88
517.232	90.88
517.448	75.88
517.664	85.88
517.879	91.88
518.095	67.88
518.311	92.88
518.527	97.88
518.742	99.88
518.958	89.88
