Data from Mixheat3_HRD10591_00001.txt Node
Date: Fri Dec 27 15:10:23 EST 2024
User: Yrep
Spectrometer: HR+D1059
Trigger mode: 1
Integration Time (sec): 1.000000E-1
Scans to average: 1
Electric dark correction enabled: true
Nonlinearity correction enabled: false
Boxcar width: 0
XAxis mode: Wavelengths
Number of Pixels in Spectrum: 2048
>>>>>Begin Spectral Data<<<<<
223.165	-14.38
223.4	-14.38
223.635	-14.38
223.869	-19.38
224.104	-24.38
224.338	-4.38
224.573	-6.38
224.808	-13.38
225.042	-14.38
225.277	-3.38
225.511	-15.38
225.746	9.62
225.98	15.62
226.215	9.62
226.449	7.62
226.683	20.62
226.918	30.62
227.152	21.62
227.387	47.62
227.621	26.62
227.856	30.62
228.09	31.62
228.324	42.62
228.559	54.62
228.793	57.62
229.027	54.62
229.262	52.62
229.496	66.62
229.73	72.62
229.964	71.62
230.199	67.62
230.433	67.62
230.667	65.62
230.901	66.62
231.136	87.62
231.37	70.62
231.604	80.62
231.838	86.62
232.072	70.62
232.306	78.62
232.541	85.62
232.775	82.62
233.009	82.62
233.243	83.62
233.477	72.62
233.711	80.62
233.945	83.62
234.179	97.62
234.413	82.62
234.647	60.62
234.881	78.62
235.115	73.62
235.349	80.62
235.583	82.62
235.817	82.62
236.051	76.62
236.285	84.62
236.519	63.62
236.753	80.62
236.987	78.62
237.221	67.62
237.455	75.62
237.689	78.62
237.922	75.62
238.156	64.62
238.39	76.62
238.624	69.62
238.858	82.62
239.091	69.62
239.325	67.62
239.559	62.62
239.793	78.62
240.027	72.62
240.26	74.62
240.494	57.62
240.728	68.62
240.961	73.62
241.195	65.62
241.429	70.62
241.662	62.62
241.896	72.62
242.13	65.62
242.363	82.62
242.597	77.62
242.83	83.62
243.064	60.62
243.298	84.62
243.531	72.62
243.765	76.62
243.998	68.62
244.232	75.62
244.465	61.62
244.699	68.62
244.932	76.62
245.166	83.62
245.399	95.62
245.633	72.62
245.866	69.62
246.099	78.62
246.333	88.62
246.566	75.62
246.8	72.62
247.033	66.62
247.266	76.62
247.5	81.62
247.733	83.62
247.966	73.62
248.2	68.62
248.433	71.62
248.666	67.62
248.899	66.62
249.133	78.62
249.366	74.62
249.599	81.62
249.832	65.62
250.066	67.62
250.299	77.62
250.532	85.62
250.765	86.62
250.998	77.62
251.231	74.62
251.465	79.62
251.698	81.62
251.931	78.62
252.164	78.62
252.397	73.62
252.63	60.62
252.863	62.62
253.096	80.62
253.329	85.62
253.562	73.62
253.795	82.62
254.028	62.62
254.261	75.62
254.494	71.62
254.727	67.62
254.96	65.62
255.193	60.62
255.426	75.62
255.659	73.62
255.892	66.62
256.124	64.62
256.357	74.62
256.59	60.62
256.823	60.62
257.056	83.62
257.289	72.62
257.521	72.62
257.754	62.62
257.987	68.62
258.22	63.62
258.452	60.62
258.685	96.62
258.918	73.62
259.151	65.62
259.383	72.62
259.616	80.62
259.849	79.62
260.081	75.62
260.314	69.62
260.547	92.62
260.779	82.62
261.012	76.62
261.244	80.62
261.477	98.62
261.71	71.62
261.942	74.62
262.175	82.62
262.407	84.62
262.64	65.62
262.872	86.62
263.105	72.62
263.337	70.62
263.57	64.62
263.802	76.62
264.035	75.62
264.267	71.62
264.499	73.62
264.732	94.62
264.964	66.62
265.197	86.62
265.429	91.62
265.661	86.62
265.894	85.62
266.126	77.62
266.358	70.62
266.591	84.62
266.823	92.62
267.055	71.62
267.287	94.62
267.52	78.62
267.752	78.62
267.984	76.62
268.216	77.62
268.448	72.62
268.681	86.62
268.913	71.62
269.145	81.62
269.377	91.62
269.609	75.62
269.841	76.62
270.073	70.62
270.306	81.62
270.538	80.62
270.77	74.62
271.002	87.62
271.234	92.62
271.466	78.62
271.698	72.62
271.93	88.62
272.162	74.62
272.394	90.62
272.626	84.62
272.858	89.62
273.09	82.62
273.322	64.62
273.553	72.62
273.785	78.62
274.017	81.62
274.249	71.62
274.481	74.62
274.713	71.62
274.945	90.62
275.176	77.62
275.408	88.62
275.64	81.62
275.872	70.62
276.104	76.62
276.335	79.62
276.567	70.62
276.799	75.62
277.031	68.62
277.262	83.62
277.494	76.62
277.726	80.62
277.957	76.62
278.189	86.62
278.421	87.62
278.652	86.62
278.884	86.62
279.115	87.62
279.347	80.62
279.579	87.62
279.81	78.62
280.042	77.62
280.273	72.62
280.505	68.62
280.736	81.62
280.968	77.62
281.199	79.62
281.431	70.62
281.662	74.62
281.894	79.62
282.125	82.62
282.356	78.62
282.588	80.62
282.819	76.62
283.051	83.62
283.282	68.62
283.513	87.62
283.745	86.62
283.976	91.62
284.207	70.62
284.439	87.62
284.67	80.62
284.901	82.62
285.132	82.62
285.364	83.62
285.595	88.62
285.826	89.62
286.057	75.62
286.288	89.62
286.52	78.62
286.751	82.62
286.982	90.62
287.213	74.62
287.444	89.62
287.675	87.62
287.906	74.62
288.138	73.62
288.369	76.62
288.6	76.62
288.831	74.62
289.062	87.62
289.293	65.62
289.524	75.62
289.755	77.62
289.986	75.62
290.217	86.62
290.448	70.62
290.679	83.62
290.91	73.62
291.141	81.62
291.371	89.62
291.602	72.62
291.833	86.62
292.064	90.62
292.295	89.62
292.526	82.62
292.757	87.62
292.987	81.62
293.218	87.62
293.449	76.62
293.68	83.62
293.91	70.62
294.141	80.62
294.372	75.62
294.603	58.62
294.833	92.62
295.064	86.62
295.295	96.62
295.525	85.62
295.756	54.62
295.987	73.62
296.217	86.62
296.448	95.62
296.679	80.62
296.909	72.62
297.14	79.62
297.37	70.62
297.601	84.62
297.831	79.62
298.062	83.62
298.292	80.62
298.523	74.62
298.753	72.62
298.984	79.62
299.214	73.62
299.445	79.62
299.675	74.62
299.905	78.62
300.136	91.62
300.366	94.62
300.597	82.62
300.827	81.62
301.057	87.62
301.288	71.62
301.518	81.62
301.748	70.62
301.979	99.62
302.209	72.62
302.439	92.62
302.669	74.62
302.9	74.62
303.13	81.62
303.36	72.62
303.59	75.62
303.82	76.62
304.051	75.62
304.281	81.62
304.511	95.62
304.741	66.62
304.971	89.62
305.201	78.62
305.431	87.62
305.661	103.62
305.891	72.62
306.121	72.62
306.352	87.62
306.582	88.62
306.812	82.62
307.042	87.62
307.272	83.62
307.502	62.62
307.731	87.62
307.961	73.62
308.191	80.62
308.421	86.62
308.651	79.62
308.881	84.62
309.111	81.62
309.341	81.62
309.571	90.62
309.8	81.62
310.03	67.62
310.26	79.62
310.49	83.62
310.72	75.62
310.949	82.62
311.179	69.62
311.409	72.62
311.639	74.62
311.868	94.62
312.098	78.62
312.328	82.62
312.557	72.62
312.787	86.62
313.017	86.62
313.246	79.62
313.476	83.62
313.706	74.62
313.935	82.62
314.165	71.62
314.394	82.62
314.624	70.62
314.853	81.62
315.083	73.62
315.312	68.62
315.542	79.62
315.771	90.62
316.001	64.62
316.23	67.62
316.46	95.62
316.689	70.62
316.919	86.62
317.148	73.62
317.377	76.62
317.607	73.62
317.836	83.62
318.065	87.62
318.295	77.62
318.524	71.62
318.753	71.62
318.983	81.62
319.212	90.62
319.441	71.62
319.67	87.62
319.9	76.62
320.129	82.62
320.358	87.62
320.587	77.62
320.816	83.62
321.046	86.62
321.275	76.62
321.504	81.62
321.733	83.62
321.962	79.62
322.191	75.62
322.42	74.62
322.649	100.62
322.878	93.62
323.108	95.62
323.337	82.62
323.566	81.62
323.795	90.62
324.024	79.62
324.253	77.62
324.482	95.62
324.71	80.62
324.939	80.62
325.168	85.62
325.397	73.62
325.626	78.62
325.855	72.62
326.084	87.62
326.313	84.62
326.542	75.62
326.77	85.62
326.999	80.62
327.228	83.62
327.457	80.62
327.686	91.62
327.914	94.62
328.143	82.62
328.372	83.62
328.6	85.62
328.829	84.62
329.058	78.62
329.287	84.62
329.515	85.62
329.744	75.62
329.972	66.62
330.201	81.62
330.43	83.62
330.658	72.62
330.887	80.62
331.115	74.62
331.344	75.62
331.572	83.62
331.801	76.62
332.03	69.62
332.258	92.62
332.486	89.62
332.715	82.62
332.943	76.62
333.172	90.62
333.4	81.62
333.629	69.62
333.857	94.62
334.085	76.62
334.314	99.62
334.542	80.62
334.771	74.62
334.999	96.62
335.227	83.62
335.455	68.62
335.684	96.62
335.912	68.62
336.14	68.62
336.369	78.62
336.597	80.62
336.825	81.62
337.053	78.62
337.281	78.62
337.51	73.62
337.738	81.62
337.966	77.62
338.194	77.62
338.422	81.62
338.65	66.62
338.878	77.62
339.106	86.62
339.334	81.62
339.562	87.62
339.79	77.62
340.018	95.62
340.246	84.62
340.474	65.62
340.702	69.62
340.93	89.62
341.158	79.62
341.386	77.62
341.614	79.62
341.842	96.62
342.07	75.62
342.298	83.62
342.526	90.62
342.754	78.62
342.981	75.62
343.209	90.62
343.437	72.62
343.665	74.62
343.893	66.62
344.12	66.62
344.348	88.62
344.576	78.62
344.804	88.62
345.031	86.62
345.259	84.62
345.487	74.62
345.714	88.62
345.942	90.62
346.17	82.62
346.397	84.62
346.625	79.62
346.853	76.62
347.08	79.62
347.308	73.62
347.535	87.62
347.763	102.62
347.99	91.62
348.218	83.62
348.445	76.62
348.673	74.62
348.9	95.62
349.128	82.62
349.355	81.62
349.583	72.62
349.81	88.62
350.037	79.62
350.265	88.62
350.492	79.62
350.72	75.62
350.947	88.62
351.174	92.62
351.402	82.62
351.629	82.62
351.856	77.62
352.083	86.62
352.311	102.62
352.538	69.62
352.765	80.62
352.992	78.62
353.22	64.62
353.447	78.62
353.674	92.62
353.901	78.62
354.128	74.62
354.355	82.62
354.583	75.62
354.81	84.62
355.037	83.62
355.264	90.62
355.491	79.62
355.718	65.62
355.945	84.62
356.172	87.62
356.399	74.62
356.626	89.62
356.853	91.62
357.08	72.62
357.307	80.62
357.534	79.62
357.761	77.62
357.988	64.62
358.215	67.62
358.441	94.62
358.668	86.62
358.895	84.62
359.122	86.62
359.349	66.62
359.576	86.62
359.802	74.62
360.029	70.62
360.256	82.62
360.483	73.62
360.709	71.62
360.936	81.62
361.163	73.62
361.39	74.62
361.616	88.62
361.843	64.62
362.07	95.62
362.296	77.62
362.523	77.62
362.749	89.62
362.976	76.62
363.203	83.62
363.429	70.62
363.656	90.62
363.882	83.62
364.109	84.62
364.335	88.62
364.562	92.62
364.788	85.62
365.015	85.62
365.241	77.62
365.468	77.62
365.694	75.62
365.92	78.62
366.147	74.62
366.373	76.62
366.599	58.62
366.826	82.62
367.052	77.62
367.278	84.62
367.505	85.62
367.731	89.62
367.957	67.62
368.184	60.62
368.41	68.62
368.636	79.62
368.862	79.62
369.089	86.62
369.315	82.62
369.541	85.62
369.767	79.62
369.993	78.62
370.219	83.62
370.445	74.62
370.672	81.62
370.898	86.62
371.124	74.62
371.35	68.62
371.576	74.62
371.802	67.62
372.028	80.62
372.254	75.62
372.48	94.62
372.706	84.62
372.932	80.62
373.158	73.62
373.384	79.62
373.61	85.62
373.835	82.62
374.061	81.62
374.287	82.62
374.513	100.62
374.739	89.62
374.965	72.62
375.191	86.62
375.416	97.62
375.642	74.62
375.868	71.62
376.094	75.62
376.319	96.62
376.545	84.62
376.771	71.62
376.997	63.62
377.222	74.62
377.448	88.62
377.674	81.62
377.899	71.62
378.125	75.62
378.35	77.62
378.576	72.62
378.802	72.62
379.027	82.62
379.253	74.62
379.478	80.62
379.704	88.62
379.929	82.62
380.155	88.62
380.38	83.62
380.606	91.62
380.831	87.62
381.057	68.62
381.282	86.62
381.507	95.62
381.733	72.62
381.958	70.62
382.184	83.62
382.409	82.62
382.634	80.62
382.86	83.62
383.085	80.62
383.31	78.62
383.535	84.62
383.761	74.62
383.986	83.62
384.211	82.62
384.436	71.62
384.662	72.62
384.887	97.62
385.112	66.62
385.337	85.62
385.562	70.62
385.787	90.62
386.013	85.62
386.238	71.62
386.463	83.62
386.688	90.62
386.913	83.62
387.138	90.62
387.363	92.62
387.588	82.62
387.813	87.62
388.038	73.62
388.263	76.62
388.488	91.62
388.713	79.62
388.938	78.62
389.163	80.62
389.387	77.62
389.612	74.62
389.837	78.62
390.062	91.62
390.287	82.62
390.512	78.62
390.736	79.62
390.961	85.62
391.186	81.62
391.411	75.62
391.636	83.62
391.86	93.62
392.085	73.62
392.31	66.62
392.534	80.62
392.759	81.62
392.984	86.62
393.208	111.62
393.433	122.62
393.658	112.62
393.882	95.62
394.107	80.62
394.331	80.62
394.556	94.62
394.78	84.62
395.005	94.62
395.229	80.62
395.454	94.62
395.678	79.62
395.903	92.62
396.127	96.62
396.352	104.62
396.576	98.62
396.801	103.62
397.025	95.62
397.249	88.62
397.474	95.62
397.698	78.62
397.922	70.62
398.147	69.62
398.371	78.62
398.595	81.62
398.82	69.62
399.044	79.62
399.268	75.62
399.492	76.62
399.717	82.62
399.941	66.62
400.165	78.62
400.389	67.62
400.613	78.62
400.837	78.62
401.062	78.62
401.286	79.62
401.51	76.62
401.734	78.62
401.958	80.62
402.182	80.62
402.406	76.62
402.63	73.62
402.854	77.62
403.078	83.62
403.302	59.62
403.526	79.62
403.75	66.62
403.974	78.62
404.198	102.62
404.422	110.62
404.645	113.62
404.869	110.62
405.093	91.62
405.317	74.62
405.541	77.62
405.765	77.62
405.988	86.62
406.212	78.62
406.436	82.62
406.66	59.62
406.883	73.62
407.107	89.62
407.331	75.62
407.555	76.62
407.778	81.62
408.002	95.62
408.226	84.62
408.449	80.62
408.673	81.62
408.896	87.62
409.12	82.62
409.344	92.62
409.567	85.62
409.791	74.62
410.014	79.62
410.238	70.62
410.461	85.62
410.685	70.62
410.908	85.62
411.132	67.62
411.355	82.62
411.578	73.62
411.802	86.62
412.025	76.62
412.249	79.62
412.472	72.62
412.695	63.62
412.919	74.62
413.142	88.62
413.365	72.62
413.589	70.62
413.812	61.62
414.035	87.62
414.258	78.62
414.482	71.62
414.705	76.62
414.928	77.62
415.151	68.62
415.374	88.62
415.597	68.62
415.821	84.62
416.044	78.62
416.267	75.62
416.49	74.62
416.713	70.62
416.936	70.62
417.159	74.62
417.382	65.62
417.605	72.62
417.828	67.62
418.051	74.62
418.274	72.62
418.497	86.62
418.72	85.62
418.943	72.62
419.166	95.62
419.389	90.62
419.611	79.62
419.834	96.62
420.057	81.62
420.28	70.62
420.503	76.62
420.726	87.62
420.948	82.62
421.171	83.62
421.394	85.62
421.617	85.62
421.839	102.62
422.062	98.62
422.285	100.62
422.507	137.62
422.73	161.62
422.953	149.62
423.175	120.62
423.398	90.62
423.621	94.62
423.843	85.62
424.066	89.62
424.288	64.62
424.511	71.62
424.733	70.62
424.956	81.62
425.178	71.62
425.401	72.62
425.623	73.62
425.846	74.62
426.068	81.62
426.291	82.62
426.513	92.62
426.735	72.62
426.958	76.62
427.18	74.62
427.402	75.62
427.625	70.62
427.847	79.62
428.069	74.62
428.292	102.62
428.514	92.62
428.736	80.62
428.958	95.62
429.181	104.62
429.403	87.62
429.625	92.62
429.847	106.62
430.069	108.62
430.292	99.62
430.514	116.62
430.736	110.62
430.958	100.62
431.18	70.62
431.402	83.62
431.624	86.62
431.846	86.62
432.068	90.62
432.29	72.62
432.512	91.62
432.734	82.62
432.956	78.62
433.178	75.62
433.4	89.62
433.622	83.62
433.844	77.62
434.066	83.62
434.287	77.62
434.509	63.62
434.731	75.62
434.953	88.62
435.175	84.62
435.397	73.62
435.618	77.62
435.84	72.62
436.062	66.62
436.284	79.62
436.505	80.62
436.727	78.62
436.949	86.62
437.17	71.62
437.392	57.62
437.614	81.62
437.835	79.62
438.057	80.62
438.278	79.62
438.5	78.62
438.721	67.62
438.943	78.62
439.165	82.62
439.386	80.62
439.608	70.62
439.829	79.62
440.05	74.62
440.272	76.62
440.493	88.62
440.715	85.62
440.936	81.62
441.158	93.62
441.379	79.62
441.6	87.62
441.822	81.62
442.043	70.62
442.264	87.62
442.486	96.62
442.707	115.62
442.928	84.62
443.149	94.62
443.371	115.62
443.592	133.62
443.813	118.62
444.034	86.62
444.255	87.62
444.476	74.62
444.698	75.62
444.919	81.62
445.14	158.62
445.361	129.62
445.582	146.62
445.803	110.62
446.024	80.62
446.245	96.62
446.466	87.62
446.687	74.62
446.908	89.62
447.129	83.62
447.35	83.62
447.571	70.62
447.792	80.62
448.013	69.62
448.234	88.62
448.455	85.62
448.675	80.62
448.896	71.62
449.117	89.62
449.338	73.62
449.559	65.62
449.779	73.62
450	88.62
450.221	75.62
450.442	67.62
450.662	79.62
450.883	64.62
451.104	72.62
451.324	76.62
451.545	65.62
451.766	69.62
451.986	61.62
452.207	79.62
452.428	85.62
452.648	80.62
452.869	81.62
453.089	78.62
453.31	98.62
453.53	100.62
453.751	97.62
453.971	82.62
454.192	83.62
454.412	83.62
454.633	76.62
454.853	78.62
455.073	86.62
455.294	74.62
455.514	70.62
455.734	73.62
455.955	85.62
456.175	80.62
456.395	84.62
456.616	70.62
456.836	70.62
457.056	78.62
457.276	85.62
457.497	96.62
457.717	90.62
457.937	92.62
458.157	85.62
458.377	80.62
458.598	85.62
458.818	91.62
459.038	79.62
459.258	80.62
459.478	68.62
459.698	67.62
459.918	75.62
460.138	81.62
460.358	61.62
460.578	91.62
460.798	89.62
461.018	90.62
461.238	87.62
461.458	91.62
461.678	76.62
461.898	71.62
462.118	74.62
462.338	68.62
462.558	83.62
462.777	78.62
462.997	82.62
463.217	90.62
463.437	84.62
463.657	79.62
463.876	66.62
464.096	84.62
464.316	80.62
464.536	79.62
464.755	71.62
464.975	71.62
465.195	69.62
465.414	85.62
465.634	73.62
465.854	76.62
466.073	71.62
466.293	67.62
466.512	76.62
466.732	60.62
466.951	80.62
467.171	74.62
467.391	68.62
467.61	83.62
467.829	80.62
468.049	92.62
468.268	82.62
468.488	74.62
468.707	65.62
468.927	74.62
469.146	74.62
469.365	75.62
469.585	84.62
469.804	79.62
470.023	68.62
470.243	85.62
470.462	79.62
470.681	72.62
470.901	91.62
471.12	76.62
471.339	84.62
471.558	69.62
471.777	80.62
471.997	104.62
472.216	89.62
472.435	72.62
472.654	83.62
472.873	95.62
473.092	74.62
473.311	81.62
473.53	78.62
473.749	67.62
473.968	87.62
474.187	89.62
474.406	72.62
474.625	76.62
474.844	75.62
475.063	73.62
475.282	87.62
475.501	74.62
475.72	86.62
475.939	72.62
476.158	72.62
476.377	78.62
476.596	79.62
476.814	84.62
477.033	91.62
477.252	84.62
477.471	72.62
477.69	80.62
477.908	83.62
478.127	85.62
478.346	88.62
478.564	77.62
478.783	75.62
479.002	79.62
479.22	73.62
479.439	82.62
479.658	75.62
479.876	78.62
480.095	81.62
480.313	88.62
480.532	78.62
480.751	86.62
480.969	101.62
481.188	74.62
481.406	85.62
481.624	83.62
481.843	71.62
482.061	72.62
482.28	79.62
482.498	91.62
482.717	85.62
482.935	74.62
483.153	78.62
483.372	81.62
483.59	73.62
483.808	80.62
484.027	95.62
484.245	70.62
484.463	69.62
484.681	92.62
484.9	84.62
485.118	87.62
485.336	74.62
485.554	85.62
485.772	73.62
485.99	82.62
486.209	85.62
486.427	84.62
486.645	83.62
486.863	88.62
487.081	73.62
487.299	81.62
487.517	71.62
487.735	86.62
487.953	96.62
488.171	88.62
488.389	84.62
488.607	78.62
488.825	78.62
489.043	79.62
489.261	81.62
489.479	78.62
489.696	64.62
489.914	78.62
490.132	76.62
490.35	88.62
490.568	75.62
490.786	79.62
491.003	72.62
491.221	82.62
491.439	74.62
491.657	73.62
491.874	71.62
492.092	91.62
492.31	81.62
492.527	91.62
492.745	83.62
492.963	86.62
493.18	74.62
493.398	85.62
493.615	82.62
493.833	81.62
494.05	71.62
494.268	94.62
494.485	73.62
494.703	81.62
494.92	70.62
495.138	87.62
495.355	80.62
495.573	84.62
495.79	74.62
496.008	80.62
496.225	74.62
496.442	99.62
496.66	86.62
496.877	81.62
497.094	98.62
497.312	91.62
497.529	101.62
497.746	93.62
497.963	80.62
498.181	81.62
498.398	87.62
498.615	84.62
498.832	83.62
499.049	88.62
499.267	98.62
499.484	78.62
499.701	83.62
499.918	85.62
500.135	83.62
500.352	73.62
500.569	78.62
500.786	96.62
501.003	89.62
501.22	84.62
501.437	90.62
501.654	71.62
501.871	78.62
502.088	87.62
502.305	96.62
502.522	81.62
502.739	83.62
502.956	93.62
503.172	76.62
503.389	74.62
503.606	79.62
503.823	88.62
504.04	76.62
504.256	92.62
504.473	96.62
504.69	82.62
504.907	80.62
505.123	75.62
505.34	76.62
505.557	81.62
505.773	96.62
505.99	84.62
506.207	72.62
506.423	74.62
506.64	78.62
506.856	83.62
507.073	91.62
507.289	82.62
507.506	67.62
507.722	75.62
507.939	85.62
508.155	84.62
508.372	84.62
508.588	80.62
508.805	89.62
509.021	84.62
509.238	106.62
509.454	66.62
509.67	79.62
509.887	89.62
510.103	90.62
510.319	81.62
510.536	99.62
510.752	97.62
510.968	78.62
511.184	73.62
511.401	87.62
511.617	88.62
511.833	92.62
512.049	88.62
512.265	87.62
512.481	76.62
512.698	82.62
512.914	83.62
513.13	72.62
513.346	69.62
513.562	70.62
513.778	70.62
513.994	75.62
514.21	82.62
514.426	83.62
514.642	80.62
514.858	82.62
515.074	74.62
515.29	89.62
515.506	83.62
515.721	87.62
515.937	90.62
516.153	89.62
516.369	73.62
516.585	82.62
516.801	92.62
517.016	96.62
517.232	78.62
517.448	77.62
517.664	86.62
517.879	85.62
518.095	79.62
518.311	88.62
518.527	87.62
518.742	84.62
518.958	92.62
519.173	101.62
519.389	108.62
519.605	83.62
