Data from Mixheat3_HRD10591_00009.txt Node
Date: Fri Dec 27 15:10:31 EST 2024
User: Yrep
Spectrometer: HR+D1059
Trigger mode: 1
Integration Time (sec): 1.000000E-1
Scans to average: 1
Electric dark correction enabled: true
Nonlinearity correction enabled: false
Boxcar width: 0
XAxis mode: Wavelengths
Number of Pixels in Spectrum: 2048
>>>>>Begin Spectral Data<<<<<
223.165	-20.69
223.4	-20.69
223.635	-20.69
223.869	-16.69
224.104	-27.69
224.338	-24.69
224.573	-4.69
224.808	-5.69
225.042	-4.69
225.277	-3.69
225.511	-6.69
225.746	7.31
225.98	5.31
226.215	13.31
226.449	17.31
226.683	14.31
226.918	29.31
227.152	28.31
227.387	34.31
227.621	17.31
227.856	39.31
228.09	45.31
228.324	57.31
228.559	43.31
228.793	68.31
229.027	62.31
229.262	71.31
229.496	74.31
229.73	75.31
229.964	69.31
230.199	63.31
230.433	82.31
230.667	83.31
230.901	69.31
231.136	68.31
231.37	72.31
231.604	86.31
231.838	89.31
232.072	80.31
232.306	85.31
232.541	69.31
232.775	62.31
233.009	83.31
233.243	85.31
233.477	87.31
233.711	70.31
233.945	75.31
234.179	75.31
234.413	78.31
234.647	75.31
234.881	75.31
235.115	80.31
235.349	84.31
235.583	86.31
235.817	65.31
236.051	74.31
236.285	87.31
236.519	81.31
236.753	77.31
236.987	81.31
237.221	74.31
237.455	81.31
237.689	75.31
237.922	77.31
238.156	84.31
238.39	71.31
238.624	86.31
238.858	74.31
239.091	68.31
239.325	66.31
239.559	77.31
239.793	78.31
240.027	63.31
240.26	86.31
240.494	69.31
240.728	79.31
240.961	53.31
241.195	89.31
241.429	82.31
241.662	66.31
241.896	78.31
242.13	83.31
242.363	77.31
242.597	74.31
242.83	67.31
243.064	75.31
243.298	68.31
243.531	73.31
243.765	67.31
243.998	85.31
244.232	77.31
244.465	61.31
244.699	70.31
244.932	74.31
245.166	72.31
245.399	82.31
245.633	69.31
245.866	86.31
246.099	77.31
246.333	86.31
246.566	83.31
246.8	69.31
247.033	80.31
247.266	67.31
247.5	79.31
247.733	73.31
247.966	70.31
248.2	94.31
248.433	72.31
248.666	77.31
248.899	80.31
249.133	81.31
249.366	76.31
249.599	75.31
249.832	78.31
250.066	75.31
250.299	77.31
250.532	73.31
250.765	83.31
250.998	70.31
251.231	73.31
251.465	87.31
251.698	69.31
251.931	83.31
252.164	79.31
252.397	91.31
252.63	77.31
252.863	73.31
253.096	73.31
253.329	82.31
253.562	89.31
253.795	82.31
254.028	89.31
254.261	84.31
254.494	73.31
254.727	71.31
254.96	78.31
255.193	77.31
255.426	71.31
255.659	89.31
255.892	92.31
256.124	77.31
256.357	69.31
256.59	76.31
256.823	71.31
257.056	71.31
257.289	73.31
257.521	84.31
257.754	80.31
257.987	74.31
258.22	86.31
258.452	79.31
258.685	71.31
258.918	78.31
259.151	90.31
259.383	87.31
259.616	72.31
259.849	83.31
260.081	91.31
260.314	87.31
260.547	86.31
260.779	86.31
261.012	90.31
261.244	76.31
261.477	90.31
261.71	74.31
261.942	91.31
262.175	77.31
262.407	73.31
262.64	79.31
262.872	84.31
263.105	87.31
263.337	78.31
263.57	88.31
263.802	64.31
264.035	81.31
264.267	85.31
264.499	91.31
264.732	90.31
264.964	74.31
265.197	72.31
265.429	88.31
265.661	75.31
265.894	75.31
266.126	76.31
266.358	81.31
266.591	71.31
266.823	84.31
267.055	83.31
267.287	72.31
267.52	86.31
267.752	76.31
267.984	94.31
268.216	74.31
268.448	80.31
268.681	83.31
268.913	90.31
269.145	67.31
269.377	71.31
269.609	81.31
269.841	99.31
270.073	89.31
270.306	85.31
270.538	77.31
270.77	74.31
271.002	83.31
271.234	83.31
271.466	82.31
271.698	75.31
271.93	81.31
272.162	65.31
272.394	69.31
272.626	67.31
272.858	81.31
273.09	66.31
273.322	88.31
273.553	85.31
273.785	81.31
274.017	74.31
274.249	79.31
274.481	70.31
274.713	80.31
274.945	87.31
275.176	70.31
275.408	83.31
275.64	78.31
275.872	79.31
276.104	88.31
276.335	87.31
276.567	74.31
276.799	79.31
277.031	81.31
277.262	71.31
277.494	72.31
277.726	82.31
277.957	75.31
278.189	88.31
278.421	80.31
278.652	78.31
278.884	89.31
279.115	76.31
279.347	85.31
279.579	76.31
279.81	79.31
280.042	82.31
280.273	82.31
280.505	81.31
280.736	85.31
280.968	82.31
281.199	75.31
281.431	70.31
281.662	78.31
281.894	93.31
282.125	85.31
282.356	63.31
282.588	70.31
282.819	79.31
283.051	79.31
283.282	89.31
283.513	67.31
283.745	84.31
283.976	77.31
284.207	75.31
284.439	88.31
284.67	92.31
284.901	73.31
285.132	77.31
285.364	98.31
285.595	95.31
285.826	93.31
286.057	90.31
286.288	88.31
286.52	90.31
286.751	86.31
286.982	85.31
287.213	76.31
287.444	95.31
287.675	76.31
287.906	79.31
288.138	83.31
288.369	81.31
288.6	81.31
288.831	89.31
289.062	92.31
289.293	73.31
289.524	75.31
289.755	83.31
289.986	74.31
290.217	91.31
290.448	82.31
290.679	70.31
290.91	94.31
291.141	86.31
291.371	103.31
291.602	91.31
291.833	77.31
292.064	74.31
292.295	74.31
292.526	71.31
292.757	73.31
292.987	86.31
293.218	90.31
293.449	76.31
293.68	90.31
293.91	89.31
294.141	84.31
294.372	89.31
294.603	86.31
294.833	82.31
295.064	84.31
295.295	66.31
295.525	78.31
295.756	78.31
295.987	79.31
296.217	86.31
296.448	85.31
296.679	82.31
296.909	85.31
297.14	84.31
297.37	88.31
297.601	72.31
297.831	81.31
298.062	89.31
298.292	91.31
298.523	97.31
298.753	81.31
298.984	86.31
299.214	94.31
299.445	93.31
299.675	104.31
299.905	81.31
300.136	78.31
300.366	94.31
300.597	78.31
300.827	82.31
301.057	98.31
301.288	86.31
301.518	78.31
301.748	92.31
301.979	84.31
302.209	81.31
302.439	84.31
302.669	74.31
302.9	86.31
303.13	84.31
303.36	98.31
303.59	86.31
303.82	88.31
304.051	84.31
304.281	81.31
304.511	81.31
304.741	80.31
304.971	87.31
305.201	95.31
305.431	71.31
305.661	86.31
305.891	81.31
306.121	106.31
306.352	91.31
306.582	75.31
306.812	76.31
307.042	89.31
307.272	95.31
307.502	84.31
307.731	80.31
307.961	79.31
308.191	71.31
308.421	85.31
308.651	64.31
308.881	75.31
309.111	91.31
309.341	89.31
309.571	83.31
309.8	75.31
310.03	83.31
310.26	88.31
310.49	95.31
310.72	70.31
310.949	89.31
311.179	88.31
311.409	90.31
311.639	68.31
311.868	86.31
312.098	76.31
312.328	79.31
312.557	90.31
312.787	85.31
313.017	92.31
313.246	103.31
313.476	88.31
313.706	81.31
313.935	87.31
314.165	79.31
314.394	76.31
314.624	89.31
314.853	79.31
315.083	73.31
315.312	70.31
315.542	65.31
315.771	87.31
316.001	88.31
316.23	83.31
316.46	85.31
316.689	75.31
316.919	92.31
317.148	82.31
317.377	87.31
317.607	88.31
317.836	85.31
318.065	78.31
318.295	92.31
318.524	77.31
318.753	87.31
318.983	98.31
319.212	89.31
319.441	75.31
319.67	79.31
319.9	78.31
320.129	75.31
320.358	87.31
320.587	81.31
320.816	82.31
321.046	85.31
321.275	95.31
321.504	81.31
321.733	76.31
321.962	83.31
322.191	79.31
322.42	90.31
322.649	84.31
322.878	68.31
323.108	93.31
323.337	94.31
323.566	78.31
323.795	89.31
324.024	87.31
324.253	77.31
324.482	77.31
324.71	92.31
324.939	89.31
325.168	87.31
325.397	69.31
325.626	71.31
325.855	77.31
326.084	97.31
326.313	81.31
326.542	90.31
326.77	90.31
326.999	86.31
327.228	86.31
327.457	78.31
327.686	79.31
327.914	82.31
328.143	78.31
328.372	75.31
328.6	91.31
328.829	74.31
329.058	74.31
329.287	77.31
329.515	74.31
329.744	75.31
329.972	88.31
330.201	81.31
330.43	91.31
330.658	94.31
330.887	88.31
331.115	86.31
331.344	86.31
331.572	84.31
331.801	77.31
332.03	78.31
332.258	74.31
332.486	82.31
332.715	77.31
332.943	81.31
333.172	84.31
333.4	87.31
333.629	79.31
333.857	70.31
334.085	69.31
334.314	79.31
334.542	92.31
334.771	97.31
334.999	81.31
335.227	86.31
335.455	76.31
335.684	90.31
335.912	97.31
336.14	89.31
336.369	72.31
336.597	70.31
336.825	78.31
337.053	91.31
337.281	89.31
337.51	90.31
337.738	82.31
337.966	95.31
338.194	90.31
338.422	91.31
338.65	90.31
338.878	82.31
339.106	91.31
339.334	106.31
339.562	86.31
339.79	87.31
340.018	75.31
340.246	81.31
340.474	84.31
340.702	84.31
340.93	84.31
341.158	83.31
341.386	79.31
341.614	67.31
341.842	87.31
342.07	74.31
342.298	78.31
342.526	78.31
342.754	86.31
342.981	78.31
343.209	78.31
343.437	84.31
343.665	76.31
343.893	68.31
344.12	97.31
344.348	78.31
344.576	88.31
344.804	68.31
345.031	71.31
345.259	79.31
345.487	75.31
345.714	76.31
345.942	89.31
346.17	74.31
346.397	71.31
346.625	79.31
346.853	83.31
347.08	80.31
347.308	84.31
347.535	81.31
347.763	80.31
347.99	76.31
348.218	87.31
348.445	74.31
348.673	81.31
348.9	71.31
349.128	78.31
349.355	84.31
349.583	98.31
349.81	94.31
350.037	82.31
350.265	83.31
350.492	85.31
350.72	81.31
350.947	98.31
351.174	96.31
351.402	81.31
351.629	81.31
351.856	80.31
352.083	79.31
352.311	55.31
352.538	80.31
352.765	80.31
352.992	78.31
353.22	90.31
353.447	94.31
353.674	78.31
353.901	84.31
354.128	88.31
354.355	77.31
354.583	69.31
354.81	81.31
355.037	79.31
355.264	83.31
355.491	90.31
355.718	76.31
355.945	82.31
356.172	78.31
356.399	100.31
356.626	77.31
356.853	85.31
357.08	94.31
357.307	87.31
357.534	69.31
357.761	85.31
357.988	82.31
358.215	90.31
358.441	86.31
358.668	85.31
358.895	87.31
359.122	71.31
359.349	94.31
359.576	71.31
359.802	81.31
360.029	80.31
360.256	81.31
360.483	77.31
360.709	72.31
360.936	84.31
361.163	93.31
361.39	66.31
361.616	83.31
361.843	95.31
362.07	90.31
362.296	83.31
362.523	92.31
362.749	68.31
362.976	87.31
363.203	89.31
363.429	75.31
363.656	92.31
363.882	97.31
364.109	79.31
364.335	78.31
364.562	93.31
364.788	73.31
365.015	90.31
365.241	87.31
365.468	92.31
365.694	84.31
365.92	77.31
366.147	90.31
366.373	83.31
366.599	82.31
366.826	91.31
367.052	87.31
367.278	74.31
367.505	87.31
367.731	86.31
367.957	85.31
368.184	86.31
368.41	84.31
368.636	79.31
368.862	84.31
369.089	81.31
369.315	79.31
369.541	79.31
369.767	77.31
369.993	74.31
370.219	80.31
370.445	89.31
370.672	76.31
370.898	78.31
371.124	83.31
371.35	80.31
371.576	88.31
371.802	84.31
372.028	68.31
372.254	89.31
372.48	78.31
372.706	89.31
372.932	80.31
373.158	81.31
373.384	93.31
373.61	90.31
373.835	83.31
374.061	82.31
374.287	78.31
374.513	93.31
374.739	81.31
374.965	97.31
375.191	93.31
375.416	78.31
375.642	91.31
375.868	80.31
376.094	88.31
376.319	81.31
376.545	71.31
376.771	75.31
376.997	80.31
377.222	77.31
377.448	78.31
377.674	83.31
377.899	97.31
378.125	97.31
378.35	89.31
378.576	91.31
378.802	92.31
379.027	84.31
379.253	85.31
379.478	81.31
379.704	86.31
379.929	77.31
380.155	72.31
380.38	79.31
380.606	81.31
380.831	93.31
381.057	102.31
381.282	78.31
381.507	70.31
381.733	79.31
381.958	93.31
382.184	93.31
382.409	83.31
382.634	76.31
382.86	79.31
383.085	77.31
383.31	85.31
383.535	95.31
383.761	68.31
383.986	89.31
384.211	89.31
384.436	84.31
384.662	83.31
384.887	82.31
385.112	92.31
385.337	91.31
385.562	79.31
385.787	87.31
386.013	79.31
386.238	89.31
386.463	80.31
386.688	85.31
386.913	86.31
387.138	88.31
387.363	79.31
387.588	71.31
387.813	79.31
388.038	91.31
388.263	81.31
388.488	82.31
388.713	72.31
388.938	77.31
389.163	68.31
389.387	85.31
389.612	78.31
389.837	86.31
390.062	86.31
390.287	88.31
390.512	76.31
390.736	82.31
390.961	87.31
391.186	86.31
391.411	83.31
391.636	77.31
391.86	71.31
392.085	75.31
392.31	90.31
392.534	85.31
392.759	103.31
392.984	97.31
393.208	95.31
393.433	109.31
393.658	100.31
393.882	94.31
394.107	89.31
394.331	77.31
394.556	88.31
394.78	79.31
395.005	84.31
395.229	91.31
395.454	100.31
395.678	73.31
395.903	91.31
396.127	83.31
396.352	86.31
396.576	102.31
396.801	103.31
397.025	94.31
397.249	85.31
397.474	94.31
397.698	88.31
397.922	85.31
398.147	81.31
398.371	86.31
398.595	77.31
398.82	84.31
399.044	76.31
399.268	76.31
399.492	89.31
399.717	75.31
399.941	85.31
400.165	87.31
400.389	88.31
400.613	80.31
400.837	78.31
401.062	83.31
401.286	76.31
401.51	92.31
401.734	83.31
401.958	86.31
402.182	77.31
402.406	81.31
402.63	75.31
402.854	91.31
403.078	78.31
403.302	84.31
403.526	93.31
403.75	95.31
403.974	91.31
404.198	91.31
404.422	121.31
404.645	115.31
404.869	92.31
405.093	97.31
405.317	70.31
405.541	88.31
405.765	82.31
405.988	77.31
406.212	76.31
406.436	86.31
406.66	78.31
406.883	79.31
407.107	89.31
407.331	77.31
407.555	83.31
407.778	89.31
408.002	82.31
408.226	82.31
408.449	89.31
408.673	87.31
408.896	73.31
409.12	87.31
409.344	83.31
409.567	83.31
409.791	94.31
410.014	86.31
410.238	80.31
410.461	84.31
410.685	79.31
410.908	76.31
411.132	75.31
411.355	72.31
411.578	82.31
411.802	82.31
412.025	83.31
412.249	71.31
412.472	74.31
412.695	78.31
412.919	78.31
413.142	95.31
413.365	86.31
413.589	85.31
413.812	76.31
414.035	81.31
414.258	69.31
414.482	72.31
414.705	77.31
414.928	86.31
415.151	86.31
415.374	81.31
415.597	68.31
415.821	77.31
416.044	98.31
416.267	79.31
416.49	84.31
416.713	84.31
416.936	71.31
417.159	77.31
417.382	75.31
417.605	85.31
417.828	79.31
418.051	90.31
418.274	77.31
418.497	86.31
418.72	98.31
418.943	87.31
419.166	81.31
419.389	81.31
419.611	69.31
419.834	73.31
420.057	94.31
420.28	87.31
420.503	84.31
420.726	91.31
420.948	79.31
421.171	86.31
421.394	91.31
421.617	89.31
421.839	87.31
422.062	97.31
422.285	109.31
422.507	118.31
422.73	148.31
422.953	141.31
423.175	101.31
423.398	102.31
423.621	107.31
423.843	88.31
424.066	84.31
424.288	79.31
424.511	62.31
424.733	84.31
424.956	90.31
425.178	86.31
425.401	91.31
425.623	79.31
425.846	90.31
426.068	82.31
426.291	71.31
426.513	91.31
426.735	74.31
426.958	72.31
427.18	98.31
427.402	93.31
427.625	89.31
427.847	87.31
428.069	87.31
428.292	93.31
428.514	88.31
428.736	85.31
428.958	89.31
429.181	108.31
429.403	77.31
429.625	80.31
429.847	97.31
430.069	113.31
430.292	110.31
430.514	101.31
430.736	82.31
430.958	91.31
431.18	78.31
431.402	77.31
431.624	86.31
431.846	87.31
432.068	91.31
432.29	98.31
432.512	88.31
432.734	75.31
432.956	92.31
433.178	79.31
433.4	70.31
433.622	92.31
433.844	73.31
434.066	81.31
434.287	79.31
434.509	78.31
434.731	76.31
434.953	70.31
435.175	83.31
435.397	63.31
435.618	78.31
435.84	76.31
436.062	71.31
436.284	76.31
436.505	94.31
436.727	77.31
436.949	78.31
437.17	74.31
437.392	58.31
437.614	73.31
437.835	91.31
438.057	73.31
438.278	88.31
438.5	86.31
438.721	81.31
438.943	88.31
439.165	79.31
439.386	69.31
439.608	83.31
439.829	71.31
440.05	73.31
440.272	84.31
440.493	82.31
440.715	90.31
440.936	79.31
441.158	81.31
441.379	76.31
441.6	81.31
441.822	104.31
442.043	81.31
442.264	89.31
442.486	98.31
442.707	94.31
442.928	97.31
443.149	87.31
443.371	117.31
443.592	126.31
443.813	117.31
444.034	88.31
444.255	73.31
444.476	89.31
444.698	81.31
444.919	85.31
445.14	150.31
445.361	142.31
445.582	128.31
445.803	114.31
446.024	94.31
446.245	74.31
446.466	89.31
446.687	90.31
446.908	74.31
447.129	92.31
447.35	84.31
447.571	68.31
447.792	79.31
448.013	73.31
448.234	79.31
448.455	74.31
448.675	80.31
448.896	95.31
449.117	85.31
449.338	81.31
449.559	83.31
449.779	75.31
450	76.31
450.221	82.31
450.442	81.31
450.662	89.31
450.883	85.31
451.104	86.31
451.324	85.31
451.545	76.31
451.766	71.31
451.986	85.31
452.207	77.31
452.428	71.31
452.648	94.31
452.869	85.31
453.089	76.31
453.31	78.31
453.53	76.31
453.751	86.31
453.971	83.31
454.192	89.31
454.412	67.31
454.633	84.31
454.853	87.31
455.073	76.31
455.294	84.31
455.514	73.31
455.734	74.31
455.955	82.31
456.175	96.31
456.395	66.31
456.616	81.31
456.836	87.31
457.056	94.31
457.276	87.31
457.497	87.31
457.717	91.31
457.937	79.31
458.157	72.31
458.377	101.31
458.598	98.31
458.818	90.31
459.038	81.31
459.258	82.31
459.478	86.31
459.698	83.31
459.918	78.31
460.138	81.31
460.358	79.31
460.578	92.31
460.798	105.31
461.018	99.31
461.238	98.31
461.458	85.31
461.678	80.31
461.898	67.31
462.118	86.31
462.338	94.31
462.558	84.31
462.777	85.31
462.997	86.31
463.217	86.31
463.437	69.31
463.657	68.31
463.876	89.31
464.096	93.31
464.316	76.31
464.536	84.31
464.755	74.31
464.975	72.31
465.195	85.31
465.414	84.31
465.634	73.31
465.854	73.31
466.073	81.31
466.293	79.31
466.512	85.31
466.732	98.31
466.951	74.31
467.171	86.31
467.391	83.31
467.61	81.31
467.829	70.31
468.049	74.31
468.268	71.31
468.488	74.31
468.707	76.31
468.927	80.31
469.146	90.31
469.365	84.31
469.585	85.31
469.804	80.31
470.023	82.31
470.243	78.31
470.462	84.31
470.681	56.31
470.901	81.31
471.12	62.31
471.339	78.31
471.558	81.31
471.777	70.31
471.997	77.31
472.216	78.31
472.435	91.31
472.654	91.31
472.873	75.31
473.092	89.31
473.311	83.31
473.53	92.31
473.749	88.31
473.968	86.31
474.187	87.31
474.406	77.31
474.625	92.31
474.844	79.31
475.063	88.31
475.282	90.31
475.501	78.31
475.72	76.31
475.939	82.31
476.158	92.31
476.377	84.31
476.596	82.31
476.814	77.31
477.033	81.31
477.252	73.31
477.471	80.31
477.69	94.31
477.908	76.31
478.127	86.31
478.346	89.31
478.564	74.31
478.783	87.31
479.002	83.31
479.22	83.31
479.439	83.31
479.658	74.31
479.876	93.31
480.095	81.31
480.313	75.31
480.532	88.31
480.751	72.31
480.969	82.31
481.188	88.31
481.406	72.31
481.624	93.31
481.843	70.31
482.061	81.31
482.28	86.31
482.498	68.31
482.717	72.31
482.935	96.31
483.153	79.31
483.372	91.31
483.59	85.31
483.808	78.31
484.027	83.31
484.245	90.31
484.463	84.31
484.681	93.31
484.9	97.31
485.118	99.31
485.336	77.31
485.554	83.31
485.772	72.31
485.99	94.31
486.209	72.31
486.427	94.31
486.645	89.31
486.863	85.31
487.081	86.31
487.299	73.31
487.517	105.31
487.735	90.31
487.953	95.31
488.171	103.31
488.389	94.31
488.607	73.31
488.825	77.31
489.043	76.31
489.261	79.31
489.479	82.31
489.696	88.31
489.914	87.31
490.132	85.31
490.35	84.31
490.568	81.31
490.786	95.31
491.003	79.31
491.221	83.31
491.439	91.31
491.657	86.31
491.874	86.31
492.092	93.31
492.31	75.31
492.527	74.31
492.745	86.31
492.963	83.31
493.18	81.31
493.398	79.31
493.615	63.31
493.833	71.31
494.05	85.31
494.268	92.31
494.485	92.31
494.703	81.31
494.92	81.31
495.138	85.31
495.355	76.31
495.573	89.31
495.79	62.31
496.008	78.31
496.225	83.31
496.442	81.31
496.66	89.31
496.877	93.31
497.094	95.31
497.312	79.31
497.529	78.31
497.746	79.31
497.963	72.31
498.181	82.31
498.398	86.31
498.615	84.31
498.832	84.31
499.049	94.31
499.267	89.31
499.484	77.31
499.701	92.31
499.918	101.31
500.135	88.31
500.352	78.31
500.569	82.31
500.786	90.31
501.003	90.31
501.22	77.31
501.437	89.31
501.654	76.31
501.871	79.31
502.088	81.31
502.305	92.31
502.522	79.31
502.739	78.31
502.956	89.31
503.172	83.31
503.389	78.31
503.606	85.31
503.823	88.31
504.04	88.31
504.256	91.31
504.473	81.31
504.69	85.31
504.907	83.31
505.123	95.31
505.34	94.31
505.557	89.31
505.773	87.31
505.99	83.31
506.207	88.31
506.423	80.31
506.64	80.31
506.856	86.31
507.073	89.31
507.289	80.31
507.506	77.31
507.722	76.31
507.939	110.31
508.155	85.31
508.372	91.31
508.588	94.31
508.805	87.31
509.021	92.31
509.238	72.31
509.454	73.31
509.67	74.31
509.887	81.31
510.103	73.31
510.319	92.31
510.536	72.31
510.752	84.31
510.968	81.31
511.184	92.31
511.401	87.31
511.617	95.31
511.833	95.31
512.049	69.31
512.265	89.31
512.481	86.31
512.698	77.31
512.914	84.31
513.13	79.31
513.346	84.31
513.562	83.31
513.778	78.31
513.994	85.31
514.21	83.31
514.426	73.31
514.642	74.31
514.858	71.31
515.074	71.31
515.29	86.31
515.506	90.31
515.721	77.31
515.937	74.31
516.153	81.31
516.369	85.31
516.585	77.31
516.801	84.31
517.016	85.31
517.232	70.31
517.448	86.31
517.664	84.31
517.879	71.31
518.095	87.31
518.311	79.31
518.527	94.31
518.742	99.31
518.958	83.31
519.173	101.31
519.389	105.31
519.605	92.31
519.82	84.31
