Data from Mixheat3_HRD10591_00010.txt Node
Date: Fri Dec 27 15:10:32 EST 2024
User: Yrep
Spectrometer: HR+D1059
Trigger mode: 1
Integration Time (sec): 1.000000E-1
Scans to average: 1
Electric dark correction enabled: true
Nonlinearity correction enabled: false
Boxcar width: 0
XAxis mode: Wavelengths
Number of Pixels in Spectrum: 2048
>>>>>Begin Spectral Data<<<<<
223.165	-9.69
223.4	-9.69
223.635	-9.69
223.869	-29.69
224.104	-24.69
224.338	-21.69
224.573	-15.69
224.808	-17.69
225.042	-9.69
225.277	-1.69
225.511	-8.69
225.746	14.31
225.98	2.31
226.215	8.31
226.449	12.31
226.683	24.31
226.918	27.31
227.152	50.31
227.387	44.31
227.621	40.31
227.856	53.31
228.09	54.31
228.324	57.31
228.559	57.31
228.793	52.31
229.027	63.31
229.262	68.31
229.496	66.31
229.73	79.31
229.964	85.31
230.199	64.31
230.433	83.31
230.667	86.31
230.901	67.31
231.136	78.31
231.37	91.31
231.604	87.31
231.838	89.31
232.072	84.31
232.306	86.31
232.541	87.31
232.775	88.31
233.009	85.31
233.243	70.31
233.477	74.31
233.711	91.31
233.945	80.31
234.179	98.31
234.413	94.31
234.647	89.31
234.881	79.31
235.115	81.31
235.349	105.31
235.583	92.31
235.817	87.31
236.051	91.31
236.285	81.31
236.519	79.31
236.753	78.31
236.987	84.31
237.221	71.31
237.455	80.31
237.689	73.31
237.922	74.31
238.156	79.31
238.39	76.31
238.624	81.31
238.858	84.31
239.091	90.31
239.325	72.31
239.559	73.31
239.793	68.31
240.027	82.31
240.26	83.31
240.494	99.31
240.728	77.31
240.961	83.31
241.195	89.31
241.429	84.31
241.662	82.31
241.896	79.31
242.13	67.31
242.363	75.31
242.597	76.31
242.83	83.31
243.064	77.31
243.298	92.31
243.531	88.31
243.765	88.31
243.998	85.31
244.232	87.31
244.465	82.31
244.699	88.31
244.932	88.31
245.166	74.31
245.399	71.31
245.633	71.31
245.866	75.31
246.099	90.31
246.333	84.31
246.566	77.31
246.8	77.31
247.033	76.31
247.266	77.31
247.5	92.31
247.733	76.31
247.966	90.31
248.2	82.31
248.433	87.31
248.666	84.31
248.899	74.31
249.133	97.31
249.366	93.31
249.599	81.31
249.832	76.31
250.066	85.31
250.299	95.31
250.532	78.31
250.765	77.31
250.998	88.31
251.231	94.31
251.465	87.31
251.698	76.31
251.931	75.31
252.164	81.31
252.397	78.31
252.63	85.31
252.863	82.31
253.096	98.31
253.329	86.31
253.562	76.31
253.795	72.31
254.028	77.31
254.261	90.31
254.494	81.31
254.727	92.31
254.96	88.31
255.193	69.31
255.426	80.31
255.659	77.31
255.892	84.31
256.124	78.31
256.357	78.31
256.59	82.31
256.823	99.31
257.056	74.31
257.289	77.31
257.521	87.31
257.754	85.31
257.987	75.31
258.22	80.31
258.452	81.31
258.685	90.31
258.918	95.31
259.151	80.31
259.383	74.31
259.616	95.31
259.849	76.31
260.081	85.31
260.314	84.31
260.547	80.31
260.779	86.31
261.012	112.31
261.244	87.31
261.477	94.31
261.71	80.31
261.942	78.31
262.175	86.31
262.407	84.31
262.64	84.31
262.872	86.31
263.105	81.31
263.337	90.31
263.57	67.31
263.802	84.31
264.035	85.31
264.267	72.31
264.499	90.31
264.732	88.31
264.964	94.31
265.197	81.31
265.429	92.31
265.661	89.31
265.894	89.31
266.126	77.31
266.358	98.31
266.591	78.31
266.823	82.31
267.055	81.31
267.287	82.31
267.52	79.31
267.752	80.31
267.984	94.31
268.216	85.31
268.448	95.31
268.681	90.31
268.913	89.31
269.145	95.31
269.377	79.31
269.609	78.31
269.841	82.31
270.073	89.31
270.306	98.31
270.538	89.31
270.77	90.31
271.002	103.31
271.234	92.31
271.466	75.31
271.698	72.31
271.93	99.31
272.162	77.31
272.394	90.31
272.626	95.31
272.858	74.31
273.09	67.31
273.322	100.31
273.553	79.31
273.785	89.31
274.017	86.31
274.249	81.31
274.481	71.31
274.713	87.31
274.945	80.31
275.176	93.31
275.408	106.31
275.64	94.31
275.872	78.31
276.104	92.31
276.335	91.31
276.567	99.31
276.799	84.31
277.031	83.31
277.262	92.31
277.494	79.31
277.726	69.31
277.957	80.31
278.189	87.31
278.421	86.31
278.652	94.31
278.884	75.31
279.115	87.31
279.347	84.31
279.579	82.31
279.81	81.31
280.042	66.31
280.273	86.31
280.505	91.31
280.736	75.31
280.968	89.31
281.199	95.31
281.431	89.31
281.662	91.31
281.894	81.31
282.125	88.31
282.356	82.31
282.588	97.31
282.819	84.31
283.051	84.31
283.282	86.31
283.513	98.31
283.745	75.31
283.976	81.31
284.207	85.31
284.439	72.31
284.67	74.31
284.901	77.31
285.132	77.31
285.364	83.31
285.595	90.31
285.826	91.31
286.057	90.31
286.288	79.31
286.52	96.31
286.751	78.31
286.982	89.31
287.213	78.31
287.444	83.31
287.675	76.31
287.906	71.31
288.138	84.31
288.369	88.31
288.6	90.31
288.831	82.31
289.062	88.31
289.293	80.31
289.524	92.31
289.755	106.31
289.986	92.31
290.217	88.31
290.448	74.31
290.679	91.31
290.91	109.31
291.141	83.31
291.371	90.31
291.602	95.31
291.833	90.31
292.064	89.31
292.295	96.31
292.526	90.31
292.757	100.31
292.987	78.31
293.218	78.31
293.449	91.31
293.68	84.31
293.91	92.31
294.141	100.31
294.372	85.31
294.603	76.31
294.833	86.31
295.064	96.31
295.295	81.31
295.525	95.31
295.756	102.31
295.987	98.31
296.217	81.31
296.448	105.31
296.679	88.31
296.909	89.31
297.14	82.31
297.37	99.31
297.601	86.31
297.831	79.31
298.062	83.31
298.292	94.31
298.523	104.31
298.753	93.31
298.984	91.31
299.214	86.31
299.445	80.31
299.675	94.31
299.905	98.31
300.136	100.31
300.366	80.31
300.597	94.31
300.827	97.31
301.057	86.31
301.288	75.31
301.518	94.31
301.748	92.31
301.979	114.31
302.209	68.31
302.439	74.31
302.669	81.31
302.9	92.31
303.13	99.31
303.36	96.31
303.59	90.31
303.82	92.31
304.051	81.31
304.281	89.31
304.511	90.31
304.741	90.31
304.971	98.31
305.201	105.31
305.431	94.31
305.661	79.31
305.891	96.31
306.121	90.31
306.352	87.31
306.582	86.31
306.812	81.31
307.042	86.31
307.272	80.31
307.502	82.31
307.731	86.31
307.961	90.31
308.191	96.31
308.421	97.31
308.651	97.31
308.881	86.31
309.111	106.31
309.341	76.31
309.571	94.31
309.8	83.31
310.03	89.31
310.26	89.31
310.49	86.31
310.72	91.31
310.949	95.31
311.179	97.31
311.409	89.31
311.639	94.31
311.868	89.31
312.098	87.31
312.328	88.31
312.557	94.31
312.787	88.31
313.017	95.31
313.246	103.31
313.476	90.31
313.706	85.31
313.935	85.31
314.165	84.31
314.394	83.31
314.624	60.31
314.853	87.31
315.083	76.31
315.312	83.31
315.542	80.31
315.771	86.31
316.001	86.31
316.23	86.31
316.46	87.31
316.689	85.31
316.919	77.31
317.148	95.31
317.377	84.31
317.607	89.31
317.836	80.31
318.065	81.31
318.295	90.31
318.524	86.31
318.753	77.31
318.983	81.31
319.212	96.31
319.441	75.31
319.67	95.31
319.9	87.31
320.129	83.31
320.358	75.31
320.587	87.31
320.816	87.31
321.046	84.31
321.275	78.31
321.504	81.31
321.733	79.31
321.962	97.31
322.191	82.31
322.42	80.31
322.649	80.31
322.878	84.31
323.108	102.31
323.337	89.31
323.566	90.31
323.795	82.31
324.024	80.31
324.253	88.31
324.482	90.31
324.71	96.31
324.939	81.31
325.168	94.31
325.397	82.31
325.626	89.31
325.855	93.31
326.084	93.31
326.313	88.31
326.542	102.31
326.77	87.31
326.999	86.31
327.228	99.31
327.457	83.31
327.686	78.31
327.914	81.31
328.143	84.31
328.372	85.31
328.6	87.31
328.829	102.31
329.058	82.31
329.287	90.31
329.515	98.31
329.744	98.31
329.972	67.31
330.201	85.31
330.43	82.31
330.658	95.31
330.887	78.31
331.115	90.31
331.344	86.31
331.572	105.31
331.801	87.31
332.03	82.31
332.258	82.31
332.486	89.31
332.715	89.31
332.943	72.31
333.172	92.31
333.4	83.31
333.629	90.31
333.857	94.31
334.085	87.31
334.314	92.31
334.542	86.31
334.771	83.31
334.999	90.31
335.227	95.31
335.455	89.31
335.684	93.31
335.912	106.31
336.14	97.31
336.369	95.31
336.597	97.31
336.825	88.31
337.053	78.31
337.281	96.31
337.51	87.31
337.738	93.31
337.966	80.31
338.194	97.31
338.422	87.31
338.65	96.31
338.878	87.31
339.106	79.31
339.334	92.31
339.562	84.31
339.79	91.31
340.018	88.31
340.246	100.31
340.474	76.31
340.702	76.31
340.93	102.31
341.158	78.31
341.386	82.31
341.614	90.31
341.842	85.31
342.07	82.31
342.298	95.31
342.526	76.31
342.754	72.31
342.981	86.31
343.209	93.31
343.437	94.31
343.665	100.31
343.893	84.31
344.12	85.31
344.348	100.31
344.576	92.31
344.804	87.31
345.031	92.31
345.259	84.31
345.487	90.31
345.714	83.31
345.942	95.31
346.17	102.31
346.397	84.31
346.625	82.31
346.853	95.31
347.08	100.31
347.308	84.31
347.535	92.31
347.763	93.31
347.99	92.31
348.218	82.31
348.445	82.31
348.673	83.31
348.9	92.31
349.128	95.31
349.355	86.31
349.583	83.31
349.81	83.31
350.037	78.31
350.265	90.31
350.492	92.31
350.72	81.31
350.947	90.31
351.174	82.31
351.402	87.31
351.629	90.31
351.856	92.31
352.083	87.31
352.311	69.31
352.538	87.31
352.765	94.31
352.992	101.31
353.22	80.31
353.447	90.31
353.674	77.31
353.901	84.31
354.128	103.31
354.355	88.31
354.583	105.31
354.81	102.31
355.037	81.31
355.264	74.31
355.491	98.31
355.718	84.31
355.945	100.31
356.172	87.31
356.399	80.31
356.626	92.31
356.853	92.31
357.08	78.31
357.307	75.31
357.534	87.31
357.761	89.31
357.988	94.31
358.215	94.31
358.441	93.31
358.668	84.31
358.895	106.31
359.122	98.31
359.349	80.31
359.576	90.31
359.802	87.31
360.029	88.31
360.256	91.31
360.483	75.31
360.709	87.31
360.936	96.31
361.163	87.31
361.39	100.31
361.616	91.31
361.843	85.31
362.07	83.31
362.296	95.31
362.523	88.31
362.749	95.31
362.976	100.31
363.203	92.31
363.429	83.31
363.656	87.31
363.882	81.31
364.109	89.31
364.335	95.31
364.562	107.31
364.788	92.31
365.015	90.31
365.241	90.31
365.468	108.31
365.694	78.31
365.92	102.31
366.147	80.31
366.373	89.31
366.599	72.31
366.826	89.31
367.052	98.31
367.278	102.31
367.505	93.31
367.731	83.31
367.957	74.31
368.184	90.31
368.41	94.31
368.636	88.31
368.862	97.31
369.089	90.31
369.315	85.31
369.541	86.31
369.767	84.31
369.993	98.31
370.219	94.31
370.445	88.31
370.672	88.31
370.898	83.31
371.124	90.31
371.35	90.31
371.576	91.31
371.802	97.31
372.028	99.31
372.254	95.31
372.48	81.31
372.706	89.31
372.932	82.31
373.158	90.31
373.384	91.31
373.61	83.31
373.835	90.31
374.061	96.31
374.287	89.31
374.513	70.31
374.739	100.31
374.965	93.31
375.191	98.31
375.416	103.31
375.642	94.31
375.868	86.31
376.094	90.31
376.319	81.31
376.545	99.31
376.771	89.31
376.997	96.31
377.222	85.31
377.448	96.31
377.674	82.31
377.899	97.31
378.125	88.31
378.35	101.31
378.576	82.31
378.802	80.31
379.027	72.31
379.253	87.31
379.478	79.31
379.704	78.31
379.929	82.31
380.155	78.31
380.38	98.31
380.606	99.31
380.831	80.31
381.057	86.31
381.282	89.31
381.507	90.31
381.733	93.31
381.958	103.31
382.184	74.31
382.409	88.31
382.634	91.31
382.86	78.31
383.085	82.31
383.31	95.31
383.535	87.31
383.761	83.31
383.986	76.31
384.211	82.31
384.436	79.31
384.662	89.31
384.887	95.31
385.112	78.31
385.337	90.31
385.562	87.31
385.787	91.31
386.013	96.31
386.238	98.31
386.463	87.31
386.688	104.31
386.913	93.31
387.138	86.31
387.363	100.31
387.588	106.31
387.813	92.31
388.038	94.31
388.263	83.31
388.488	80.31
388.713	94.31
388.938	83.31
389.163	86.31
389.387	94.31
389.612	82.31
389.837	96.31
390.062	81.31
390.287	91.31
390.512	86.31
390.736	80.31
390.961	78.31
391.186	81.31
391.411	83.31
391.636	93.31
391.86	103.31
392.085	81.31
392.31	81.31
392.534	83.31
392.759	88.31
392.984	88.31
393.208	107.31
393.433	112.31
393.658	101.31
393.882	89.31
394.107	108.31
394.331	98.31
394.556	96.31
394.78	74.31
395.005	92.31
395.229	80.31
395.454	94.31
395.678	90.31
395.903	97.31
396.127	106.31
396.352	115.31
396.576	100.31
396.801	115.31
397.025	122.31
397.249	100.31
397.474	82.31
397.698	100.31
397.922	90.31
398.147	82.31
398.371	91.31
398.595	97.31
398.82	82.31
399.044	86.31
399.268	82.31
399.492	79.31
399.717	87.31
399.941	70.31
400.165	78.31
400.389	103.31
400.613	81.31
400.837	95.31
401.062	87.31
401.286	84.31
401.51	78.31
401.734	98.31
401.958	93.31
402.182	87.31
402.406	86.31
402.63	95.31
402.854	86.31
403.078	87.31
403.302	87.31
403.526	86.31
403.75	89.31
403.974	91.31
404.198	95.31
404.422	108.31
404.645	128.31
404.869	120.31
405.093	85.31
405.317	86.31
405.541	89.31
405.765	92.31
405.988	75.31
406.212	89.31
406.436	87.31
406.66	100.31
406.883	90.31
407.107	84.31
407.331	95.31
407.555	91.31
407.778	81.31
408.002	96.31
408.226	79.31
408.449	88.31
408.673	88.31
408.896	100.31
409.12	89.31
409.344	86.31
409.567	89.31
409.791	95.31
410.014	83.31
410.238	89.31
410.461	80.31
410.685	106.31
410.908	78.31
411.132	84.31
411.355	91.31
411.578	83.31
411.802	92.31
412.025	85.31
412.249	90.31
412.472	75.31
412.695	84.31
412.919	66.31
413.142	97.31
413.365	95.31
413.589	93.31
413.812	80.31
414.035	92.31
414.258	77.31
414.482	90.31
414.705	88.31
414.928	98.31
415.151	70.31
415.374	86.31
415.597	81.31
415.821	86.31
416.044	99.31
416.267	96.31
416.49	87.31
416.713	93.31
416.936	80.31
417.159	86.31
417.382	95.31
417.605	75.31
417.828	93.31
418.051	100.31
418.274	90.31
418.497	93.31
418.72	79.31
418.943	90.31
419.166	91.31
419.389	81.31
419.611	79.31
419.834	87.31
420.057	95.31
420.28	75.31
420.503	83.31
420.726	96.31
420.948	87.31
421.171	87.31
421.394	95.31
421.617	94.31
421.839	106.31
422.062	106.31
422.285	103.31
422.507	137.31
422.73	144.31
422.953	138.31
423.175	113.31
423.398	98.31
423.621	98.31
423.843	88.31
424.066	94.31
424.288	95.31
424.511	84.31
424.733	83.31
424.956	87.31
425.178	82.31
425.401	77.31
425.623	91.31
425.846	109.31
426.068	84.31
426.291	86.31
426.513	86.31
426.735	69.31
426.958	95.31
427.18	84.31
427.402	79.31
427.625	89.31
427.847	94.31
428.069	84.31
428.292	110.31
428.514	97.31
428.736	99.31
428.958	99.31
429.181	99.31
429.403	82.31
429.625	97.31
429.847	106.31
430.069	124.31
430.292	120.31
430.514	108.31
430.736	95.31
430.958	100.31
431.18	89.31
431.402	91.31
431.624	79.31
431.846	97.31
432.068	85.31
432.29	93.31
432.512	85.31
432.734	87.31
432.956	88.31
433.178	89.31
433.4	79.31
433.622	91.31
433.844	94.31
434.066	84.31
434.287	77.31
434.509	79.31
434.731	81.31
434.953	84.31
435.175	84.31
435.397	95.31
435.618	90.31
435.84	85.31
436.062	87.31
436.284	90.31
436.505	99.31
436.727	100.31
436.949	83.31
437.17	79.31
437.392	82.31
437.614	96.31
437.835	95.31
438.057	102.31
438.278	88.31
438.5	69.31
438.721	102.31
438.943	86.31
439.165	88.31
439.386	79.31
439.608	83.31
439.829	87.31
440.05	74.31
440.272	84.31
440.493	83.31
440.715	92.31
440.936	97.31
441.158	92.31
441.379	88.31
441.6	78.31
441.822	99.31
442.043	90.31
442.264	90.31
442.486	102.31
442.707	115.31
442.928	107.31
443.149	96.31
443.371	102.31
443.592	122.31
443.813	102.31
444.034	96.31
444.255	88.31
444.476	90.31
444.698	106.31
444.919	94.31
445.14	146.31
445.361	136.31
445.582	138.31
445.803	108.31
446.024	90.31
446.245	87.31
446.466	90.31
446.687	85.31
446.908	91.31
447.129	97.31
447.35	91.31
447.571	95.31
447.792	84.31
448.013	87.31
448.234	93.31
448.455	95.31
448.675	80.31
448.896	93.31
449.117	94.31
449.338	99.31
449.559	109.31
449.779	91.31
450	82.31
450.221	98.31
450.442	83.31
450.662	78.31
450.883	97.31
451.104	75.31
451.324	91.31
451.545	100.31
451.766	84.31
451.986	88.31
452.207	83.31
452.428	90.31
452.648	92.31
452.869	84.31
453.089	79.31
453.31	75.31
453.53	83.31
453.751	83.31
453.971	96.31
454.192	82.31
454.412	78.31
454.633	99.31
454.853	69.31
455.073	78.31
455.294	78.31
455.514	88.31
455.734	95.31
455.955	91.31
456.175	88.31
456.395	79.31
456.616	94.31
456.836	71.31
457.056	90.31
457.276	104.31
457.497	90.31
457.717	72.31
457.937	100.31
458.157	105.31
458.377	95.31
458.598	100.31
458.818	98.31
459.038	94.31
459.258	83.31
459.478	74.31
459.698	89.31
459.918	80.31
460.138	92.31
460.358	83.31
460.578	94.31
460.798	105.31
461.018	90.31
461.238	103.31
461.458	107.31
461.678	91.31
461.898	90.31
462.118	93.31
462.338	85.31
462.558	86.31
462.777	96.31
462.997	104.31
463.217	98.31
463.437	97.31
463.657	88.31
463.876	78.31
464.096	90.31
464.316	97.31
464.536	87.31
464.755	91.31
464.975	91.31
465.195	93.31
465.414	82.31
465.634	104.31
465.854	94.31
466.073	82.31
466.293	89.31
466.512	80.31
466.732	80.31
466.951	93.31
467.171	92.31
467.391	94.31
467.61	92.31
467.829	94.31
468.049	85.31
468.268	82.31
468.488	76.31
468.707	94.31
468.927	99.31
469.146	87.31
469.365	91.31
469.585	90.31
469.804	92.31
470.023	93.31
470.243	80.31
470.462	89.31
470.681	88.31
470.901	76.31
471.12	90.31
471.339	88.31
471.558	88.31
471.777	95.31
471.997	88.31
472.216	84.31
472.435	83.31
472.654	85.31
472.873	85.31
473.092	80.31
473.311	84.31
473.53	75.31
473.749	87.31
473.968	84.31
474.187	89.31
474.406	71.31
474.625	108.31
474.844	88.31
475.063	93.31
475.282	85.31
475.501	74.31
475.72	97.31
475.939	87.31
476.158	82.31
476.377	87.31
476.596	93.31
476.814	88.31
477.033	83.31
477.252	94.31
477.471	96.31
477.69	93.31
477.908	90.31
478.127	85.31
478.346	79.31
478.564	94.31
478.783	88.31
479.002	102.31
479.22	99.31
479.439	78.31
479.658	90.31
479.876	97.31
480.095	87.31
480.313	86.31
480.532	87.31
480.751	85.31
480.969	90.31
481.188	79.31
481.406	90.31
481.624	98.31
481.843	89.31
482.061	85.31
482.28	104.31
482.498	94.31
482.717	95.31
482.935	91.31
483.153	98.31
483.372	106.31
483.59	92.31
483.808	84.31
484.027	95.31
484.245	79.31
484.463	83.31
484.681	76.31
484.9	79.31
485.118	98.31
485.336	83.31
485.554	82.31
485.772	102.31
485.99	95.31
486.209	84.31
486.427	84.31
486.645	88.31
486.863	94.31
487.081	94.31
487.299	88.31
487.517	98.31
487.735	84.31
487.953	98.31
488.171	100.31
488.389	89.31
488.607	88.31
488.825	99.31
489.043	87.31
489.261	97.31
489.479	80.31
489.696	83.31
489.914	93.31
490.132	92.31
490.35	72.31
490.568	82.31
490.786	81.31
491.003	92.31
491.221	89.31
491.439	92.31
491.657	95.31
491.874	102.31
492.092	102.31
492.31	96.31
492.527	82.31
492.745	87.31
492.963	96.31
493.18	86.31
493.398	89.31
493.615	88.31
493.833	97.31
494.05	83.31
494.268	72.31
494.485	94.31
494.703	94.31
494.92	76.31
495.138	85.31
495.355	108.31
495.573	90.31
495.79	91.31
496.008	66.31
496.225	98.31
496.442	85.31
496.66	92.31
496.877	95.31
497.094	88.31
497.312	78.31
497.529	89.31
497.746	88.31
497.963	86.31
498.181	92.31
498.398	94.31
498.615	95.31
498.832	95.31
499.049	99.31
499.267	93.31
499.484	85.31
499.701	88.31
499.918	89.31
500.135	81.31
500.352	100.31
500.569	82.31
500.786	97.31
501.003	97.31
501.22	97.31
501.437	100.31
501.654	79.31
501.871	84.31
502.088	84.31
502.305	83.31
502.522	81.31
502.739	107.31
502.956	105.31
503.172	91.31
503.389	102.31
503.606	91.31
503.823	112.31
504.04	98.31
504.256	105.31
504.473	76.31
504.69	94.31
504.907	82.31
505.123	104.31
505.34	97.31
505.557	92.31
505.773	108.31
505.99	83.31
506.207	87.31
506.423	79.31
506.64	93.31
506.856	94.31
507.073	94.31
507.289	103.31
507.506	99.31
507.722	92.31
507.939	90.31
508.155	95.31
508.372	92.31
508.588	98.31
508.805	94.31
509.021	87.31
509.238	89.31
509.454	79.31
509.67	90.31
509.887	83.31
510.103	84.31
510.319	97.31
510.536	67.31
510.752	79.31
510.968	86.31
511.184	95.31
511.401	83.31
511.617	97.31
511.833	90.31
512.049	91.31
512.265	75.31
512.481	85.31
512.698	77.31
512.914	80.31
513.13	82.31
513.346	82.31
513.562	95.31
513.778	88.31
513.994	97.31
514.21	80.31
514.426	99.31
514.642	83.31
514.858	99.31
515.074	86.31
515.29	95.31
515.506	89.31
515.721	97.31
515.937	93.31
516.153	97.31
516.369	97.31
516.585	96.31
516.801	97.31
517.016	96.31
517.232	91.31
517.448	89.31
517.664	94.31
517.879	91.31
518.095	97.31
518.311	103.31
518.527	91.31
