Data from Uncirc_1981_H10_HRD10591_00028.txt Node
Date: Wed Jan 03 12:33:13 EST 2024
User: Yrep
Spectrometer: HR+D1059
Trigger mode: 1
Integration Time (sec): 1.000000E-1
Scans to average: 1
Electric dark correction enabled: true
Nonlinearity correction enabled: false
Boxcar width: 0
XAxis mode: Wavelengths
Number of Pixels in Spectrum: 2048
>>>>>Begin Spectral Data<<<<<
223.165	-20
223.4	-20
223.635	-20
223.869	-22
224.104	-14
224.338	-22
224.573	-23
224.808	-20
225.042	-2
225.277	-9
225.511	-12
225.746	2
225.98	21
226.215	19
226.449	34
226.683	23
226.918	16
227.152	29
227.387	38
227.621	57
227.856	47
228.09	48
228.324	41
228.559	61
228.793	56
229.027	70
229.262	71
229.496	77
229.73	78
229.964	74
230.199	85
230.433	64
230.667	75
230.901	104
231.136	73
231.37	83
231.604	82
231.838	73
232.072	73
232.306	77
232.541	90
232.775	85
233.009	77
233.243	81
233.477	68
233.711	81
233.945	74
234.179	87
234.413	74
234.647	69
234.881	74
235.115	65
235.349	74
235.583	72
235.817	75
236.051	84
236.285	77
236.519	82
236.753	86
236.987	93
237.221	83
237.455	70
237.689	87
237.922	73
238.156	67
238.39	93
238.624	76
238.858	77
239.091	81
239.325	61
239.559	76
239.793	64
240.027	65
240.26	81
240.494	83
240.728	64
240.961	80
241.195	90
241.429	84
241.662	71
241.896	75
242.13	83
242.363	65
242.597	81
242.83	68
243.064	83
243.298	65
243.531	63
243.765	74
243.998	77
244.232	81
244.465	80
244.699	81
244.932	82
245.166	85
245.399	61
245.633	69
245.866	87
246.099	59
246.333	79
246.566	75
246.8	76
247.033	75
247.266	83
247.5	83
247.733	75
247.966	74
248.2	91
248.433	95
248.666	85
248.899	76
249.133	81
249.366	85
249.599	84
249.832	85
250.066	90
250.299	63
250.532	81
250.765	93
250.998	74
251.231	98
251.465	73
251.698	66
251.931	78
252.164	83
252.397	76
252.63	66
252.863	79
253.096	78
253.329	82
253.562	87
253.795	74
254.028	64
254.261	71
254.494	78
254.727	89
254.96	85
255.193	87
255.426	90
255.659	76
255.892	84
256.124	75
256.357	86
256.59	81
256.823	80
257.056	73
257.289	66
257.521	83
257.754	69
257.987	90
258.22	74
258.452	82
258.685	81
258.918	70
259.151	73
259.383	88
259.616	74
259.849	91
260.081	70
260.314	78
260.547	70
260.779	82
261.012	93
261.244	85
261.477	92
261.71	86
261.942	90
262.175	99
262.407	84
262.64	75
262.872	89
263.105	91
263.337	83
263.57	77
263.802	77
264.035	73
264.267	74
264.499	90
264.732	90
264.964	84
265.197	74
265.429	73
265.661	76
265.894	85
266.126	76
266.358	84
266.591	87
266.823	77
267.055	75
267.287	76
267.52	84
267.752	75
267.984	101
268.216	79
268.448	101
268.681	88
268.913	87
269.145	90
269.377	91
269.609	77
269.841	96
270.073	85
270.306	89
270.538	76
270.77	95
271.002	89
271.234	88
271.466	76
271.698	79
271.93	66
272.162	96
272.394	91
272.626	75
272.858	69
273.09	74
273.322	79
273.553	95
273.785	88
274.017	87
274.249	79
274.481	84
274.713	76
274.945	90
275.176	76
275.408	88
275.64	85
275.872	74
276.104	95
276.335	82
276.567	90
276.799	87
277.031	98
277.262	92
277.494	71
277.726	81
277.957	83
278.189	83
278.421	88
278.652	87
278.884	76
279.115	87
279.347	88
279.579	89
279.81	82
280.042	88
280.273	84
280.505	84
280.736	87
280.968	90
281.199	75
281.431	87
281.662	74
281.894	91
282.125	105
282.356	97
282.588	104
282.819	100
283.051	68
283.282	74
283.513	81
283.745	89
283.976	75
284.207	82
284.439	87
284.67	83
284.901	86
285.132	78
285.364	85
285.595	81
285.826	83
286.057	93
286.288	88
286.52	92
286.751	78
286.982	89
287.213	79
287.444	92
287.675	82
287.906	91
288.138	89
288.369	88
288.6	89
288.831	74
289.062	100
289.293	90
289.524	77
289.755	91
289.986	84
290.217	89
290.448	85
290.679	94
290.91	96
291.141	87
291.371	83
291.602	82
291.833	82
292.064	88
292.295	77
292.526	92
292.757	95
292.987	73
293.218	78
293.449	84
293.68	71
293.91	83
294.141	95
294.372	78
294.603	81
294.833	91
295.064	90
295.295	95
295.525	84
295.756	87
295.987	90
296.217	105
296.448	103
296.679	107
296.909	77
297.14	94
297.37	94
297.601	91
297.831	98
298.062	97
298.292	94
298.523	90
298.753	82
298.984	95
299.214	103
299.445	84
299.675	81
299.905	99
300.136	86
300.366	95
300.597	76
300.827	97
301.057	94
301.288	89
301.518	78
301.748	101
301.979	93
302.209	87
302.439	99
302.669	77
302.9	96
303.13	93
303.36	86
303.59	92
303.82	81
304.051	85
304.281	92
304.511	97
304.741	89
304.971	84
305.201	93
305.431	67
305.661	89
305.891	85
306.121	90
306.352	95
306.582	88
306.812	91
307.042	89
307.272	86
307.502	100
307.731	105
307.961	92
308.191	95
308.421	88
308.651	99
308.881	89
309.111	90
309.341	90
309.571	89
309.8	88
310.03	84
310.26	102
310.49	84
310.72	98
310.949	98
311.179	91
311.409	92
311.639	104
311.868	91
312.098	105
312.328	93
312.557	96
312.787	87
313.017	95
313.246	93
313.476	90
313.706	86
313.935	82
314.165	99
314.394	85
314.624	86
314.853	78
315.083	94
315.312	93
315.542	79
315.771	90
316.001	93
316.23	84
316.46	96
316.689	90
316.919	102
317.148	95
317.377	95
317.607	91
317.836	87
318.065	96
318.295	91
318.524	97
318.753	88
318.983	67
319.212	90
319.441	95
319.67	107
319.9	85
320.129	95
320.358	88
320.587	103
320.816	101
321.046	95
321.275	107
321.504	90
321.733	85
321.962	84
322.191	104
322.42	92
322.649	99
322.878	97
323.108	102
323.337	115
323.566	118
323.795	137
324.024	167
324.253	307
324.482	611
324.71	1235
324.939	1656
325.168	630
325.397	204
325.626	129
325.855	104
326.084	103
326.313	132
326.542	118
326.77	193
326.999	373
327.228	747
327.457	1356
327.686	1025
327.914	294
328.143	149
328.372	113
328.6	110
328.829	111
329.058	108
329.287	134
329.515	109
329.744	107
329.972	92
330.201	126
330.43	108
330.658	119
330.887	126
331.115	100
331.344	99
331.572	101
331.801	97
332.03	102
332.258	92
332.486	85
332.715	85
332.943	89
333.172	75
333.4	99
333.629	97
333.857	96
334.085	99
334.314	106
334.542	118
334.771	111
334.999	97
335.227	85
335.455	86
335.684	109
335.912	97
336.14	104
336.369	93
336.597	94
336.825	91
337.053	106
337.281	97
337.51	89
337.738	88
337.966	92
338.194	94
338.422	90
338.65	92
338.878	95
339.106	95
339.334	93
339.562	94
339.79	94
340.018	97
340.246	83
340.474	88
340.702	94
340.93	92
341.158	85
341.386	82
341.614	99
341.842	104
342.07	96
342.298	99
342.526	75
342.754	96
342.981	98
343.209	87
343.437	100
343.665	87
343.893	87
344.12	106
344.348	92
344.576	86
344.804	77
345.031	88
345.259	101
345.487	85
345.714	75
345.942	87
346.17	75
346.397	85
346.625	96
346.853	83
347.08	89
347.308	90
347.535	93
347.763	92
347.99	105
348.218	90
348.445	101
348.673	96
348.9	91
349.128	88
349.355	93
349.583	107
349.81	103
350.037	91
350.265	95
350.492	87
350.72	98
350.947	90
351.174	103
351.402	95
351.629	98
351.856	100
352.083	94
352.311	91
352.538	98
352.765	109
352.992	106
353.22	115
353.447	103
353.674	95
353.901	93
354.128	102
354.355	103
354.583	108
354.81	92
355.037	97
355.264	94
355.491	92
355.718	105
355.945	92
356.172	95
356.399	93
356.626	101
356.853	91
357.08	98
357.307	89
357.534	98
357.761	97
357.988	95
358.215	97
358.441	92
358.668	102
358.895	96
359.122	99
359.349	105
359.576	92
359.802	86
360.029	111
360.256	96
360.483	99
360.709	91
360.936	107
361.163	98
361.39	109
361.616	84
361.843	87
362.07	86
362.296	103
362.523	70
362.749	72
362.976	85
363.203	85
363.429	87
363.656	91
363.882	92
364.109	89
364.335	96
364.562	87
364.788	77
365.015	83
365.241	92
365.468	96
365.694	110
365.92	88
366.147	84
366.373	79
366.599	85
366.826	94
367.052	91
367.278	92
367.505	98
367.731	101
367.957	101
368.184	98
368.41	91
368.636	89
368.862	95
369.089	108
369.315	85
369.541	93
369.767	89
369.993	85
370.219	90
370.445	85
370.672	82
370.898	96
371.124	94
371.35	97
371.576	95
371.802	91
372.028	92
372.254	92
372.48	93
372.706	85
372.932	102
373.158	86
373.384	86
373.61	94
373.835	91
374.061	95
374.287	101
374.513	82
374.739	87
374.965	81
375.191	89
375.416	83
375.642	98
375.868	96
376.094	102
376.319	102
376.545	92
376.771	86
376.997	98
377.222	83
377.448	93
377.674	91
377.899	111
378.125	98
378.35	90
378.576	95
378.802	89
379.027	94
379.253	108
379.478	74
379.704	98
379.929	91
380.155	94
380.38	97
380.606	105
380.831	94
381.057	99
381.282	104
381.507	94
381.733	93
381.958	109
382.184	100
382.409	90
382.634	92
382.86	112
383.085	95
383.31	104
383.535	103
383.761	105
383.986	104
384.211	105
384.436	118
384.662	107
384.887	116
385.112	105
385.337	107
385.562	108
385.787	115
386.013	111
386.238	127
386.463	109
386.688	111
386.913	107
387.138	113
387.363	98
387.588	105
387.813	105
388.038	106
388.263	131
388.488	117
388.713	103
388.938	97
389.163	102
389.387	85
389.612	89
389.837	87
390.062	94
390.287	85
390.512	93
390.736	98
390.961	98
391.186	78
391.411	91
391.636	85
391.86	83
392.085	75
392.31	88
392.534	84
392.759	92
392.984	87
393.208	80
393.433	97
393.658	88
393.882	77
394.107	79
394.331	92
394.556	82
394.78	91
395.005	84
395.229	83
395.454	85
395.678	85
395.903	77
396.127	91
396.352	73
396.576	85
396.801	103
397.025	100
397.249	87
397.474	82
397.698	93
397.922	81
398.147	84
398.371	97
398.595	75
398.82	73
399.044	98
399.268	78
399.492	71
399.717	83
399.941	90
400.165	105
400.389	86
400.613	83
400.837	95
401.062	101
401.286	85
401.51	98
401.734	88
401.958	89
402.182	101
402.406	121
402.63	95
402.854	85
403.078	75
403.302	84
403.526	81
403.75	89
403.974	87
404.198	107
404.422	74
404.645	87
404.869	93
405.093	89
405.317	88
405.541	92
405.765	101
405.988	98
406.212	121
406.436	153
406.66	103
406.883	95
407.107	97
407.331	97
407.555	94
407.778	82
408.002	89
408.226	101
408.449	82
408.673	82
408.896	94
409.12	91
409.344	79
409.567	105
409.791	97
410.014	97
410.238	81
410.461	69
410.685	98
410.908	102
411.132	87
411.355	88
411.578	92
411.802	83
412.025	85
412.249	87
412.472	104
412.695	94
412.919	81
413.142	71
413.365	87
413.589	92
413.812	95
414.035	91
414.258	98
414.482	94
414.705	93
414.928	83
415.151	88
415.374	89
415.597	98
415.821	92
416.044	76
416.267	92
416.49	97
416.713	93
416.936	100
417.159	101
417.382	79
417.605	83
417.828	104
418.051	95
418.274	99
418.497	85
418.72	74
418.943	97
419.166	92
419.389	89
419.611	88
419.834	82
420.057	97
420.28	91
420.503	86
420.726	75
420.948	107
421.171	90
421.394	84
421.617	95
421.839	90
422.062	75
422.285	97
422.507	90
422.73	103
422.953	84
423.175	74
423.398	85
423.621	89
423.843	88
424.066	103
424.288	76
424.511	97
424.733	97
424.956	105
425.178	88
425.401	96
425.623	90
425.846	85
426.068	97
426.291	86
426.513	82
426.735	93
426.958	91
427.18	110
427.402	130
427.625	128
427.847	120
428.069	107
428.292	97
428.514	72
428.736	84
428.958	85
429.181	73
429.403	93
429.625	99
429.847	99
430.069	113
430.292	96
430.514	85
430.736	93
430.958	85
431.18	83
431.402	81
431.624	89
431.846	83
432.068	82
432.29	72
432.512	86
432.734	81
432.956	87
433.178	93
433.4	111
433.622	75
433.844	79
434.066	100
434.287	95
434.509	93
434.731	85
434.953	104
435.175	78
435.397	88
435.618	85
435.84	97
436.062	124
436.284	107
436.505	109
436.727	93
436.949	84
437.17	74
437.392	94
437.614	94
437.835	99
438.057	99
438.278	104
438.5	103
438.721	90
438.943	92
439.165	91
439.386	83
439.608	85
439.829	70
440.05	100
440.272	104
440.493	82
440.715	83
440.936	86
441.158	88
441.379	72
441.6	86
441.822	82
442.043	94
442.264	102
442.486	97
442.707	82
442.928	99
443.149	102
443.371	114
443.592	110
443.813	106
444.034	101
444.255	92
444.476	68
444.698	72
444.919	93
445.14	143
445.361	112
445.582	108
445.803	108
446.024	114
446.245	118
446.466	90
446.687	92
446.908	86
447.129	90
447.35	94
447.571	86
447.792	75
448.013	99
448.234	95
448.455	82
448.675	113
448.896	93
449.117	95
449.338	89
449.559	111
449.779	99
450	85
450.221	81
450.442	95
450.662	81
450.883	94
451.104	95
451.324	84
451.545	82
451.766	90
451.986	79
452.207	77
452.428	89
452.648	98
452.869	97
453.089	94
453.31	98
453.53	98
453.751	98
453.971	95
454.192	90
454.412	86
454.633	93
454.853	96
455.073	82
455.294	75
455.514	81
455.734	91
455.955	83
456.175	94
456.395	90
456.616	78
456.836	92
457.056	90
457.276	87
457.497	78
457.717	76
457.937	88
458.157	85
458.377	96
458.598	106
458.818	116
459.038	129
459.258	101
459.478	83
459.698	80
459.918	88
460.138	91
460.358	93
460.578	86
460.798	95
461.018	87
461.238	102
461.458	85
461.678	81
461.898	73
462.118	62
462.338	70
462.558	78
462.777	89
462.997	95
463.217	89
463.437	87
463.657	77
463.876	91
464.096	94
464.316	74
464.536	88
464.755	93
464.975	97
465.195	120
465.414	130
465.634	99
465.854	70
466.073	94
466.293	85
466.512	98
466.732	102
466.951	87
467.171	89
467.391	86
467.61	86
467.829	92
468.049	100
468.268	95
468.488	78
468.707	98
468.927	87
469.146	90
469.365	92
469.585	77
469.804	110
470.023	86
470.243	86
470.462	98
470.681	94
470.901	100
471.12	81
471.339	105
471.558	79
471.777	88
471.997	80
472.216	100
472.435	101
472.654	102
472.873	92
473.092	88
473.311	83
473.53	87
473.749	77
473.968	99
474.187	91
474.406	95
474.625	79
474.844	94
475.063	81
475.282	89
475.501	80
475.72	99
475.939	108
476.158	90
476.377	95
476.596	84
476.814	95
477.033	98
477.252	94
477.471	91
477.69	90
477.908	89
478.127	86
478.346	69
478.564	87
478.783	83
479.002	84
479.22	78
479.439	87
479.658	101
479.876	102
480.095	94
480.313	87
480.532	87
480.751	90
480.969	104
481.188	145
481.406	128
481.624	101
481.843	85
482.061	86
482.28	97
482.498	77
482.717	103
482.935	95
483.153	93
483.372	97
483.59	84
483.808	82
484.027	73
484.245	85
484.463	87
484.681	79
484.9	97
485.118	81
485.336	92
485.554	94
485.772	97
485.99	100
486.209	102
486.427	106
486.645	102
486.863	100
487.081	91
487.299	99
487.517	75
487.735	101
487.953	101
488.171	100
488.389	101
488.607	95
488.825	91
489.043	75
489.261	89
489.479	78
489.696	89
489.914	94
490.132	85
490.35	94
490.568	101
490.786	86
491.003	90
491.221	88
491.439	102
491.657	98
491.874	94
492.092	99
492.31	90
492.527	79
492.745	90
492.963	90
493.18	95
493.398	83
493.615	101
493.833	95
494.05	97
494.268	91
494.485	93
494.703	85
494.92	60
495.138	88
495.355	93
495.573	87
495.79	101
496.008	90
496.225	77
496.442	83
496.66	99
496.877	94
497.094	93
497.312	87
497.529	84
497.746	86
497.963	95
498.181	85
498.398	81
498.615	105
498.832	86
499.049	91
499.267	89
499.484	66
499.701	93
499.918	85
500.135	87
500.352	93
500.569	96
500.786	93
501.003	103
501.22	103
501.437	87
501.654	75
501.871	100
502.088	99
502.305	101
502.522	95
502.739	88
502.956	77
503.172	87
503.389	98
503.606	96
503.823	102
504.04	101
504.256	86
504.473	103
504.69	98
504.907	90
505.123	101
505.34	83
505.557	106
505.773	90
505.99	92
506.207	91
506.423	81
506.64	103
506.856	85
507.073	90
507.289	95
507.506	97
507.722	109
507.939	99
508.155	97
508.372	86
508.588	95
508.805	94
509.021	104
509.238	93
509.454	90
509.67	103
509.887	110
510.103	116
510.319	155
510.536	478
510.752	1322
510.968	385
511.184	133
511.401	108
511.617	87
511.833	83
512.049	85
512.265	89
512.481	83
512.698	88
512.914	90
513.13	100
513.346	97
513.562	84
513.778	103
513.994	87
514.21	101
514.426	96
514.642	104
514.858	121
515.074	121
515.29	261
515.506	793
515.721	311
515.937	123
516.153	97
516.369	93
516.585	94
516.801	88
517.016	103
517.232	86
517.448	95
517.664	95
517.879	88
518.095	89
518.311	86
518.527	104
518.742	97
518.958	93
519.173	103
519.389	103
519.605	99
519.82	91
520.036	85
520.251	98
520.467	86
520.682	88
520.898	101
521.113	97
521.329	113
521.544	152
521.76	342
521.975	1288
522.19	787
522.406	200
522.621	101
522.836	97
523.052	89
523.267	100
523.482	95
523.698	94
523.913	98
524.128	93
524.343	102
524.559	102
524.774	93
524.989	96
525.204	90
525.419	92
525.634	81
525.849	93
526.064	79
526.28	89
526.495	83
526.71	96
526.925	79
527.14	83
527.355	93
527.57	99
527.785	94
527.999	86
528.214	100
528.429	94
528.644	95
528.859	86
529.074	83
529.289	110
529.503	127
529.718	89
529.933	84
530.148	95
530.363	85
530.577	91
530.792	94
531.007	92
531.221	92
531.436	86
531.651	86
531.865	76
532.08	91
532.295	101
532.509	88
532.724	92
532.938	74
533.153	100
533.367	101
533.582	98
533.796	93
534.011	84
534.225	89
534.44	98
534.654	71
534.868	99
535.083	101
535.297	97
535.511	110
535.726	97
535.94	97
536.154	95
536.369	92
536.583	87
536.797	86
537.011	85
537.225	73
537.44	86
537.654	98
537.868	97
538.082	87
538.296	98
538.51	82
538.724	82
538.938	101
539.153	82
539.367	100
539.581	101
539.795	104
540.009	84
540.222	93
540.436	93
540.65	86
540.864	85
541.078	85
541.292	84
541.506	82
541.72	92
541.934	83
542.147	83
542.361	94
542.575	97
542.789	84
543.002	93
543.216	89
543.43	96
543.644	90
543.857	98
544.071	83
544.285	92
544.498	99
544.712	76
544.925	90
545.139	97
545.352	74
545.566	76
545.779	75
545.993	71
546.206	93
546.42	94
546.633	95
546.847	83
547.06	98
547.274	94
547.487	93
547.7	79
547.914	93
548.127	103
548.34	86
548.554	83
548.767	98
548.98	91
549.193	92
549.407	92
549.62	86
549.833	77
550.046	93
550.259	76
550.473	97
550.686	99
550.899	81
551.112	93
551.325	87
551.538	79
551.751	93
551.964	70
552.177	95
552.39	93
552.603	81
552.816	74
553.029	89
553.242	88
553.455	92
553.667	102
553.88	95
554.093	81
554.306	98
554.519	94
554.732	96
554.944	93
555.157	79
555.37	103
555.583	104
555.795	103
556.008	86
556.221	87
556.433	92
556.646	97
556.859	106
557.071	77
557.284	90
557.496	90
557.709	87
557.921	95
558.134	91
558.346	104
558.559	95
558.771	77
558.984	85
559.196	100
559.409	94
559.621	77
559.833	93
560.046	99
560.258	96
560.47	93
560.683	93
560.895	85
561.107	85
561.32	92
561.532	87
561.744	87
561.956	80
562.168	95
562.381	93
562.593	97
562.805	100
563.017	81
563.229	91
563.441	107
563.653	82
563.865	90
564.077	100
564.289	89
564.501	89
564.713	92
564.925	94
565.137	91
565.349	80
565.561	82
565.773	99
565.985	87
566.197	95
566.408	84
566.62	76
566.832	90
567.044	95
567.255	83
567.467	88
567.679	92
567.891	85
568.102	86
568.314	102
568.526	91
568.737	90
568.949	75
569.161	92
569.372	95
569.584	86
569.795	89
570.007	97
570.218	176
570.43	111
570.641	88
570.853	89
571.064	93
571.276	86
571.487	95
571.698	87
571.91	82
572.121	86
572.333	96
572.544	94
572.755	98
572.966	86
573.178	97
573.389	95
573.6	87
573.811	90
574.023	97
574.234	81
574.445	97
574.656	82
574.867	90
575.078	89
575.289	90
575.501	85
575.712	88
575.923	90
576.134	89
576.345	100
576.556	86
576.767	98
576.978	74
577.188	85
577.399	99
577.61	105
577.821	92
578.032	93
578.243	192
578.454	470
578.665	161
578.875	102
579.086	103
579.297	92
579.508	93
579.718	82
579.929	92
580.14	85
580.35	93
580.561	88
580.772	97
580.982	92
581.193	73
581.403	92
581.614	87
581.825	76
582.035	73
582.246	78
582.456	101
582.667	83
582.877	83
583.087	84
583.298	104
583.508	81
583.719	88
583.929	90
584.139	85
584.35	74
584.56	99
584.77	88
584.981	95
585.191	85
585.401	89
585.611	88
