Data from Uncirc_1981_H10_HRD10591_00083.txt Node
Date: Wed Jan 03 12:33:24 EST 2024
User: Yrep
Spectrometer: HR+D1059
Trigger mode: 1
Integration Time (sec): 1.000000E-1
Scans to average: 1
Electric dark correction enabled: true
Nonlinearity correction enabled: false
Boxcar width: 0
XAxis mode: Wavelengths
Number of Pixels in Spectrum: 2048
>>>>>Begin Spectral Data<<<<<
223.165	-8.94
223.4	-8.94
223.635	-8.94
223.869	-23.94
224.104	-34.94
224.338	-13.94
224.573	-15.94
224.808	-19.94
225.042	-5.94
225.277	-2.94
225.511	-5.94
225.746	7.06
225.98	11.06
226.215	13.06
226.449	12.06
226.683	19.06
226.918	31.06
227.152	39.06
227.387	33.06
227.621	42.06
227.856	43.06
228.09	51.06
228.324	56.06
228.559	53.06
228.793	58.06
229.027	65.06
229.262	64.06
229.496	72.06
229.73	71.06
229.964	82.06
230.199	83.06
230.433	86.06
230.667	71.06
230.901	77.06
231.136	71.06
231.37	79.06
231.604	87.06
231.838	68.06
232.072	73.06
232.306	80.06
232.541	81.06
232.775	84.06
233.009	65.06
233.243	89.06
233.477	83.06
233.711	84.06
233.945	86.06
234.179	96.06
234.413	91.06
234.647	79.06
234.881	65.06
235.115	80.06
235.349	76.06
235.583	80.06
235.817	82.06
236.051	79.06
236.285	77.06
236.519	81.06
236.753	89.06
236.987	68.06
237.221	84.06
237.455	75.06
237.689	87.06
237.922	85.06
238.156	73.06
238.39	72.06
238.624	75.06
238.858	60.06
239.091	81.06
239.325	67.06
239.559	75.06
239.793	81.06
240.027	85.06
240.26	68.06
240.494	81.06
240.728	67.06
240.961	76.06
241.195	72.06
241.429	84.06
241.662	77.06
241.896	80.06
242.13	75.06
242.363	77.06
242.597	75.06
242.83	79.06
243.064	60.06
243.298	76.06
243.531	61.06
243.765	72.06
243.998	77.06
244.232	81.06
244.465	70.06
244.699	76.06
244.932	91.06
245.166	70.06
245.399	67.06
245.633	70.06
245.866	73.06
246.099	85.06
246.333	88.06
246.566	79.06
246.8	81.06
247.033	83.06
247.266	60.06
247.5	87.06
247.733	73.06
247.966	80.06
248.2	73.06
248.433	76.06
248.666	89.06
248.899	83.06
249.133	82.06
249.366	93.06
249.599	74.06
249.832	79.06
250.066	81.06
250.299	72.06
250.532	83.06
250.765	70.06
250.998	61.06
251.231	76.06
251.465	72.06
251.698	87.06
251.931	76.06
252.164	71.06
252.397	73.06
252.63	81.06
252.863	85.06
253.096	67.06
253.329	69.06
253.562	74.06
253.795	71.06
254.028	95.06
254.261	59.06
254.494	87.06
254.727	89.06
254.96	80.06
255.193	85.06
255.426	90.06
255.659	84.06
255.892	91.06
256.124	83.06
256.357	91.06
256.59	81.06
256.823	71.06
257.056	88.06
257.289	83.06
257.521	76.06
257.754	75.06
257.987	87.06
258.22	81.06
258.452	87.06
258.685	75.06
258.918	86.06
259.151	85.06
259.383	95.06
259.616	88.06
259.849	71.06
260.081	79.06
260.314	83.06
260.547	82.06
260.779	88.06
261.012	98.06
261.244	84.06
261.477	90.06
261.71	84.06
261.942	95.06
262.175	104.06
262.407	74.06
262.64	82.06
262.872	87.06
263.105	86.06
263.337	76.06
263.57	82.06
263.802	97.06
264.035	76.06
264.267	83.06
264.499	92.06
264.732	87.06
264.964	79.06
265.197	96.06
265.429	69.06
265.661	86.06
265.894	88.06
266.126	90.06
266.358	83.06
266.591	75.06
266.823	83.06
267.055	86.06
267.287	75.06
267.52	80.06
267.752	96.06
267.984	89.06
268.216	81.06
268.448	92.06
268.681	84.06
268.913	81.06
269.145	96.06
269.377	84.06
269.609	79.06
269.841	62.06
270.073	89.06
270.306	88.06
270.538	86.06
270.77	69.06
271.002	73.06
271.234	79.06
271.466	81.06
271.698	70.06
271.93	67.06
272.162	86.06
272.394	99.06
272.626	85.06
272.858	89.06
273.09	90.06
273.322	89.06
273.553	92.06
273.785	75.06
274.017	71.06
274.249	74.06
274.481	90.06
274.713	81.06
274.945	75.06
275.176	93.06
275.408	93.06
275.64	95.06
275.872	81.06
276.104	98.06
276.335	89.06
276.567	112.06
276.799	106.06
277.031	96.06
277.262	91.06
277.494	102.06
277.726	79.06
277.957	77.06
278.189	87.06
278.421	87.06
278.652	77.06
278.884	77.06
279.115	99.06
279.347	88.06
279.579	89.06
279.81	100.06
280.042	88.06
280.273	82.06
280.505	83.06
280.736	69.06
280.968	82.06
281.199	79.06
281.431	96.06
281.662	92.06
281.894	87.06
282.125	87.06
282.356	104.06
282.588	115.06
282.819	99.06
283.051	88.06
283.282	92.06
283.513	80.06
283.745	80.06
283.976	82.06
284.207	92.06
284.439	81.06
284.67	93.06
284.901	81.06
285.132	92.06
285.364	91.06
285.595	91.06
285.826	78.06
286.057	94.06
286.288	76.06
286.52	94.06
286.751	87.06
286.982	85.06
287.213	84.06
287.444	87.06
287.675	79.06
287.906	92.06
288.138	87.06
288.369	95.06
288.6	81.06
288.831	89.06
289.062	89.06
289.293	91.06
289.524	77.06
289.755	89.06
289.986	76.06
290.217	91.06
290.448	86.06
290.679	77.06
290.91	88.06
291.141	99.06
291.371	103.06
291.602	86.06
291.833	97.06
292.064	83.06
292.295	89.06
292.526	94.06
292.757	83.06
292.987	88.06
293.218	95.06
293.449	84.06
293.68	79.06
293.91	83.06
294.141	104.06
294.372	79.06
294.603	79.06
294.833	73.06
295.064	79.06
295.295	89.06
295.525	83.06
295.756	95.06
295.987	96.06
296.217	117.06
296.448	98.06
296.679	88.06
296.909	104.06
297.14	90.06
297.37	81.06
297.601	89.06
297.831	76.06
298.062	70.06
298.292	97.06
298.523	92.06
298.753	94.06
298.984	95.06
299.214	100.06
299.445	103.06
299.675	86.06
299.905	79.06
300.136	86.06
300.366	89.06
300.597	92.06
300.827	90.06
301.057	101.06
301.288	93.06
301.518	94.06
301.748	90.06
301.979	90.06
302.209	80.06
302.439	77.06
302.669	85.06
302.9	83.06
303.13	75.06
303.36	100.06
303.59	100.06
303.82	96.06
304.051	99.06
304.281	101.06
304.511	79.06
304.741	87.06
304.971	99.06
305.201	88.06
305.431	89.06
305.661	80.06
305.891	87.06
306.121	83.06
306.352	83.06
306.582	93.06
306.812	82.06
307.042	98.06
307.272	89.06
307.502	85.06
307.731	91.06
307.961	93.06
308.191	99.06
308.421	93.06
308.651	82.06
308.881	97.06
309.111	85.06
309.341	93.06
309.571	105.06
309.8	102.06
310.03	100.06
310.26	99.06
310.49	96.06
310.72	107.06
310.949	86.06
311.179	97.06
311.409	93.06
311.639	89.06
311.868	102.06
312.098	93.06
312.328	90.06
312.557	108.06
312.787	87.06
313.017	106.06
313.246	97.06
313.476	93.06
313.706	98.06
313.935	103.06
314.165	102.06
314.394	100.06
314.624	81.06
314.853	92.06
315.083	91.06
315.312	83.06
315.542	85.06
315.771	89.06
316.001	74.06
316.23	98.06
316.46	90.06
316.689	117.06
316.919	89.06
317.148	92.06
317.377	106.06
317.607	89.06
317.836	103.06
318.065	73.06
318.295	86.06
318.524	85.06
318.753	76.06
318.983	88.06
319.212	97.06
319.441	101.06
319.67	87.06
319.9	96.06
320.129	91.06
320.358	97.06
320.587	92.06
320.816	100.06
321.046	92.06
321.275	104.06
321.504	98.06
321.733	95.06
321.962	90.06
322.191	93.06
322.42	97.06
322.649	108.06
322.878	93.06
323.108	107.06
323.337	117.06
323.566	120.06
323.795	120.06
324.024	175.06
324.253	352.06
324.482	733.06
324.71	1471.06
324.939	1911.06
325.168	732.06
325.397	238.06
325.626	129.06
325.855	106.06
326.084	127.06
326.313	122.06
326.542	166.06
326.77	219.06
326.999	429.06
327.228	877.06
327.457	1558.06
327.686	1253.06
327.914	340.06
328.143	159.06
328.372	135.06
328.6	111.06
328.829	96.06
329.058	133.06
329.287	92.06
329.515	93.06
329.744	93.06
329.972	88.06
330.201	88.06
330.43	114.06
330.658	115.06
330.887	118.06
331.115	112.06
331.344	91.06
331.572	104.06
331.801	95.06
332.03	100.06
332.258	109.06
332.486	89.06
332.715	99.06
332.943	87.06
333.172	97.06
333.4	98.06
333.629	107.06
333.857	98.06
334.085	107.06
334.314	107.06
334.542	108.06
334.771	117.06
334.999	101.06
335.227	97.06
335.455	92.06
335.684	119.06
335.912	99.06
336.14	101.06
336.369	99.06
336.597	87.06
336.825	93.06
337.053	94.06
337.281	89.06
337.51	86.06
337.738	87.06
337.966	98.06
338.194	82.06
338.422	90.06
338.65	94.06
338.878	91.06
339.106	91.06
339.334	84.06
339.562	85.06
339.79	95.06
340.018	96.06
340.246	95.06
340.474	89.06
340.702	88.06
340.93	89.06
341.158	87.06
341.386	88.06
341.614	91.06
341.842	104.06
342.07	98.06
342.298	92.06
342.526	98.06
342.754	83.06
342.981	82.06
343.209	97.06
343.437	82.06
343.665	76.06
343.893	84.06
344.12	96.06
344.348	76.06
344.576	98.06
344.804	100.06
345.031	92.06
345.259	94.06
345.487	103.06
345.714	90.06
345.942	90.06
346.17	92.06
346.397	95.06
346.625	102.06
346.853	86.06
347.08	92.06
347.308	80.06
347.535	86.06
347.763	87.06
347.99	92.06
348.218	109.06
348.445	102.06
348.673	88.06
348.9	76.06
349.128	88.06
349.355	87.06
349.583	84.06
349.81	84.06
350.037	95.06
350.265	96.06
350.492	83.06
350.72	88.06
350.947	93.06
351.174	100.06
351.402	104.06
351.629	96.06
351.856	104.06
352.083	92.06
352.311	103.06
352.538	101.06
352.765	91.06
352.992	121.06
353.22	103.06
353.447	92.06
353.674	98.06
353.901	98.06
354.128	97.06
354.355	103.06
354.583	94.06
354.81	88.06
355.037	95.06
355.264	87.06
355.491	96.06
355.718	97.06
355.945	94.06
356.172	80.06
356.399	93.06
356.626	79.06
356.853	96.06
357.08	87.06
357.307	93.06
357.534	97.06
357.761	84.06
357.988	96.06
358.215	85.06
358.441	100.06
358.668	102.06
358.895	91.06
359.122	89.06
359.349	102.06
359.576	85.06
359.802	94.06
360.029	115.06
360.256	89.06
360.483	95.06
360.709	79.06
360.936	99.06
361.163	96.06
361.39	97.06
361.616	92.06
361.843	90.06
362.07	80.06
362.296	80.06
362.523	85.06
362.749	88.06
362.976	81.06
363.203	78.06
363.429	83.06
363.656	91.06
363.882	87.06
364.109	100.06
364.335	95.06
364.562	98.06
364.788	95.06
365.015	100.06
365.241	103.06
365.468	97.06
365.694	94.06
365.92	106.06
366.147	102.06
366.373	90.06
366.599	80.06
366.826	100.06
367.052	74.06
367.278	75.06
367.505	81.06
367.731	94.06
367.957	100.06
368.184	90.06
368.41	108.06
368.636	108.06
368.862	105.06
369.089	107.06
369.315	91.06
369.541	77.06
369.767	90.06
369.993	85.06
370.219	106.06
370.445	86.06
370.672	79.06
370.898	86.06
371.124	89.06
371.35	83.06
371.576	98.06
371.802	87.06
372.028	74.06
372.254	77.06
372.48	84.06
372.706	96.06
372.932	79.06
373.158	89.06
373.384	75.06
373.61	72.06
373.835	95.06
374.061	92.06
374.287	79.06
374.513	79.06
374.739	78.06
374.965	73.06
375.191	93.06
375.416	93.06
375.642	80.06
375.868	81.06
376.094	89.06
376.319	95.06
376.545	92.06
376.771	84.06
376.997	85.06
377.222	81.06
377.448	76.06
377.674	91.06
377.899	89.06
378.125	72.06
378.35	81.06
378.576	99.06
378.802	79.06
379.027	89.06
379.253	97.06
379.478	84.06
379.704	76.06
379.929	99.06
380.155	88.06
380.38	93.06
380.606	76.06
380.831	93.06
381.057	95.06
381.282	70.06
381.507	97.06
381.733	83.06
381.958	100.06
382.184	83.06
382.409	98.06
382.634	97.06
382.86	102.06
383.085	95.06
383.31	90.06
383.535	81.06
383.761	96.06
383.986	98.06
384.211	93.06
384.436	91.06
384.662	87.06
384.887	88.06
385.112	122.06
385.337	90.06
385.562	107.06
385.787	92.06
386.013	111.06
386.238	109.06
386.463	95.06
386.688	91.06
386.913	122.06
387.138	105.06
387.363	94.06
387.588	106.06
387.813	91.06
388.038	99.06
388.263	113.06
388.488	114.06
388.713	99.06
388.938	89.06
389.163	82.06
389.387	104.06
389.612	89.06
389.837	89.06
390.062	104.06
390.287	97.06
390.512	87.06
390.736	77.06
390.961	73.06
391.186	83.06
391.411	90.06
391.636	97.06
391.86	87.06
392.085	86.06
392.31	80.06
392.534	95.06
392.759	85.06
392.984	64.06
393.208	87.06
393.433	83.06
393.658	82.06
393.882	93.06
394.107	85.06
394.331	87.06
394.556	99.06
394.78	93.06
395.005	80.06
395.229	91.06
395.454	88.06
395.678	88.06
395.903	90.06
396.127	81.06
396.352	84.06
396.576	92.06
396.801	87.06
397.025	87.06
397.249	85.06
397.474	80.06
397.698	72.06
397.922	90.06
398.147	103.06
398.371	86.06
398.595	80.06
398.82	84.06
399.044	88.06
399.268	81.06
399.492	87.06
399.717	76.06
399.941	85.06
400.165	106.06
400.389	94.06
400.613	83.06
400.837	86.06
401.062	97.06
401.286	76.06
401.51	83.06
401.734	71.06
401.958	88.06
402.182	114.06
402.406	119.06
402.63	100.06
402.854	86.06
403.078	91.06
403.302	91.06
403.526	88.06
403.75	93.06
403.974	85.06
404.198	104.06
404.422	89.06
404.645	89.06
404.869	95.06
405.093	101.06
405.317	103.06
405.541	109.06
405.765	101.06
405.988	107.06
406.212	137.06
406.436	184.06
406.66	125.06
406.883	103.06
407.107	94.06
407.331	104.06
407.555	85.06
407.778	94.06
408.002	84.06
408.226	82.06
408.449	91.06
408.673	91.06
408.896	92.06
409.12	91.06
409.344	75.06
409.567	87.06
409.791	94.06
410.014	105.06
410.238	97.06
410.461	98.06
410.685	92.06
410.908	90.06
411.132	101.06
411.355	85.06
411.578	88.06
411.802	80.06
412.025	90.06
412.249	81.06
412.472	87.06
412.695	90.06
412.919	75.06
413.142	79.06
413.365	91.06
413.589	92.06
413.812	89.06
414.035	84.06
414.258	89.06
414.482	76.06
414.705	67.06
414.928	94.06
415.151	88.06
415.374	99.06
415.597	72.06
415.821	83.06
416.044	82.06
416.267	89.06
416.49	103.06
416.713	89.06
416.936	77.06
417.159	75.06
417.382	99.06
417.605	82.06
417.828	101.06
418.051	85.06
418.274	79.06
418.497	95.06
418.72	80.06
418.943	89.06
419.166	68.06
419.389	77.06
419.611	88.06
419.834	85.06
420.057	85.06
420.28	77.06
420.503	83.06
420.726	89.06
420.948	92.06
421.171	99.06
421.394	87.06
421.617	96.06
421.839	96.06
422.062	101.06
422.285	90.06
422.507	91.06
422.73	96.06
422.953	79.06
423.175	95.06
423.398	79.06
423.621	92.06
423.843	88.06
424.066	79.06
424.288	83.06
424.511	84.06
424.733	74.06
424.956	98.06
425.178	105.06
425.401	91.06
425.623	87.06
425.846	91.06
426.068	82.06
426.291	87.06
426.513	91.06
426.735	96.06
426.958	99.06
427.18	99.06
427.402	126.06
427.625	142.06
427.847	130.06
428.069	105.06
428.292	87.06
428.514	79.06
428.736	83.06
428.958	84.06
429.181	91.06
429.403	102.06
429.625	88.06
429.847	83.06
430.069	76.06
430.292	96.06
430.514	92.06
430.736	96.06
430.958	77.06
431.18	88.06
431.402	92.06
431.624	83.06
431.846	90.06
432.068	89.06
432.29	92.06
432.512	85.06
432.734	75.06
432.956	86.06
433.178	95.06
433.4	89.06
433.622	95.06
433.844	96.06
434.066	83.06
434.287	88.06
434.509	83.06
434.731	85.06
434.953	83.06
435.175	90.06
435.397	97.06
435.618	79.06
435.84	95.06
436.062	114.06
436.284	98.06
436.505	79.06
436.727	117.06
436.949	86.06
437.17	98.06
437.392	85.06
437.614	82.06
437.835	105.06
438.057	115.06
438.278	90.06
438.5	88.06
438.721	113.06
438.943	91.06
439.165	88.06
439.386	92.06
439.608	90.06
439.829	93.06
440.05	121.06
440.272	115.06
440.493	92.06
440.715	92.06
440.936	92.06
441.158	85.06
441.379	96.06
441.6	93.06
441.822	91.06
442.043	95.06
442.264	97.06
442.486	96.06
442.707	97.06
442.928	99.06
443.149	107.06
443.371	115.06
443.592	90.06
443.813	102.06
444.034	93.06
444.255	80.06
444.476	93.06
444.698	95.06
444.919	85.06
445.14	126.06
445.361	117.06
445.582	106.06
445.803	110.06
446.024	112.06
446.245	117.06
446.466	96.06
446.687	90.06
446.908	81.06
447.129	83.06
447.35	91.06
447.571	91.06
447.792	83.06
448.013	86.06
448.234	87.06
448.455	88.06
448.675	105.06
448.896	100.06
449.117	96.06
449.338	111.06
449.559	119.06
449.779	109.06
450	82.06
450.221	90.06
450.442	75.06
450.662	88.06
450.883	95.06
451.104	104.06
451.324	100.06
451.545	78.06
451.766	75.06
451.986	76.06
452.207	73.06
452.428	80.06
452.648	114.06
452.869	99.06
453.089	96.06
453.31	108.06
453.53	76.06
453.751	84.06
453.971	83.06
454.192	108.06
454.412	86.06
454.633	90.06
454.853	96.06
455.073	83.06
455.294	90.06
455.514	79.06
455.734	92.06
455.955	98.06
456.175	81.06
456.395	75.06
456.616	81.06
456.836	70.06
457.056	76.06
457.276	96.06
457.497	103.06
457.717	66.06
457.937	72.06
458.157	91.06
458.377	82.06
458.598	99.06
458.818	121.06
459.038	123.06
459.258	118.06
459.478	95.06
459.698	86.06
459.918	90.06
460.138	83.06
460.358	91.06
460.578	84.06
460.798	79.06
461.018	76.06
461.238	89.06
461.458	83.06
461.678	80.06
461.898	88.06
462.118	93.06
462.338	75.06
462.558	74.06
462.777	75.06
462.997	86.06
463.217	80.06
463.437	88.06
463.657	82.06
463.876	90.06
464.096	92.06
464.316	73.06
464.536	76.06
464.755	105.06
464.975	103.06
465.195	127.06
465.414	129.06
465.634	90.06
465.854	101.06
466.073	85.06
466.293	82.06
466.512	90.06
466.732	88.06
466.951	80.06
467.171	87.06
467.391	83.06
467.61	93.06
467.829	96.06
468.049	107.06
468.268	88.06
468.488	76.06
468.707	109.06
468.927	108.06
469.146	91.06
469.365	71.06
469.585	76.06
469.804	92.06
470.023	94.06
470.243	98.06
470.462	88.06
470.681	119.06
470.901	80.06
471.12	82.06
471.339	82.06
471.558	95.06
471.777	85.06
471.997	83.06
472.216	104.06
472.435	124.06
472.654	95.06
472.873	81.06
473.092	87.06
473.311	97.06
473.53	88.06
473.749	90.06
473.968	92.06
474.187	82.06
474.406	90.06
474.625	87.06
474.844	101.06
475.063	84.06
475.282	79.06
475.501	93.06
475.72	82.06
475.939	92.06
476.158	83.06
476.377	71.06
476.596	89.06
476.814	80.06
477.033	91.06
477.252	87.06
477.471	86.06
477.69	87.06
477.908	75.06
478.127	81.06
478.346	81.06
478.564	96.06
478.783	105.06
479.002	81.06
479.22	76.06
479.439	82.06
479.658	85.06
479.876	87.06
480.095	79.06
480.313	88.06
480.532	91.06
480.751	88.06
480.969	109.06
481.188	167.06
481.406	143.06
481.624	115.06
481.843	68.06
482.061	97.06
482.28	89.06
482.498	89.06
482.717	80.06
482.935	89.06
483.153	83.06
483.372	93.06
483.59	88.06
483.808	91.06
484.027	83.06
484.245	79.06
484.463	99.06
484.681	95.06
484.9	77.06
485.118	92.06
485.336	91.06
485.554	86.06
485.772	104.06
485.99	112.06
486.209	92.06
486.427	97.06
486.645	102.06
486.863	99.06
487.081	95.06
487.299	90.06
487.517	92.06
487.735	86.06
487.953	103.06
488.171	94.06
488.389	101.06
488.607	98.06
488.825	82.06
489.043	82.06
489.261	93.06
489.479	93.06
489.696	83.06
489.914	93.06
490.132	90.06
490.35	96.06
490.568	95.06
490.786	85.06
491.003	88.06
491.221	81.06
491.439	87.06
491.657	91.06
491.874	92.06
492.092	89.06
492.31	87.06
492.527	95.06
492.745	92.06
492.963	81.06
493.18	79.06
493.398	86.06
493.615	79.06
493.833	98.06
494.05	72.06
494.268	75.06
494.485	74.06
494.703	65.06
494.92	77.06
495.138	79.06
495.355	85.06
495.573	101.06
495.79	87.06
496.008	85.06
496.225	89.06
496.442	91.06
496.66	86.06
496.877	85.06
497.094	90.06
497.312	88.06
497.529	75.06
497.746	95.06
497.963	96.06
498.181	94.06
498.398	97.06
498.615	105.06
498.832	94.06
499.049	87.06
499.267	82.06
499.484	85.06
499.701	76.06
499.918	76.06
500.135	76.06
500.352	105.06
500.569	85.06
500.786	86.06
501.003	92.06
501.22	93.06
501.437	93.06
501.654	92.06
501.871	100.06
502.088	83.06
502.305	88.06
502.522	88.06
502.739	80.06
502.956	84.06
503.172	87.06
503.389	101.06
503.606	99.06
503.823	96.06
504.04	97.06
504.256	90.06
504.473	85.06
504.69	98.06
504.907	98.06
505.123	96.06
505.34	88.06
505.557	73.06
505.773	79.06
505.99	87.06
506.207	94.06
506.423	81.06
506.64	106.06
506.856	88.06
507.073	95.06
507.289	96.06
507.506	97.06
507.722	108.06
507.939	85.06
508.155	105.06
508.372	85.06
508.588	93.06
508.805	102.06
509.021	87.06
509.238	95.06
509.454	100.06
509.67	101.06
509.887	93.06
510.103	112.06
510.319	187.06
510.536	612.06
510.752	1796.06
510.968	511.06
511.184	143.06
511.401	105.06
511.617	85.06
511.833	93.06
512.049	95.06
512.265	98.06
512.481	85.06
512.698	103.06
512.914	93.06
513.13	99.06
513.346	92.06
513.562	89.06
513.778	89.06
513.994	91.06
514.21	91.06
514.426	119.06
514.642	114.06
514.858	117.06
515.074	137.06
515.29	363.06
515.506	1046.06
515.721	400.06
515.937	124.06
516.153	103.06
516.369	99.06
516.585	82.06
516.801	83.06
