Data from Uncirc_1981_H10_HRD10591_00022.txt Node
Date: Wed Jan 03 12:33:12 EST 2024
User: Yrep
Spectrometer: HR+D1059
Trigger mode: 1
Integration Time (sec): 1.000000E-1
Scans to average: 1
Electric dark correction enabled: true
Nonlinearity correction enabled: false
Boxcar width: 0
XAxis mode: Wavelengths
Number of Pixels in Spectrum: 2048
>>>>>Begin Spectral Data<<<<<
223.165	-7.88
223.4	-7.88
223.635	-7.88
223.869	-16.88
224.104	-14.88
224.338	-5.88
224.573	-13.88
224.808	-8.88
225.042	-10.88
225.277	-7.88
225.511	-11.88
225.746	8.12
225.98	8.12
226.215	4.12
226.449	3.12
226.683	28.12
226.918	14.12
227.152	33.12
227.387	29.12
227.621	34.12
227.856	47.12
228.09	43.12
228.324	42.12
228.559	56.12
228.793	154.12
229.027	411.12
229.262	471.12
229.496	547.12
229.73	720.12
229.964	721.12
230.199	491.12
230.433	449.12
230.667	433.12
230.901	459.12
231.136	427.12
231.37	452.12
231.604	430.12
231.838	458.12
232.072	463.12
232.306	464.12
232.541	448.12
232.775	472.12
233.009	456.12
233.243	467.12
233.477	473.12
233.711	498.12
233.945	493.12
234.179	496.12
234.413	501.12
234.647	504.12
234.881	500.12
235.115	510.12
235.349	520.12
235.583	543.12
235.817	566.12
236.051	593.12
236.285	593.12
236.519	606.12
236.753	647.12
236.987	811.12
237.221	1246.12
237.455	1345.12
237.689	842.12
237.922	707.12
238.156	711.12
238.39	643.12
238.624	631.12
238.858	624.12
239.091	633.12
239.325	641.12
239.559	666.12
239.793	681.12
240.027	749.12
240.26	875.12
240.494	905.12
240.728	910.12
240.961	883.12
241.195	797.12
241.429	783.12
241.662	769.12
241.896	744.12
242.13	771.12
242.363	772.12
242.597	785.12
242.83	828.12
243.064	807.12
243.298	832.12
243.531	833.12
243.765	835.12
243.998	850.12
244.232	871.12
244.465	884.12
244.699	913.12
244.932	907.12
245.166	897.12
245.399	900.12
245.633	932.12
245.866	921.12
246.099	909.12
246.333	926.12
246.566	954.12
246.8	970.12
247.033	1037.12
247.266	1081.12
247.5	1089.12
247.733	1146.12
247.966	1150.12
248.2	1143.12
248.433	1143.12
248.666	1214.12
248.899	1297.12
249.133	1402.12
249.366	1405.12
249.599	1294.12
249.832	1204.12
250.066	1241.12
250.299	1289.12
250.532	1361.12
250.765	1522.12
250.998	1674.12
251.231	1613.12
251.465	1501.12
251.698	1453.12
251.931	1398.12
252.164	1360.12
252.397	1377.12
252.63	1427.12
252.863	1536.12
253.096	1648.12
253.329	1650.12
253.562	1592.12
253.795	1534.12
254.028	1543.12
254.261	1554.12
254.494	1734.12
254.727	2025.12
254.96	2107.12
255.193	1880.12
255.426	1716.12
255.659	1606.12
255.892	1683.12
256.124	1673.12
256.357	1673.12
256.59	1569.12
256.823	1558.12
257.056	1523.12
257.289	1540.12
257.521	1558.12
257.754	1561.12
257.987	1507.12
258.22	1525.12
258.452	1515.12
258.685	1556.12
258.918	1555.12
259.151	1620.12
259.383	1655.12
259.616	1667.12
259.849	1717.12
260.081	1862.12
260.314	2025.12
260.547	1959.12
260.779	1789.12
261.012	1709.12
261.244	1703.12
261.477	1673.12
261.71	1639.12
261.942	1687.12
262.175	1706.12
262.407	1677.12
262.64	1631.12
262.872	1621.12
263.105	1624.12
263.337	1606.12
263.57	1643.12
263.802	1664.12
264.035	1641.12
264.267	1641.12
264.499	1637.12
264.732	1661.12
264.964	1704.12
265.197	1677.12
265.429	1697.12
265.661	1682.12
265.894	1705.12
266.126	1760.12
266.358	1733.12
266.591	1771.12
266.823	1808.12
267.055	1841.12
267.287	1833.12
267.52	1810.12
267.752	1808.12
267.984	1840.12
268.216	1892.12
268.448	1916.12
268.681	1930.12
268.913	2110.12
269.145	2237.12
269.377	2317.12
269.609	2223.12
269.841	2138.12
270.073	2242.12
270.306	2490.12
270.538	2693.12
270.77	2503.12
271.002	2411.12
271.234	2338.12
271.466	2460.12
271.698	2595.12
271.93	2609.12
272.162	2667.12
272.394	2578.12
272.626	2403.12
272.858	2272.12
273.09	2288.12
273.322	2226.12
273.553	2160.12
273.785	2175.12
274.017	2167.12
274.249	2209.12
274.481	2192.12
274.713	2259.12
274.945	2210.12
275.176	2230.12
275.408	2237.12
275.64	2224.12
275.872	2246.12
276.104	2239.12
276.335	2217.12
276.567	2326.12
276.799	2454.12
277.031	2678.12
277.262	2742.12
277.494	2667.12
277.726	2550.12
277.957	2465.12
278.189	2366.12
278.421	2333.12
278.652	2318.12
278.884	2356.12
279.115	2357.12
279.347	2347.12
279.579	2337.12
279.81	2346.12
280.042	2330.12
280.273	2370.12
280.505	2365.12
280.736	2375.12
280.968	2393.12
281.199	2384.12
281.431	2398.12
281.662	2421.12
281.894	2415.12
282.125	2457.12
282.356	2628.12
282.588	2672.12
282.819	2626.12
283.051	2516.12
283.282	2471.12
283.513	2534.12
283.745	2568.12
283.976	2649.12
284.207	2597.12
284.439	2567.12
284.67	2575.12
284.901	2584.12
285.132	2625.12
285.364	2584.12
285.595	2549.12
285.826	2595.12
286.057	2623.12
286.288	2650.12
286.52	2605.12
286.751	2637.12
286.982	2659.12
287.213	2667.12
287.444	2721.12
287.675	2777.12
287.906	2822.12
288.138	2861.12
288.369	2877.12
288.6	2879.12
288.831	2823.12
289.062	2775.12
289.293	2816.12
289.524	2772.12
289.755	2817.12
289.986	2776.12
290.217	2787.12
290.448	2800.12
290.679	2771.12
290.91	2740.12
291.141	2767.12
291.371	2773.12
291.602	2809.12
291.833	2723.12
292.064	2791.12
292.295	2794.12
292.526	2798.12
292.757	2787.12
292.987	2789.12
293.218	2795.12
293.449	2813.12
293.68	2850.12
293.91	2788.12
294.141	2818.12
294.372	2814.12
294.603	2833.12
294.833	2893.12
295.064	2867.12
295.295	2912.12
295.525	2890.12
295.756	2920.12
295.987	2929.12
296.217	3066.12
296.448	3062.12
296.679	2938.12
296.909	2923.12
297.14	2903.12
297.37	2963.12
297.601	3040.12
297.831	3008.12
298.062	3029.12
298.292	3023.12
298.523	3087.12
298.753	3077.12
298.984	3069.12
299.214	3043.12
299.445	3059.12
299.675	3055.12
299.905	3099.12
300.136	3065.12
300.366	3105.12
300.597	3184.12
300.827	3175.12
301.057	3267.12
301.288	3258.12
301.518	3264.12
301.748	3304.12
301.979	3364.12
302.209	3341.12
302.439	3371.12
302.669	3238.12
302.9	3265.12
303.13	3245.12
303.36	3290.12
303.59	3282.12
303.82	3302.12
304.051	3312.12
304.281	3341.12
304.511	3224.12
304.741	3262.12
304.971	3247.12
305.201	3232.12
305.431	3221.12
305.661	3270.12
305.891	3242.12
306.121	3189.12
306.352	3257.12
306.582	3188.12
306.812	3184.12
307.042	3297.12
307.272	3225.12
307.502	3265.12
307.731	3199.12
307.961	3203.12
308.191	3183.12
308.421	3206.12
308.651	3251.12
308.881	3227.12
309.111	3241.12
309.341	3267.12
309.571	3322.12
309.8	3411.12
310.03	3481.12
310.26	3475.12
310.49	3418.12
310.72	3509.12
310.949	3628.12
311.179	3602.12
311.409	3465.12
311.639	3514.12
311.868	3509.12
312.098	3503.12
312.328	3603.12
312.557	3717.12
312.787	3751.12
313.017	3698.12
313.246	3709.12
313.476	3621.12
313.706	3667.12
313.935	3716.12
314.165	3783.12
314.394	3790.12
314.624	3755.12
314.853	3685.12
315.083	3637.12
315.312	3613.12
315.542	3632.12
315.771	3631.12
316.001	3569.12
316.23	3600.12
316.46	3659.12
316.689	3591.12
316.919	3695.12
317.148	3686.12
317.377	3628.12
317.607	3600.12
317.836	3611.12
318.065	3576.12
318.295	3512.12
318.524	3587.12
318.753	3526.12
318.983	3581.12
319.212	3543.12
319.441	3553.12
319.67	3648.12
319.9	3539.12
320.129	3626.12
320.358	3611.12
320.587	3625.12
320.816	3662.12
321.046	3699.12
321.275	3717.12
321.504	3662.12
321.733	3707.12
321.962	3772.12
322.191	3861.12
322.42	3867.12
322.649	3954.12
322.878	3960.12
323.108	4080.12
323.337	4195.12
323.566	4317.12
323.795	4448.12
324.024	4859.12
324.253	6112.12
324.482	8705.12
324.71	13313.12
324.939	15275.12
325.168	9786.12
325.397	5541.12
325.626	4689.12
325.855	4404.12
326.084	4389.12
326.313	4417.12
326.542	4520.12
326.77	4970.12
326.999	6049.12
327.228	8429.12
327.457	12346.12
327.686	11505.12
327.914	6359.12
328.143	5153.12
328.372	5015.12
328.6	4828.12
328.829	4707.12
329.058	4891.12
329.287	4843.12
329.515	4725.12
329.744	4533.12
329.972	4614.12
330.201	4793.12
330.43	4974.12
330.658	5064.12
330.887	5262.12
331.115	5010.12
331.344	4726.12
331.572	4678.12
331.801	4778.12
332.03	4795.12
332.258	4750.12
332.486	4781.12
332.715	4938.12
332.943	5060.12
333.172	5272.12
333.4	5351.12
333.629	5461.12
333.857	5546.12
334.085	5592.12
334.314	5586.12
334.542	5709.12
334.771	5614.12
334.999	5303.12
335.227	5169.12
335.455	5050.12
335.684	4917.12
335.912	4953.12
336.14	4856.12
336.369	4842.12
336.597	4888.12
336.825	4813.12
337.053	4736.12
337.281	4688.12
337.51	4563.12
337.738	4637.12
337.966	4533.12
338.194	4582.12
338.422	4463.12
338.65	4405.12
338.878	4415.12
339.106	4457.12
339.334	4408.12
339.562	4379.12
339.79	4285.12
340.018	4306.12
340.246	4261.12
340.474	4315.12
340.702	4329.12
340.93	4314.12
341.158	4291.12
341.386	4250.12
341.614	4322.12
341.842	4231.12
342.07	4151.12
342.298	4174.12
342.526	4182.12
342.754	4200.12
342.981	4272.12
343.209	4352.12
343.437	4611.12
343.665	4874.12
343.893	5138.12
344.12	5107.12
344.348	4837.12
344.576	4711.12
344.804	4635.12
345.031	4456.12
345.259	4518.12
345.487	4307.12
345.714	4179.12
345.942	4107.12
346.17	4112.12
346.397	4149.12
346.625	4065.12
346.853	4102.12
347.08	4053.12
347.308	4086.12
347.535	4177.12
347.763	4199.12
347.99	4190.12
348.218	4123.12
348.445	4193.12
348.673	4037.12
348.9	4062.12
349.128	3973.12
349.355	4001.12
349.583	4018.12
349.81	3951.12
350.037	3921.12
350.265	3933.12
350.492	3910.12
350.72	3906.12
350.947	3930.12
351.174	4031.12
351.402	4067.12
351.629	3981.12
351.856	4024.12
352.083	4046.12
352.311	4000.12
352.538	4078.12
352.765	4046.12
352.992	4006.12
353.22	4001.12
353.447	3948.12
353.674	3899.12
353.901	3895.12
354.128	3886.12
354.355	3828.12
354.583	3875.12
354.81	3867.12
355.037	3909.12
355.264	3864.12
355.491	3849.12
355.718	3909.12
355.945	3877.12
356.172	3881.12
356.399	3879.12
356.626	3908.12
356.853	3891.12
357.08	3835.12
357.307	3889.12
357.534	3855.12
357.761	3873.12
357.988	3897.12
358.215	3901.12
358.441	3896.12
358.668	3984.12
358.895	3887.12
359.122	3956.12
359.349	3986.12
359.576	4101.12
359.802	4224.12
360.029	4374.12
360.256	4342.12
360.483	4263.12
360.709	4074.12
360.936	4063.12
361.163	4003.12
361.39	4100.12
361.616	4103.12
361.843	4021.12
362.07	4031.12
362.296	4072.12
362.523	4025.12
362.749	4019.12
362.976	4000.12
363.203	3939.12
363.429	4019.12
363.656	3977.12
363.882	3947.12
364.109	3899.12
364.335	3918.12
364.562	3961.12
364.788	3933.12
365.015	3963.12
365.241	3966.12
365.468	3955.12
365.694	4011.12
365.92	3923.12
366.147	3960.12
366.373	3947.12
366.599	3930.12
366.826	3917.12
367.052	3923.12
367.278	4010.12
367.505	3937.12
367.731	3935.12
367.957	3907.12
368.184	4011.12
368.41	4127.12
368.636	4091.12
368.862	4042.12
369.089	4038.12
369.315	4032.12
369.541	4075.12
369.767	4116.12
369.993	4093.12
370.219	4125.12
370.445	4146.12
370.672	4191.12
370.898	4127.12
371.124	4149.12
371.35	4296.12
371.576	4228.12
371.802	4229.12
372.028	4158.12
372.254	4228.12
372.48	4289.12
372.706	4408.12
372.932	4401.12
373.158	4394.12
373.384	4235.12
373.61	4277.12
373.835	4215.12
374.061	4333.12
374.287	4377.12
374.513	4479.12
374.739	4569.12
374.965	4665.12
375.191	4560.12
375.416	4580.12
375.642	4449.12
375.868	4405.12
376.094	4359.12
376.319	4308.12
376.545	4269.12
376.771	4337.12
376.997	4281.12
377.222	4285.12
377.448	4278.12
377.674	4250.12
377.899	4229.12
378.125	4201.12
378.35	4215.12
378.576	4209.12
378.802	4255.12
379.027	4294.12
379.253	4190.12
379.478	4183.12
379.704	4239.12
379.929	4251.12
380.155	4161.12
380.38	4275.12
380.606	4388.12
380.831	4277.12
381.057	4294.12
381.282	4310.12
381.507	4262.12
381.733	4315.12
381.958	4425.12
382.184	4417.12
382.409	4458.12
382.634	4501.12
382.86	4551.12
383.085	4610.12
383.31	4655.12
383.535	4707.12
383.761	4688.12
383.986	4784.12
384.211	4918.12
384.436	4971.12
384.662	5094.12
384.887	5108.12
385.112	5098.12
385.337	5154.12
385.562	5217.12
385.787	5231.12
386.013	5289.12
386.238	5237.12
386.463	5259.12
386.688	5282.12
386.913	5160.12
387.138	5191.12
387.363	5185.12
387.588	5041.12
387.813	5147.12
388.038	5145.12
388.263	5226.12
388.488	5123.12
388.713	5110.12
388.938	5045.12
389.163	5007.12
389.387	5117.12
389.612	4980.12
389.837	4984.12
390.062	4972.12
390.287	5086.12
390.512	5080.12
390.736	5042.12
390.961	5193.12
391.186	5338.12
391.411	5466.12
391.636	5563.12
391.86	5709.12
392.085	5739.12
392.31	5685.12
392.534	5471.12
392.759	5441.12
392.984	5350.12
393.208	5308.12
393.433	5364.12
393.658	5282.12
393.882	5288.12
394.107	5262.12
394.331	5310.12
394.556	5311.12
394.78	5425.12
395.005	5455.12
395.229	5454.12
395.454	5617.12
395.678	5692.12
395.903	5766.12
396.127	5750.12
396.352	5546.12
396.576	5424.12
396.801	5387.12
397.025	5464.12
397.249	5677.12
397.474	5736.12
397.698	5746.12
397.922	5834.12
398.147	5906.12
398.371	6056.12
398.595	6216.12
398.82	6442.12
399.044	7039.12
399.268	7843.12
399.492	8887.12
399.717	9408.12
399.941	9147.12
400.165	8438.12
400.389	7917.12
400.613	7104.12
400.837	6667.12
401.062	6491.12
401.286	6441.12
401.51	6405.12
401.734	6444.12
401.958	6475.12
402.182	6575.12
402.406	6655.12
402.63	6826.12
402.854	6853.12
403.078	6919.12
403.302	6993.12
403.526	7238.12
403.75	7226.12
403.974	7349.12
404.198	7358.12
404.422	7413.12
404.645	7407.12
404.869	7316.12
405.093	7403.12
405.317	7679.12
405.541	7641.12
405.765	7182.12
405.988	7074.12
406.212	7216.12
406.436	7422.12
406.66	7515.12
406.883	7545.12
407.107	8091.12
407.331	8615.12
407.555	9114.12
407.778	8838.12
408.002	7990.12
408.226	7735.12
408.449	7575.12
408.673	7468.12
408.896	7595.12
409.12	7770.12
409.344	7334.12
409.567	7065.12
409.791	7007.12
410.014	6935.12
410.238	6819.12
410.461	6867.12
410.685	6943.12
410.908	6974.12
411.132	7157.12
411.355	7213.12
411.578	6837.12
411.802	6672.12
412.025	6660.12
412.249	6837.12
412.472	6913.12
412.695	7055.12
412.919	6689.12
413.142	6462.12
413.365	6381.12
413.589	6447.12
413.812	6422.12
414.035	6192.12
414.258	6231.12
414.482	6287.12
414.705	6376.12
414.928	6338.12
415.151	6336.12
415.374	6322.12
415.597	6268.12
415.821	6209.12
416.044	6176.12
416.267	6115.12
416.49	6104.12
416.713	6051.12
416.936	6193.12
417.159	6125.12
417.382	6221.12
417.605	6240.12
417.828	6363.12
418.051	6517.12
418.274	6417.12
418.497	6249.12
418.72	6493.12
418.943	6364.12
419.166	6837.12
419.389	7226.12
419.611	7098.12
419.834	6856.12
420.057	6687.12
420.28	6545.12
420.503	6483.12
420.726	6357.12
420.948	6555.12
421.171	6799.12
421.394	6820.12
421.617	6384.12
421.839	6373.12
422.062	6434.12
422.285	6613.12
422.507	7219.12
422.73	7640.12
422.953	7095.12
423.175	6790.12
423.398	6746.12
423.621	6836.12
423.843	7044.12
424.066	7081.12
424.288	6867.12
424.511	7106.12
424.733	7581.12
424.956	7834.12
425.178	7361.12
425.401	7613.12
425.623	7469.12
425.846	6576.12
426.068	6464.12
426.291	6354.12
426.513	6292.12
426.735	6426.12
426.958	6869.12
427.18	7515.12
427.402	8451.12
427.625	8501.12
427.847	7285.12
428.069	6697.12
428.292	6255.12
428.514	5951.12
428.736	5742.12
428.958	5765.12
429.181	5657.12
429.403	5631.12
429.625	5866.12
429.847	6071.12
430.069	6557.12
430.292	6097.12
430.514	5670.12
430.736	5755.12
430.958	5660.12
431.18	5500.12
431.402	5552.12
431.624	5533.12
431.846	5703.12
432.068	5705.12
432.29	5647.12
432.512	5639.12
432.734	5670.12
432.956	5578.12
433.178	5699.12
433.4	5693.12
433.622	5699.12
433.844	5688.12
434.066	5731.12
434.287	5795.12
434.509	6041.12
434.731	6197.12
434.953	6311.12
435.175	6448.12
435.397	6532.12
435.618	6414.12
435.84	6707.12
436.062	7460.12
436.284	7359.12
436.505	6225.12
436.727	6049.12
436.949	5789.12
437.17	5693.12
437.392	5639.12
437.614	5770.12
437.835	6071.12
438.057	6867.12
438.278	7389.12
438.5	7370.12
438.721	8190.12
438.943	7198.12
439.165	6194.12
439.386	6053.12
439.608	6053.12
439.829	6053.12
440.05	6383.12
440.272	6667.12
440.493	6151.12
440.715	5905.12
440.936	5907.12
441.158	5965.12
441.379	6105.12
441.6	6464.12
441.822	6667.12
442.043	6976.12
442.264	7573.12
442.486	7346.12
442.707	6600.12
442.928	6522.12
443.149	6644.12
443.371	6879.12
443.592	7314.12
443.813	8235.12
444.034	8240.12
444.255	7271.12
444.476	7229.12
444.698	7438.12
444.919	7415.12
445.14	7194.12
445.361	7056.12
445.582	7059.12
445.803	7554.12
446.024	8143.12
446.245	7727.12
446.466	7062.12
446.687	6203.12
446.908	5886.12
447.129	5661.12
447.35	5505.12
447.571	5471.12
447.792	5385.12
448.013	5481.12
448.234	5662.12
448.455	6240.12
448.675	7259.12
448.896	7614.12
449.117	6328.12
449.338	6522.12
449.559	7622.12
449.779	7869.12
450	6114.12
450.221	5537.12
450.442	5329.12
450.662	5244.12
450.883	5359.12
451.104	5420.12
451.324	5272.12
451.545	5172.12
451.766	4992.12
451.986	4962.12
452.207	4999.12
452.428	4887.12
452.648	4976.12
452.869	4999.12
453.089	4959.12
453.31	5072.12
453.53	4953.12
453.751	4866.12
453.971	4953.12
454.192	5011.12
454.412	4814.12
454.633	4754.12
454.853	4769.12
455.073	4763.12
455.294	5113.12
455.514	5539.12
455.734	5177.12
455.955	4713.12
456.175	4617.12
456.395	4557.12
456.616	4481.12
456.836	4584.12
457.056	4594.12
457.276	4518.12
457.497	4594.12
457.717	4614.12
457.937	4707.12
458.157	4714.12
458.377	4817.12
458.598	5115.12
458.818	5604.12
459.038	6336.12
459.258	6324.12
459.478	5739.12
459.698	5720.12
459.918	5796.12
460.138	5873.12
460.358	6100.12
460.578	6212.12
460.798	6298.12
461.018	6248.12
461.238	6180.12
461.458	6113.12
461.678	6063.12
461.898	6210.12
462.118	6275.12
462.338	6614.12
462.558	6720.12
462.777	6981.12
462.997	7600.12
463.217	7917.12
463.437	7776.12
463.657	7190.12
463.876	6967.12
464.096	7087.12
464.316	7014.12
464.536	7140.12
464.755	6843.12
464.975	6687.12
465.195	6703.12
465.414	6645.12
465.634	5935.12
465.854	5630.12
466.073	5519.12
466.293	5332.12
466.512	5159.12
466.732	5088.12
466.951	5143.12
467.171	5116.12
467.391	5195.12
467.61	5235.12
467.829	5178.12
468.049	5060.12
468.268	4943.12
468.488	4905.12
468.707	4828.12
468.927	4869.12
469.146	4871.12
469.365	5014.12
469.585	4927.12
469.804	5230.12
470.023	5255.12
470.243	5291.12
470.462	5349.12
470.681	5471.12
470.901	5354.12
471.12	5265.12
471.339	5279.12
471.558	5160.12
471.777	5069.12
471.997	4937.12
472.216	5042.12
472.435	5122.12
472.654	4997.12
472.873	4887.12
473.092	4846.12
473.311	4894.12
473.53	4925.12
473.749	4969.12
473.968	5453.12
474.187	6360.12
474.406	5880.12
474.625	5106.12
474.844	4996.12
475.063	4946.12
475.282	4931.12
475.501	5009.12
475.72	5033.12
475.939	5016.12
476.158	5073.12
476.377	5081.12
476.596	5097.12
476.814	5222.12
477.033	5262.12
477.252	5342.12
477.471	5458.12
477.69	5581.12
477.908	5638.12
478.127	5810.12
478.346	5894.12
478.564	5973.12
478.783	6005.12
479.002	6217.12
479.22	6248.12
479.439	6179.12
479.658	6296.12
479.876	6425.12
480.095	6699.12
480.313	6997.12
480.532	6909.12
480.751	6814.12
480.969	6694.12
481.188	6935.12
481.406	6788.12
481.624	6225.12
481.843	6115.12
482.061	6034.12
482.28	5880.12
482.498	5818.12
482.717	5730.12
482.935	5734.12
483.153	5728.12
483.372	5760.12
483.59	5790.12
483.808	5746.12
484.027	5723.12
484.245	5854.12
484.463	5859.12
484.681	5961.12
484.9	6003.12
485.118	6016.12
485.336	6093.12
485.554	6135.12
485.772	6179.12
485.99	6104.12
486.209	6209.12
486.427	6118.12
486.645	6201.12
486.863	6401.12
487.081	6313.12
487.299	6244.12
487.517	6273.12
487.735	6219.12
487.953	6145.12
