Data from Uncirc_1981_H10_HRD10591_00058.txt Node
Date: Wed Jan 03 12:33:19 EST 2024
User: Yrep
Spectrometer: HR+D1059
Trigger mode: 1
Integration Time (sec): 1.000000E-1
Scans to average: 1
Electric dark correction enabled: true
Nonlinearity correction enabled: false
Boxcar width: 0
XAxis mode: Wavelengths
Number of Pixels in Spectrum: 2048
>>>>>Begin Spectral Data<<<<<
223.165	-10.62
223.4	-10.62
223.635	-10.62
223.869	-30.62
224.104	-10.62
224.338	-15.62
224.573	-15.62
224.808	-10.62
225.042	-11.62
225.277	-1.62
225.511	1.38
225.746	15.38
225.98	6.38
226.215	10.38
226.449	7.38
226.683	15.38
226.918	18.38
227.152	32.38
227.387	37.38
227.621	32.38
227.856	44.38
228.09	54.38
228.324	62.38
228.559	61.38
228.793	68.38
229.027	71.38
229.262	57.38
229.496	62.38
229.73	72.38
229.964	88.38
230.199	77.38
230.433	78.38
230.667	75.38
230.901	77.38
231.136	80.38
231.37	85.38
231.604	78.38
231.838	77.38
232.072	84.38
232.306	72.38
232.541	88.38
232.775	82.38
233.009	92.38
233.243	88.38
233.477	92.38
233.711	93.38
233.945	88.38
234.179	79.38
234.413	88.38
234.647	73.38
234.881	90.38
235.115	86.38
235.349	92.38
235.583	74.38
235.817	86.38
236.051	82.38
236.285	78.38
236.519	87.38
236.753	75.38
236.987	85.38
237.221	69.38
237.455	84.38
237.689	71.38
237.922	70.38
238.156	77.38
238.39	82.38
238.624	68.38
238.858	76.38
239.091	69.38
239.325	82.38
239.559	77.38
239.793	76.38
240.027	69.38
240.26	78.38
240.494	91.38
240.728	68.38
240.961	81.38
241.195	71.38
241.429	70.38
241.662	71.38
241.896	64.38
242.13	81.38
242.363	72.38
242.597	72.38
242.83	90.38
243.064	74.38
243.298	89.38
243.531	67.38
243.765	72.38
243.998	88.38
244.232	73.38
244.465	84.38
244.699	78.38
244.932	86.38
245.166	60.38
245.399	76.38
245.633	69.38
245.866	78.38
246.099	77.38
246.333	87.38
246.566	81.38
246.8	80.38
247.033	76.38
247.266	71.38
247.5	62.38
247.733	78.38
247.966	72.38
248.2	74.38
248.433	78.38
248.666	84.38
248.899	71.38
249.133	71.38
249.366	92.38
249.599	91.38
249.832	86.38
250.066	72.38
250.299	76.38
250.532	80.38
250.765	83.38
250.998	74.38
251.231	78.38
251.465	69.38
251.698	83.38
251.931	83.38
252.164	75.38
252.397	76.38
252.63	78.38
252.863	93.38
253.096	78.38
253.329	88.38
253.562	71.38
253.795	86.38
254.028	86.38
254.261	79.38
254.494	78.38
254.727	71.38
254.96	78.38
255.193	77.38
255.426	70.38
255.659	85.38
255.892	79.38
256.124	94.38
256.357	84.38
256.59	107.38
256.823	88.38
257.056	82.38
257.289	85.38
257.521	70.38
257.754	62.38
257.987	99.38
258.22	82.38
258.452	73.38
258.685	79.38
258.918	77.38
259.151	75.38
259.383	74.38
259.616	90.38
259.849	90.38
260.081	80.38
260.314	66.38
260.547	75.38
260.779	94.38
261.012	92.38
261.244	86.38
261.477	89.38
261.71	88.38
261.942	101.38
262.175	106.38
262.407	87.38
262.64	76.38
262.872	79.38
263.105	96.38
263.337	79.38
263.57	85.38
263.802	80.38
264.035	82.38
264.267	82.38
264.499	76.38
264.732	77.38
264.964	69.38
265.197	70.38
265.429	88.38
265.661	75.38
265.894	78.38
266.126	64.38
266.358	89.38
266.591	95.38
266.823	77.38
267.055	77.38
267.287	91.38
267.52	86.38
267.752	74.38
267.984	74.38
268.216	83.38
268.448	99.38
268.681	77.38
268.913	92.38
269.145	89.38
269.377	94.38
269.609	90.38
269.841	101.38
270.073	88.38
270.306	71.38
270.538	78.38
270.77	88.38
271.002	87.38
271.234	101.38
271.466	100.38
271.698	84.38
271.93	79.38
272.162	72.38
272.394	79.38
272.626	70.38
272.858	74.38
273.09	86.38
273.322	85.38
273.553	91.38
273.785	82.38
274.017	84.38
274.249	97.38
274.481	95.38
274.713	83.38
274.945	85.38
275.176	82.38
275.408	79.38
275.64	105.38
275.872	99.38
276.104	89.38
276.335	88.38
276.567	86.38
276.799	90.38
277.031	99.38
277.262	84.38
277.494	95.38
277.726	90.38
277.957	91.38
278.189	94.38
278.421	77.38
278.652	82.38
278.884	90.38
279.115	83.38
279.347	87.38
279.579	97.38
279.81	87.38
280.042	90.38
280.273	88.38
280.505	77.38
280.736	78.38
280.968	83.38
281.199	109.38
281.431	92.38
281.662	79.38
281.894	89.38
282.125	100.38
282.356	112.38
282.588	118.38
282.819	112.38
283.051	91.38
283.282	100.38
283.513	100.38
283.745	96.38
283.976	83.38
284.207	88.38
284.439	98.38
284.67	84.38
284.901	90.38
285.132	93.38
285.364	88.38
285.595	93.38
285.826	88.38
286.057	80.38
286.288	82.38
286.52	97.38
286.751	95.38
286.982	86.38
287.213	84.38
287.444	66.38
287.675	82.38
287.906	86.38
288.138	95.38
288.369	98.38
288.6	75.38
288.831	90.38
289.062	79.38
289.293	94.38
289.524	93.38
289.755	85.38
289.986	71.38
290.217	82.38
290.448	100.38
290.679	88.38
290.91	75.38
291.141	91.38
291.371	98.38
291.602	96.38
291.833	86.38
292.064	99.38
292.295	95.38
292.526	82.38
292.757	82.38
292.987	88.38
293.218	86.38
293.449	98.38
293.68	80.38
293.91	104.38
294.141	107.38
294.372	87.38
294.603	96.38
294.833	70.38
295.064	88.38
295.295	82.38
295.525	97.38
295.756	92.38
295.987	99.38
296.217	108.38
296.448	106.38
296.679	99.38
296.909	99.38
297.14	80.38
297.37	84.38
297.601	89.38
297.831	87.38
298.062	100.38
298.292	89.38
298.523	73.38
298.753	89.38
298.984	90.38
299.214	94.38
299.445	88.38
299.675	82.38
299.905	95.38
300.136	91.38
300.366	97.38
300.597	95.38
300.827	96.38
301.057	104.38
301.288	91.38
301.518	92.38
301.748	97.38
301.979	96.38
302.209	96.38
302.439	92.38
302.669	95.38
302.9	86.38
303.13	99.38
303.36	89.38
303.59	107.38
303.82	98.38
304.051	86.38
304.281	83.38
304.511	91.38
304.741	85.38
304.971	82.38
305.201	93.38
305.431	85.38
305.661	98.38
305.891	89.38
306.121	102.38
306.352	100.38
306.582	108.38
306.812	91.38
307.042	100.38
307.272	98.38
307.502	102.38
307.731	101.38
307.961	100.38
308.191	104.38
308.421	93.38
308.651	97.38
308.881	84.38
309.111	97.38
309.341	89.38
309.571	84.38
309.8	95.38
310.03	101.38
310.26	96.38
310.49	101.38
310.72	89.38
310.949	80.38
311.179	95.38
311.409	87.38
311.639	92.38
311.868	89.38
312.098	94.38
312.328	92.38
312.557	95.38
312.787	96.38
313.017	113.38
313.246	94.38
313.476	94.38
313.706	93.38
313.935	96.38
314.165	107.38
314.394	104.38
314.624	113.38
314.853	107.38
315.083	75.38
315.312	90.38
315.542	100.38
315.771	97.38
316.001	92.38
316.23	98.38
316.46	81.38
316.689	86.38
316.919	100.38
317.148	89.38
317.377	109.38
317.607	84.38
317.836	86.38
318.065	92.38
318.295	91.38
318.524	96.38
318.753	100.38
318.983	92.38
319.212	108.38
319.441	94.38
319.67	96.38
319.9	71.38
320.129	90.38
320.358	88.38
320.587	88.38
320.816	99.38
321.046	102.38
321.275	102.38
321.504	101.38
321.733	98.38
321.962	91.38
322.191	91.38
322.42	101.38
322.649	108.38
322.878	91.38
323.108	112.38
323.337	118.38
323.566	133.38
323.795	134.38
324.024	177.38
324.253	310.38
324.482	692.38
324.71	1327.38
324.939	1730.38
325.168	632.38
325.397	210.38
325.626	128.38
325.855	123.38
326.084	108.38
326.313	105.38
326.542	141.38
326.77	198.38
326.999	397.38
327.228	786.38
327.457	1402.38
327.686	1109.38
327.914	312.38
328.143	148.38
328.372	132.38
328.6	125.38
328.829	115.38
329.058	114.38
329.287	121.38
329.515	100.38
329.744	97.38
329.972	99.38
330.201	100.38
330.43	116.38
330.658	112.38
330.887	121.38
331.115	107.38
331.344	102.38
331.572	106.38
331.801	93.38
332.03	102.38
332.258	96.38
332.486	95.38
332.715	110.38
332.943	94.38
333.172	93.38
333.4	95.38
333.629	93.38
333.857	108.38
334.085	101.38
334.314	109.38
334.542	124.38
334.771	116.38
334.999	108.38
335.227	92.38
335.455	103.38
335.684	99.38
335.912	95.38
336.14	97.38
336.369	106.38
336.597	81.38
336.825	94.38
337.053	93.38
337.281	85.38
337.51	94.38
337.738	92.38
337.966	99.38
338.194	88.38
338.422	94.38
338.65	88.38
338.878	88.38
339.106	83.38
339.334	105.38
339.562	96.38
339.79	93.38
340.018	88.38
340.246	89.38
340.474	83.38
340.702	90.38
340.93	93.38
341.158	98.38
341.386	100.38
341.614	87.38
341.842	89.38
342.07	86.38
342.298	92.38
342.526	78.38
342.754	92.38
342.981	97.38
343.209	99.38
343.437	101.38
343.665	82.38
343.893	84.38
344.12	82.38
344.348	81.38
344.576	85.38
344.804	75.38
345.031	92.38
345.259	116.38
345.487	99.38
345.714	93.38
345.942	98.38
346.17	101.38
346.397	105.38
346.625	92.38
346.853	98.38
347.08	89.38
347.308	86.38
347.535	91.38
347.763	90.38
347.99	91.38
348.218	107.38
348.445	110.38
348.673	95.38
348.9	107.38
349.128	94.38
349.355	98.38
349.583	87.38
349.81	101.38
350.037	96.38
350.265	109.38
350.492	93.38
350.72	104.38
350.947	101.38
351.174	98.38
351.402	93.38
351.629	109.38
351.856	98.38
352.083	93.38
352.311	93.38
352.538	107.38
352.765	113.38
352.992	115.38
353.22	100.38
353.447	95.38
353.674	111.38
353.901	101.38
354.128	96.38
354.355	89.38
354.583	94.38
354.81	103.38
355.037	90.38
355.264	94.38
355.491	94.38
355.718	93.38
355.945	92.38
356.172	85.38
356.399	95.38
356.626	78.38
356.853	102.38
357.08	99.38
357.307	83.38
357.534	100.38
357.761	102.38
357.988	108.38
358.215	106.38
358.441	102.38
358.668	99.38
358.895	93.38
359.122	93.38
359.349	98.38
359.576	91.38
359.802	102.38
360.029	93.38
360.256	103.38
360.483	89.38
360.709	87.38
360.936	96.38
361.163	96.38
361.39	100.38
361.616	77.38
361.843	95.38
362.07	95.38
362.296	102.38
362.523	93.38
362.749	108.38
362.976	76.38
363.203	90.38
363.429	82.38
363.656	95.38
363.882	84.38
364.109	90.38
364.335	109.38
364.562	90.38
364.788	86.38
365.015	96.38
365.241	96.38
365.468	87.38
365.694	86.38
365.92	96.38
366.147	86.38
366.373	80.38
366.599	86.38
366.826	88.38
367.052	85.38
367.278	90.38
367.505	84.38
367.731	95.38
367.957	88.38
368.184	85.38
368.41	96.38
368.636	111.38
368.862	102.38
369.089	103.38
369.315	93.38
369.541	89.38
369.767	92.38
369.993	96.38
370.219	71.38
370.445	93.38
370.672	89.38
370.898	88.38
371.124	102.38
371.35	82.38
371.576	95.38
371.802	91.38
372.028	97.38
372.254	93.38
372.48	75.38
372.706	88.38
372.932	93.38
373.158	101.38
373.384	99.38
373.61	103.38
373.835	85.38
374.061	94.38
374.287	93.38
374.513	86.38
374.739	91.38
374.965	94.38
375.191	90.38
375.416	98.38
375.642	91.38
375.868	102.38
376.094	84.38
376.319	82.38
376.545	98.38
376.771	79.38
376.997	96.38
377.222	90.38
377.448	99.38
377.674	95.38
377.899	98.38
378.125	88.38
378.35	90.38
378.576	79.38
378.802	90.38
379.027	100.38
379.253	90.38
379.478	86.38
379.704	92.38
379.929	103.38
380.155	113.38
380.38	112.38
380.606	95.38
380.831	94.38
381.057	94.38
381.282	91.38
381.507	82.38
381.733	108.38
381.958	107.38
382.184	90.38
382.409	100.38
382.634	105.38
382.86	108.38
383.085	107.38
383.31	94.38
383.535	114.38
383.761	108.38
383.986	93.38
384.211	110.38
384.436	104.38
384.662	111.38
384.887	105.38
385.112	103.38
385.337	101.38
385.562	106.38
385.787	93.38
386.013	98.38
386.238	112.38
386.463	115.38
386.688	95.38
386.913	100.38
387.138	116.38
387.363	103.38
387.588	95.38
387.813	91.38
388.038	112.38
388.263	106.38
388.488	113.38
388.713	107.38
388.938	94.38
389.163	95.38
389.387	86.38
389.612	92.38
389.837	91.38
390.062	84.38
390.287	96.38
390.512	91.38
390.736	90.38
390.961	91.38
391.186	101.38
391.411	108.38
391.636	73.38
391.86	76.38
392.085	82.38
392.31	90.38
392.534	83.38
392.759	98.38
392.984	85.38
393.208	93.38
393.433	84.38
393.658	88.38
393.882	79.38
394.107	76.38
394.331	86.38
394.556	71.38
394.78	107.38
395.005	102.38
395.229	90.38
395.454	107.38
395.678	95.38
395.903	93.38
396.127	93.38
396.352	93.38
396.576	103.38
396.801	90.38
397.025	88.38
397.249	86.38
397.474	75.38
397.698	84.38
397.922	98.38
398.147	96.38
398.371	80.38
398.595	86.38
398.82	88.38
399.044	80.38
399.268	93.38
399.492	72.38
399.717	90.38
399.941	90.38
400.165	103.38
400.389	101.38
400.613	84.38
400.837	98.38
401.062	100.38
401.286	91.38
401.51	84.38
401.734	97.38
401.958	94.38
402.182	104.38
402.406	137.38
402.63	116.38
402.854	98.38
403.078	78.38
403.302	100.38
403.526	95.38
403.75	89.38
403.974	89.38
404.198	101.38
404.422	95.38
404.645	86.38
404.869	92.38
405.093	91.38
405.317	108.38
405.541	95.38
405.765	99.38
405.988	121.38
406.212	137.38
406.436	182.38
406.66	123.38
406.883	76.38
407.107	92.38
407.331	112.38
407.555	90.38
407.778	102.38
408.002	83.38
408.226	87.38
408.449	94.38
408.673	84.38
408.896	84.38
409.12	87.38
409.344	87.38
409.567	93.38
409.791	88.38
410.014	102.38
410.238	91.38
410.461	82.38
410.685	105.38
410.908	94.38
411.132	106.38
411.355	109.38
411.578	90.38
411.802	90.38
412.025	92.38
412.249	89.38
412.472	76.38
412.695	89.38
412.919	98.38
413.142	83.38
413.365	90.38
413.589	85.38
413.812	88.38
414.035	87.38
414.258	93.38
414.482	83.38
414.705	92.38
414.928	90.38
415.151	84.38
415.374	87.38
415.597	88.38
415.821	76.38
416.044	106.38
416.267	107.38
416.49	85.38
416.713	85.38
416.936	94.38
417.159	97.38
417.382	74.38
417.605	106.38
417.828	86.38
418.051	90.38
418.274	100.38
418.497	77.38
418.72	78.38
418.943	103.38
419.166	90.38
419.389	101.38
419.611	84.38
419.834	88.38
420.057	86.38
420.28	90.38
420.503	83.38
420.726	87.38
420.948	100.38
421.171	98.38
421.394	85.38
421.617	88.38
421.839	91.38
422.062	92.38
422.285	93.38
422.507	97.38
422.73	102.38
422.953	88.38
423.175	88.38
423.398	88.38
423.621	96.38
423.843	82.38
424.066	89.38
424.288	99.38
424.511	102.38
424.733	108.38
424.956	95.38
425.178	112.38
425.401	110.38
425.623	100.38
425.846	93.38
426.068	93.38
426.291	79.38
426.513	88.38
426.735	82.38
426.958	92.38
427.18	98.38
427.402	116.38
427.625	131.38
427.847	110.38
428.069	108.38
428.292	84.38
428.514	82.38
428.736	84.38
428.958	102.38
429.181	90.38
429.403	83.38
429.625	106.38
429.847	93.38
430.069	86.38
430.292	94.38
430.514	87.38
430.736	91.38
430.958	75.38
431.18	82.38
431.402	92.38
431.624	98.38
431.846	72.38
432.068	66.38
432.29	96.38
432.512	91.38
432.734	82.38
432.956	88.38
433.178	93.38
433.4	93.38
433.622	80.38
433.844	96.38
434.066	92.38
434.287	96.38
434.509	82.38
434.731	86.38
434.953	85.38
435.175	80.38
435.397	90.38
435.618	99.38
435.84	98.38
436.062	105.38
436.284	115.38
436.505	83.38
436.727	95.38
436.949	88.38
437.17	79.38
437.392	93.38
437.614	89.38
437.835	106.38
438.057	101.38
438.278	97.38
438.5	87.38
438.721	86.38
438.943	92.38
439.165	97.38
439.386	93.38
439.608	98.38
439.829	92.38
440.05	103.38
440.272	120.38
440.493	88.38
440.715	79.38
440.936	78.38
441.158	83.38
441.379	95.38
441.6	101.38
441.822	105.38
442.043	95.38
442.264	94.38
442.486	123.38
442.707	93.38
442.928	93.38
443.149	125.38
443.371	106.38
443.592	104.38
443.813	107.38
444.034	101.38
444.255	87.38
444.476	98.38
444.698	81.38
444.919	87.38
445.14	148.38
445.361	131.38
445.582	109.38
445.803	117.38
446.024	103.38
446.245	97.38
446.466	106.38
446.687	83.38
446.908	94.38
447.129	98.38
447.35	96.38
447.571	90.38
447.792	87.38
448.013	114.38
448.234	108.38
448.455	104.38
448.675	94.38
448.896	95.38
449.117	94.38
449.338	96.38
449.559	112.38
449.779	120.38
450	100.38
450.221	86.38
450.442	82.38
450.662	85.38
450.883	106.38
451.104	103.38
451.324	95.38
451.545	94.38
451.766	92.38
451.986	79.38
452.207	86.38
452.428	109.38
452.648	97.38
452.869	107.38
453.089	112.38
453.31	107.38
453.53	95.38
453.751	88.38
453.971	98.38
454.192	100.38
454.412	109.38
454.633	76.38
454.853	97.38
455.073	94.38
455.294	95.38
455.514	88.38
455.734	95.38
455.955	96.38
456.175	76.38
456.395	90.38
456.616	102.38
456.836	88.38
457.056	100.38
457.276	90.38
457.497	91.38
457.717	88.38
457.937	98.38
458.157	97.38
458.377	84.38
458.598	90.38
458.818	131.38
459.038	125.38
459.258	92.38
459.478	82.38
459.698	94.38
459.918	86.38
460.138	92.38
460.358	94.38
460.578	85.38
460.798	88.38
461.018	101.38
461.238	83.38
461.458	84.38
461.678	89.38
461.898	83.38
462.118	71.38
462.338	78.38
462.558	99.38
462.777	86.38
462.997	86.38
463.217	76.38
463.437	90.38
463.657	90.38
463.876	91.38
464.096	91.38
464.316	91.38
464.536	92.38
464.755	96.38
464.975	98.38
465.195	150.38
465.414	138.38
465.634	94.38
465.854	86.38
466.073	94.38
466.293	85.38
466.512	90.38
466.732	91.38
466.951	99.38
467.171	94.38
467.391	90.38
467.61	89.38
467.829	95.38
468.049	95.38
468.268	106.38
468.488	88.38
468.707	96.38
468.927	78.38
469.146	84.38
469.365	86.38
469.585	96.38
469.804	85.38
470.023	91.38
470.243	94.38
470.462	98.38
470.681	86.38
470.901	94.38
471.12	85.38
471.339	83.38
471.558	94.38
471.777	82.38
471.997	83.38
472.216	116.38
472.435	135.38
472.654	101.38
472.873	84.38
473.092	91.38
473.311	97.38
473.53	103.38
473.749	97.38
473.968	98.38
474.187	96.38
474.406	94.38
474.625	83.38
474.844	94.38
475.063	88.38
475.282	82.38
475.501	85.38
475.72	98.38
475.939	77.38
476.158	96.38
476.377	87.38
476.596	90.38
476.814	102.38
477.033	94.38
477.252	89.38
477.471	85.38
477.69	101.38
477.908	82.38
478.127	86.38
478.346	80.38
478.564	90.38
478.783	90.38
479.002	76.38
479.22	84.38
479.439	82.38
479.658	107.38
479.876	90.38
480.095	100.38
480.313	80.38
480.532	72.38
480.751	101.38
480.969	98.38
481.188	155.38
481.406	129.38
481.624	88.38
481.843	79.38
482.061	79.38
482.28	88.38
482.498	77.38
482.717	84.38
482.935	96.38
483.153	90.38
483.372	84.38
483.59	100.38
483.808	78.38
484.027	86.38
484.245	92.38
484.463	102.38
484.681	88.38
484.9	83.38
485.118	91.38
485.336	100.38
485.554	93.38
485.772	96.38
485.99	105.38
486.209	113.38
486.427	91.38
486.645	94.38
486.863	104.38
487.081	116.38
487.299	101.38
487.517	107.38
487.735	96.38
487.953	94.38
488.171	99.38
488.389	79.38
488.607	88.38
488.825	75.38
489.043	95.38
489.261	86.38
489.479	89.38
489.696	102.38
489.914	97.38
490.132	85.38
490.35	95.38
490.568	103.38
490.786	89.38
491.003	90.38
491.221	89.38
491.439	100.38
491.657	101.38
491.874	88.38
492.092	99.38
492.31	90.38
492.527	109.38
492.745	101.38
492.963	82.38
493.18	102.38
493.398	90.38
493.615	99.38
493.833	111.38
494.05	84.38
494.268	103.38
494.485	90.38
494.703	79.38
494.92	87.38
495.138	89.38
495.355	92.38
495.573	100.38
495.79	96.38
496.008	96.38
496.225	95.38
496.442	79.38
496.66	75.38
496.877	91.38
497.094	86.38
497.312	103.38
497.529	91.38
497.746	108.38
497.963	108.38
498.181	95.38
498.398	106.38
498.615	107.38
498.832	110.38
499.049	105.38
499.267	85.38
499.484	91.38
499.701	87.38
499.918	95.38
500.135	84.38
500.352	92.38
500.569	84.38
500.786	92.38
501.003	98.38
501.22	91.38
501.437	93.38
501.654	75.38
501.871	86.38
502.088	83.38
502.305	86.38
502.522	108.38
502.739	100.38
502.956	85.38
503.172	98.38
503.389	95.38
503.606	92.38
503.823	103.38
504.04	94.38
504.256	100.38
504.473	94.38
504.69	87.38
504.907	82.38
505.123	99.38
505.34	80.38
505.557	88.38
505.773	86.38
505.99	77.38
506.207	100.38
506.423	86.38
506.64	80.38
506.856	95.38
507.073	102.38
507.289	81.38
507.506	95.38
507.722	109.38
507.939	95.38
508.155	106.38
508.372	95.38
508.588	84.38
508.805	88.38
509.021	102.38
509.238	91.38
509.454	103.38
509.67	94.38
509.887	109.38
510.103	124.38
510.319	158.38
510.536	602.38
510.752	1704.38
510.968	492.38
511.184	123.38
511.401	111.38
511.617	99.38
511.833	89.38
512.049	82.38
512.265	90.38
512.481	90.38
512.698	85.38
512.914	76.38
513.13	97.38
513.346	78.38
513.562	84.38
513.778	106.38
513.994	94.38
514.21	91.38
514.426	106.38
514.642	110.38
514.858	110.38
515.074	151.38
515.29	322.38
515.506	975.38
515.721	380.38
