Data from Uncirc_1981_H10_HRD10591_00044.txt Node
Date: Wed Jan 03 12:33:16 EST 2024
User: Yrep
Spectrometer: HR+D1059
Trigger mode: 1
Integration Time (sec): 1.000000E-1
Scans to average: 1
Electric dark correction enabled: true
Nonlinearity correction enabled: false
Boxcar width: 0
XAxis mode: Wavelengths
Number of Pixels in Spectrum: 2048
>>>>>Begin Spectral Data<<<<<
223.165	-23.69
223.4	-23.69
223.635	-23.69
223.869	-7.69
224.104	-21.69
224.338	-21.69
224.573	-6.69
224.808	-16.69
225.042	-13.69
225.277	7.31
225.511	-2.69
225.746	10.31
225.98	-5.69
226.215	23.31
226.449	12.31
226.683	3.31
226.918	29.31
227.152	34.31
227.387	41.31
227.621	43.31
227.856	53.31
228.09	63.31
228.324	51.31
228.559	54.31
228.793	59.31
229.027	68.31
229.262	77.31
229.496	60.31
229.73	77.31
229.964	80.31
230.199	71.31
230.433	79.31
230.667	80.31
230.901	88.31
231.136	88.31
231.37	79.31
231.604	93.31
231.838	73.31
232.072	77.31
232.306	86.31
232.541	83.31
232.775	92.31
233.009	77.31
233.243	78.31
233.477	86.31
233.711	89.31
233.945	86.31
234.179	79.31
234.413	71.31
234.647	88.31
234.881	88.31
235.115	84.31
235.349	69.31
235.583	88.31
235.817	93.31
236.051	74.31
236.285	66.31
236.519	93.31
236.753	79.31
236.987	68.31
237.221	84.31
237.455	85.31
237.689	76.31
237.922	74.31
238.156	79.31
238.39	76.31
238.624	91.31
238.858	79.31
239.091	72.31
239.325	73.31
239.559	95.31
239.793	98.31
240.027	74.31
240.26	67.31
240.494	79.31
240.728	78.31
240.961	72.31
241.195	69.31
241.429	90.31
241.662	71.31
241.896	72.31
242.13	90.31
242.363	82.31
242.597	63.31
242.83	97.31
243.064	90.31
243.298	74.31
243.531	82.31
243.765	89.31
243.998	91.31
244.232	81.31
244.465	89.31
244.699	83.31
244.932	75.31
245.166	92.31
245.399	78.31
245.633	80.31
245.866	86.31
246.099	78.31
246.333	86.31
246.566	79.31
246.8	75.31
247.033	90.31
247.266	80.31
247.5	86.31
247.733	90.31
247.966	100.31
248.2	72.31
248.433	86.31
248.666	78.31
248.899	89.31
249.133	86.31
249.366	92.31
249.599	109.31
249.832	96.31
250.066	78.31
250.299	89.31
250.532	91.31
250.765	83.31
250.998	91.31
251.231	88.31
251.465	84.31
251.698	71.31
251.931	83.31
252.164	84.31
252.397	80.31
252.63	80.31
252.863	73.31
253.096	82.31
253.329	88.31
253.562	98.31
253.795	88.31
254.028	96.31
254.261	75.31
254.494	75.31
254.727	77.31
254.96	60.31
255.193	87.31
255.426	80.31
255.659	79.31
255.892	81.31
256.124	74.31
256.357	96.31
256.59	80.31
256.823	92.31
257.056	75.31
257.289	98.31
257.521	74.31
257.754	79.31
257.987	87.31
258.22	92.31
258.452	90.31
258.685	88.31
258.918	87.31
259.151	83.31
259.383	75.31
259.616	94.31
259.849	86.31
260.081	88.31
260.314	85.31
260.547	80.31
260.779	74.31
261.012	75.31
261.244	82.31
261.477	97.31
261.71	102.31
261.942	95.31
262.175	80.31
262.407	82.31
262.64	84.31
262.872	87.31
263.105	93.31
263.337	94.31
263.57	88.31
263.802	76.31
264.035	66.31
264.267	77.31
264.499	84.31
264.732	82.31
264.964	66.31
265.197	71.31
265.429	72.31
265.661	92.31
265.894	98.31
266.126	86.31
266.358	82.31
266.591	80.31
266.823	80.31
267.055	92.31
267.287	92.31
267.52	79.31
267.752	87.31
267.984	86.31
268.216	87.31
268.448	100.31
268.681	83.31
268.913	88.31
269.145	69.31
269.377	82.31
269.609	86.31
269.841	97.31
270.073	94.31
270.306	97.31
270.538	86.31
270.77	96.31
271.002	91.31
271.234	82.31
271.466	97.31
271.698	77.31
271.93	71.31
272.162	103.31
272.394	88.31
272.626	98.31
272.858	83.31
273.09	79.31
273.322	78.31
273.553	95.31
273.785	82.31
274.017	75.31
274.249	79.31
274.481	82.31
274.713	93.31
274.945	84.31
275.176	104.31
275.408	86.31
275.64	91.31
275.872	101.31
276.104	78.31
276.335	93.31
276.567	85.31
276.799	102.31
277.031	101.31
277.262	88.31
277.494	86.31
277.726	92.31
277.957	82.31
278.189	76.31
278.421	86.31
278.652	90.31
278.884	81.31
279.115	79.31
279.347	83.31
279.579	82.31
279.81	82.31
280.042	89.31
280.273	92.31
280.505	91.31
280.736	95.31
280.968	84.31
281.199	84.31
281.431	92.31
281.662	92.31
281.894	91.31
282.125	91.31
282.356	107.31
282.588	106.31
282.819	100.31
283.051	100.31
283.282	89.31
283.513	88.31
283.745	83.31
283.976	95.31
284.207	88.31
284.439	103.31
284.67	85.31
284.901	87.31
285.132	75.31
285.364	79.31
285.595	91.31
285.826	90.31
286.057	82.31
286.288	106.31
286.52	88.31
286.751	85.31
286.982	94.31
287.213	88.31
287.444	85.31
287.675	91.31
287.906	93.31
288.138	87.31
288.369	87.31
288.6	103.31
288.831	73.31
289.062	84.31
289.293	90.31
289.524	84.31
289.755	83.31
289.986	92.31
290.217	75.31
290.448	81.31
290.679	93.31
290.91	83.31
291.141	90.31
291.371	79.31
291.602	72.31
291.833	95.31
292.064	88.31
292.295	96.31
292.526	102.31
292.757	103.31
292.987	95.31
293.218	91.31
293.449	79.31
293.68	77.31
293.91	98.31
294.141	87.31
294.372	86.31
294.603	91.31
294.833	101.31
295.064	86.31
295.295	83.31
295.525	95.31
295.756	75.31
295.987	102.31
296.217	123.31
296.448	115.31
296.679	107.31
296.909	102.31
297.14	90.31
297.37	105.31
297.601	94.31
297.831	88.31
298.062	85.31
298.292	84.31
298.523	76.31
298.753	77.31
298.984	82.31
299.214	77.31
299.445	86.31
299.675	96.31
299.905	87.31
300.136	87.31
300.366	82.31
300.597	76.31
300.827	86.31
301.057	99.31
301.288	93.31
301.518	103.31
301.748	95.31
301.979	94.31
302.209	88.31
302.439	99.31
302.669	78.31
302.9	93.31
303.13	95.31
303.36	92.31
303.59	85.31
303.82	95.31
304.051	95.31
304.281	103.31
304.511	94.31
304.741	90.31
304.971	90.31
305.201	87.31
305.431	95.31
305.661	93.31
305.891	95.31
306.121	95.31
306.352	96.31
306.582	93.31
306.812	91.31
307.042	97.31
307.272	102.31
307.502	95.31
307.731	95.31
307.961	97.31
308.191	111.31
308.421	92.31
308.651	91.31
308.881	99.31
309.111	89.31
309.341	92.31
309.571	85.31
309.8	78.31
310.03	82.31
310.26	85.31
310.49	88.31
310.72	90.31
310.949	96.31
311.179	91.31
311.409	85.31
311.639	75.31
311.868	92.31
312.098	96.31
312.328	105.31
312.557	105.31
312.787	97.31
313.017	94.31
313.246	100.31
313.476	87.31
313.706	93.31
313.935	84.31
314.165	89.31
314.394	90.31
314.624	99.31
314.853	89.31
315.083	84.31
315.312	86.31
315.542	95.31
315.771	116.31
316.001	76.31
316.23	85.31
316.46	76.31
316.689	88.31
316.919	90.31
317.148	96.31
317.377	100.31
317.607	92.31
317.836	94.31
318.065	80.31
318.295	91.31
318.524	75.31
318.753	94.31
318.983	98.31
319.212	98.31
319.441	101.31
319.67	105.31
319.9	86.31
320.129	91.31
320.358	90.31
320.587	106.31
320.816	94.31
321.046	107.31
321.275	95.31
321.504	87.31
321.733	86.31
321.962	99.31
322.191	99.31
322.42	71.31
322.649	103.31
322.878	109.31
323.108	98.31
323.337	118.31
323.566	118.31
323.795	141.31
324.024	181.31
324.253	335.31
324.482	708.31
324.71	1418.31
324.939	1844.31
325.168	686.31
325.397	216.31
325.626	135.31
325.855	127.31
326.084	111.31
326.313	118.31
326.542	136.31
326.77	196.31
326.999	410.31
327.228	830.31
327.457	1473.31
327.686	1144.31
327.914	331.31
328.143	178.31
328.372	125.31
328.6	112.31
328.829	105.31
329.058	109.31
329.287	126.31
329.515	103.31
329.744	110.31
329.972	105.31
330.201	110.31
330.43	108.31
330.658	122.31
330.887	114.31
331.115	107.31
331.344	96.31
331.572	95.31
331.801	93.31
332.03	106.31
332.258	95.31
332.486	83.31
332.715	111.31
332.943	90.31
333.172	98.31
333.4	89.31
333.629	103.31
333.857	96.31
334.085	108.31
334.314	113.31
334.542	110.31
334.771	98.31
334.999	103.31
335.227	96.31
335.455	86.31
335.684	88.31
335.912	88.31
336.14	98.31
336.369	107.31
336.597	107.31
336.825	82.31
337.053	102.31
337.281	92.31
337.51	78.31
337.738	80.31
337.966	76.31
338.194	86.31
338.422	97.31
338.65	89.31
338.878	94.31
339.106	112.31
339.334	90.31
339.562	86.31
339.79	84.31
340.018	89.31
340.246	89.31
340.474	91.31
340.702	84.31
340.93	91.31
341.158	91.31
341.386	88.31
341.614	85.31
341.842	75.31
342.07	92.31
342.298	91.31
342.526	79.31
342.754	85.31
342.981	90.31
343.209	88.31
343.437	101.31
343.665	82.31
343.893	94.31
344.12	91.31
344.348	79.31
344.576	93.31
344.804	86.31
345.031	91.31
345.259	97.31
345.487	97.31
345.714	101.31
345.942	86.31
346.17	105.31
346.397	95.31
346.625	94.31
346.853	84.31
347.08	97.31
347.308	102.31
347.535	91.31
347.763	102.31
347.99	87.31
348.218	100.31
348.445	90.31
348.673	98.31
348.9	101.31
349.128	93.31
349.355	101.31
349.583	109.31
349.81	96.31
350.037	95.31
350.265	90.31
350.492	97.31
350.72	94.31
350.947	96.31
351.174	95.31
351.402	105.31
351.629	105.31
351.856	108.31
352.083	90.31
352.311	108.31
352.538	100.31
352.765	105.31
352.992	104.31
353.22	112.31
353.447	96.31
353.674	111.31
353.901	109.31
354.128	83.31
354.355	92.31
354.583	78.31
354.81	90.31
355.037	103.31
355.264	82.31
355.491	98.31
355.718	89.31
355.945	92.31
356.172	92.31
356.399	92.31
356.626	76.31
356.853	92.31
357.08	84.31
357.307	87.31
357.534	88.31
357.761	93.31
357.988	83.31
358.215	107.31
358.441	80.31
358.668	80.31
358.895	92.31
359.122	98.31
359.349	94.31
359.576	83.31
359.802	83.31
360.029	103.31
360.256	103.31
360.483	102.31
360.709	83.31
360.936	87.31
361.163	98.31
361.39	88.31
361.616	93.31
361.843	104.31
362.07	102.31
362.296	98.31
362.523	84.31
362.749	88.31
362.976	87.31
363.203	93.31
363.429	88.31
363.656	90.31
363.882	82.31
364.109	75.31
364.335	83.31
364.562	90.31
364.788	85.31
365.015	98.31
365.241	106.31
365.468	105.31
365.694	100.31
365.92	84.31
366.147	99.31
366.373	73.31
366.599	103.31
366.826	85.31
367.052	100.31
367.278	91.31
367.505	79.31
367.731	77.31
367.957	84.31
368.184	94.31
368.41	90.31
368.636	106.31
368.862	99.31
369.089	111.31
369.315	99.31
369.541	87.31
369.767	93.31
369.993	90.31
370.219	88.31
370.445	76.31
370.672	91.31
370.898	87.31
371.124	87.31
371.35	84.31
371.576	97.31
371.802	94.31
372.028	82.31
372.254	89.31
372.48	76.31
372.706	79.31
372.932	92.31
373.158	107.31
373.384	89.31
373.61	100.31
373.835	97.31
374.061	93.31
374.287	96.31
374.513	97.31
374.739	78.31
374.965	76.31
375.191	83.31
375.416	113.31
375.642	92.31
375.868	90.31
376.094	90.31
376.319	95.31
376.545	92.31
376.771	81.31
376.997	91.31
377.222	83.31
377.448	83.31
377.674	94.31
377.899	87.31
378.125	80.31
378.35	83.31
378.576	82.31
378.802	102.31
379.027	100.31
379.253	103.31
379.478	90.31
379.704	99.31
379.929	101.31
380.155	98.31
380.38	94.31
380.606	88.31
380.831	92.31
381.057	98.31
381.282	95.31
381.507	88.31
381.733	85.31
381.958	86.31
382.184	86.31
382.409	91.31
382.634	85.31
382.86	114.31
383.085	117.31
383.31	121.31
383.535	100.31
383.761	114.31
383.986	111.31
384.211	100.31
384.436	102.31
384.662	111.31
384.887	110.31
385.112	99.31
385.337	106.31
385.562	101.31
385.787	117.31
386.013	108.31
386.238	108.31
386.463	104.31
386.688	106.31
386.913	101.31
387.138	119.31
387.363	105.31
387.588	103.31
387.813	104.31
388.038	104.31
388.263	107.31
388.488	103.31
388.713	93.31
388.938	91.31
389.163	102.31
389.387	99.31
389.612	100.31
389.837	84.31
390.062	86.31
390.287	78.31
390.512	91.31
390.736	85.31
390.961	90.31
391.186	95.31
391.411	106.31
391.636	92.31
391.86	86.31
392.085	88.31
392.31	78.31
392.534	92.31
392.759	86.31
392.984	81.31
393.208	85.31
393.433	79.31
393.658	77.31
393.882	77.31
394.107	73.31
394.331	89.31
394.556	80.31
394.78	94.31
395.005	74.31
395.229	86.31
395.454	87.31
395.678	88.31
395.903	69.31
396.127	95.31
396.352	76.31
396.576	83.31
396.801	75.31
397.025	86.31
397.249	86.31
397.474	92.31
397.698	85.31
397.922	88.31
398.147	87.31
398.371	76.31
398.595	81.31
398.82	96.31
399.044	101.31
399.268	92.31
399.492	94.31
399.717	98.31
399.941	84.31
400.165	93.31
400.389	96.31
400.613	98.31
400.837	95.31
401.062	91.31
401.286	92.31
401.51	100.31
401.734	95.31
401.958	110.31
402.182	116.31
402.406	122.31
402.63	88.31
402.854	95.31
403.078	82.31
403.302	80.31
403.526	97.31
403.75	89.31
403.974	86.31
404.198	98.31
404.422	95.31
404.645	85.31
404.869	88.31
405.093	87.31
405.317	91.31
405.541	97.31
405.765	100.31
405.988	100.31
406.212	125.31
406.436	162.31
406.66	132.31
406.883	107.31
407.107	94.31
407.331	99.31
407.555	87.31
407.778	101.31
408.002	90.31
408.226	77.31
408.449	98.31
408.673	73.31
408.896	93.31
409.12	92.31
409.344	91.31
409.567	102.31
409.791	90.31
410.014	95.31
410.238	99.31
410.461	99.31
410.685	98.31
410.908	91.31
411.132	114.31
411.355	87.31
411.578	95.31
411.802	96.31
412.025	99.31
412.249	89.31
412.472	87.31
412.695	99.31
412.919	93.31
413.142	96.31
413.365	103.31
413.589	95.31
413.812	83.31
414.035	97.31
414.258	84.31
414.482	102.31
414.705	98.31
414.928	105.31
415.151	92.31
415.374	77.31
415.597	88.31
415.821	98.31
416.044	98.31
416.267	87.31
416.49	77.31
416.713	88.31
416.936	86.31
417.159	93.31
417.382	93.31
417.605	86.31
417.828	94.31
418.051	100.31
418.274	94.31
418.497	96.31
418.72	82.31
418.943	87.31
419.166	80.31
419.389	86.31
419.611	94.31
419.834	82.31
420.057	75.31
420.28	77.31
420.503	88.31
420.726	77.31
420.948	96.31
421.171	96.31
421.394	90.31
421.617	85.31
421.839	106.31
422.062	88.31
422.285	94.31
422.507	96.31
422.73	100.31
422.953	99.31
423.175	84.31
423.398	86.31
423.621	96.31
423.843	93.31
424.066	83.31
424.288	95.31
424.511	87.31
424.733	99.31
424.956	114.31
425.178	83.31
425.401	95.31
425.623	103.31
425.846	84.31
426.068	90.31
426.291	84.31
426.513	102.31
426.735	87.31
426.958	94.31
427.18	102.31
427.402	114.31
427.625	143.31
427.847	121.31
428.069	104.31
428.292	99.31
428.514	88.31
428.736	87.31
428.958	88.31
429.181	79.31
429.403	78.31
429.625	79.31
429.847	86.31
430.069	78.31
430.292	84.31
430.514	84.31
430.736	83.31
430.958	85.31
431.18	91.31
431.402	88.31
431.624	72.31
431.846	87.31
432.068	91.31
432.29	90.31
432.512	95.31
432.734	96.31
432.956	84.31
433.178	98.31
433.4	101.31
433.622	91.31
433.844	95.31
434.066	85.31
434.287	90.31
434.509	95.31
434.731	93.31
434.953	94.31
435.175	80.31
435.397	82.31
435.618	80.31
435.84	94.31
436.062	114.31
436.284	97.31
436.505	102.31
436.727	104.31
436.949	86.31
437.17	88.31
437.392	94.31
437.614	105.31
437.835	100.31
438.057	89.31
438.278	94.31
438.5	109.31
438.721	108.31
438.943	92.31
439.165	92.31
439.386	79.31
439.608	98.31
439.829	86.31
440.05	109.31
440.272	129.31
440.493	92.31
440.715	86.31
440.936	100.31
441.158	86.31
441.379	80.31
441.6	90.31
441.822	112.31
442.043	99.31
442.264	87.31
442.486	84.31
442.707	88.31
442.928	108.31
443.149	112.31
443.371	118.31
443.592	107.31
443.813	102.31
444.034	96.31
444.255	88.31
444.476	88.31
444.698	91.31
444.919	87.31
445.14	143.31
445.361	110.31
445.582	120.31
445.803	115.31
446.024	111.31
446.245	110.31
446.466	106.31
446.687	93.31
446.908	92.31
447.129	89.31
447.35	98.31
447.571	90.31
447.792	99.31
448.013	85.31
448.234	103.31
448.455	106.31
448.675	116.31
448.896	96.31
449.117	99.31
449.338	105.31
449.559	117.31
449.779	109.31
450	96.31
450.221	74.31
450.442	80.31
450.662	90.31
450.883	96.31
451.104	96.31
451.324	91.31
451.545	83.31
451.766	85.31
451.986	88.31
452.207	83.31
452.428	81.31
452.648	97.31
452.869	118.31
453.089	110.31
453.31	108.31
453.53	90.31
453.751	94.31
453.971	89.31
454.192	89.31
454.412	76.31
454.633	87.31
454.853	94.31
455.073	84.31
455.294	88.31
455.514	102.31
455.734	93.31
455.955	86.31
456.175	86.31
456.395	79.31
456.616	94.31
456.836	96.31
457.056	86.31
457.276	92.31
457.497	87.31
457.717	86.31
457.937	86.31
458.157	85.31
458.377	109.31
458.598	102.31
458.818	110.31
459.038	117.31
459.258	114.31
459.478	102.31
459.698	98.31
459.918	85.31
460.138	77.31
460.358	84.31
460.578	101.31
460.798	90.31
461.018	71.31
461.238	78.31
461.458	76.31
461.678	93.31
461.898	88.31
462.118	87.31
462.338	93.31
462.558	89.31
462.777	92.31
462.997	86.31
463.217	90.31
463.437	93.31
463.657	84.31
463.876	86.31
464.096	106.31
464.316	91.31
464.536	94.31
464.755	94.31
464.975	103.31
465.195	123.31
465.414	136.31
465.634	108.31
465.854	86.31
466.073	85.31
466.293	72.31
466.512	89.31
466.732	74.31
466.951	82.31
467.171	103.31
467.391	96.31
467.61	95.31
467.829	88.31
468.049	101.31
468.268	104.31
468.488	104.31
468.707	96.31
468.927	83.31
469.146	82.31
469.365	86.31
469.585	79.31
469.804	90.31
470.023	90.31
470.243	97.31
470.462	84.31
470.681	110.31
470.901	83.31
471.12	77.31
471.339	88.31
471.558	110.31
471.777	88.31
471.997	103.31
472.216	105.31
472.435	117.31
472.654	88.31
472.873	82.31
473.092	93.31
473.311	84.31
473.53	90.31
473.749	100.31
473.968	109.31
474.187	96.31
474.406	100.31
474.625	85.31
474.844	87.31
475.063	83.31
475.282	92.31
475.501	92.31
475.72	88.31
475.939	96.31
476.158	75.31
476.377	80.31
476.596	83.31
476.814	90.31
477.033	104.31
477.252	105.31
477.471	92.31
477.69	82.31
477.908	84.31
478.127	88.31
478.346	98.31
478.564	96.31
478.783	93.31
479.002	110.31
479.22	90.31
479.439	103.31
479.658	101.31
479.876	78.31
480.095	84.31
480.313	98.31
480.532	105.31
480.751	92.31
480.969	106.31
481.188	154.31
481.406	124.31
481.624	102.31
481.843	78.31
482.061	92.31
482.28	86.31
482.498	85.31
482.717	91.31
482.935	88.31
483.153	101.31
483.372	99.31
483.59	88.31
483.808	77.31
484.027	92.31
484.245	95.31
484.463	93.31
484.681	96.31
484.9	94.31
485.118	95.31
485.336	104.31
485.554	104.31
485.772	90.31
485.99	98.31
486.209	85.31
486.427	102.31
486.645	109.31
486.863	111.31
487.081	111.31
487.299	102.31
487.517	101.31
487.735	77.31
487.953	88.31
488.171	90.31
488.389	102.31
488.607	111.31
488.825	90.31
489.043	90.31
489.261	111.31
489.479	91.31
489.696	88.31
489.914	100.31
490.132	90.31
490.35	86.31
490.568	82.31
490.786	90.31
491.003	102.31
491.221	90.31
491.439	80.31
491.657	96.31
491.874	102.31
492.092	97.31
492.31	91.31
492.527	100.31
492.745	96.31
492.963	84.31
493.18	93.31
493.398	98.31
493.615	98.31
493.833	104.31
494.05	92.31
494.268	94.31
494.485	109.31
494.703	101.31
494.92	95.31
495.138	85.31
495.355	85.31
495.573	89.31
495.79	82.31
496.008	104.31
496.225	87.31
496.442	89.31
496.66	99.31
496.877	82.31
497.094	82.31
497.312	90.31
497.529	86.31
497.746	94.31
497.963	74.31
498.181	99.31
498.398	80.31
498.615	103.31
498.832	86.31
499.049	109.31
499.267	96.31
499.484	96.31
499.701	98.31
499.918	101.31
500.135	89.31
500.352	85.31
500.569	87.31
500.786	94.31
501.003	99.31
501.22	91.31
501.437	98.31
501.654	86.31
501.871	101.31
502.088	95.31
502.305	95.31
502.522	92.31
502.739	93.31
502.956	76.31
503.172	87.31
503.389	103.31
503.606	106.31
503.823	108.31
504.04	90.31
504.256	109.31
504.473	94.31
504.69	91.31
504.907	100.31
505.123	90.31
505.34	78.31
505.557	92.31
505.773	81.31
505.99	88.31
506.207	104.31
506.423	87.31
506.64	97.31
506.856	96.31
507.073	79.31
507.289	76.31
507.506	102.31
507.722	103.31
507.939	106.31
508.155	108.31
508.372	99.31
508.588	107.31
508.805	95.31
509.021	88.31
509.238	100.31
509.454	92.31
509.67	93.31
509.887	98.31
510.103	116.31
510.319	174.31
510.536	546.31
510.752	1543.31
510.968	456.31
511.184	123.31
511.401	111.31
511.617	82.31
511.833	90.31
512.049	96.31
512.265	93.31
512.481	110.31
512.698	96.31
512.914	90.31
513.13	92.31
513.346	93.31
513.562	100.31
513.778	95.31
513.994	93.31
514.21	92.31
514.426	117.31
514.642	116.31
514.858	109.31
515.074	137.31
515.29	298.31
515.506	883.31
515.721	333.31
