Data from Uncirc_1981_H10_HRD10591_00041.txt Node
Date: Wed Jan 03 12:33:16 EST 2024
User: Yrep
Spectrometer: HR+D1059
Trigger mode: 1
Integration Time (sec): 1.000000E-1
Scans to average: 1
Electric dark correction enabled: true
Nonlinearity correction enabled: false
Boxcar width: 0
XAxis mode: Wavelengths
Number of Pixels in Spectrum: 2048
>>>>>Begin Spectral Data<<<<<
223.165	-27.88
223.4	-27.88
223.635	-27.88
223.869	-9.88
224.104	-8.88
224.338	-16.88
224.573	-6.88
224.808	-14.88
225.042	-7.88
225.277	-3.88
225.511	-5.88
225.746	-5.88
225.98	9.12
226.215	4.12
226.449	24.12
226.683	21.12
226.918	19.12
227.152	31.12
227.387	37.12
227.621	30.12
227.856	60.12
228.09	48.12
228.324	53.12
228.559	55.12
228.793	50.12
229.027	55.12
229.262	60.12
229.496	67.12
229.73	71.12
229.964	75.12
230.199	69.12
230.433	71.12
230.667	81.12
230.901	75.12
231.136	88.12
231.37	81.12
231.604	77.12
231.838	81.12
232.072	69.12
232.306	72.12
232.541	92.12
232.775	97.12
233.009	86.12
233.243	70.12
233.477	83.12
233.711	84.12
233.945	73.12
234.179	64.12
234.413	82.12
234.647	68.12
234.881	91.12
235.115	76.12
235.349	92.12
235.583	89.12
235.817	74.12
236.051	85.12
236.285	73.12
236.519	79.12
236.753	78.12
236.987	79.12
237.221	87.12
237.455	100.12
237.689	88.12
237.922	71.12
238.156	72.12
238.39	86.12
238.624	86.12
238.858	82.12
239.091	80.12
239.325	93.12
239.559	89.12
239.793	85.12
240.027	88.12
240.26	78.12
240.494	75.12
240.728	63.12
240.961	70.12
241.195	70.12
241.429	71.12
241.662	89.12
241.896	65.12
242.13	83.12
242.363	79.12
242.597	85.12
242.83	81.12
243.064	67.12
243.298	76.12
243.531	81.12
243.765	85.12
243.998	73.12
244.232	80.12
244.465	90.12
244.699	79.12
244.932	80.12
245.166	90.12
245.399	67.12
245.633	91.12
245.866	77.12
246.099	81.12
246.333	79.12
246.566	81.12
246.8	79.12
247.033	81.12
247.266	75.12
247.5	88.12
247.733	81.12
247.966	82.12
248.2	75.12
248.433	70.12
248.666	83.12
248.899	77.12
249.133	79.12
249.366	90.12
249.599	96.12
249.832	85.12
250.066	72.12
250.299	76.12
250.532	82.12
250.765	86.12
250.998	88.12
251.231	85.12
251.465	84.12
251.698	77.12
251.931	61.12
252.164	70.12
252.397	86.12
252.63	79.12
252.863	85.12
253.096	87.12
253.329	73.12
253.562	61.12
253.795	77.12
254.028	91.12
254.261	74.12
254.494	81.12
254.727	81.12
254.96	71.12
255.193	66.12
255.426	87.12
255.659	73.12
255.892	78.12
256.124	84.12
256.357	77.12
256.59	81.12
256.823	81.12
257.056	74.12
257.289	77.12
257.521	84.12
257.754	93.12
257.987	83.12
258.22	87.12
258.452	98.12
258.685	83.12
258.918	68.12
259.151	69.12
259.383	81.12
259.616	81.12
259.849	72.12
260.081	81.12
260.314	88.12
260.547	100.12
260.779	76.12
261.012	76.12
261.244	78.12
261.477	94.12
261.71	85.12
261.942	108.12
262.175	107.12
262.407	78.12
262.64	85.12
262.872	71.12
263.105	99.12
263.337	84.12
263.57	100.12
263.802	83.12
264.035	80.12
264.267	86.12
264.499	75.12
264.732	81.12
264.964	81.12
265.197	91.12
265.429	74.12
265.661	85.12
265.894	85.12
266.126	95.12
266.358	76.12
266.591	88.12
266.823	85.12
267.055	93.12
267.287	81.12
267.52	82.12
267.752	96.12
267.984	90.12
268.216	88.12
268.448	92.12
268.681	85.12
268.913	89.12
269.145	79.12
269.377	94.12
269.609	95.12
269.841	97.12
270.073	77.12
270.306	87.12
270.538	84.12
270.77	93.12
271.002	85.12
271.234	77.12
271.466	81.12
271.698	77.12
271.93	81.12
272.162	87.12
272.394	82.12
272.626	79.12
272.858	77.12
273.09	92.12
273.322	85.12
273.553	88.12
273.785	85.12
274.017	90.12
274.249	74.12
274.481	85.12
274.713	78.12
274.945	96.12
275.176	72.12
275.408	85.12
275.64	85.12
275.872	74.12
276.104	77.12
276.335	97.12
276.567	97.12
276.799	97.12
277.031	97.12
277.262	78.12
277.494	86.12
277.726	85.12
277.957	87.12
278.189	97.12
278.421	101.12
278.652	88.12
278.884	78.12
279.115	97.12
279.347	85.12
279.579	97.12
279.81	83.12
280.042	86.12
280.273	85.12
280.505	77.12
280.736	85.12
280.968	99.12
281.199	83.12
281.431	81.12
281.662	92.12
281.894	102.12
282.125	107.12
282.356	97.12
282.588	124.12
282.819	96.12
283.051	105.12
283.282	93.12
283.513	85.12
283.745	86.12
283.976	87.12
284.207	89.12
284.439	94.12
284.67	79.12
284.901	79.12
285.132	97.12
285.364	102.12
285.595	68.12
285.826	76.12
286.057	82.12
286.288	94.12
286.52	82.12
286.751	85.12
286.982	97.12
287.213	82.12
287.444	80.12
287.675	76.12
287.906	81.12
288.138	93.12
288.369	94.12
288.6	94.12
288.831	81.12
289.062	96.12
289.293	81.12
289.524	84.12
289.755	83.12
289.986	82.12
290.217	67.12
290.448	75.12
290.679	78.12
290.91	82.12
291.141	95.12
291.371	73.12
291.602	89.12
291.833	90.12
292.064	90.12
292.295	87.12
292.526	92.12
292.757	90.12
292.987	89.12
293.218	87.12
293.449	93.12
293.68	78.12
293.91	76.12
294.141	94.12
294.372	89.12
294.603	77.12
294.833	84.12
295.064	83.12
295.295	79.12
295.525	91.12
295.756	102.12
295.987	99.12
296.217	107.12
296.448	113.12
296.679	98.12
296.909	94.12
297.14	87.12
297.37	107.12
297.601	98.12
297.831	92.12
298.062	73.12
298.292	84.12
298.523	95.12
298.753	91.12
298.984	99.12
299.214	94.12
299.445	85.12
299.675	94.12
299.905	92.12
300.136	94.12
300.366	87.12
300.597	82.12
300.827	85.12
301.057	100.12
301.288	95.12
301.518	98.12
301.748	92.12
301.979	106.12
302.209	88.12
302.439	88.12
302.669	91.12
302.9	86.12
303.13	84.12
303.36	96.12
303.59	93.12
303.82	81.12
304.051	94.12
304.281	87.12
304.511	114.12
304.741	84.12
304.971	81.12
305.201	105.12
305.431	98.12
305.661	92.12
305.891	100.12
306.121	100.12
306.352	92.12
306.582	104.12
306.812	86.12
307.042	97.12
307.272	83.12
307.502	117.12
307.731	87.12
307.961	87.12
308.191	81.12
308.421	89.12
308.651	78.12
308.881	98.12
309.111	81.12
309.341	78.12
309.571	99.12
309.8	99.12
310.03	97.12
310.26	104.12
310.49	82.12
310.72	86.12
310.949	96.12
311.179	93.12
311.409	103.12
311.639	90.12
311.868	97.12
312.098	84.12
312.328	97.12
312.557	107.12
312.787	108.12
313.017	97.12
313.246	80.12
313.476	79.12
313.706	87.12
313.935	81.12
314.165	90.12
314.394	91.12
314.624	94.12
314.853	94.12
315.083	85.12
315.312	98.12
315.542	87.12
315.771	89.12
316.001	73.12
316.23	90.12
316.46	93.12
316.689	78.12
316.919	76.12
317.148	93.12
317.377	91.12
317.607	85.12
317.836	102.12
318.065	95.12
318.295	90.12
318.524	96.12
318.753	83.12
318.983	78.12
319.212	108.12
319.441	113.12
319.67	90.12
319.9	94.12
320.129	81.12
320.358	77.12
320.587	77.12
320.816	90.12
321.046	102.12
321.275	95.12
321.504	113.12
321.733	85.12
321.962	90.12
322.191	105.12
322.42	106.12
322.649	94.12
322.878	88.12
323.108	109.12
323.337	117.12
323.566	132.12
323.795	147.12
324.024	171.12
324.253	358.12
324.482	739.12
324.71	1519.12
324.939	2050.12
325.168	761.12
325.397	217.12
325.626	138.12
325.855	118.12
326.084	124.12
326.313	134.12
326.542	140.12
326.77	206.12
326.999	430.12
327.228	891.12
327.457	1600.12
327.686	1289.12
327.914	337.12
328.143	171.12
328.372	137.12
328.6	98.12
328.829	110.12
329.058	118.12
329.287	115.12
329.515	104.12
329.744	96.12
329.972	83.12
330.201	105.12
330.43	122.12
330.658	115.12
330.887	115.12
331.115	109.12
331.344	94.12
331.572	100.12
331.801	106.12
332.03	97.12
332.258	95.12
332.486	98.12
332.715	96.12
332.943	85.12
333.172	90.12
333.4	107.12
333.629	93.12
333.857	119.12
334.085	100.12
334.314	97.12
334.542	119.12
334.771	127.12
334.999	93.12
335.227	89.12
335.455	96.12
335.684	86.12
335.912	102.12
336.14	107.12
336.369	103.12
336.597	95.12
336.825	94.12
337.053	92.12
337.281	98.12
337.51	85.12
337.738	89.12
337.966	98.12
338.194	99.12
338.422	87.12
338.65	108.12
338.878	89.12
339.106	102.12
339.334	94.12
339.562	89.12
339.79	89.12
340.018	86.12
340.246	102.12
340.474	93.12
340.702	98.12
340.93	87.12
341.158	89.12
341.386	103.12
341.614	87.12
341.842	95.12
342.07	102.12
342.298	92.12
342.526	83.12
342.754	99.12
342.981	81.12
343.209	85.12
343.437	100.12
343.665	98.12
343.893	81.12
344.12	98.12
344.348	94.12
344.576	78.12
344.804	101.12
345.031	91.12
345.259	91.12
345.487	77.12
345.714	93.12
345.942	88.12
346.17	89.12
346.397	101.12
346.625	91.12
346.853	97.12
347.08	92.12
347.308	87.12
347.535	90.12
347.763	104.12
347.99	95.12
348.218	102.12
348.445	94.12
348.673	97.12
348.9	88.12
349.128	90.12
349.355	105.12
349.583	101.12
349.81	110.12
350.037	92.12
350.265	97.12
350.492	85.12
350.72	80.12
350.947	114.12
351.174	105.12
351.402	101.12
351.629	110.12
351.856	94.12
352.083	99.12
352.311	107.12
352.538	106.12
352.765	93.12
352.992	132.12
353.22	106.12
353.447	116.12
353.674	101.12
353.901	100.12
354.128	115.12
354.355	101.12
354.583	100.12
354.81	87.12
355.037	95.12
355.264	105.12
355.491	94.12
355.718	86.12
355.945	98.12
356.172	90.12
356.399	106.12
356.626	90.12
356.853	87.12
357.08	98.12
357.307	103.12
357.534	89.12
357.761	102.12
357.988	93.12
358.215	89.12
358.441	88.12
358.668	89.12
358.895	100.12
359.122	79.12
359.349	99.12
359.576	83.12
359.802	94.12
360.029	98.12
360.256	102.12
360.483	105.12
360.709	88.12
360.936	77.12
361.163	84.12
361.39	86.12
361.616	86.12
361.843	82.12
362.07	92.12
362.296	87.12
362.523	89.12
362.749	85.12
362.976	82.12
363.203	87.12
363.429	91.12
363.656	79.12
363.882	84.12
364.109	88.12
364.335	92.12
364.562	89.12
364.788	79.12
365.015	97.12
365.241	91.12
365.468	114.12
365.694	106.12
365.92	88.12
366.147	87.12
366.373	94.12
366.599	101.12
366.826	83.12
367.052	95.12
367.278	85.12
367.505	83.12
367.731	97.12
367.957	97.12
368.184	94.12
368.41	93.12
368.636	101.12
368.862	113.12
369.089	95.12
369.315	93.12
369.541	91.12
369.767	94.12
369.993	83.12
370.219	91.12
370.445	84.12
370.672	93.12
370.898	85.12
371.124	93.12
371.35	82.12
371.576	92.12
371.802	87.12
372.028	92.12
372.254	89.12
372.48	92.12
372.706	82.12
372.932	81.12
373.158	79.12
373.384	104.12
373.61	99.12
373.835	104.12
374.061	99.12
374.287	93.12
374.513	89.12
374.739	81.12
374.965	74.12
375.191	99.12
375.416	78.12
375.642	86.12
375.868	89.12
376.094	110.12
376.319	94.12
376.545	98.12
376.771	88.12
376.997	85.12
377.222	93.12
377.448	94.12
377.674	100.12
377.899	89.12
378.125	88.12
378.35	95.12
378.576	91.12
378.802	91.12
379.027	91.12
379.253	100.12
379.478	103.12
379.704	82.12
379.929	94.12
380.155	94.12
380.38	99.12
380.606	102.12
380.831	106.12
381.057	96.12
381.282	98.12
381.507	94.12
381.733	102.12
381.958	101.12
382.184	98.12
382.409	101.12
382.634	98.12
382.86	96.12
383.085	112.12
383.31	100.12
383.535	97.12
383.761	100.12
383.986	104.12
384.211	105.12
384.436	101.12
384.662	121.12
384.887	103.12
385.112	106.12
385.337	105.12
385.562	112.12
385.787	106.12
386.013	111.12
386.238	117.12
386.463	120.12
386.688	119.12
386.913	103.12
387.138	109.12
387.363	118.12
387.588	110.12
387.813	107.12
388.038	121.12
388.263	118.12
388.488	108.12
388.713	91.12
388.938	104.12
389.163	108.12
389.387	90.12
389.612	87.12
389.837	99.12
390.062	101.12
390.287	95.12
390.512	87.12
390.736	84.12
390.961	85.12
391.186	91.12
391.411	98.12
391.636	92.12
391.86	74.12
392.085	87.12
392.31	87.12
392.534	90.12
392.759	91.12
392.984	84.12
393.208	97.12
393.433	98.12
393.658	95.12
393.882	99.12
394.107	77.12
394.331	85.12
394.556	99.12
394.78	90.12
395.005	94.12
395.229	82.12
395.454	88.12
395.678	92.12
395.903	94.12
396.127	80.12
396.352	95.12
396.576	88.12
396.801	85.12
397.025	68.12
397.249	69.12
397.474	91.12
397.698	75.12
397.922	89.12
398.147	98.12
398.371	89.12
398.595	70.12
398.82	85.12
399.044	87.12
399.268	92.12
399.492	89.12
399.717	86.12
399.941	78.12
400.165	87.12
400.389	90.12
400.613	66.12
400.837	97.12
401.062	73.12
401.286	85.12
401.51	98.12
401.734	101.12
401.958	100.12
402.182	109.12
402.406	138.12
402.63	97.12
402.854	93.12
403.078	83.12
403.302	86.12
403.526	73.12
403.75	81.12
403.974	93.12
404.198	91.12
404.422	97.12
404.645	101.12
404.869	106.12
405.093	99.12
405.317	107.12
405.541	98.12
405.765	90.12
405.988	110.12
406.212	135.12
406.436	201.12
406.66	114.12
406.883	90.12
407.107	103.12
407.331	87.12
407.555	98.12
407.778	109.12
408.002	95.12
408.226	94.12
408.449	85.12
408.673	99.12
408.896	93.12
409.12	92.12
409.344	89.12
409.567	91.12
409.791	86.12
410.014	93.12
410.238	92.12
410.461	103.12
410.685	97.12
410.908	87.12
411.132	93.12
411.355	91.12
411.578	88.12
411.802	90.12
412.025	83.12
412.249	94.12
412.472	103.12
412.695	91.12
412.919	100.12
413.142	75.12
413.365	93.12
413.589	77.12
413.812	97.12
414.035	82.12
414.258	93.12
414.482	88.12
414.705	98.12
414.928	103.12
415.151	90.12
415.374	95.12
415.597	88.12
415.821	77.12
416.044	90.12
416.267	99.12
416.49	89.12
416.713	77.12
416.936	85.12
417.159	97.12
417.382	87.12
417.605	92.12
417.828	96.12
418.051	96.12
418.274	83.12
418.497	98.12
418.72	88.12
418.943	82.12
419.166	104.12
419.389	97.12
419.611	98.12
419.834	86.12
420.057	98.12
420.28	63.12
420.503	93.12
420.726	83.12
420.948	86.12
421.171	87.12
421.394	93.12
421.617	98.12
421.839	81.12
422.062	92.12
422.285	99.12
422.507	89.12
422.73	93.12
422.953	90.12
423.175	86.12
423.398	94.12
423.621	106.12
423.843	83.12
424.066	95.12
424.288	87.12
424.511	88.12
424.733	82.12
424.956	110.12
425.178	99.12
425.401	117.12
425.623	106.12
425.846	88.12
426.068	84.12
426.291	83.12
426.513	97.12
426.735	83.12
426.958	83.12
427.18	102.12
427.402	121.12
427.625	133.12
427.847	117.12
428.069	99.12
428.292	85.12
428.514	80.12
428.736	103.12
428.958	85.12
429.181	95.12
429.403	76.12
429.625	74.12
429.847	91.12
430.069	108.12
430.292	83.12
430.514	97.12
430.736	91.12
430.958	90.12
431.18	79.12
431.402	96.12
431.624	93.12
431.846	95.12
432.068	82.12
432.29	93.12
432.512	88.12
432.734	91.12
432.956	96.12
433.178	94.12
433.4	95.12
433.622	89.12
433.844	79.12
434.066	88.12
434.287	78.12
434.509	97.12
434.731	91.12
434.953	97.12
435.175	101.12
435.397	84.12
435.618	87.12
435.84	97.12
436.062	108.12
436.284	109.12
436.505	101.12
436.727	114.12
436.949	94.12
437.17	78.12
437.392	95.12
437.614	93.12
437.835	104.12
438.057	106.12
438.278	102.12
438.5	97.12
438.721	106.12
438.943	85.12
439.165	78.12
439.386	109.12
439.608	89.12
439.829	89.12
440.05	115.12
440.272	121.12
440.493	97.12
440.715	99.12
440.936	103.12
441.158	88.12
441.379	83.12
441.6	86.12
441.822	90.12
442.043	93.12
442.264	107.12
442.486	109.12
442.707	96.12
442.928	94.12
443.149	123.12
443.371	123.12
443.592	101.12
443.813	106.12
444.034	108.12
444.255	110.12
444.476	97.12
444.698	102.12
444.919	80.12
445.14	136.12
445.361	121.12
445.582	113.12
445.803	121.12
446.024	126.12
446.245	125.12
446.466	105.12
446.687	99.12
446.908	86.12
447.129	91.12
447.35	97.12
447.571	98.12
447.792	105.12
448.013	88.12
448.234	87.12
448.455	110.12
448.675	126.12
448.896	109.12
449.117	97.12
449.338	94.12
449.559	128.12
449.779	124.12
450	97.12
450.221	88.12
450.442	88.12
450.662	97.12
450.883	88.12
451.104	94.12
451.324	79.12
451.545	93.12
451.766	87.12
451.986	90.12
452.207	101.12
452.428	86.12
452.648	97.12
452.869	105.12
453.089	106.12
453.31	101.12
453.53	87.12
453.751	96.12
453.971	100.12
454.192	83.12
454.412	92.12
454.633	93.12
454.853	84.12
455.073	73.12
455.294	90.12
455.514	91.12
455.734	86.12
455.955	78.12
456.175	98.12
456.395	91.12
456.616	87.12
456.836	78.12
457.056	83.12
457.276	81.12
457.497	66.12
457.717	74.12
457.937	100.12
458.157	94.12
458.377	94.12
458.598	102.12
458.818	131.12
459.038	139.12
459.258	104.12
459.478	86.12
459.698	81.12
459.918	83.12
460.138	79.12
460.358	81.12
460.578	90.12
460.798	90.12
461.018	86.12
461.238	91.12
461.458	95.12
461.678	78.12
461.898	89.12
462.118	100.12
462.338	97.12
462.558	106.12
462.777	90.12
462.997	83.12
463.217	72.12
463.437	98.12
463.657	88.12
463.876	98.12
464.096	85.12
464.316	79.12
464.536	88.12
464.755	100.12
464.975	94.12
465.195	147.12
465.414	129.12
465.634	98.12
465.854	90.12
466.073	97.12
466.293	90.12
466.512	73.12
466.732	89.12
466.951	81.12
467.171	101.12
467.391	99.12
467.61	104.12
467.829	100.12
468.049	97.12
468.268	97.12
468.488	85.12
468.707	83.12
468.927	97.12
469.146	77.12
469.365	93.12
469.585	93.12
469.804	98.12
470.023	91.12
470.243	87.12
470.462	91.12
470.681	93.12
470.901	83.12
471.12	73.12
471.339	93.12
471.558	88.12
471.777	73.12
471.997	88.12
472.216	110.12
472.435	130.12
472.654	98.12
472.873	97.12
473.092	89.12
473.311	78.12
473.53	107.12
473.749	84.12
473.968	99.12
474.187	98.12
474.406	96.12
474.625	94.12
474.844	87.12
475.063	92.12
475.282	87.12
475.501	81.12
475.72	92.12
475.939	84.12
476.158	96.12
476.377	104.12
476.596	86.12
476.814	97.12
477.033	97.12
477.252	76.12
477.471	85.12
477.69	90.12
477.908	88.12
478.127	94.12
478.346	82.12
478.564	77.12
478.783	91.12
479.002	89.12
479.22	94.12
479.439	93.12
479.658	104.12
479.876	90.12
480.095	87.12
480.313	100.12
480.532	90.12
480.751	89.12
480.969	107.12
481.188	177.12
481.406	121.12
481.624	97.12
481.843	105.12
482.061	79.12
482.28	96.12
482.498	92.12
482.717	96.12
482.935	93.12
483.153	101.12
483.372	88.12
483.59	104.12
483.808	86.12
484.027	101.12
484.245	94.12
484.463	76.12
484.681	102.12
484.9	82.12
485.118	85.12
485.336	94.12
485.554	99.12
485.772	98.12
485.99	88.12
486.209	97.12
486.427	88.12
486.645	92.12
486.863	108.12
487.081	101.12
487.299	95.12
487.517	90.12
487.735	86.12
487.953	83.12
488.171	89.12
488.389	84.12
488.607	86.12
488.825	82.12
489.043	92.12
489.261	101.12
489.479	92.12
489.696	95.12
489.914	89.12
490.132	85.12
490.35	93.12
490.568	100.12
490.786	105.12
491.003	89.12
491.221	73.12
491.439	91.12
491.657	81.12
491.874	90.12
492.092	89.12
492.31	85.12
492.527	89.12
492.745	101.12
492.963	89.12
493.18	98.12
493.398	97.12
493.615	92.12
493.833	100.12
494.05	94.12
494.268	91.12
494.485	97.12
494.703	69.12
494.92	104.12
495.138	87.12
495.355	93.12
495.573	101.12
495.79	98.12
496.008	97.12
496.225	78.12
496.442	94.12
496.66	90.12
496.877	87.12
497.094	87.12
497.312	81.12
497.529	85.12
497.746	98.12
497.963	85.12
498.181	94.12
498.398	103.12
498.615	115.12
498.832	104.12
499.049	82.12
499.267	102.12
499.484	95.12
499.701	102.12
499.918	85.12
500.135	95.12
500.352	89.12
500.569	97.12
500.786	93.12
501.003	82.12
501.22	99.12
501.437	87.12
501.654	83.12
501.871	104.12
502.088	78.12
502.305	97.12
502.522	99.12
502.739	92.12
502.956	103.12
503.172	88.12
503.389	94.12
503.606	79.12
503.823	109.12
504.04	97.12
504.256	87.12
504.473	99.12
504.69	91.12
504.907	95.12
505.123	94.12
505.34	105.12
505.557	80.12
505.773	89.12
505.99	98.12
506.207	85.12
506.423	95.12
506.64	95.12
506.856	90.12
507.073	98.12
507.289	78.12
507.506	94.12
507.722	105.12
507.939	112.12
508.155	95.12
508.372	90.12
508.588	101.12
508.805	99.12
509.021	96.12
509.238	90.12
509.454	99.12
509.67	98.12
509.887	99.12
510.103	108.12
510.319	183.12
510.536	593.12
510.752	1741.12
510.968	496.12
511.184	124.12
511.401	98.12
511.617	92.12
511.833	87.12
512.049	89.12
512.265	104.12
512.481	87.12
512.698	83.12
512.914	91.12
513.13	103.12
513.346	84.12
513.562	80.12
513.778	97.12
513.994	88.12
514.21	119.12
514.426	114.12
514.642	119.12
514.858	108.12
515.074	150.12
515.29	345.12
515.506	1098.12
515.721	380.12
515.937	145.12
