Data from Uncirc_1981_H10_HRD10591_00059.txt Node
Date: Wed Jan 03 12:33:19 EST 2024
User: Yrep
Spectrometer: HR+D1059
Trigger mode: 1
Integration Time (sec): 1.000000E-1
Scans to average: 1
Electric dark correction enabled: true
Nonlinearity correction enabled: false
Boxcar width: 0
XAxis mode: Wavelengths
Number of Pixels in Spectrum: 2048
>>>>>Begin Spectral Data<<<<<
223.165	-33.25
223.4	-33.25
223.635	-33.25
223.869	-15.25
224.104	-24.25
224.338	-15.25
224.573	-10.25
224.808	-5.25
225.042	-0.25
225.277	7.75
225.511	-0.25
225.746	7.75
225.98	-7.25
226.215	14.75
226.449	9.75
226.683	23.75
226.918	30.75
227.152	16.75
227.387	30.75
227.621	35.75
227.856	41.75
228.09	38.75
228.324	52.75
228.559	43.75
228.793	155.75
229.027	438.75
229.262	491.75
229.496	590.75
229.73	760.75
229.964	793.75
230.199	538.75
230.433	464.75
230.667	448.75
230.901	444.75
231.136	467.75
231.37	458.75
231.604	461.75
231.838	458.75
232.072	462.75
232.306	489.75
232.541	474.75
232.775	456.75
233.009	473.75
233.243	470.75
233.477	490.75
233.711	506.75
233.945	533.75
234.179	530.75
234.413	509.75
234.647	507.75
234.881	527.75
235.115	540.75
235.349	568.75
235.583	564.75
235.817	608.75
236.051	628.75
236.285	618.75
236.519	624.75
236.753	704.75
236.987	883.75
237.221	1325.75
237.455	1500.75
237.689	905.75
237.922	743.75
238.156	724.75
238.39	689.75
238.624	650.75
238.858	654.75
239.091	664.75
239.325	669.75
239.559	676.75
239.793	713.75
240.027	747.75
240.26	906.75
240.494	990.75
240.728	985.75
240.961	913.75
241.195	830.75
241.429	816.75
241.662	789.75
241.896	771.75
242.13	810.75
242.363	790.75
242.597	811.75
242.83	853.75
243.064	843.75
243.298	828.75
243.531	844.75
243.765	854.75
243.998	876.75
244.232	873.75
244.465	892.75
244.699	937.75
244.932	912.75
245.166	924.75
245.399	925.75
245.633	912.75
245.866	913.75
246.099	935.75
246.333	976.75
246.566	1008.75
246.8	977.75
247.033	993.75
247.266	1089.75
247.5	1115.75
247.733	1182.75
247.966	1157.75
248.2	1147.75
248.433	1149.75
248.666	1241.75
248.899	1347.75
249.133	1424.75
249.366	1444.75
249.599	1339.75
249.832	1211.75
250.066	1278.75
250.299	1318.75
250.532	1422.75
250.765	1571.75
250.998	1732.75
251.231	1667.75
251.465	1522.75
251.698	1442.75
251.931	1436.75
252.164	1429.75
252.397	1496.75
252.63	1492.75
252.863	1573.75
253.096	1709.75
253.329	1778.75
253.562	1711.75
253.795	1616.75
254.028	1594.75
254.261	1644.75
254.494	1813.75
254.727	2138.75
254.96	2232.75
255.193	2012.75
255.426	1759.75
255.659	1694.75
255.892	1732.75
256.124	1775.75
256.357	1731.75
256.59	1618.75
256.823	1582.75
257.056	1525.75
257.289	1562.75
257.521	1558.75
257.754	1589.75
257.987	1588.75
258.22	1594.75
258.452	1588.75
258.685	1560.75
258.918	1580.75
259.151	1643.75
259.383	1683.75
259.616	1722.75
259.849	1811.75
260.081	1963.75
260.314	2130.75
260.547	2064.75
260.779	1890.75
261.012	1801.75
261.244	1763.75
261.477	1718.75
261.71	1724.75
261.942	1781.75
262.175	1803.75
262.407	1687.75
262.64	1657.75
262.872	1653.75
263.105	1697.75
263.337	1671.75
263.57	1695.75
263.802	1683.75
264.035	1695.75
264.267	1732.75
264.499	1712.75
264.732	1721.75
264.964	1725.75
265.197	1736.75
265.429	1738.75
265.661	1771.75
265.894	1769.75
266.126	1794.75
266.358	1811.75
266.591	1818.75
266.823	1919.75
267.055	1894.75
267.287	1883.75
267.52	1883.75
267.752	1855.75
267.984	1894.75
268.216	1920.75
268.448	1947.75
268.681	2020.75
268.913	2134.75
269.145	2336.75
269.377	2388.75
269.609	2334.75
269.841	2273.75
270.073	2375.75
270.306	2649.75
270.538	2811.75
270.77	2635.75
271.002	2522.75
271.234	2436.75
271.466	2587.75
271.698	2742.75
271.93	2722.75
272.162	2726.75
272.394	2691.75
272.626	2506.75
272.858	2328.75
273.09	2302.75
273.322	2280.75
273.553	2232.75
273.785	2233.75
274.017	2261.75
274.249	2280.75
274.481	2265.75
274.713	2296.75
274.945	2278.75
275.176	2331.75
275.408	2303.75
275.64	2277.75
275.872	2299.75
276.104	2340.75
276.335	2344.75
276.567	2424.75
276.799	2508.75
277.031	2773.75
277.262	2915.75
277.494	2746.75
277.726	2643.75
277.957	2539.75
278.189	2494.75
278.421	2448.75
278.652	2384.75
278.884	2376.75
279.115	2365.75
279.347	2440.75
279.579	2376.75
279.81	2415.75
280.042	2389.75
280.273	2419.75
280.505	2448.75
280.736	2434.75
280.968	2406.75
281.199	2466.75
281.431	2482.75
281.662	2537.75
281.894	2468.75
282.125	2524.75
282.356	2696.75
282.588	2768.75
282.819	2659.75
283.051	2518.75
283.282	2586.75
283.513	2596.75
283.745	2648.75
283.976	2676.75
284.207	2681.75
284.439	2606.75
284.67	2615.75
284.901	2678.75
285.132	2660.75
285.364	2651.75
285.595	2660.75
285.826	2656.75
286.057	2679.75
286.288	2726.75
286.52	2708.75
286.751	2769.75
286.982	2737.75
287.213	2704.75
287.444	2784.75
287.675	2789.75
287.906	2897.75
288.138	2958.75
288.369	2933.75
288.6	2891.75
288.831	2916.75
289.062	2850.75
289.293	2844.75
289.524	2776.75
289.755	2855.75
289.986	2807.75
290.217	2762.75
290.448	2837.75
290.679	2852.75
290.91	2791.75
291.141	2844.75
291.371	2860.75
291.602	2825.75
291.833	2854.75
292.064	2866.75
292.295	2844.75
292.526	2866.75
292.757	2843.75
292.987	2836.75
293.218	2860.75
293.449	2867.75
293.68	2920.75
293.91	2910.75
294.141	2864.75
294.372	2879.75
294.603	2921.75
294.833	2930.75
295.064	2896.75
295.295	2940.75
295.525	2887.75
295.756	2955.75
295.987	2994.75
296.217	3176.75
296.448	3111.75
296.679	3020.75
296.909	2983.75
297.14	2976.75
297.37	3060.75
297.601	3075.75
297.831	3090.75
298.062	3077.75
298.292	3091.75
298.523	3188.75
298.753	3158.75
298.984	3097.75
299.214	3101.75
299.445	3130.75
299.675	3123.75
299.905	3135.75
300.136	3165.75
300.366	3184.75
300.597	3197.75
300.827	3288.75
301.057	3371.75
301.288	3344.75
301.518	3339.75
301.748	3385.75
301.979	3435.75
302.209	3401.75
302.439	3387.75
302.669	3354.75
302.9	3327.75
303.13	3303.75
303.36	3443.75
303.59	3390.75
303.82	3390.75
304.051	3396.75
304.281	3342.75
304.511	3315.75
304.741	3313.75
304.971	3346.75
305.201	3314.75
305.431	3312.75
305.661	3350.75
305.891	3241.75
306.121	3272.75
306.352	3386.75
306.582	3355.75
306.812	3241.75
307.042	3259.75
307.272	3312.75
307.502	3266.75
307.731	3273.75
307.961	3299.75
308.191	3315.75
308.421	3347.75
308.651	3326.75
308.881	3312.75
309.111	3378.75
309.341	3354.75
309.571	3479.75
309.8	3520.75
310.03	3562.75
310.26	3592.75
310.49	3513.75
310.72	3668.75
310.949	3819.75
311.179	3683.75
311.409	3621.75
311.639	3619.75
311.868	3616.75
312.098	3653.75
312.328	3768.75
312.557	3847.75
312.787	3936.75
313.017	3867.75
313.246	3744.75
313.476	3705.75
313.706	3770.75
313.935	3864.75
314.165	3898.75
314.394	3950.75
314.624	3890.75
314.853	3827.75
315.083	3689.75
315.312	3759.75
315.542	3742.75
315.771	3657.75
316.001	3624.75
316.23	3670.75
316.46	3686.75
316.689	3761.75
316.919	3729.75
317.148	3737.75
317.377	3724.75
317.607	3746.75
317.836	3676.75
318.065	3618.75
318.295	3706.75
318.524	3692.75
318.753	3688.75
318.983	3665.75
319.212	3666.75
319.441	3764.75
319.67	3691.75
319.9	3677.75
320.129	3711.75
320.358	3761.75
320.587	3711.75
320.816	3778.75
321.046	3839.75
321.275	3790.75
321.504	3818.75
321.733	3846.75
321.962	3848.75
322.191	3941.75
322.42	4044.75
322.649	4106.75
322.878	4180.75
323.108	4159.75
323.337	4405.75
323.566	4485.75
323.795	4803.75
324.024	5159.75
324.253	6632.75
324.482	9657.75
324.71	14310.75
324.939	15628.75
325.168	11204.75
325.397	6084.75
325.626	4914.75
325.855	4640.75
326.084	4571.75
326.313	4614.75
326.542	4714.75
326.77	5242.75
326.999	6474.75
327.228	9152.75
327.457	13437.75
327.686	12751.75
327.914	6770.75
328.143	5555.75
328.372	5255.75
328.6	5070.75
328.829	5028.75
329.058	5180.75
329.287	5151.75
329.515	4848.75
329.744	4739.75
329.972	4846.75
330.201	4999.75
330.43	5255.75
330.658	5380.75
330.887	5598.75
331.115	5234.75
331.344	4937.75
331.572	4827.75
331.801	4916.75
332.03	4982.75
332.258	4918.75
332.486	4953.75
332.715	5096.75
332.943	5205.75
333.172	5371.75
333.4	5561.75
333.629	5611.75
333.857	5602.75
334.085	5714.75
334.314	5759.75
334.542	5876.75
334.771	5880.75
334.999	5438.75
335.227	5349.75
335.455	5138.75
335.684	5043.75
335.912	5029.75
336.14	5006.75
336.369	4969.75
336.597	5056.75
336.825	4987.75
337.053	4836.75
337.281	4800.75
337.51	4788.75
337.738	4784.75
337.966	4697.75
338.194	4713.75
338.422	4642.75
338.65	4559.75
338.878	4536.75
339.106	4488.75
339.334	4559.75
339.562	4436.75
339.79	4386.75
340.018	4357.75
340.246	4416.75
340.474	4425.75
340.702	4454.75
340.93	4417.75
341.158	4383.75
341.386	4387.75
341.614	4411.75
341.842	4353.75
342.07	4267.75
342.298	4302.75
342.526	4267.75
342.754	4332.75
342.981	4304.75
343.209	4432.75
343.437	4682.75
343.665	4950.75
343.893	5139.75
344.12	5179.75
344.348	4939.75
344.576	4839.75
344.804	4744.75
345.031	4625.75
345.259	4546.75
345.487	4466.75
345.714	4370.75
345.942	4292.75
346.17	4222.75
346.397	4261.75
346.625	4109.75
346.853	4114.75
347.08	4193.75
347.308	4214.75
347.535	4278.75
347.763	4309.75
347.99	4253.75
348.218	4290.75
348.445	4294.75
348.673	4194.75
348.9	4203.75
349.128	4115.75
349.355	4032.75
349.583	4074.75
349.81	4032.75
350.037	4078.75
350.265	4081.75
350.492	4117.75
350.72	4061.75
350.947	4071.75
351.174	4137.75
351.402	4204.75
351.629	4131.75
351.856	4174.75
352.083	4221.75
352.311	4233.75
352.538	4177.75
352.765	4154.75
352.992	4053.75
353.22	4087.75
353.447	4050.75
353.674	3968.75
353.901	4026.75
354.128	3971.75
354.355	4020.75
354.583	4055.75
354.81	3973.75
355.037	3995.75
355.264	3939.75
355.491	3977.75
355.718	3939.75
355.945	4008.75
356.172	4004.75
356.399	3935.75
356.626	4021.75
356.853	3974.75
357.08	3951.75
357.307	3969.75
357.534	3998.75
357.761	4050.75
357.988	3937.75
358.215	3999.75
358.441	3998.75
358.668	4034.75
358.895	4086.75
359.122	4001.75
359.349	4104.75
359.576	4220.75
359.802	4423.75
360.029	4528.75
360.256	4554.75
360.483	4331.75
360.709	4200.75
360.936	4146.75
361.163	4222.75
361.39	4230.75
361.616	4209.75
361.843	4101.75
362.07	4172.75
362.296	4189.75
362.523	4200.75
362.749	4131.75
362.976	4117.75
363.203	4088.75
363.429	4054.75
363.656	4065.75
363.882	4085.75
364.109	4042.75
364.335	4037.75
364.562	4042.75
364.788	3998.75
365.015	4105.75
365.241	4066.75
365.468	4093.75
365.694	4113.75
365.92	4076.75
366.147	4037.75
366.373	4113.75
366.599	4087.75
366.826	4009.75
367.052	3979.75
367.278	4049.75
367.505	4116.75
367.731	4114.75
367.957	4069.75
368.184	4106.75
368.41	4154.75
368.636	4243.75
368.862	4279.75
369.089	4157.75
369.315	4165.75
369.541	4148.75
369.767	4202.75
369.993	4171.75
370.219	4208.75
370.445	4204.75
370.672	4207.75
370.898	4259.75
371.124	4283.75
371.35	4373.75
371.576	4324.75
371.802	4304.75
372.028	4313.75
372.254	4355.75
372.48	4414.75
372.706	4426.75
372.932	4499.75
373.158	4436.75
373.384	4402.75
373.61	4354.75
373.835	4342.75
374.061	4409.75
374.287	4532.75
374.513	4493.75
374.739	4643.75
374.965	4758.75
375.191	4824.75
375.416	4711.75
375.642	4506.75
375.868	4547.75
376.094	4452.75
376.319	4446.75
376.545	4382.75
376.771	4415.75
376.997	4379.75
377.222	4378.75
377.448	4348.75
377.674	4314.75
377.899	4359.75
378.125	4370.75
378.35	4266.75
378.576	4284.75
378.802	4245.75
379.027	4298.75
379.253	4320.75
379.478	4275.75
379.704	4254.75
379.929	4399.75
380.155	4353.75
380.38	4304.75
380.606	4403.75
380.831	4363.75
381.057	4422.75
381.282	4394.75
381.507	4411.75
381.733	4356.75
381.958	4421.75
382.184	4507.75
382.409	4508.75
382.634	4534.75
382.86	4616.75
383.085	4677.75
383.31	4710.75
383.535	4785.75
383.761	4873.75
383.986	4914.75
384.211	5026.75
384.436	5102.75
384.662	5088.75
384.887	5253.75
385.112	5227.75
385.337	5251.75
385.562	5213.75
385.787	5287.75
386.013	5322.75
386.238	5375.75
386.463	5334.75
386.688	5332.75
386.913	5184.75
387.138	5219.75
387.363	5247.75
387.588	5162.75
387.813	5222.75
388.038	5157.75
388.263	5210.75
388.488	5266.75
388.713	5198.75
388.938	5166.75
389.163	5209.75
389.387	5212.75
389.612	5063.75
389.837	5177.75
390.062	5136.75
390.287	5115.75
390.512	5141.75
390.736	5193.75
390.961	5298.75
391.186	5374.75
391.411	5522.75
391.636	5595.75
391.86	5726.75
392.085	5846.75
392.31	5659.75
392.534	5599.75
392.759	5564.75
392.984	5451.75
393.208	5338.75
393.433	5386.75
393.658	5379.75
393.882	5363.75
394.107	5459.75
394.331	5473.75
394.556	5479.75
394.78	5504.75
395.005	5646.75
395.229	5573.75
395.454	5747.75
395.678	5936.75
395.903	5853.75
396.127	5848.75
396.352	5643.75
396.576	5539.75
396.801	5539.75
397.025	5594.75
397.249	5701.75
397.474	5854.75
397.698	5870.75
397.922	5991.75
398.147	6096.75
398.371	6169.75
398.595	6270.75
398.82	6587.75
399.044	7132.75
399.268	7894.75
399.492	9008.75
399.717	9718.75
399.941	9409.75
400.165	8789.75
400.389	8069.75
400.613	7223.75
400.837	6802.75
401.062	6755.75
401.286	6552.75
401.51	6615.75
401.734	6499.75
401.958	6662.75
402.182	6731.75
402.406	6924.75
402.63	6899.75
402.854	6982.75
403.078	7156.75
403.302	7286.75
403.526	7341.75
403.75	7459.75
403.974	7420.75
404.198	7424.75
404.422	7530.75
404.645	7518.75
404.869	7390.75
405.093	7664.75
405.317	7870.75
405.541	7893.75
405.765	7363.75
405.988	7202.75
406.212	7441.75
406.436	7586.75
406.66	7750.75
406.883	7718.75
407.107	8252.75
407.331	8868.75
407.555	9372.75
407.778	9057.75
408.002	8276.75
408.226	7860.75
408.449	7784.75
408.673	7664.75
408.896	7815.75
409.12	7967.75
409.344	7523.75
409.567	7160.75
409.791	7204.75
410.014	7105.75
410.238	7003.75
410.461	7128.75
410.685	7094.75
410.908	7192.75
411.132	7347.75
411.355	7419.75
411.578	6990.75
411.802	6842.75
412.025	6855.75
412.249	7026.75
412.472	7113.75
412.695	7290.75
412.919	6870.75
413.142	6682.75
413.365	6614.75
413.589	6596.75
413.812	6434.75
414.035	6298.75
414.258	6379.75
414.482	6434.75
414.705	6469.75
414.928	6498.75
415.151	6496.75
415.374	6385.75
415.597	6380.75
415.821	6343.75
416.044	6376.75
416.267	6333.75
416.49	6352.75
416.713	6248.75
416.936	6318.75
417.159	6252.75
417.382	6411.75
417.605	6395.75
417.828	6564.75
418.051	6756.75
418.274	6516.75
418.497	6430.75
418.72	6548.75
418.943	6529.75
419.166	6882.75
419.389	7410.75
419.611	7253.75
419.834	6956.75
420.057	6971.75
420.28	6758.75
420.503	6585.75
420.726	6564.75
420.948	6680.75
421.171	7098.75
421.394	7083.75
421.617	6599.75
421.839	6652.75
422.062	6649.75
422.285	6873.75
422.507	7444.75
422.73	8038.75
422.953	7366.75
423.175	6994.75
423.398	7127.75
423.621	7037.75
423.843	7335.75
424.066	7193.75
424.288	7123.75
424.511	7331.75
424.733	7757.75
424.956	8188.75
425.178	7610.75
425.401	7871.75
425.623	7707.75
425.846	6883.75
426.068	6625.75
426.291	6596.75
426.513	6559.75
426.735	6623.75
426.958	7199.75
427.18	7812.75
427.402	8976.75
427.625	8970.75
427.847	7682.75
428.069	7005.75
428.292	6487.75
428.514	6186.75
428.736	6006.75
428.958	5990.75
429.181	5826.75
429.403	5812.75
429.625	6067.75
429.847	6385.75
430.069	6785.75
430.292	6312.75
430.514	5846.75
430.736	5795.75
430.958	5832.75
431.18	5721.75
431.402	5671.75
431.624	5717.75
431.846	5823.75
432.068	5762.75
432.29	5892.75
432.512	5739.75
432.734	5850.75
432.956	5725.75
433.178	5880.75
433.4	5849.75
433.622	5826.75
433.844	5756.75
434.066	5726.75
434.287	5934.75
434.509	6032.75
434.731	6351.75
434.953	6498.75
435.175	6718.75
435.397	6730.75
435.618	6572.75
435.84	6903.75
436.062	7774.75
436.284	7668.75
436.505	6618.75
436.727	6246.75
436.949	6011.75
437.17	5890.75
437.392	5803.75
437.614	5934.75
437.835	6386.75
438.057	7270.75
438.278	7933.75
438.5	7902.75
438.721	8550.75
438.943	7587.75
439.165	6388.75
439.386	6243.75
439.608	6345.75
439.829	6328.75
440.05	6611.75
440.272	7024.75
440.493	6365.75
440.715	6202.75
440.936	6111.75
441.158	6112.75
441.379	6292.75
441.6	6600.75
441.822	6859.75
442.043	7322.75
442.264	7987.75
442.486	7720.75
442.707	6911.75
442.928	6812.75
443.149	6954.75
443.371	7114.75
443.592	7608.75
443.813	8702.75
444.034	8542.75
444.255	7583.75
444.476	7361.75
444.698	7498.75
444.919	7653.75
445.14	7367.75
445.361	7239.75
445.582	7393.75
445.803	7888.75
446.024	8572.75
446.245	8199.75
446.466	7285.75
446.687	6412.75
446.908	6190.75
447.129	5858.75
447.35	5752.75
447.571	5658.75
447.792	5566.75
448.013	5647.75
448.234	5794.75
448.455	6427.75
448.675	7673.75
448.896	8084.75
449.117	6711.75
449.338	6924.75
449.559	8123.75
449.779	8270.75
450	6439.75
450.221	5796.75
450.442	5596.75
450.662	5441.75
450.883	5528.75
451.104	5655.75
451.324	5411.75
451.545	5329.75
451.766	5246.75
451.986	5091.75
452.207	4974.75
452.428	4995.75
452.648	4991.75
452.869	5108.75
453.089	5206.75
453.31	5243.75
453.53	5149.75
453.751	4994.75
453.971	5113.75
454.192	5195.75
454.412	5024.75
454.633	4934.75
454.853	4970.75
455.073	4923.75
455.294	5308.75
455.514	5921.75
455.734	5274.75
455.955	4875.75
456.175	4739.75
456.395	4652.75
456.616	4650.75
456.836	4672.75
457.056	4707.75
457.276	4600.75
457.497	4704.75
457.717	4772.75
457.937	4778.75
458.157	4915.75
458.377	4960.75
458.598	5342.75
458.818	5892.75
459.038	6718.75
459.258	6584.75
459.478	5935.75
459.698	5834.75
459.918	5898.75
460.138	6143.75
460.358	6364.75
460.578	6352.75
460.798	6396.75
461.018	6451.75
461.238	6308.75
461.458	6268.75
461.678	6247.75
461.898	6359.75
462.118	6352.75
462.338	6777.75
462.558	6904.75
462.777	7223.75
462.997	7794.75
463.217	8164.75
463.437	7977.75
463.657	7434.75
463.876	7188.75
464.096	7271.75
464.316	7226.75
464.536	7275.75
464.755	7007.75
464.975	6880.75
465.195	6943.75
465.414	6914.75
465.634	6193.75
465.854	5930.75
466.073	5648.75
466.293	5504.75
466.512	5315.75
466.732	5278.75
466.951	5259.75
467.171	5287.75
467.391	5274.75
467.61	5360.75
467.829	5315.75
468.049	5336.75
468.268	5166.75
468.488	5030.75
468.707	4977.75
468.927	5029.75
469.146	5038.75
469.365	5098.75
469.585	5059.75
469.804	5289.75
470.023	5356.75
470.243	5431.75
470.462	5521.75
470.681	5638.75
470.901	5494.75
471.12	5385.75
471.339	5334.75
471.558	5328.75
471.777	5233.75
471.997	5128.75
472.216	5148.75
472.435	5363.75
472.654	5122.75
472.873	5114.75
473.092	5013.75
473.311	4972.75
473.53	5034.75
473.749	5114.75
473.968	5659.75
474.187	6702.75
474.406	6173.75
474.625	5314.75
474.844	5108.75
475.063	5042.75
475.282	5036.75
475.501	5193.75
475.72	5166.75
475.939	5237.75
476.158	5253.75
476.377	5220.75
476.596	5261.75
476.814	5403.75
477.033	5456.75
477.252	5454.75
477.471	5572.75
477.69	5672.75
477.908	5842.75
478.127	6012.75
478.346	6100.75
478.564	6113.75
478.783	6145.75
479.002	6369.75
479.22	6351.75
479.439	6430.75
479.658	6581.75
479.876	6647.75
480.095	6803.75
480.313	7184.75
480.532	7089.75
480.751	6986.75
480.969	6973.75
481.188	7300.75
481.406	6983.75
481.624	6590.75
481.843	6243.75
482.061	6155.75
482.28	6032.75
482.498	5994.75
482.717	5931.75
482.935	5957.75
483.153	5979.75
483.372	5983.75
483.59	5982.75
483.808	5890.75
484.027	5918.75
484.245	5978.75
484.463	6069.75
484.681	6086.75
484.9	6143.75
485.118	6211.75
485.336	6213.75
485.554	6270.75
485.772	6370.75
485.99	6326.75
486.209	6384.75
486.427	6426.75
486.645	6442.75
486.863	6487.75
487.081	6418.75
487.299	6391.75
487.517	6407.75
487.735	6431.75
487.953	6368.75
