Data from Uncirc_1981_H10_HRD10591_00056.txt Node
Date: Wed Jan 03 12:33:19 EST 2024
User: Yrep
Spectrometer: HR+D1059
Trigger mode: 1
Integration Time (sec): 1.000000E-1
Scans to average: 1
Electric dark correction enabled: true
Nonlinearity correction enabled: false
Boxcar width: 0
XAxis mode: Wavelengths
Number of Pixels in Spectrum: 2048
>>>>>Begin Spectral Data<<<<<
223.165	-13
223.4	-13
223.635	-13
223.869	-20
224.104	-12
224.338	-19
224.573	-9
224.808	-14
225.042	-23
225.277	5
225.511	5
225.746	6
225.98	6
226.215	22
226.449	14
226.683	4
226.918	21
227.152	27
227.387	34
227.621	40
227.856	41
228.09	53
228.324	49
228.559	62
228.793	69
229.027	51
229.262	63
229.496	77
229.73	75
229.964	83
230.199	89
230.433	75
230.667	93
230.901	76
231.136	70
231.37	88
231.604	83
231.838	80
232.072	68
232.306	76
232.541	87
232.775	81
233.009	81
233.243	84
233.477	73
233.711	77
233.945	87
234.179	69
234.413	81
234.647	85
234.881	82
235.115	69
235.349	81
235.583	82
235.817	79
236.051	76
236.285	84
236.519	81
236.753	90
236.987	85
237.221	78
237.455	69
237.689	66
237.922	67
238.156	75
238.39	88
238.624	76
238.858	83
239.091	66
239.325	88
239.559	75
239.793	83
240.027	88
240.26	80
240.494	81
240.728	76
240.961	86
241.195	80
241.429	75
241.662	62
241.896	74
242.13	62
242.363	88
242.597	74
242.83	84
243.064	82
243.298	71
243.531	76
243.765	85
243.998	78
244.232	69
244.465	87
244.699	80
244.932	76
245.166	85
245.399	88
245.633	74
245.866	80
246.099	77
246.333	84
246.566	74
246.8	82
247.033	88
247.266	92
247.5	82
247.733	72
247.966	86
248.2	72
248.433	74
248.666	75
248.899	83
249.133	76
249.366	99
249.599	84
249.832	77
250.066	82
250.299	88
250.532	61
250.765	83
250.998	78
251.231	82
251.465	81
251.698	74
251.931	74
252.164	86
252.397	83
252.63	83
252.863	76
253.096	76
253.329	81
253.562	82
253.795	64
254.028	88
254.261	82
254.494	71
254.727	74
254.96	62
255.193	70
255.426	65
255.659	68
255.892	80
256.124	77
256.357	76
256.59	80
256.823	79
257.056	81
257.289	85
257.521	83
257.754	84
257.987	80
258.22	82
258.452	77
258.685	82
258.918	76
259.151	86
259.383	85
259.616	87
259.849	80
260.081	81
260.314	92
260.547	72
260.779	81
261.012	71
261.244	87
261.477	97
261.71	96
261.942	101
262.175	97
262.407	88
262.64	86
262.872	84
263.105	84
263.337	85
263.57	80
263.802	74
264.035	80
264.267	88
264.499	83
264.732	73
264.964	86
265.197	76
265.429	83
265.661	82
265.894	77
266.126	80
266.358	88
266.591	88
266.823	82
267.055	90
267.287	97
267.52	84
267.752	94
267.984	89
268.216	82
268.448	90
268.681	88
268.913	69
269.145	85
269.377	84
269.609	74
269.841	89
270.073	76
270.306	83
270.538	78
270.77	92
271.002	78
271.234	69
271.466	88
271.698	75
271.93	89
272.162	84
272.394	93
272.626	83
272.858	86
273.09	76
273.322	73
273.553	70
273.785	71
274.017	86
274.249	78
274.481	80
274.713	87
274.945	91
275.176	75
275.408	86
275.64	84
275.872	77
276.104	86
276.335	89
276.567	89
276.799	84
277.031	86
277.262	93
277.494	82
277.726	93
277.957	72
278.189	97
278.421	80
278.652	85
278.884	86
279.115	83
279.347	77
279.579	79
279.81	90
280.042	84
280.273	91
280.505	86
280.736	102
280.968	86
281.199	99
281.431	88
281.662	97
281.894	103
282.125	100
282.356	109
282.588	112
282.819	97
283.051	80
283.282	89
283.513	73
283.745	85
283.976	92
284.207	71
284.439	93
284.67	88
284.901	78
285.132	85
285.364	84
285.595	76
285.826	80
286.057	104
286.288	90
286.52	89
286.751	77
286.982	101
287.213	64
287.444	84
287.675	79
287.906	80
288.138	92
288.369	91
288.6	98
288.831	71
289.062	93
289.293	93
289.524	88
289.755	70
289.986	79
290.217	75
290.448	94
290.679	88
290.91	76
291.141	86
291.371	86
291.602	83
291.833	84
292.064	105
292.295	86
292.526	90
292.757	90
292.987	109
293.218	96
293.449	99
293.68	76
293.91	83
294.141	102
294.372	84
294.603	98
294.833	82
295.064	72
295.295	73
295.525	89
295.756	104
295.987	94
296.217	127
296.448	111
296.679	87
296.909	104
297.14	84
297.37	105
297.601	84
297.831	98
298.062	89
298.292	98
298.523	92
298.753	99
298.984	96
299.214	97
299.445	89
299.675	70
299.905	80
300.136	94
300.366	98
300.597	82
300.827	100
301.057	82
301.288	92
301.518	100
301.748	85
301.979	98
302.209	80
302.439	81
302.669	96
302.9	89
303.13	104
303.36	109
303.59	100
303.82	101
304.051	97
304.281	94
304.511	90
304.741	86
304.971	91
305.201	90
305.431	76
305.661	80
305.891	88
306.121	93
306.352	97
306.582	105
306.812	92
307.042	105
307.272	84
307.502	84
307.731	80
307.961	100
308.191	91
308.421	102
308.651	86
308.881	88
309.111	91
309.341	87
309.571	94
309.8	94
310.03	102
310.26	88
310.49	86
310.72	94
310.949	94
311.179	104
311.409	87
311.639	94
311.868	106
312.098	87
312.328	94
312.557	101
312.787	102
313.017	92
313.246	92
313.476	98
313.706	80
313.935	87
314.165	86
314.394	98
314.624	98
314.853	83
315.083	92
315.312	89
315.542	98
315.771	92
316.001	86
316.23	94
316.46	93
316.689	87
316.919	103
317.148	94
317.377	92
317.607	94
317.836	72
318.065	70
318.295	84
318.524	98
318.753	101
318.983	90
319.212	91
319.441	97
319.67	98
319.9	85
320.129	77
320.358	99
320.587	113
320.816	92
321.046	98
321.275	98
321.504	96
321.733	112
321.962	103
322.191	93
322.42	92
322.649	102
322.878	105
323.108	100
323.337	102
323.566	123
323.795	137
324.024	189
324.253	333
324.482	683
324.71	1374
324.939	1825
325.168	664
325.397	208
325.626	120
325.855	120
326.084	129
326.313	107
326.542	128
326.77	203
326.999	371
327.228	781
327.457	1452
327.686	1153
327.914	322
328.143	169
328.372	127
328.6	110
328.829	93
329.058	112
329.287	123
329.515	101
329.744	104
329.972	97
330.201	93
330.43	116
330.658	114
330.887	118
331.115	116
331.344	92
331.572	98
331.801	103
332.03	104
332.258	98
332.486	94
332.715	102
332.943	90
333.172	101
333.4	98
333.629	98
333.857	99
334.085	108
334.314	109
334.542	116
334.771	116
334.999	103
335.227	87
335.455	97
335.684	70
335.912	88
336.14	102
336.369	97
336.597	91
336.825	95
337.053	83
337.281	77
337.51	101
337.738	95
337.966	81
338.194	82
338.422	93
338.65	93
338.878	94
339.106	92
339.334	83
339.562	85
339.79	91
340.018	75
340.246	96
340.474	92
340.702	84
340.93	86
341.158	89
341.386	86
341.614	95
341.842	82
342.07	92
342.298	80
342.526	98
342.754	78
342.981	71
343.209	90
343.437	100
343.665	77
343.893	82
344.12	76
344.348	94
344.576	97
344.804	88
345.031	89
345.259	95
345.487	90
345.714	98
345.942	87
346.17	90
346.397	102
346.625	72
346.853	92
347.08	86
347.308	97
347.535	93
347.763	91
347.99	106
348.218	96
348.445	112
348.673	98
348.9	111
349.128	103
349.355	81
349.583	81
349.81	81
350.037	83
350.265	92
350.492	89
350.72	92
350.947	101
351.174	106
351.402	107
351.629	99
351.856	91
352.083	94
352.311	91
352.538	93
352.765	109
352.992	105
353.22	90
353.447	101
353.674	85
353.901	98
354.128	87
354.355	100
354.583	93
354.81	116
355.037	100
355.264	102
355.491	90
355.718	96
355.945	90
356.172	77
356.399	100
356.626	95
356.853	100
357.08	89
357.307	100
357.534	97
357.761	100
357.988	98
358.215	96
358.441	99
358.668	93
358.895	91
359.122	84
359.349	77
359.576	94
359.802	86
360.029	96
360.256	107
360.483	96
360.709	92
360.936	92
361.163	89
361.39	87
361.616	89
361.843	97
362.07	84
362.296	89
362.523	96
362.749	96
362.976	102
363.203	89
363.429	91
363.656	86
363.882	94
364.109	95
364.335	96
364.562	97
364.788	99
365.015	81
365.241	93
365.468	95
365.694	88
365.92	99
366.147	74
366.373	94
366.599	94
366.826	94
367.052	96
367.278	100
367.505	85
367.731	83
367.957	98
368.184	91
368.41	100
368.636	99
368.862	118
369.089	113
369.315	101
369.541	78
369.767	88
369.993	82
370.219	104
370.445	78
370.672	81
370.898	80
371.124	91
371.35	96
371.576	98
371.802	97
372.028	97
372.254	90
372.48	97
372.706	98
372.932	97
373.158	89
373.384	84
373.61	82
373.835	84
374.061	77
374.287	89
374.513	83
374.739	84
374.965	89
375.191	82
375.416	76
375.642	84
375.868	88
376.094	92
376.319	68
376.545	88
376.771	89
376.997	89
377.222	83
377.448	99
377.674	96
377.899	90
378.125	89
378.35	85
378.576	89
378.802	82
379.027	88
379.253	92
379.478	96
379.704	86
379.929	95
380.155	82
380.38	89
380.606	110
380.831	96
381.057	102
381.282	95
381.507	113
381.733	92
381.958	85
382.184	86
382.409	97
382.634	75
382.86	93
383.085	92
383.31	98
383.535	101
383.761	87
383.986	82
384.211	107
384.436	90
384.662	90
384.887	110
385.112	102
385.337	100
385.562	104
385.787	98
386.013	119
386.238	108
386.463	98
386.688	110
386.913	106
387.138	101
387.363	99
387.588	107
387.813	88
388.038	98
388.263	109
388.488	109
388.713	94
388.938	83
389.163	98
389.387	90
389.612	93
389.837	74
390.062	103
390.287	88
390.512	78
390.736	96
390.961	96
391.186	108
391.411	103
391.636	102
391.86	90
392.085	92
392.31	77
392.534	82
392.759	82
392.984	77
393.208	83
393.433	86
393.658	69
393.882	87
394.107	101
394.331	80
394.556	73
394.78	86
395.005	85
395.229	84
395.454	84
395.678	87
395.903	97
396.127	81
396.352	91
396.576	74
396.801	85
397.025	88
397.249	80
397.474	86
397.698	93
397.922	89
398.147	72
398.371	86
398.595	86
398.82	74
399.044	100
399.268	82
399.492	96
399.717	72
399.941	89
400.165	80
400.389	93
400.613	87
400.837	81
401.062	94
401.286	85
401.51	80
401.734	84
401.958	90
402.182	108
402.406	133
402.63	108
402.854	81
403.078	82
403.302	92
403.526	91
403.75	101
403.974	69
404.198	84
404.422	78
404.645	89
404.869	86
405.093	93
405.317	106
405.541	96
405.765	99
405.988	106
406.212	136
406.436	171
406.66	119
406.883	102
407.107	85
407.331	86
407.555	106
407.778	86
408.002	75
408.226	100
408.449	80
408.673	87
408.896	100
409.12	96
409.344	91
409.567	88
409.791	84
410.014	91
410.238	89
410.461	76
410.685	98
410.908	88
411.132	104
411.355	90
411.578	89
411.802	97
412.025	84
412.249	85
412.472	93
412.695	105
412.919	93
413.142	74
413.365	80
413.589	82
413.812	82
414.035	91
414.258	94
414.482	106
414.705	94
414.928	98
415.151	94
415.374	96
415.597	96
415.821	73
416.044	78
416.267	104
416.49	70
416.713	92
416.936	97
417.159	102
417.382	76
417.605	84
417.828	95
418.051	98
418.274	85
418.497	98
418.72	92
418.943	78
419.166	101
419.389	80
419.611	78
419.834	97
420.057	72
420.28	90
420.503	85
420.726	76
420.948	86
421.171	93
421.394	108
421.617	91
421.839	77
422.062	80
422.285	94
422.507	108
422.73	96
422.953	106
423.175	94
423.398	85
423.621	75
423.843	84
424.066	87
424.288	85
424.511	100
424.733	97
424.956	91
425.178	100
425.401	85
425.623	108
425.846	70
426.068	74
426.291	103
426.513	86
426.735	92
426.958	100
427.18	82
427.402	114
427.625	135
427.847	109
428.069	94
428.292	83
428.514	88
428.736	77
428.958	74
429.181	94
429.403	83
429.625	84
429.847	83
430.069	87
430.292	102
430.514	97
430.736	86
430.958	87
431.18	79
431.402	69
431.624	82
431.846	84
432.068	90
432.29	96
432.512	100
432.734	83
432.956	88
433.178	76
433.4	92
433.622	75
433.844	84
434.066	85
434.287	84
434.509	82
434.731	83
434.953	82
435.175	98
435.397	84
435.618	102
435.84	101
436.062	109
436.284	117
436.505	99
436.727	89
436.949	98
437.17	93
437.392	78
437.614	80
437.835	93
438.057	109
438.278	92
438.5	97
438.721	95
438.943	101
439.165	91
439.386	86
439.608	82
439.829	93
440.05	107
440.272	123
440.493	93
440.715	73
440.936	92
441.158	96
441.379	96
441.6	100
441.822	100
442.043	90
442.264	97
442.486	101
442.707	82
442.928	96
443.149	116
443.371	100
443.592	103
443.813	100
444.034	98
444.255	91
444.476	83
444.698	87
444.919	86
445.14	134
445.361	115
445.582	114
445.803	119
446.024	110
446.245	113
446.466	101
446.687	84
446.908	88
447.129	85
447.35	97
447.571	76
447.792	81
448.013	99
448.234	105
448.455	89
448.675	96
448.896	100
449.117	94
449.338	92
449.559	130
449.779	115
450	107
450.221	86
450.442	88
450.662	71
450.883	100
451.104	102
451.324	97
451.545	78
451.766	104
451.986	84
452.207	87
452.428	79
452.648	93
452.869	104
453.089	101
453.31	118
453.53	86
453.751	93
453.971	94
454.192	100
454.412	88
454.633	78
454.853	86
455.073	98
455.294	86
455.514	85
455.734	82
455.955	82
456.175	92
456.395	83
456.616	73
456.836	73
457.056	83
457.276	75
457.497	79
457.717	80
457.937	82
458.157	94
458.377	76
458.598	96
458.818	121
459.038	120
459.258	100
459.478	98
459.698	74
459.918	81
460.138	84
460.358	99
460.578	108
460.798	86
461.018	86
461.238	93
461.458	96
461.678	91
461.898	81
462.118	75
462.338	92
462.558	78
462.777	90
462.997	75
463.217	97
463.437	92
463.657	86
463.876	96
464.096	91
464.316	79
464.536	90
464.755	84
464.975	92
465.195	121
465.414	133
465.634	104
465.854	92
466.073	70
466.293	74
466.512	90
466.732	83
466.951	97
467.171	96
467.391	94
467.61	96
467.829	106
468.049	105
468.268	98
468.488	83
468.707	93
468.927	78
469.146	93
469.365	84
469.585	93
469.804	96
470.023	106
470.243	96
470.462	83
470.681	97
470.901	89
471.12	73
471.339	93
471.558	80
471.777	88
471.997	96
472.216	98
472.435	118
472.654	96
472.873	104
473.092	94
473.311	82
473.53	83
473.749	96
473.968	99
474.187	84
474.406	74
474.625	73
474.844	74
475.063	91
475.282	92
475.501	91
475.72	86
475.939	86
476.158	85
476.377	72
476.596	78
476.814	84
477.033	99
477.252	82
477.471	87
477.69	77
477.908	84
478.127	81
478.346	100
478.564	103
478.783	102
479.002	89
479.22	109
479.439	90
479.658	81
479.876	105
480.095	96
480.313	87
480.532	85
480.751	95
480.969	103
481.188	162
481.406	126
481.624	87
481.843	83
482.061	65
482.28	87
482.498	85
482.717	96
482.935	91
483.153	93
483.372	88
483.59	82
483.808	100
484.027	80
484.245	95
484.463	86
484.681	93
484.9	82
485.118	89
485.336	94
485.554	84
485.772	84
485.99	97
486.209	101
486.427	102
486.645	105
486.863	98
487.081	86
487.299	97
487.517	107
487.735	100
487.953	92
488.171	93
488.389	88
488.607	104
488.825	81
489.043	105
489.261	85
489.479	84
489.696	89
489.914	85
490.132	93
490.35	98
490.568	90
490.786	88
491.003	90
491.221	87
491.439	87
491.657	90
491.874	97
492.092	97
492.31	97
492.527	83
492.745	91
492.963	98
493.18	82
493.398	94
493.615	110
493.833	80
494.05	97
494.268	85
494.485	85
494.703	87
494.92	99
495.138	85
495.355	89
495.573	107
495.79	86
496.008	101
496.225	103
496.442	71
496.66	90
496.877	83
497.094	100
497.312	81
497.529	94
497.746	97
497.963	90
498.181	108
498.398	84
498.615	103
498.832	108
499.049	88
499.267	76
499.484	102
499.701	90
499.918	92
500.135	90
500.352	91
500.569	73
500.786	84
501.003	88
501.22	82
501.437	88
501.654	85
501.871	102
502.088	86
502.305	90
502.522	76
502.739	94
502.956	72
503.172	83
503.389	105
503.606	98
503.823	116
504.04	99
504.256	94
504.473	90
504.69	94
504.907	90
505.123	99
505.34	91
505.557	88
505.773	87
505.99	82
506.207	99
506.423	89
506.64	76
506.856	101
507.073	71
507.289	99
507.506	98
507.722	103
507.939	105
508.155	89
508.372	91
508.588	84
508.805	104
509.021	95
509.238	93
509.454	93
509.67	99
509.887	119
510.103	130
510.319	172
510.536	581
510.752	1742
510.968	458
511.184	138
511.401	102
511.617	92
511.833	90
512.049	83
512.265	76
512.481	97
512.698	92
512.914	106
513.13	105
513.346	89
513.562	87
513.778	100
513.994	99
514.21	97
514.426	110
514.642	113
514.858	108
515.074	133
515.29	319
515.506	972
515.721	368
515.937	124
516.153	88
516.369	80
516.585	87
516.801	94
517.016	107
517.232	109
517.448	91
517.664	89
517.879	104
518.095	93
518.311	88
518.527	88
518.742	97
518.958	104
519.173	105
519.389	95
519.605	97
519.82	96
520.036	108
520.251	99
520.467	87
520.682	100
520.898	104
521.113	116
521.329	106
521.544	154
521.76	400
521.975	1646
522.19	939
522.406	244
522.621	113
522.836	106
523.052	94
523.267	117
523.482	91
523.698	87
523.913	120
524.128	97
524.343	82
524.559	85
524.774	94
524.989	90
525.204	101
525.419	86
525.634	97
525.849	82
526.064	86
526.28	103
526.495	91
526.71	95
526.925	86
527.14	100
527.355	98
527.57	90
527.785	90
527.999	80
528.214	101
528.429	100
528.644	84
528.859	97
529.074	94
529.289	116
529.503	138
529.718	107
529.933	84
530.148	101
530.363	87
530.577	77
530.792	74
531.007	86
531.221	100
531.436	99
531.651	97
531.865	86
532.08	98
532.295	75
532.509	80
532.724	93
532.938	101
533.153	98
533.367	83
533.582	90
533.796	93
534.011	85
534.225	78
534.44	84
534.654	92
534.868	92
535.083	99
535.297	100
535.511	105
535.726	90
535.94	89
536.154	101
536.369	93
536.583	90
536.797	92
537.011	85
537.225	92
537.44	93
537.654	96
537.868	93
538.082	85
538.296	92
538.51	80
538.724	97
538.938	94
539.153	96
539.367	96
539.581	92
539.795	97
540.009	88
540.222	105
540.436	83
540.65	90
540.864	94
541.078	90
541.292	87
541.506	96
541.72	93
541.934	86
542.147	97
542.361	75
542.575	87
542.789	87
543.002	82
543.216	101
543.43	89
543.644	105
543.857	107
544.071	95
544.285	84
544.498	80
544.712	96
544.925	75
545.139	92
545.352	94
545.566	78
545.779	91
545.993	92
546.206	88
546.42	83
546.633	75
546.847	93
547.06	97
547.274	92
547.487	86
547.7	90
547.914	82
548.127	91
548.34	95
548.554	89
548.767	83
548.98	78
549.193	93
549.407	81
549.62	90
549.833	97
550.046	86
550.259	94
550.473	92
550.686	101
550.899	97
551.112	102
551.325	104
551.538	96
551.751	85
551.964	90
552.177	100
552.39	79
552.603	87
552.816	72
553.029	93
553.242	93
553.455	100
553.667	101
553.88	92
554.093	86
554.306	101
554.519	89
554.732	96
554.944	102
555.157	84
555.37	83
555.583	83
555.795	92
556.008	81
556.221	94
556.433	86
556.646	99
556.859	81
557.071	87
557.284	98
557.496	89
557.709	88
557.921	109
558.134	93
558.346	94
558.559	93
558.771	82
558.984	72
559.196	99
559.409	91
559.621	103
559.833	88
560.046	91
560.258	92
560.47	89
560.683	82
560.895	98
561.107	84
561.32	104
561.532	77
561.744	81
561.956	88
562.168	96
562.381	76
562.593	97
562.805	101
563.017	103
563.229	98
563.441	83
563.653	78
563.865	77
564.077	87
564.289	82
564.501	101
564.713	106
564.925	88
565.137	96
565.349	97
565.561	92
565.773	81
565.985	76
566.197	84
566.408	86
566.62	99
566.832	100
567.044	87
567.255	80
567.467	72
567.679	84
567.891	82
568.102	92
568.314	91
568.526	87
568.737	98
568.949	85
569.161	87
569.372	56
569.584	92
569.795	98
570.007	106
570.218	186
570.43	118
570.641	93
570.853	85
571.064	74
571.276	86
571.487	97
571.698	99
571.91	74
572.121	80
572.333	87
572.544	84
572.755	77
572.966	84
573.178	83
573.389	85
573.6	75
573.811	82
574.023	83
574.234	87
574.445	90
574.656	95
574.867	93
575.078	83
575.289	81
575.501	84
575.712	92
575.923	73
576.134	88
576.345	92
576.556	100
576.767	97
576.978	90
577.188	91
577.399	98
577.61	87
577.821	96
578.032	103
578.243	216
578.454	585
578.665	178
578.875	107
579.086	100
579.297	100
579.508	96
579.718	98
579.929	86
580.14	79
580.35	77
580.561	64
580.772	87
580.982	90
581.193	85
581.403	95
581.614	94
581.825	89
582.035	69
582.246	84
582.456	97
582.667	90
582.877	85
583.087	90
583.298	99
583.508	81
583.719	89
583.929	88
584.139	90
584.35	87
584.56	98
584.77	90
584.981	97
585.191	81
