Data from Uncirc_1981_H10_HRD10591_00089.txt Node
Date: Wed Jan 03 12:33:25 EST 2024
User: Yrep
Spectrometer: HR+D1059
Trigger mode: 1
Integration Time (sec): 1.000000E-1
Scans to average: 1
Electric dark correction enabled: true
Nonlinearity correction enabled: false
Boxcar width: 0
XAxis mode: Wavelengths
Number of Pixels in Spectrum: 2048
>>>>>Begin Spectral Data<<<<<
223.165	-13.31
223.4	-13.31
223.635	-13.31
223.869	-14.31
224.104	-25.31
224.338	-12.31
224.573	-13.31
224.808	-13.31
225.042	-3.31
225.277	-6.31
225.511	3.69
225.746	2.69
225.98	2.69
226.215	11.69
226.449	19.69
226.683	12.69
226.918	17.69
227.152	30.69
227.387	35.69
227.621	25.69
227.856	37.69
228.09	40.69
228.324	43.69
228.559	55.69
228.793	59.69
229.027	63.69
229.262	69.69
229.496	70.69
229.73	76.69
229.964	69.69
230.199	71.69
230.433	82.69
230.667	75.69
230.901	83.69
231.136	71.69
231.37	60.69
231.604	76.69
231.838	75.69
232.072	84.69
232.306	71.69
232.541	74.69
232.775	76.69
233.009	95.69
233.243	79.69
233.477	77.69
233.711	87.69
233.945	72.69
234.179	81.69
234.413	63.69
234.647	74.69
234.881	79.69
235.115	79.69
235.349	77.69
235.583	86.69
235.817	89.69
236.051	76.69
236.285	76.69
236.519	77.69
236.753	67.69
236.987	59.69
237.221	83.69
237.455	95.69
237.689	63.69
237.922	58.69
238.156	84.69
238.39	80.69
238.624	71.69
238.858	57.69
239.091	65.69
239.325	76.69
239.559	72.69
239.793	71.69
240.027	75.69
240.26	83.69
240.494	69.69
240.728	57.69
240.961	58.69
241.195	81.69
241.429	91.69
241.662	71.69
241.896	68.69
242.13	68.69
242.363	74.69
242.597	76.69
242.83	74.69
243.064	65.69
243.298	65.69
243.531	63.69
243.765	80.69
243.998	83.69
244.232	72.69
244.465	88.69
244.699	49.69
244.932	60.69
245.166	76.69
245.399	61.69
245.633	86.69
245.866	73.69
246.099	70.69
246.333	87.69
246.566	86.69
246.8	71.69
247.033	85.69
247.266	75.69
247.5	81.69
247.733	61.69
247.966	74.69
248.2	65.69
248.433	78.69
248.666	76.69
248.899	74.69
249.133	79.69
249.366	95.69
249.599	90.69
249.832	79.69
250.066	69.69
250.299	71.69
250.532	69.69
250.765	77.69
250.998	77.69
251.231	79.69
251.465	73.69
251.698	80.69
251.931	64.69
252.164	80.69
252.397	85.69
252.63	88.69
252.863	79.69
253.096	67.69
253.329	71.69
253.562	92.69
253.795	72.69
254.028	69.69
254.261	85.69
254.494	70.69
254.727	86.69
254.96	81.69
255.193	79.69
255.426	79.69
255.659	74.69
255.892	68.69
256.124	79.69
256.357	75.69
256.59	79.69
256.823	64.69
257.056	83.69
257.289	81.69
257.521	82.69
257.754	66.69
257.987	77.69
258.22	84.69
258.452	85.69
258.685	87.69
258.918	85.69
259.151	77.69
259.383	70.69
259.616	83.69
259.849	81.69
260.081	88.69
260.314	65.69
260.547	83.69
260.779	74.69
261.012	87.69
261.244	85.69
261.477	85.69
261.71	73.69
261.942	99.69
262.175	92.69
262.407	89.69
262.64	84.69
262.872	88.69
263.105	64.69
263.337	79.69
263.57	88.69
263.802	83.69
264.035	89.69
264.267	77.69
264.499	83.69
264.732	74.69
264.964	81.69
265.197	91.69
265.429	89.69
265.661	80.69
265.894	83.69
266.126	75.69
266.358	88.69
266.591	96.69
266.823	91.69
267.055	80.69
267.287	65.69
267.52	74.69
267.752	78.69
267.984	85.69
268.216	91.69
268.448	97.69
268.681	87.69
268.913	91.69
269.145	88.69
269.377	80.69
269.609	76.69
269.841	83.69
270.073	91.69
270.306	83.69
270.538	84.69
270.77	91.69
271.002	89.69
271.234	77.69
271.466	85.69
271.698	79.69
271.93	87.69
272.162	87.69
272.394	90.69
272.626	81.69
272.858	77.69
273.09	91.69
273.322	87.69
273.553	76.69
273.785	77.69
274.017	88.69
274.249	84.69
274.481	83.69
274.713	100.69
274.945	87.69
275.176	79.69
275.408	90.69
275.64	89.69
275.872	83.69
276.104	97.69
276.335	74.69
276.567	99.69
276.799	92.69
277.031	102.69
277.262	81.69
277.494	97.69
277.726	83.69
277.957	68.69
278.189	71.69
278.421	83.69
278.652	70.69
278.884	80.69
279.115	91.69
279.347	99.69
279.579	91.69
279.81	87.69
280.042	92.69
280.273	68.69
280.505	85.69
280.736	96.69
280.968	97.69
281.199	89.69
281.431	88.69
281.662	80.69
281.894	79.69
282.125	90.69
282.356	101.69
282.588	104.69
282.819	104.69
283.051	93.69
283.282	74.69
283.513	104.69
283.745	100.69
283.976	90.69
284.207	77.69
284.439	66.69
284.67	88.69
284.901	71.69
285.132	79.69
285.364	99.69
285.595	83.69
285.826	93.69
286.057	87.69
286.288	91.69
286.52	95.69
286.751	85.69
286.982	91.69
287.213	85.69
287.444	92.69
287.675	76.69
287.906	83.69
288.138	89.69
288.369	74.69
288.6	87.69
288.831	91.69
289.062	92.69
289.293	80.69
289.524	71.69
289.755	77.69
289.986	85.69
290.217	85.69
290.448	79.69
290.679	89.69
290.91	87.69
291.141	89.69
291.371	83.69
291.602	87.69
291.833	96.69
292.064	80.69
292.295	86.69
292.526	86.69
292.757	80.69
292.987	88.69
293.218	92.69
293.449	87.69
293.68	85.69
293.91	77.69
294.141	90.69
294.372	87.69
294.603	99.69
294.833	88.69
295.064	98.69
295.295	90.69
295.525	99.69
295.756	96.69
295.987	118.69
296.217	113.69
296.448	101.69
296.679	86.69
296.909	98.69
297.14	76.69
297.37	88.69
297.601	75.69
297.831	87.69
298.062	88.69
298.292	91.69
298.523	91.69
298.753	93.69
298.984	88.69
299.214	91.69
299.445	68.69
299.675	86.69
299.905	80.69
300.136	81.69
300.366	88.69
300.597	88.69
300.827	76.69
301.057	105.69
301.288	87.69
301.518	84.69
301.748	75.69
301.979	92.69
302.209	90.69
302.439	74.69
302.669	89.69
302.9	91.69
303.13	88.69
303.36	97.69
303.59	95.69
303.82	103.69
304.051	94.69
304.281	87.69
304.511	94.69
304.741	87.69
304.971	88.69
305.201	88.69
305.431	97.69
305.661	80.69
305.891	94.69
306.121	84.69
306.352	102.69
306.582	88.69
306.812	104.69
307.042	95.69
307.272	87.69
307.502	92.69
307.731	91.69
307.961	93.69
308.191	84.69
308.421	86.69
308.651	98.69
308.881	92.69
309.111	99.69
309.341	92.69
309.571	92.69
309.8	77.69
310.03	88.69
310.26	81.69
310.49	82.69
310.72	96.69
310.949	107.69
311.179	87.69
311.409	98.69
311.639	85.69
311.868	92.69
312.098	83.69
312.328	96.69
312.557	99.69
312.787	87.69
313.017	121.69
313.246	101.69
313.476	71.69
313.706	79.69
313.935	101.69
314.165	92.69
314.394	88.69
314.624	100.69
314.853	95.69
315.083	92.69
315.312	103.69
315.542	88.69
315.771	97.69
316.001	91.69
316.23	82.69
316.46	87.69
316.689	79.69
316.919	90.69
317.148	99.69
317.377	102.69
317.607	87.69
317.836	100.69
318.065	95.69
318.295	90.69
318.524	86.69
318.753	85.69
318.983	94.69
319.212	95.69
319.441	105.69
319.67	93.69
319.9	86.69
320.129	93.69
320.358	87.69
320.587	87.69
320.816	91.69
321.046	97.69
321.275	99.69
321.504	85.69
321.733	91.69
321.962	99.69
322.191	100.69
322.42	98.69
322.649	101.69
322.878	108.69
323.108	91.69
323.337	95.69
323.566	120.69
323.795	135.69
324.024	190.69
324.253	335.69
324.482	673.69
324.71	1423.69
324.939	1894.69
325.168	700.69
325.397	204.69
325.626	141.69
325.855	124.69
326.084	102.69
326.313	115.69
326.542	135.69
326.77	209.69
326.999	392.69
327.228	816.69
327.457	1471.69
327.686	1206.69
327.914	313.69
328.143	169.69
328.372	129.69
328.6	109.69
328.829	120.69
329.058	99.69
329.287	117.69
329.515	106.69
329.744	111.69
329.972	93.69
330.201	101.69
330.43	109.69
330.658	110.69
330.887	119.69
331.115	99.69
331.344	85.69
331.572	104.69
331.801	109.69
332.03	106.69
332.258	95.69
332.486	83.69
332.715	86.69
332.943	88.69
333.172	93.69
333.4	87.69
333.629	93.69
333.857	97.69
334.085	102.69
334.314	100.69
334.542	124.69
334.771	113.69
334.999	90.69
335.227	89.69
335.455	83.69
335.684	87.69
335.912	99.69
336.14	90.69
336.369	101.69
336.597	88.69
336.825	93.69
337.053	77.69
337.281	93.69
337.51	96.69
337.738	79.69
337.966	97.69
338.194	79.69
338.422	90.69
338.65	82.69
338.878	78.69
339.106	93.69
339.334	94.69
339.562	92.69
339.79	86.69
340.018	93.69
340.246	87.69
340.474	100.69
340.702	87.69
340.93	88.69
341.158	90.69
341.386	97.69
341.614	93.69
341.842	97.69
342.07	101.69
342.298	79.69
342.526	96.69
342.754	78.69
342.981	77.69
343.209	95.69
343.437	100.69
343.665	91.69
343.893	77.69
344.12	103.69
344.348	98.69
344.576	108.69
344.804	87.69
345.031	87.69
345.259	91.69
345.487	98.69
345.714	102.69
345.942	90.69
346.17	70.69
346.397	97.69
346.625	80.69
346.853	93.69
347.08	85.69
347.308	90.69
347.535	88.69
347.763	100.69
347.99	85.69
348.218	90.69
348.445	99.69
348.673	87.69
348.9	98.69
349.128	98.69
349.355	99.69
349.583	105.69
349.81	104.69
350.037	87.69
350.265	84.69
350.492	93.69
350.72	87.69
350.947	93.69
351.174	105.69
351.402	109.69
351.629	84.69
351.856	103.69
352.083	97.69
352.311	100.69
352.538	96.69
352.765	97.69
352.992	109.69
353.22	115.69
353.447	101.69
353.674	99.69
353.901	90.69
354.128	85.69
354.355	94.69
354.583	85.69
354.81	93.69
355.037	84.69
355.264	101.69
355.491	94.69
355.718	87.69
355.945	104.69
356.172	83.69
356.399	90.69
356.626	100.69
356.853	98.69
357.08	91.69
357.307	106.69
357.534	69.69
357.761	85.69
357.988	83.69
358.215	94.69
358.441	77.69
358.668	89.69
358.895	90.69
359.122	76.69
359.349	90.69
359.576	83.69
359.802	101.69
360.029	95.69
360.256	97.69
360.483	92.69
360.709	91.69
360.936	84.69
361.163	85.69
361.39	94.69
361.616	89.69
361.843	72.69
362.07	99.69
362.296	83.69
362.523	84.69
362.749	89.69
362.976	81.69
363.203	91.69
363.429	84.69
363.656	92.69
363.882	87.69
364.109	102.69
364.335	89.69
364.562	68.69
364.788	69.69
365.015	101.69
365.241	104.69
365.468	82.69
365.694	96.69
365.92	94.69
366.147	93.69
366.373	97.69
366.599	87.69
366.826	81.69
367.052	90.69
367.278	85.69
367.505	84.69
367.731	93.69
367.957	98.69
368.184	100.69
368.41	89.69
368.636	85.69
368.862	105.69
369.089	97.69
369.315	83.69
369.541	96.69
369.767	90.69
369.993	81.69
370.219	81.69
370.445	88.69
370.672	96.69
370.898	75.69
371.124	76.69
371.35	82.69
371.576	89.69
371.802	95.69
372.028	95.69
372.254	91.69
372.48	83.69
372.706	92.69
372.932	86.69
373.158	86.69
373.384	96.69
373.61	94.69
373.835	91.69
374.061	84.69
374.287	75.69
374.513	84.69
374.739	73.69
374.965	92.69
375.191	88.69
375.416	80.69
375.642	96.69
375.868	100.69
376.094	94.69
376.319	88.69
376.545	73.69
376.771	85.69
376.997	99.69
377.222	83.69
377.448	103.69
377.674	90.69
377.899	92.69
378.125	84.69
378.35	92.69
378.576	97.69
378.802	89.69
379.027	83.69
379.253	96.69
379.478	90.69
379.704	87.69
379.929	111.69
380.155	95.69
380.38	95.69
380.606	91.69
380.831	81.69
381.057	102.69
381.282	101.69
381.507	100.69
381.733	90.69
381.958	105.69
382.184	77.69
382.409	86.69
382.634	111.69
382.86	92.69
383.085	101.69
383.31	97.69
383.535	109.69
383.761	101.69
383.986	103.69
384.211	96.69
384.436	87.69
384.662	89.69
384.887	93.69
385.112	100.69
385.337	89.69
385.562	99.69
385.787	88.69
386.013	99.69
386.238	110.69
386.463	88.69
386.688	107.69
386.913	100.69
387.138	102.69
387.363	97.69
387.588	91.69
387.813	93.69
388.038	102.69
388.263	114.69
388.488	92.69
388.713	106.69
388.938	113.69
389.163	99.69
389.387	99.69
389.612	81.69
389.837	92.69
390.062	91.69
390.287	87.69
390.512	77.69
390.736	91.69
390.961	83.69
391.186	89.69
391.411	91.69
391.636	87.69
391.86	97.69
392.085	66.69
392.31	83.69
392.534	81.69
392.759	91.69
392.984	91.69
393.208	73.69
393.433	79.69
393.658	94.69
393.882	90.69
394.107	86.69
394.331	91.69
394.556	75.69
394.78	91.69
395.005	81.69
395.229	81.69
395.454	97.69
395.678	97.69
395.903	90.69
396.127	89.69
396.352	78.69
396.576	79.69
396.801	85.69
397.025	80.69
397.249	77.69
397.474	94.69
397.698	81.69
397.922	83.69
398.147	87.69
398.371	72.69
398.595	71.69
398.82	81.69
399.044	76.69
399.268	81.69
399.492	87.69
399.717	100.69
399.941	100.69
400.165	96.69
400.389	90.69
400.613	89.69
400.837	92.69
401.062	91.69
401.286	92.69
401.51	92.69
401.734	88.69
401.958	108.69
402.182	106.69
402.406	135.69
402.63	111.69
402.854	86.69
403.078	92.69
403.302	85.69
403.526	88.69
403.75	89.69
403.974	81.69
404.198	79.69
404.422	84.69
404.645	87.69
404.869	87.69
405.093	90.69
405.317	103.69
405.541	88.69
405.765	93.69
405.988	109.69
406.212	129.69
406.436	163.69
406.66	133.69
406.883	97.69
407.107	102.69
407.331	92.69
407.555	99.69
407.778	95.69
408.002	87.69
408.226	105.69
408.449	86.69
408.673	87.69
408.896	96.69
409.12	99.69
409.344	97.69
409.567	76.69
409.791	81.69
410.014	109.69
410.238	95.69
410.461	84.69
410.685	102.69
410.908	97.69
411.132	103.69
411.355	91.69
411.578	100.69
411.802	80.69
412.025	90.69
412.249	83.69
412.472	96.69
412.695	96.69
412.919	96.69
413.142	84.69
413.365	91.69
413.589	73.69
413.812	90.69
414.035	96.69
414.258	79.69
414.482	76.69
414.705	67.69
414.928	90.69
415.151	97.69
415.374	104.69
415.597	84.69
415.821	83.69
416.044	79.69
416.267	88.69
416.49	92.69
416.713	81.69
416.936	83.69
417.159	83.69
417.382	83.69
417.605	81.69
417.828	94.69
418.051	77.69
418.274	93.69
418.497	96.69
418.72	82.69
418.943	90.69
419.166	88.69
419.389	96.69
419.611	91.69
419.834	84.69
420.057	91.69
420.28	91.69
420.503	92.69
420.726	85.69
420.948	83.69
421.171	105.69
421.394	87.69
421.617	87.69
421.839	85.69
422.062	100.69
422.285	87.69
422.507	94.69
422.73	93.69
422.953	88.69
423.175	91.69
423.398	96.69
423.621	93.69
423.843	73.69
424.066	97.69
424.288	96.69
424.511	90.69
424.733	82.69
424.956	107.69
425.178	82.69
425.401	100.69
425.623	108.69
425.846	85.69
426.068	85.69
426.291	77.69
426.513	98.69
426.735	105.69
426.958	98.69
427.18	94.69
427.402	119.69
427.625	135.69
427.847	98.69
428.069	108.69
428.292	90.69
428.514	92.69
428.736	84.69
428.958	78.69
429.181	72.69
429.403	85.69
429.625	81.69
429.847	73.69
430.069	87.69
430.292	95.69
430.514	84.69
430.736	88.69
430.958	92.69
431.18	87.69
431.402	89.69
431.624	84.69
431.846	84.69
432.068	89.69
432.29	82.69
432.512	80.69
432.734	92.69
432.956	105.69
433.178	96.69
433.4	104.69
433.622	88.69
433.844	82.69
434.066	81.69
434.287	96.69
434.509	93.69
434.731	73.69
434.953	87.69
435.175	85.69
435.397	91.69
435.618	83.69
435.84	109.69
436.062	110.69
436.284	83.69
436.505	91.69
436.727	96.69
436.949	105.69
437.17	103.69
437.392	81.69
437.614	75.69
437.835	81.69
438.057	107.69
438.278	104.69
438.5	106.69
438.721	106.69
438.943	94.69
439.165	90.69
439.386	87.69
439.608	96.69
439.829	104.69
440.05	106.69
440.272	126.69
440.493	87.69
440.715	78.69
440.936	90.69
441.158	81.69
441.379	86.69
441.6	101.69
441.822	88.69
442.043	83.69
442.264	89.69
442.486	81.69
442.707	90.69
442.928	90.69
443.149	100.69
443.371	110.69
443.592	92.69
443.813	95.69
444.034	101.69
444.255	86.69
444.476	88.69
444.698	75.69
444.919	89.69
445.14	137.69
445.361	112.69
445.582	114.69
445.803	110.69
446.024	106.69
446.245	127.69
446.466	100.69
446.687	80.69
446.908	89.69
447.129	82.69
447.35	78.69
447.571	93.69
447.792	86.69
448.013	105.69
448.234	104.69
448.455	82.69
448.675	120.69
448.896	115.69
449.117	95.69
449.338	87.69
449.559	123.69
449.779	113.69
450	77.69
450.221	79.69
450.442	95.69
450.662	95.69
450.883	98.69
451.104	91.69
451.324	92.69
451.545	71.69
451.766	74.69
451.986	99.69
452.207	88.69
452.428	89.69
452.648	76.69
452.869	96.69
453.089	103.69
453.31	110.69
453.53	91.69
453.751	86.69
453.971	81.69
454.192	89.69
454.412	82.69
454.633	85.69
454.853	85.69
455.073	89.69
455.294	90.69
455.514	98.69
455.734	88.69
455.955	91.69
456.175	93.69
456.395	89.69
456.616	92.69
456.836	85.69
457.056	79.69
457.276	73.69
457.497	65.69
457.717	94.69
457.937	75.69
458.157	85.69
458.377	103.69
458.598	88.69
458.818	121.69
459.038	125.69
459.258	79.69
459.478	87.69
459.698	85.69
459.918	92.69
460.138	78.69
460.358	75.69
460.578	87.69
460.798	81.69
461.018	94.69
461.238	74.69
461.458	97.69
461.678	81.69
461.898	73.69
462.118	87.69
462.338	91.69
462.558	89.69
462.777	76.69
462.997	81.69
463.217	99.69
463.437	74.69
463.657	93.69
463.876	98.69
464.096	70.69
464.316	76.69
464.536	95.69
464.755	84.69
464.975	93.69
465.195	130.69
465.414	120.69
465.634	95.69
465.854	92.69
466.073	84.69
466.293	78.69
466.512	81.69
466.732	86.69
466.951	78.69
467.171	81.69
467.391	85.69
467.61	88.69
467.829	87.69
468.049	96.69
468.268	105.69
468.488	97.69
468.707	74.69
468.927	74.69
469.146	80.69
469.365	86.69
469.585	83.69
469.804	88.69
470.023	96.69
470.243	83.69
470.462	103.69
470.681	113.69
470.901	79.69
471.12	84.69
471.339	83.69
471.558	86.69
471.777	73.69
471.997	93.69
472.216	113.69
472.435	111.69
472.654	85.69
472.873	89.69
473.092	97.69
473.311	95.69
473.53	83.69
473.749	83.69
473.968	91.69
474.187	103.69
474.406	95.69
474.625	90.69
474.844	93.69
475.063	83.69
475.282	83.69
475.501	87.69
475.72	76.69
475.939	87.69
476.158	83.69
476.377	97.69
476.596	75.69
476.814	90.69
477.033	97.69
477.252	90.69
477.471	90.69
477.69	92.69
477.908	79.69
478.127	83.69
478.346	74.69
478.564	90.69
478.783	83.69
479.002	95.69
479.22	85.69
479.439	89.69
479.658	88.69
479.876	76.69
480.095	90.69
480.313	100.69
480.532	75.69
480.751	91.69
480.969	104.69
481.188	164.69
481.406	120.69
481.624	101.69
481.843	88.69
482.061	92.69
482.28	69.69
482.498	92.69
482.717	86.69
482.935	72.69
483.153	86.69
483.372	86.69
483.59	81.69
483.808	90.69
484.027	76.69
484.245	97.69
484.463	94.69
484.681	96.69
484.9	85.69
485.118	98.69
485.336	114.69
485.554	96.69
485.772	86.69
485.99	98.69
486.209	110.69
486.427	110.69
486.645	103.69
486.863	101.69
487.081	97.69
487.299	93.69
487.517	95.69
487.735	75.69
487.953	103.69
488.171	95.69
488.389	87.69
488.607	96.69
488.825	84.69
489.043	86.69
489.261	93.69
489.479	94.69
489.696	91.69
489.914	86.69
490.132	88.69
490.35	85.69
490.568	77.69
490.786	74.69
491.003	96.69
491.221	81.69
491.439	87.69
491.657	101.69
491.874	103.69
492.092	79.69
492.31	79.69
492.527	97.69
492.745	102.69
492.963	73.69
493.18	76.69
493.398	91.69
493.615	98.69
493.833	100.69
494.05	76.69
494.268	92.69
494.485	79.69
494.703	76.69
494.92	96.69
495.138	87.69
495.355	99.69
495.573	94.69
495.79	90.69
496.008	95.69
496.225	90.69
496.442	88.69
496.66	104.69
496.877	100.69
497.094	108.69
497.312	88.69
497.529	86.69
497.746	102.69
497.963	98.69
498.181	73.69
498.398	101.69
498.615	100.69
498.832	91.69
499.049	85.69
499.267	88.69
499.484	96.69
499.701	78.69
499.918	89.69
500.135	79.69
500.352	85.69
500.569	89.69
500.786	96.69
501.003	83.69
501.22	66.69
501.437	95.69
501.654	104.69
501.871	92.69
502.088	97.69
502.305	87.69
502.522	84.69
502.739	87.69
502.956	69.69
503.172	91.69
503.389	92.69
503.606	106.69
503.823	91.69
504.04	87.69
504.256	90.69
504.473	89.69
504.69	95.69
504.907	75.69
505.123	84.69
505.34	89.69
505.557	87.69
505.773	96.69
505.99	92.69
506.207	84.69
506.423	95.69
506.64	92.69
506.856	88.69
507.073	92.69
507.289	94.69
507.506	91.69
507.722	100.69
507.939	89.69
508.155	100.69
508.372	84.69
508.588	86.69
508.805	95.69
509.021	95.69
509.238	86.69
509.454	107.69
509.67	99.69
509.887	107.69
510.103	125.69
510.319	183.69
510.536	557.69
510.752	1707.69
510.968	460.69
511.184	136.69
511.401	111.69
511.617	85.69
511.833	98.69
512.049	92.69
512.265	99.69
512.481	90.69
512.698	90.69
512.914	91.69
513.13	97.69
513.346	84.69
513.562	99.69
513.778	103.69
513.994	93.69
514.21	109.69
514.426	95.69
514.642	106.69
514.858	112.69
515.074	140.69
515.29	319.69
515.506	937.69
515.721	373.69
515.937	112.69
516.153	93.69
516.369	89.69
516.585	92.69
516.801	97.69
