Data from Uncirc_1981_H10_HRD10591_00009.txt Node
Date: Wed Jan 03 12:33:09 EST 2024
User: Yrep
Spectrometer: HR+D1059
Trigger mode: 1
Integration Time (sec): 1.000000E-1
Scans to average: 1
Electric dark correction enabled: true
Nonlinearity correction enabled: false
Boxcar width: 0
XAxis mode: Wavelengths
Number of Pixels in Spectrum: 2048
>>>>>Begin Spectral Data<<<<<
223.165	-37.31
223.4	-37.31
223.635	-37.31
223.869	-13.31
224.104	-28.31
224.338	-13.31
224.573	-19.31
224.808	-10.31
225.042	0.69
225.277	-1.31
225.511	-5.31
225.746	-6.31
225.98	0.69
226.215	18.69
226.449	20.69
226.683	32.69
226.918	30.69
227.152	30.69
227.387	40.69
227.621	48.69
227.856	35.69
228.09	41.69
228.324	49.69
228.559	66.69
228.793	58.69
229.027	65.69
229.262	82.69
229.496	69.69
229.73	70.69
229.964	87.69
230.199	97.69
230.433	85.69
230.667	85.69
230.901	81.69
231.136	88.69
231.37	79.69
231.604	86.69
231.838	88.69
232.072	89.69
232.306	93.69
232.541	84.69
232.775	76.69
233.009	84.69
233.243	83.69
233.477	80.69
233.711	76.69
233.945	80.69
234.179	79.69
234.413	81.69
234.647	101.69
234.881	80.69
235.115	86.69
235.349	86.69
235.583	92.69
235.817	89.69
236.051	79.69
236.285	80.69
236.519	90.69
236.753	92.69
236.987	93.69
237.221	88.69
237.455	78.69
237.689	80.69
237.922	73.69
238.156	77.69
238.39	74.69
238.624	82.69
238.858	97.69
239.091	76.69
239.325	84.69
239.559	89.69
239.793	77.69
240.027	80.69
240.26	73.69
240.494	85.69
240.728	84.69
240.961	80.69
241.195	76.69
241.429	88.69
241.662	84.69
241.896	81.69
242.13	78.69
242.363	82.69
242.597	64.69
242.83	87.69
243.064	76.69
243.298	70.69
243.531	83.69
243.765	60.69
243.998	88.69
244.232	87.69
244.465	92.69
244.699	66.69
244.932	82.69
245.166	84.69
245.399	98.69
245.633	80.69
245.866	78.69
246.099	86.69
246.333	82.69
246.566	73.69
246.8	75.69
247.033	78.69
247.266	77.69
247.5	93.69
247.733	91.69
247.966	84.69
248.2	78.69
248.433	77.69
248.666	89.69
248.899	78.69
249.133	84.69
249.366	84.69
249.599	95.69
249.832	83.69
250.066	82.69
250.299	65.69
250.532	92.69
250.765	80.69
250.998	68.69
251.231	85.69
251.465	88.69
251.698	86.69
251.931	87.69
252.164	91.69
252.397	76.69
252.63	78.69
252.863	87.69
253.096	81.69
253.329	86.69
253.562	86.69
253.795	101.69
254.028	72.69
254.261	71.69
254.494	77.69
254.727	96.69
254.96	81.69
255.193	78.69
255.426	68.69
255.659	73.69
255.892	96.69
256.124	88.69
256.357	81.69
256.59	86.69
256.823	89.69
257.056	84.69
257.289	84.69
257.521	85.69
257.754	84.69
257.987	91.69
258.22	81.69
258.452	72.69
258.685	83.69
258.918	79.69
259.151	81.69
259.383	104.69
259.616	68.69
259.849	79.69
260.081	86.69
260.314	92.69
260.547	80.69
260.779	98.69
261.012	89.69
261.244	78.69
261.477	98.69
261.71	91.69
261.942	110.69
262.175	92.69
262.407	103.69
262.64	70.69
262.872	88.69
263.105	88.69
263.337	87.69
263.57	102.69
263.802	95.69
264.035	100.69
264.267	87.69
264.499	78.69
264.732	76.69
264.964	82.69
265.197	78.69
265.429	85.69
265.661	82.69
265.894	80.69
266.126	97.69
266.358	76.69
266.591	74.69
266.823	84.69
267.055	92.69
267.287	93.69
267.52	73.69
267.752	84.69
267.984	85.69
268.216	85.69
268.448	80.69
268.681	88.69
268.913	78.69
269.145	104.69
269.377	81.69
269.609	77.69
269.841	89.69
270.073	86.69
270.306	82.69
270.538	90.69
270.77	95.69
271.002	85.69
271.234	95.69
271.466	86.69
271.698	93.69
271.93	95.69
272.162	86.69
272.394	87.69
272.626	90.69
272.858	99.69
273.09	75.69
273.322	79.69
273.553	93.69
273.785	102.69
274.017	75.69
274.249	93.69
274.481	86.69
274.713	92.69
274.945	89.69
275.176	84.69
275.408	90.69
275.64	87.69
275.872	102.69
276.104	96.69
276.335	87.69
276.567	104.69
276.799	90.69
277.031	92.69
277.262	72.69
277.494	89.69
277.726	92.69
277.957	92.69
278.189	77.69
278.421	90.69
278.652	84.69
278.884	88.69
279.115	84.69
279.347	88.69
279.579	77.69
279.81	90.69
280.042	93.69
280.273	102.69
280.505	77.69
280.736	79.69
280.968	90.69
281.199	75.69
281.431	84.69
281.662	86.69
281.894	81.69
282.125	86.69
282.356	116.69
282.588	120.69
282.819	103.69
283.051	85.69
283.282	88.69
283.513	93.69
283.745	84.69
283.976	93.69
284.207	104.69
284.439	92.69
284.67	85.69
284.901	79.69
285.132	74.69
285.364	84.69
285.595	85.69
285.826	92.69
286.057	88.69
286.288	88.69
286.52	88.69
286.751	91.69
286.982	94.69
287.213	81.69
287.444	100.69
287.675	81.69
287.906	84.69
288.138	86.69
288.369	106.69
288.6	101.69
288.831	93.69
289.062	91.69
289.293	90.69
289.524	90.69
289.755	78.69
289.986	98.69
290.217	88.69
290.448	93.69
290.679	92.69
290.91	96.69
291.141	93.69
291.371	84.69
291.602	81.69
291.833	78.69
292.064	98.69
292.295	98.69
292.526	78.69
292.757	84.69
292.987	97.69
293.218	100.69
293.449	88.69
293.68	87.69
293.91	98.69
294.141	82.69
294.372	103.69
294.603	98.69
294.833	72.69
295.064	98.69
295.295	86.69
295.525	78.69
295.756	88.69
295.987	109.69
296.217	108.69
296.448	103.69
296.679	98.69
296.909	81.69
297.14	93.69
297.37	95.69
297.601	83.69
297.831	92.69
298.062	86.69
298.292	100.69
298.523	78.69
298.753	100.69
298.984	82.69
299.214	79.69
299.445	87.69
299.675	83.69
299.905	100.69
300.136	95.69
300.366	84.69
300.597	100.69
300.827	106.69
301.057	86.69
301.288	89.69
301.518	95.69
301.748	97.69
301.979	99.69
302.209	84.69
302.439	92.69
302.669	98.69
302.9	90.69
303.13	91.69
303.36	82.69
303.59	93.69
303.82	104.69
304.051	86.69
304.281	89.69
304.511	84.69
304.741	80.69
304.971	70.69
305.201	81.69
305.431	86.69
305.661	100.69
305.891	96.69
306.121	106.69
306.352	107.69
306.582	96.69
306.812	98.69
307.042	103.69
307.272	94.69
307.502	94.69
307.731	85.69
307.961	85.69
308.191	92.69
308.421	94.69
308.651	105.69
308.881	97.69
309.111	93.69
309.341	96.69
309.571	84.69
309.8	98.69
310.03	104.69
310.26	92.69
310.49	85.69
310.72	114.69
310.949	96.69
311.179	93.69
311.409	84.69
311.639	85.69
311.868	85.69
312.098	85.69
312.328	104.69
312.557	107.69
312.787	99.69
313.017	94.69
313.246	102.69
313.476	92.69
313.706	88.69
313.935	92.69
314.165	112.69
314.394	101.69
314.624	102.69
314.853	100.69
315.083	105.69
315.312	102.69
315.542	102.69
315.771	91.69
316.001	89.69
316.23	104.69
316.46	86.69
316.689	90.69
316.919	76.69
317.148	78.69
317.377	91.69
317.607	84.69
317.836	92.69
318.065	80.69
318.295	92.69
318.524	102.69
318.753	93.69
318.983	92.69
319.212	88.69
319.441	108.69
319.67	84.69
319.9	87.69
320.129	87.69
320.358	89.69
320.587	92.69
320.816	84.69
321.046	103.69
321.275	97.69
321.504	94.69
321.733	91.69
321.962	79.69
322.191	101.69
322.42	106.69
322.649	110.69
322.878	116.69
323.108	113.69
323.337	125.69
323.566	116.69
323.795	131.69
324.024	166.69
324.253	320.69
324.482	646.69
324.71	1339.69
324.939	1826.69
325.168	654.69
325.397	198.69
325.626	131.69
325.855	118.69
326.084	134.69
326.313	123.69
326.542	127.69
326.77	189.69
326.999	367.69
327.228	777.69
327.457	1440.69
327.686	1138.69
327.914	320.69
328.143	153.69
328.372	128.69
328.6	110.69
328.829	105.69
329.058	102.69
329.287	118.69
329.515	114.69
329.744	102.69
329.972	114.69
330.201	97.69
330.43	99.69
330.658	101.69
330.887	120.69
331.115	110.69
331.344	110.69
331.572	108.69
331.801	94.69
332.03	104.69
332.258	108.69
332.486	98.69
332.715	109.69
332.943	94.69
333.172	99.69
333.4	92.69
333.629	92.69
333.857	104.69
334.085	94.69
334.314	101.69
334.542	118.69
334.771	103.69
334.999	101.69
335.227	80.69
335.455	106.69
335.684	92.69
335.912	103.69
336.14	106.69
336.369	89.69
336.597	93.69
336.825	96.69
337.053	86.69
337.281	100.69
337.51	102.69
337.738	92.69
337.966	85.69
338.194	84.69
338.422	101.69
338.65	92.69
338.878	92.69
339.106	102.69
339.334	84.69
339.562	106.69
339.79	86.69
340.018	91.69
340.246	96.69
340.474	88.69
340.702	87.69
340.93	81.69
341.158	95.69
341.386	96.69
341.614	102.69
341.842	93.69
342.07	98.69
342.298	81.69
342.526	90.69
342.754	88.69
342.981	98.69
343.209	101.69
343.437	97.69
343.665	87.69
343.893	104.69
344.12	101.69
344.348	90.69
344.576	99.69
344.804	88.69
345.031	98.69
345.259	96.69
345.487	82.69
345.714	84.69
345.942	110.69
346.17	90.69
346.397	90.69
346.625	86.69
346.853	90.69
347.08	78.69
347.308	94.69
347.535	99.69
347.763	96.69
347.99	93.69
348.218	90.69
348.445	89.69
348.673	97.69
348.9	90.69
349.128	89.69
349.355	112.69
349.583	92.69
349.81	109.69
350.037	103.69
350.265	93.69
350.492	104.69
350.72	108.69
350.947	92.69
351.174	104.69
351.402	110.69
351.629	109.69
351.856	97.69
352.083	103.69
352.311	95.69
352.538	110.69
352.765	104.69
352.992	103.69
353.22	107.69
353.447	118.69
353.674	114.69
353.901	109.69
354.128	98.69
354.355	111.69
354.583	99.69
354.81	93.69
355.037	111.69
355.264	101.69
355.491	94.69
355.718	100.69
355.945	97.69
356.172	97.69
356.399	98.69
356.626	113.69
356.853	102.69
357.08	99.69
357.307	100.69
357.534	97.69
357.761	111.69
357.988	105.69
358.215	104.69
358.441	111.69
358.668	103.69
358.895	96.69
359.122	91.69
359.349	92.69
359.576	89.69
359.802	97.69
360.029	80.69
360.256	97.69
360.483	85.69
360.709	92.69
360.936	104.69
361.163	95.69
361.39	100.69
361.616	86.69
361.843	93.69
362.07	93.69
362.296	95.69
362.523	106.69
362.749	88.69
362.976	93.69
363.203	96.69
363.429	104.69
363.656	94.69
363.882	105.69
364.109	89.69
364.335	101.69
364.562	111.69
364.788	86.69
365.015	97.69
365.241	102.69
365.468	107.69
365.694	96.69
365.92	100.69
366.147	94.69
366.373	100.69
366.599	95.69
366.826	94.69
367.052	80.69
367.278	85.69
367.505	72.69
367.731	94.69
367.957	84.69
368.184	102.69
368.41	109.69
368.636	87.69
368.862	107.69
369.089	92.69
369.315	98.69
369.541	86.69
369.767	92.69
369.993	93.69
370.219	103.69
370.445	82.69
370.672	78.69
370.898	95.69
371.124	74.69
371.35	93.69
371.576	97.69
371.802	89.69
372.028	96.69
372.254	87.69
372.48	80.69
372.706	96.69
372.932	88.69
373.158	88.69
373.384	100.69
373.61	90.69
373.835	102.69
374.061	97.69
374.287	96.69
374.513	100.69
374.739	98.69
374.965	101.69
375.191	84.69
375.416	114.69
375.642	103.69
375.868	107.69
376.094	99.69
376.319	95.69
376.545	106.69
376.771	114.69
376.997	102.69
377.222	100.69
377.448	96.69
377.674	102.69
377.899	86.69
378.125	84.69
378.35	89.69
378.576	95.69
378.802	98.69
379.027	102.69
379.253	96.69
379.478	116.69
379.704	109.69
379.929	106.69
380.155	116.69
380.38	105.69
380.606	105.69
380.831	113.69
381.057	99.69
381.282	116.69
381.507	106.69
381.733	124.69
381.958	104.69
382.184	112.69
382.409	104.69
382.634	115.69
382.86	112.69
383.085	106.69
383.31	112.69
383.535	118.69
383.761	128.69
383.986	120.69
384.211	130.69
384.436	111.69
384.662	118.69
384.887	144.69
385.112	155.69
385.337	125.69
385.562	137.69
385.787	138.69
386.013	136.69
386.238	137.69
386.463	132.69
386.688	141.69
386.913	138.69
387.138	152.69
387.363	138.69
387.588	126.69
387.813	125.69
388.038	131.69
388.263	176.69
388.488	162.69
388.713	116.69
388.938	108.69
389.163	104.69
389.387	103.69
389.612	90.69
389.837	93.69
390.062	98.69
390.287	103.69
390.512	92.69
390.736	88.69
390.961	93.69
391.186	104.69
391.411	96.69
391.636	95.69
391.86	105.69
392.085	100.69
392.31	95.69
392.534	78.69
392.759	92.69
392.984	96.69
393.208	98.69
393.433	95.69
393.658	89.69
393.882	81.69
394.107	97.69
394.331	84.69
394.556	89.69
394.78	96.69
395.005	91.69
395.229	88.69
395.454	90.69
395.678	79.69
395.903	99.69
396.127	100.69
396.352	93.69
396.576	86.69
396.801	98.69
397.025	88.69
397.249	113.69
397.474	101.69
397.698	103.69
397.922	95.69
398.147	104.69
398.371	85.69
398.595	86.69
398.82	86.69
399.044	90.69
399.268	81.69
399.492	90.69
399.717	89.69
399.941	100.69
400.165	86.69
400.389	90.69
400.613	106.69
400.837	86.69
401.062	92.69
401.286	94.69
401.51	88.69
401.734	93.69
401.958	96.69
402.182	97.69
402.406	122.69
402.63	110.69
402.854	97.69
403.078	93.69
403.302	94.69
403.526	87.69
403.75	83.69
403.974	79.69
404.198	107.69
404.422	84.69
404.645	84.69
404.869	98.69
405.093	107.69
405.317	100.69
405.541	103.69
405.765	110.69
405.988	118.69
406.212	125.69
406.436	166.69
406.66	123.69
406.883	108.69
407.107	105.69
407.331	100.69
407.555	95.69
407.778	80.69
408.002	90.69
408.226	89.69
408.449	101.69
408.673	90.69
408.896	100.69
409.12	84.69
409.344	104.69
409.567	87.69
409.791	106.69
410.014	99.69
410.238	98.69
410.461	112.69
410.685	105.69
410.908	101.69
411.132	102.69
411.355	100.69
411.578	99.69
411.802	84.69
412.025	81.69
412.249	100.69
412.472	97.69
412.695	105.69
412.919	106.69
413.142	92.69
413.365	90.69
413.589	88.69
413.812	91.69
414.035	102.69
414.258	93.69
414.482	95.69
414.705	107.69
414.928	90.69
415.151	95.69
415.374	96.69
415.597	108.69
415.821	96.69
416.044	108.69
416.267	79.69
416.49	77.69
416.713	102.69
416.936	92.69
417.159	86.69
417.382	95.69
417.605	77.69
417.828	99.69
418.051	90.69
418.274	100.69
418.497	92.69
418.72	88.69
418.943	89.69
419.166	71.69
419.389	73.69
419.611	81.69
419.834	92.69
420.057	89.69
420.28	85.69
420.503	102.69
420.726	94.69
420.948	95.69
421.171	108.69
421.394	113.69
421.617	121.69
421.839	92.69
422.062	105.69
422.285	98.69
422.507	85.69
422.73	94.69
422.953	93.69
423.175	92.69
423.398	94.69
423.621	96.69
423.843	88.69
424.066	92.69
424.288	79.69
424.511	79.69
424.733	118.69
424.956	104.69
425.178	108.69
425.401	97.69
425.623	80.69
425.846	100.69
426.068	106.69
426.291	88.69
426.513	93.69
426.735	89.69
426.958	104.69
427.18	111.69
427.402	122.69
427.625	137.69
427.847	126.69
428.069	119.69
428.292	102.69
428.514	95.69
428.736	76.69
428.958	92.69
429.181	86.69
429.403	78.69
429.625	82.69
429.847	113.69
430.069	111.69
430.292	99.69
430.514	97.69
430.736	73.69
430.958	96.69
431.18	86.69
431.402	92.69
431.624	96.69
431.846	85.69
432.068	98.69
432.29	92.69
432.512	97.69
432.734	78.69
432.956	92.69
433.178	107.69
433.4	107.69
433.622	89.69
433.844	98.69
434.066	93.69
434.287	99.69
434.509	89.69
434.731	92.69
434.953	90.69
435.175	87.69
435.397	101.69
435.618	105.69
435.84	111.69
436.062	112.69
436.284	107.69
436.505	96.69
436.727	101.69
436.949	104.69
437.17	88.69
437.392	70.69
437.614	105.69
437.835	109.69
438.057	101.69
438.278	122.69
438.5	111.69
438.721	117.69
438.943	100.69
439.165	95.69
439.386	93.69
439.608	103.69
439.829	100.69
440.05	113.69
440.272	134.69
440.493	86.69
440.715	81.69
440.936	90.69
441.158	88.69
441.379	85.69
441.6	83.69
441.822	98.69
442.043	101.69
442.264	96.69
442.486	89.69
442.707	100.69
442.928	86.69
443.149	98.69
443.371	114.69
443.592	102.69
443.813	118.69
444.034	104.69
444.255	86.69
444.476	110.69
444.698	100.69
444.919	89.69
445.14	136.69
445.361	127.69
445.582	109.69
445.803	126.69
446.024	122.69
446.245	130.69
446.466	92.69
446.687	101.69
446.908	96.69
447.129	78.69
447.35	86.69
447.571	94.69
447.792	105.69
448.013	92.69
448.234	96.69
448.455	89.69
448.675	113.69
448.896	100.69
449.117	94.69
449.338	101.69
449.559	125.69
449.779	120.69
450	95.69
450.221	84.69
450.442	86.69
450.662	99.69
450.883	91.69
451.104	102.69
451.324	102.69
451.545	99.69
451.766	96.69
451.986	104.69
452.207	104.69
452.428	84.69
452.648	95.69
452.869	94.69
453.089	101.69
453.31	107.69
453.53	89.69
453.751	86.69
453.971	100.69
454.192	95.69
454.412	94.69
454.633	94.69
454.853	85.69
455.073	92.69
455.294	91.69
455.514	100.69
455.734	94.69
455.955	92.69
456.175	76.69
456.395	81.69
456.616	101.69
456.836	82.69
457.056	78.69
457.276	86.69
457.497	90.69
457.717	90.69
457.937	92.69
458.157	95.69
458.377	96.69
458.598	99.69
458.818	105.69
459.038	125.69
459.258	102.69
459.478	86.69
459.698	90.69
459.918	89.69
460.138	92.69
460.358	98.69
460.578	90.69
460.798	92.69
461.018	95.69
461.238	81.69
461.458	97.69
461.678	78.69
461.898	91.69
462.118	94.69
462.338	84.69
462.558	75.69
462.777	101.69
462.997	89.69
463.217	92.69
463.437	94.69
463.657	77.69
463.876	98.69
464.096	74.69
464.316	103.69
464.536	96.69
464.755	80.69
464.975	102.69
465.195	111.69
465.414	130.69
465.634	97.69
465.854	95.69
466.073	75.69
466.293	87.69
466.512	93.69
466.732	96.69
466.951	100.69
467.171	85.69
467.391	92.69
467.61	94.69
467.829	109.69
468.049	95.69
468.268	90.69
468.488	87.69
468.707	90.69
468.927	88.69
469.146	105.69
469.365	101.69
469.585	98.69
469.804	89.69
470.023	96.69
470.243	98.69
470.462	104.69
470.681	111.69
470.901	90.69
471.12	99.69
471.339	91.69
471.558	80.69
471.777	97.69
471.997	89.69
472.216	98.69
472.435	122.69
472.654	104.69
472.873	78.69
473.092	98.69
473.311	100.69
473.53	88.69
473.749	93.69
473.968	101.69
474.187	95.69
474.406	99.69
474.625	90.69
474.844	95.69
475.063	80.69
475.282	90.69
475.501	90.69
475.72	97.69
475.939	102.69
476.158	76.69
476.377	79.69
476.596	88.69
476.814	90.69
477.033	104.69
477.252	88.69
477.471	85.69
477.69	70.69
477.908	98.69
478.127	80.69
478.346	94.69
478.564	101.69
478.783	87.69
479.002	100.69
479.22	84.69
479.439	95.69
479.658	94.69
479.876	93.69
480.095	82.69
480.313	87.69
480.532	101.69
480.751	89.69
480.969	106.69
481.188	142.69
481.406	126.69
481.624	94.69
481.843	96.69
482.061	99.69
482.28	88.69
482.498	81.69
482.717	100.69
482.935	100.69
483.153	108.69
483.372	96.69
483.59	93.69
483.808	87.69
484.027	104.69
484.245	97.69
484.463	84.69
484.681	95.69
484.9	102.69
485.118	100.69
485.336	92.69
485.554	99.69
485.772	103.69
485.99	106.69
486.209	109.69
486.427	106.69
486.645	118.69
486.863	103.69
487.081	119.69
487.299	90.69
487.517	109.69
487.735	102.69
487.953	102.69
488.171	94.69
488.389	112.69
488.607	97.69
488.825	98.69
489.043	109.69
489.261	90.69
489.479	91.69
489.696	104.69
489.914	77.69
490.132	96.69
490.35	98.69
490.568	89.69
490.786	85.69
491.003	98.69
491.221	96.69
491.439	80.69
491.657	96.69
491.874	92.69
492.092	105.69
492.31	110.69
492.527	89.69
492.745	105.69
492.963	100.69
493.18	96.69
493.398	90.69
493.615	113.69
493.833	81.69
494.05	88.69
494.268	86.69
494.485	84.69
494.703	91.69
494.92	94.69
495.138	88.69
495.355	95.69
495.573	100.69
495.79	93.69
496.008	109.69
496.225	103.69
496.442	93.69
496.66	99.69
496.877	92.69
497.094	111.69
497.312	96.69
497.529	99.69
497.746	94.69
497.963	96.69
498.181	95.69
498.398	90.69
498.615	103.69
498.832	105.69
499.049	95.69
499.267	96.69
499.484	93.69
499.701	100.69
499.918	108.69
500.135	88.69
500.352	97.69
500.569	94.69
500.786	99.69
501.003	90.69
501.22	88.69
501.437	103.69
501.654	86.69
501.871	96.69
502.088	97.69
502.305	103.69
502.522	92.69
502.739	95.69
502.956	94.69
503.172	108.69
503.389	105.69
503.606	116.69
503.823	88.69
504.04	91.69
504.256	102.69
504.473	88.69
504.69	82.69
504.907	90.69
505.123	96.69
505.34	81.69
505.557	106.69
505.773	80.69
505.99	96.69
506.207	82.69
506.423	92.69
506.64	78.69
506.856	102.69
507.073	100.69
507.289	109.69
507.506	107.69
507.722	113.69
507.939	111.69
508.155	108.69
508.372	97.69
508.588	98.69
508.805	96.69
509.021	91.69
509.238	101.69
509.454	97.69
509.67	93.69
509.887	102.69
510.103	109.69
510.319	144.69
510.536	430.69
510.752	1171.69
510.968	348.69
511.184	111.69
511.401	116.69
511.617	93.69
511.833	87.69
512.049	100.69
512.265	92.69
512.481	79.69
512.698	86.69
512.914	102.69
513.13	90.69
513.346	89.69
513.562	102.69
513.778	96.69
513.994	86.69
514.21	110.69
