Data from Uncirc_1981_H10_HRD10591_00091.txt Node
Date: Wed Jan 03 12:33:26 EST 2024
User: Yrep
Spectrometer: HR+D1059
Trigger mode: 1
Integration Time (sec): 1.000000E-1
Scans to average: 1
Electric dark correction enabled: true
Nonlinearity correction enabled: false
Boxcar width: 0
XAxis mode: Wavelengths
Number of Pixels in Spectrum: 2048
>>>>>Begin Spectral Data<<<<<
223.165	-31.06
223.4	-31.06
223.635	-31.06
223.869	-18.06
224.104	-26.06
224.338	-8.06
224.573	-4.06
224.808	-18.06
225.042	-0.06
225.277	-6.06
225.511	-22.06
225.746	12.94
225.98	22.94
226.215	8.94
226.449	10.94
226.683	13.94
226.918	35.94
227.152	27.94
227.387	32.94
227.621	30.94
227.856	31.94
228.09	44.94
228.324	55.94
228.559	64.94
228.793	44.94
229.027	52.94
229.262	77.94
229.496	78.94
229.73	82.94
229.964	85.94
230.199	65.94
230.433	70.94
230.667	67.94
230.901	74.94
231.136	74.94
231.37	73.94
231.604	75.94
231.838	83.94
232.072	76.94
232.306	76.94
232.541	72.94
232.775	77.94
233.009	79.94
233.243	89.94
233.477	88.94
233.711	73.94
233.945	74.94
234.179	89.94
234.413	94.94
234.647	91.94
234.881	87.94
235.115	84.94
235.349	98.94
235.583	78.94
235.817	88.94
236.051	88.94
236.285	75.94
236.519	84.94
236.753	84.94
236.987	74.94
237.221	97.94
237.455	87.94
237.689	92.94
237.922	83.94
238.156	79.94
238.39	73.94
238.624	74.94
238.858	80.94
239.091	67.94
239.325	82.94
239.559	68.94
239.793	71.94
240.027	83.94
240.26	83.94
240.494	84.94
240.728	78.94
240.961	85.94
241.195	81.94
241.429	85.94
241.662	76.94
241.896	75.94
242.13	69.94
242.363	80.94
242.597	91.94
242.83	70.94
243.064	77.94
243.298	87.94
243.531	74.94
243.765	88.94
243.998	86.94
244.232	80.94
244.465	98.94
244.699	91.94
244.932	86.94
245.166	72.94
245.399	73.94
245.633	69.94
245.866	69.94
246.099	87.94
246.333	83.94
246.566	72.94
246.8	83.94
247.033	90.94
247.266	86.94
247.5	86.94
247.733	73.94
247.966	84.94
248.2	77.94
248.433	78.94
248.666	90.94
248.899	87.94
249.133	90.94
249.366	79.94
249.599	83.94
249.832	83.94
250.066	81.94
250.299	85.94
250.532	79.94
250.765	81.94
250.998	80.94
251.231	96.94
251.465	75.94
251.698	78.94
251.931	75.94
252.164	80.94
252.397	66.94
252.63	73.94
252.863	76.94
253.096	78.94
253.329	78.94
253.562	74.94
253.795	80.94
254.028	91.94
254.261	93.94
254.494	70.94
254.727	103.94
254.96	79.94
255.193	85.94
255.426	70.94
255.659	75.94
255.892	79.94
256.124	84.94
256.357	79.94
256.59	95.94
256.823	81.94
257.056	93.94
257.289	91.94
257.521	67.94
257.754	81.94
257.987	81.94
258.22	86.94
258.452	79.94
258.685	86.94
258.918	73.94
259.151	71.94
259.383	78.94
259.616	84.94
259.849	95.94
260.081	77.94
260.314	83.94
260.547	80.94
260.779	71.94
261.012	89.94
261.244	79.94
261.477	87.94
261.71	75.94
261.942	104.94
262.175	101.94
262.407	88.94
262.64	88.94
262.872	75.94
263.105	79.94
263.337	87.94
263.57	76.94
263.802	85.94
264.035	80.94
264.267	78.94
264.499	95.94
264.732	95.94
264.964	74.94
265.197	77.94
265.429	78.94
265.661	70.94
265.894	80.94
266.126	94.94
266.358	89.94
266.591	91.94
266.823	93.94
267.055	92.94
267.287	85.94
267.52	79.94
267.752	67.94
267.984	81.94
268.216	74.94
268.448	96.94
268.681	92.94
268.913	77.94
269.145	95.94
269.377	80.94
269.609	79.94
269.841	90.94
270.073	89.94
270.306	80.94
270.538	99.94
270.77	89.94
271.002	90.94
271.234	95.94
271.466	80.94
271.698	78.94
271.93	85.94
272.162	83.94
272.394	84.94
272.626	93.94
272.858	94.94
273.09	87.94
273.322	86.94
273.553	99.94
273.785	91.94
274.017	77.94
274.249	85.94
274.481	85.94
274.713	83.94
274.945	97.94
275.176	84.94
275.408	88.94
275.64	101.94
275.872	79.94
276.104	67.94
276.335	88.94
276.567	91.94
276.799	91.94
277.031	87.94
277.262	106.94
277.494	105.94
277.726	91.94
277.957	90.94
278.189	88.94
278.421	76.94
278.652	84.94
278.884	91.94
279.115	87.94
279.347	100.94
279.579	78.94
279.81	83.94
280.042	92.94
280.273	95.94
280.505	76.94
280.736	71.94
280.968	104.94
281.199	97.94
281.431	111.94
281.662	99.94
281.894	92.94
282.125	95.94
282.356	93.94
282.588	119.94
282.819	101.94
283.051	90.94
283.282	87.94
283.513	84.94
283.745	96.94
283.976	99.94
284.207	91.94
284.439	84.94
284.67	78.94
284.901	87.94
285.132	98.94
285.364	96.94
285.595	80.94
285.826	84.94
286.057	99.94
286.288	83.94
286.52	75.94
286.751	80.94
286.982	81.94
287.213	84.94
287.444	91.94
287.675	99.94
287.906	85.94
288.138	91.94
288.369	93.94
288.6	86.94
288.831	90.94
289.062	96.94
289.293	91.94
289.524	87.94
289.755	99.94
289.986	103.94
290.217	91.94
290.448	83.94
290.679	79.94
290.91	93.94
291.141	103.94
291.371	84.94
291.602	101.94
291.833	87.94
292.064	86.94
292.295	92.94
292.526	90.94
292.757	94.94
292.987	100.94
293.218	90.94
293.449	87.94
293.68	87.94
293.91	70.94
294.141	83.94
294.372	85.94
294.603	85.94
294.833	95.94
295.064	87.94
295.295	91.94
295.525	101.94
295.756	94.94
295.987	100.94
296.217	123.94
296.448	108.94
296.679	93.94
296.909	91.94
297.14	88.94
297.37	101.94
297.601	89.94
297.831	100.94
298.062	81.94
298.292	101.94
298.523	95.94
298.753	94.94
298.984	87.94
299.214	96.94
299.445	93.94
299.675	92.94
299.905	94.94
300.136	93.94
300.366	102.94
300.597	87.94
300.827	97.94
301.057	100.94
301.288	97.94
301.518	93.94
301.748	87.94
301.979	108.94
302.209	106.94
302.439	84.94
302.669	77.94
302.9	77.94
303.13	97.94
303.36	91.94
303.59	87.94
303.82	106.94
304.051	95.94
304.281	89.94
304.511	93.94
304.741	77.94
304.971	89.94
305.201	103.94
305.431	102.94
305.661	96.94
305.891	100.94
306.121	99.94
306.352	104.94
306.582	104.94
306.812	87.94
307.042	102.94
307.272	93.94
307.502	79.94
307.731	103.94
307.961	98.94
308.191	96.94
308.421	91.94
308.651	88.94
308.881	92.94
309.111	85.94
309.341	89.94
309.571	101.94
309.8	96.94
310.03	85.94
310.26	101.94
310.49	103.94
310.72	100.94
310.949	101.94
311.179	90.94
311.409	97.94
311.639	101.94
311.868	91.94
312.098	101.94
312.328	95.94
312.557	91.94
312.787	93.94
313.017	103.94
313.246	78.94
313.476	90.94
313.706	91.94
313.935	111.94
314.165	91.94
314.394	90.94
314.624	93.94
314.853	74.94
315.083	101.94
315.312	101.94
315.542	107.94
315.771	100.94
316.001	87.94
316.23	94.94
316.46	101.94
316.689	88.94
316.919	106.94
317.148	93.94
317.377	99.94
317.607	104.94
317.836	95.94
318.065	81.94
318.295	102.94
318.524	99.94
318.753	104.94
318.983	91.94
319.212	102.94
319.441	99.94
319.67	102.94
319.9	85.94
320.129	115.94
320.358	93.94
320.587	94.94
320.816	79.94
321.046	90.94
321.275	109.94
321.504	89.94
321.733	93.94
321.962	100.94
322.191	104.94
322.42	107.94
322.649	123.94
322.878	94.94
323.108	101.94
323.337	108.94
323.566	113.94
323.795	142.94
324.024	191.94
324.253	348.94
324.482	717.94
324.71	1431.94
324.939	1933.94
325.168	683.94
325.397	223.94
325.626	145.94
325.855	121.94
326.084	124.94
326.313	128.94
326.542	141.94
326.77	205.94
326.999	404.94
327.228	842.94
327.457	1526.94
327.686	1185.94
327.914	328.94
328.143	184.94
328.372	147.94
328.6	120.94
328.829	109.94
329.058	113.94
329.287	120.94
329.515	105.94
329.744	107.94
329.972	107.94
330.201	111.94
330.43	106.94
330.658	119.94
330.887	113.94
331.115	112.94
331.344	100.94
331.572	100.94
331.801	102.94
332.03	88.94
332.258	92.94
332.486	97.94
332.715	88.94
332.943	107.94
333.172	87.94
333.4	83.94
333.629	89.94
333.857	105.94
334.085	108.94
334.314	110.94
334.542	131.94
334.771	118.94
334.999	89.94
335.227	102.94
335.455	103.94
335.684	96.94
335.912	93.94
336.14	83.94
336.369	105.94
336.597	91.94
336.825	102.94
337.053	94.94
337.281	110.94
337.51	99.94
337.738	97.94
337.966	93.94
338.194	103.94
338.422	95.94
338.65	92.94
338.878	93.94
339.106	83.94
339.334	104.94
339.562	87.94
339.79	102.94
340.018	88.94
340.246	87.94
340.474	93.94
340.702	86.94
340.93	93.94
341.158	98.94
341.386	96.94
341.614	110.94
341.842	91.94
342.07	84.94
342.298	104.94
342.526	90.94
342.754	95.94
342.981	90.94
343.209	92.94
343.437	83.94
343.665	104.94
343.893	92.94
344.12	87.94
344.348	89.94
344.576	89.94
344.804	104.94
345.031	83.94
345.259	110.94
345.487	92.94
345.714	99.94
345.942	87.94
346.17	89.94
346.397	106.94
346.625	102.94
346.853	85.94
347.08	100.94
347.308	89.94
347.535	85.94
347.763	119.94
347.99	96.94
348.218	91.94
348.445	105.94
348.673	99.94
348.9	101.94
349.128	97.94
349.355	110.94
349.583	115.94
349.81	93.94
350.037	97.94
350.265	91.94
350.492	85.94
350.72	104.94
350.947	110.94
351.174	90.94
351.402	104.94
351.629	104.94
351.856	102.94
352.083	110.94
352.311	100.94
352.538	113.94
352.765	103.94
352.992	113.94
353.22	122.94
353.447	88.94
353.674	87.94
353.901	93.94
354.128	95.94
354.355	96.94
354.583	98.94
354.81	108.94
355.037	106.94
355.264	84.94
355.491	99.94
355.718	92.94
355.945	96.94
356.172	107.94
356.399	98.94
356.626	88.94
356.853	95.94
357.08	87.94
357.307	101.94
357.534	92.94
357.761	101.94
357.988	80.94
358.215	99.94
358.441	85.94
358.668	107.94
358.895	89.94
359.122	95.94
359.349	89.94
359.576	97.94
359.802	109.94
360.029	102.94
360.256	85.94
360.483	94.94
360.709	79.94
360.936	83.94
361.163	95.94
361.39	82.94
361.616	109.94
361.843	91.94
362.07	101.94
362.296	92.94
362.523	99.94
362.749	77.94
362.976	88.94
363.203	96.94
363.429	93.94
363.656	97.94
363.882	93.94
364.109	101.94
364.335	94.94
364.562	99.94
364.788	93.94
365.015	89.94
365.241	103.94
365.468	99.94
365.694	103.94
365.92	105.94
366.147	92.94
366.373	74.94
366.599	93.94
366.826	103.94
367.052	86.94
367.278	89.94
367.505	91.94
367.731	94.94
367.957	87.94
368.184	88.94
368.41	99.94
368.636	100.94
368.862	94.94
369.089	99.94
369.315	91.94
369.541	94.94
369.767	105.94
369.993	91.94
370.219	73.94
370.445	89.94
370.672	92.94
370.898	91.94
371.124	88.94
371.35	104.94
371.576	100.94
371.802	102.94
372.028	91.94
372.254	80.94
372.48	89.94
372.706	81.94
372.932	89.94
373.158	93.94
373.384	96.94
373.61	85.94
373.835	94.94
374.061	95.94
374.287	77.94
374.513	85.94
374.739	97.94
374.965	90.94
375.191	87.94
375.416	99.94
375.642	102.94
375.868	100.94
376.094	87.94
376.319	93.94
376.545	84.94
376.771	100.94
376.997	101.94
377.222	87.94
377.448	100.94
377.674	96.94
377.899	102.94
378.125	85.94
378.35	86.94
378.576	91.94
378.802	102.94
379.027	87.94
379.253	97.94
379.478	97.94
379.704	93.94
379.929	72.94
380.155	93.94
380.38	91.94
380.606	95.94
380.831	90.94
381.057	97.94
381.282	89.94
381.507	90.94
381.733	109.94
381.958	105.94
382.184	108.94
382.409	101.94
382.634	93.94
382.86	92.94
383.085	87.94
383.31	93.94
383.535	103.94
383.761	98.94
383.986	108.94
384.211	98.94
384.436	109.94
384.662	105.94
384.887	110.94
385.112	112.94
385.337	104.94
385.562	103.94
385.787	113.94
386.013	103.94
386.238	112.94
386.463	97.94
386.688	108.94
386.913	92.94
387.138	92.94
387.363	88.94
387.588	96.94
387.813	109.94
388.038	108.94
388.263	106.94
388.488	110.94
388.713	111.94
388.938	93.94
389.163	96.94
389.387	105.94
389.612	107.94
389.837	110.94
390.062	83.94
390.287	102.94
390.512	106.94
390.736	109.94
390.961	103.94
391.186	101.94
391.411	110.94
391.636	109.94
391.86	100.94
392.085	85.94
392.31	97.94
392.534	92.94
392.759	92.94
392.984	100.94
393.208	104.94
393.433	87.94
393.658	101.94
393.882	97.94
394.107	86.94
394.331	89.94
394.556	90.94
394.78	94.94
395.005	84.94
395.229	78.94
395.454	91.94
395.678	94.94
395.903	100.94
396.127	75.94
396.352	95.94
396.576	92.94
396.801	96.94
397.025	108.94
397.249	87.94
397.474	89.94
397.698	84.94
397.922	91.94
398.147	84.94
398.371	86.94
398.595	87.94
398.82	89.94
399.044	77.94
399.268	87.94
399.492	95.94
399.717	110.94
399.941	103.94
400.165	90.94
400.389	87.94
400.613	105.94
400.837	91.94
401.062	74.94
401.286	70.94
401.51	89.94
401.734	88.94
401.958	104.94
402.182	119.94
402.406	144.94
402.63	96.94
402.854	99.94
403.078	91.94
403.302	90.94
403.526	91.94
403.75	85.94
403.974	83.94
404.198	99.94
404.422	78.94
404.645	91.94
404.869	95.94
405.093	89.94
405.317	95.94
405.541	104.94
405.765	87.94
405.988	99.94
406.212	159.94
406.436	181.94
406.66	115.94
406.883	88.94
407.107	87.94
407.331	96.94
407.555	86.94
407.778	104.94
408.002	87.94
408.226	102.94
408.449	92.94
408.673	93.94
408.896	98.94
409.12	89.94
409.344	83.94
409.567	83.94
409.791	94.94
410.014	90.94
410.238	98.94
410.461	93.94
410.685	94.94
410.908	104.94
411.132	91.94
411.355	88.94
411.578	96.94
411.802	95.94
412.025	96.94
412.249	85.94
412.472	101.94
412.695	100.94
412.919	95.94
413.142	88.94
413.365	87.94
413.589	84.94
413.812	97.94
414.035	99.94
414.258	94.94
414.482	81.94
414.705	97.94
414.928	90.94
415.151	110.94
415.374	88.94
415.597	89.94
415.821	108.94
416.044	100.94
416.267	95.94
416.49	99.94
416.713	93.94
416.936	87.94
417.159	85.94
417.382	84.94
417.605	102.94
417.828	93.94
418.051	89.94
418.274	98.94
418.497	94.94
418.72	89.94
418.943	75.94
419.166	110.94
419.389	92.94
419.611	85.94
419.834	106.94
420.057	90.94
420.28	104.94
420.503	89.94
420.726	95.94
420.948	81.94
421.171	88.94
421.394	80.94
421.617	93.94
421.839	95.94
422.062	96.94
422.285	85.94
422.507	91.94
422.73	99.94
422.953	96.94
423.175	93.94
423.398	86.94
423.621	100.94
423.843	95.94
424.066	83.94
424.288	76.94
424.511	100.94
424.733	87.94
424.956	103.94
425.178	96.94
425.401	101.94
425.623	99.94
425.846	81.94
426.068	83.94
426.291	95.94
426.513	108.94
426.735	99.94
426.958	87.94
427.18	103.94
427.402	140.94
427.625	126.94
427.847	118.94
428.069	104.94
428.292	87.94
428.514	84.94
428.736	72.94
428.958	80.94
429.181	99.94
429.403	84.94
429.625	78.94
429.847	88.94
430.069	94.94
430.292	89.94
430.514	75.94
430.736	88.94
430.958	85.94
431.18	93.94
431.402	87.94
431.624	95.94
431.846	99.94
432.068	91.94
432.29	85.94
432.512	79.94
432.734	69.94
432.956	96.94
433.178	94.94
433.4	96.94
433.622	102.94
433.844	84.94
434.066	93.94
434.287	95.94
434.509	79.94
434.731	89.94
434.953	84.94
435.175	93.94
435.397	90.94
435.618	93.94
435.84	101.94
436.062	123.94
436.284	97.94
436.505	95.94
436.727	90.94
436.949	102.94
437.17	107.94
437.392	103.94
437.614	94.94
437.835	96.94
438.057	88.94
438.278	112.94
438.5	98.94
438.721	99.94
438.943	93.94
439.165	93.94
439.386	80.94
439.608	92.94
439.829	107.94
440.05	111.94
440.272	124.94
440.493	104.94
440.715	84.94
440.936	85.94
441.158	92.94
441.379	87.94
441.6	81.94
441.822	95.94
442.043	83.94
442.264	103.94
442.486	92.94
442.707	83.94
442.928	109.94
443.149	107.94
443.371	130.94
443.592	108.94
443.813	100.94
444.034	106.94
444.255	101.94
444.476	85.94
444.698	89.94
444.919	83.94
445.14	129.94
445.361	115.94
445.582	107.94
445.803	123.94
446.024	116.94
446.245	107.94
446.466	106.94
446.687	99.94
446.908	93.94
447.129	92.94
447.35	96.94
447.571	85.94
447.792	88.94
448.013	87.94
448.234	112.94
448.455	100.94
448.675	108.94
448.896	102.94
449.117	106.94
449.338	123.94
449.559	110.94
449.779	116.94
450	93.94
450.221	83.94
450.442	103.94
450.662	97.94
450.883	98.94
451.104	104.94
451.324	104.94
451.545	73.94
451.766	92.94
451.986	84.94
452.207	84.94
452.428	74.94
452.648	96.94
452.869	104.94
453.089	102.94
453.31	105.94
453.53	84.94
453.751	99.94
453.971	86.94
454.192	83.94
454.412	92.94
454.633	89.94
454.853	95.94
455.073	91.94
455.294	79.94
455.514	101.94
455.734	84.94
455.955	88.94
456.175	88.94
456.395	92.94
456.616	92.94
456.836	89.94
457.056	98.94
457.276	93.94
457.497	99.94
457.717	92.94
457.937	87.94
458.157	87.94
458.377	88.94
458.598	96.94
458.818	125.94
459.038	119.94
459.258	102.94
459.478	94.94
459.698	92.94
459.918	95.94
460.138	88.94
460.358	102.94
460.578	81.94
460.798	103.94
461.018	82.94
461.238	106.94
461.458	101.94
461.678	84.94
461.898	91.94
462.118	89.94
462.338	87.94
462.558	91.94
462.777	95.94
462.997	81.94
463.217	86.94
463.437	83.94
463.657	94.94
463.876	89.94
464.096	89.94
464.316	87.94
464.536	96.94
464.755	86.94
464.975	100.94
465.195	127.94
465.414	122.94
465.634	85.94
465.854	83.94
466.073	94.94
466.293	96.94
466.512	84.94
466.732	105.94
466.951	95.94
467.171	89.94
467.391	103.94
467.61	110.94
467.829	97.94
468.049	94.94
468.268	99.94
468.488	88.94
468.707	100.94
468.927	94.94
469.146	97.94
469.365	91.94
469.585	94.94
469.804	89.94
470.023	99.94
470.243	91.94
470.462	94.94
470.681	103.94
470.901	99.94
471.12	85.94
471.339	79.94
471.558	100.94
471.777	83.94
471.997	94.94
472.216	110.94
472.435	121.94
472.654	116.94
472.873	95.94
473.092	80.94
473.311	100.94
473.53	88.94
473.749	96.94
473.968	101.94
474.187	94.94
474.406	84.94
474.625	93.94
474.844	85.94
475.063	91.94
475.282	86.94
475.501	102.94
475.72	77.94
475.939	78.94
476.158	85.94
476.377	79.94
476.596	87.94
476.814	87.94
477.033	82.94
477.252	89.94
477.471	79.94
477.69	81.94
477.908	86.94
478.127	95.94
478.346	90.94
478.564	76.94
478.783	87.94
479.002	99.94
479.22	87.94
479.439	96.94
479.658	91.94
479.876	99.94
480.095	91.94
480.313	86.94
480.532	91.94
480.751	103.94
480.969	100.94
481.188	165.94
481.406	126.94
481.624	100.94
481.843	95.94
482.061	97.94
482.28	92.94
482.498	107.94
482.717	100.94
482.935	102.94
483.153	84.94
483.372	80.94
483.59	89.94
483.808	79.94
484.027	92.94
484.245	92.94
484.463	83.94
484.681	100.94
484.9	112.94
485.118	103.94
485.336	85.94
485.554	96.94
485.772	96.94
485.99	103.94
486.209	100.94
486.427	101.94
486.645	106.94
486.863	107.94
487.081	100.94
487.299	86.94
487.517	94.94
487.735	85.94
487.953	87.94
488.171	87.94
488.389	86.94
488.607	99.94
488.825	108.94
489.043	77.94
489.261	79.94
489.479	80.94
489.696	95.94
489.914	86.94
490.132	90.94
490.35	96.94
490.568	91.94
490.786	88.94
491.003	83.94
491.221	84.94
491.439	94.94
491.657	91.94
491.874	100.94
492.092	85.94
492.31	93.94
492.527	87.94
492.745	95.94
492.963	98.94
493.18	91.94
493.398	95.94
493.615	108.94
493.833	99.94
494.05	88.94
494.268	101.94
494.485	98.94
494.703	80.94
494.92	86.94
495.138	93.94
495.355	87.94
495.573	92.94
495.79	101.94
496.008	90.94
496.225	89.94
496.442	94.94
496.66	95.94
496.877	100.94
497.094	93.94
497.312	96.94
497.529	94.94
497.746	91.94
497.963	80.94
498.181	93.94
498.398	87.94
498.615	106.94
498.832	93.94
499.049	105.94
499.267	86.94
499.484	93.94
499.701	104.94
499.918	93.94
500.135	98.94
500.352	75.94
500.569	85.94
500.786	92.94
501.003	97.94
501.22	89.94
501.437	95.94
501.654	92.94
501.871	90.94
502.088	83.94
502.305	99.94
502.522	100.94
502.739	93.94
502.956	91.94
503.172	99.94
503.389	83.94
503.606	100.94
503.823	91.94
504.04	85.94
504.256	87.94
504.473	92.94
504.69	90.94
504.907	97.94
505.123	79.94
505.34	100.94
505.557	85.94
505.773	73.94
505.99	96.94
506.207	91.94
506.423	87.94
506.64	92.94
506.856	92.94
507.073	88.94
507.289	93.94
507.506	105.94
507.722	102.94
507.939	101.94
508.155	89.94
508.372	104.94
508.588	95.94
508.805	87.94
509.021	89.94
509.238	95.94
509.454	87.94
509.67	106.94
509.887	96.94
510.103	118.94
510.319	175.94
510.536	579.94
510.752	1617.94
510.968	458.94
511.184	138.94
511.401	101.94
511.617	75.94
511.833	81.94
512.049	108.94
512.265	90.94
512.481	100.94
512.698	88.94
512.914	99.94
513.13	107.94
513.346	102.94
513.562	93.94
513.778	101.94
513.994	92.94
514.21	98.94
514.426	110.94
514.642	123.94
514.858	110.94
515.074	140.94
