Data from Uncirc_1981_H10_HRD10591_00002.txt Node
Date: Wed Jan 03 12:33:08 EST 2024
User: Yrep
Spectrometer: HR+D1059
Trigger mode: 1
Integration Time (sec): 1.000000E-1
Scans to average: 1
Electric dark correction enabled: true
Nonlinearity correction enabled: false
Boxcar width: 0
XAxis mode: Wavelengths
Number of Pixels in Spectrum: 2048
>>>>>Begin Spectral Data<<<<<
223.165	-6.75
223.4	-6.75
223.635	-6.75
223.869	-17.75
224.104	-9.75
224.338	-11.75
224.573	-29.75
224.808	-7.75
225.042	-25.75
225.277	-10.75
225.511	2.25
225.746	17.25
225.98	9.25
226.215	11.25
226.449	26.25
226.683	12.25
226.918	28.25
227.152	13.25
227.387	34.25
227.621	36.25
227.856	55.25
228.09	51.25
228.324	46.25
228.559	49.25
228.793	47.25
229.027	56.25
229.262	67.25
229.496	63.25
229.73	65.25
229.964	63.25
230.199	82.25
230.433	73.25
230.667	72.25
230.901	76.25
231.136	75.25
231.37	67.25
231.604	82.25
231.838	76.25
232.072	77.25
232.306	83.25
232.541	72.25
232.775	74.25
233.009	67.25
233.243	81.25
233.477	89.25
233.711	84.25
233.945	85.25
234.179	74.25
234.413	77.25
234.647	83.25
234.881	64.25
235.115	60.25
235.349	76.25
235.583	90.25
235.817	82.25
236.051	76.25
236.285	80.25
236.519	81.25
236.753	73.25
236.987	82.25
237.221	84.25
237.455	72.25
237.689	84.25
237.922	78.25
238.156	76.25
238.39	78.25
238.624	84.25
238.858	83.25
239.091	66.25
239.325	70.25
239.559	73.25
239.793	75.25
240.027	84.25
240.26	77.25
240.494	69.25
240.728	64.25
240.961	63.25
241.195	76.25
241.429	71.25
241.662	81.25
241.896	67.25
242.13	66.25
242.363	88.25
242.597	73.25
242.83	68.25
243.064	80.25
243.298	76.25
243.531	96.25
243.765	80.25
243.998	87.25
244.232	84.25
244.465	72.25
244.699	66.25
244.932	74.25
245.166	72.25
245.399	70.25
245.633	91.25
245.866	82.25
246.099	85.25
246.333	78.25
246.566	82.25
246.8	74.25
247.033	80.25
247.266	77.25
247.5	85.25
247.733	69.25
247.966	94.25
248.2	96.25
248.433	78.25
248.666	98.25
248.899	80.25
249.133	85.25
249.366	91.25
249.599	75.25
249.832	84.25
250.066	88.25
250.299	73.25
250.532	74.25
250.765	81.25
250.998	90.25
251.231	86.25
251.465	81.25
251.698	80.25
251.931	89.25
252.164	88.25
252.397	89.25
252.63	75.25
252.863	55.25
253.096	75.25
253.329	80.25
253.562	64.25
253.795	84.25
254.028	87.25
254.261	81.25
254.494	80.25
254.727	80.25
254.96	68.25
255.193	77.25
255.426	85.25
255.659	60.25
255.892	86.25
256.124	77.25
256.357	76.25
256.59	72.25
256.823	95.25
257.056	76.25
257.289	75.25
257.521	83.25
257.754	87.25
257.987	76.25
258.22	83.25
258.452	78.25
258.685	77.25
258.918	67.25
259.151	84.25
259.383	77.25
259.616	83.25
259.849	78.25
260.081	86.25
260.314	85.25
260.547	69.25
260.779	74.25
261.012	90.25
261.244	82.25
261.477	89.25
261.71	94.25
261.942	91.25
262.175	104.25
262.407	102.25
262.64	77.25
262.872	71.25
263.105	77.25
263.337	82.25
263.57	77.25
263.802	86.25
264.035	85.25
264.267	70.25
264.499	73.25
264.732	85.25
264.964	72.25
265.197	84.25
265.429	93.25
265.661	90.25
265.894	69.25
266.126	69.25
266.358	81.25
266.591	86.25
266.823	84.25
267.055	91.25
267.287	91.25
267.52	89.25
267.752	82.25
267.984	88.25
268.216	96.25
268.448	97.25
268.681	84.25
268.913	82.25
269.145	78.25
269.377	88.25
269.609	85.25
269.841	70.25
270.073	91.25
270.306	83.25
270.538	81.25
270.77	72.25
271.002	69.25
271.234	78.25
271.466	73.25
271.698	85.25
271.93	83.25
272.162	66.25
272.394	102.25
272.626	88.25
272.858	89.25
273.09	91.25
273.322	91.25
273.553	83.25
273.785	74.25
274.017	73.25
274.249	81.25
274.481	88.25
274.713	85.25
274.945	96.25
275.176	72.25
275.408	86.25
275.64	82.25
275.872	66.25
276.104	77.25
276.335	96.25
276.567	89.25
276.799	80.25
277.031	98.25
277.262	88.25
277.494	96.25
277.726	80.25
277.957	84.25
278.189	77.25
278.421	92.25
278.652	80.25
278.884	83.25
279.115	76.25
279.347	76.25
279.579	82.25
279.81	86.25
280.042	94.25
280.273	91.25
280.505	85.25
280.736	71.25
280.968	73.25
281.199	74.25
281.431	77.25
281.662	91.25
281.894	90.25
282.125	78.25
282.356	77.25
282.588	91.25
282.819	92.25
283.051	80.25
283.282	76.25
283.513	75.25
283.745	81.25
283.976	90.25
284.207	91.25
284.439	93.25
284.67	89.25
284.901	95.25
285.132	81.25
285.364	97.25
285.595	86.25
285.826	79.25
286.057	84.25
286.288	73.25
286.52	83.25
286.751	84.25
286.982	90.25
287.213	91.25
287.444	91.25
287.675	92.25
287.906	86.25
288.138	88.25
288.369	88.25
288.6	83.25
288.831	80.25
289.062	89.25
289.293	87.25
289.524	89.25
289.755	91.25
289.986	94.25
290.217	84.25
290.448	84.25
290.679	96.25
290.91	97.25
291.141	92.25
291.371	102.25
291.602	77.25
291.833	90.25
292.064	85.25
292.295	86.25
292.526	95.25
292.757	76.25
292.987	78.25
293.218	91.25
293.449	94.25
293.68	93.25
293.91	85.25
294.141	88.25
294.372	96.25
294.603	97.25
294.833	85.25
295.064	88.25
295.295	92.25
295.525	95.25
295.756	77.25
295.987	102.25
296.217	100.25
296.448	93.25
296.679	97.25
296.909	93.25
297.14	98.25
297.37	104.25
297.601	98.25
297.831	102.25
298.062	101.25
298.292	85.25
298.523	85.25
298.753	74.25
298.984	80.25
299.214	78.25
299.445	93.25
299.675	102.25
299.905	87.25
300.136	87.25
300.366	95.25
300.597	72.25
300.827	94.25
301.057	92.25
301.288	91.25
301.518	88.25
301.748	107.25
301.979	113.25
302.209	93.25
302.439	108.25
302.669	91.25
302.9	89.25
303.13	94.25
303.36	90.25
303.59	101.25
303.82	77.25
304.051	83.25
304.281	91.25
304.511	97.25
304.741	88.25
304.971	96.25
305.201	85.25
305.431	86.25
305.661	81.25
305.891	88.25
306.121	97.25
306.352	87.25
306.582	95.25
306.812	95.25
307.042	87.25
307.272	83.25
307.502	89.25
307.731	97.25
307.961	87.25
308.191	91.25
308.421	81.25
308.651	95.25
308.881	89.25
309.111	90.25
309.341	100.25
309.571	86.25
309.8	77.25
310.03	88.25
310.26	92.25
310.49	89.25
310.72	86.25
310.949	93.25
311.179	103.25
311.409	102.25
311.639	88.25
311.868	105.25
312.098	101.25
312.328	89.25
312.557	85.25
312.787	94.25
313.017	99.25
313.246	88.25
313.476	80.25
313.706	86.25
313.935	93.25
314.165	94.25
314.394	90.25
314.624	81.25
314.853	98.25
315.083	97.25
315.312	101.25
315.542	90.25
315.771	107.25
316.001	101.25
316.23	95.25
316.46	84.25
316.689	87.25
316.919	85.25
317.148	91.25
317.377	90.25
317.607	90.25
317.836	78.25
318.065	91.25
318.295	92.25
318.524	93.25
318.753	88.25
318.983	94.25
319.212	105.25
319.441	96.25
319.67	111.25
319.9	97.25
320.129	91.25
320.358	103.25
320.587	78.25
320.816	107.25
321.046	79.25
321.275	86.25
321.504	89.25
321.733	109.25
321.962	101.25
322.191	96.25
322.42	100.25
322.649	99.25
322.878	82.25
323.108	102.25
323.337	106.25
323.566	112.25
323.795	130.25
324.024	159.25
324.253	264.25
324.482	559.25
324.71	1122.25
324.939	1483.25
325.168	559.25
325.397	174.25
325.626	132.25
325.855	113.25
326.084	116.25
326.313	117.25
326.542	113.25
326.77	180.25
326.999	328.25
327.228	653.25
327.457	1182.25
327.686	940.25
327.914	261.25
328.143	144.25
328.372	115.25
328.6	107.25
328.829	102.25
329.058	91.25
329.287	110.25
329.515	98.25
329.744	102.25
329.972	97.25
330.201	92.25
330.43	97.25
330.658	98.25
330.887	106.25
331.115	100.25
331.344	93.25
331.572	89.25
331.801	82.25
332.03	88.25
332.258	90.25
332.486	89.25
332.715	86.25
332.943	76.25
333.172	92.25
333.4	87.25
333.629	93.25
333.857	88.25
334.085	111.25
334.314	112.25
334.542	107.25
334.771	105.25
334.999	97.25
335.227	87.25
335.455	85.25
335.684	100.25
335.912	97.25
336.14	90.25
336.369	84.25
336.597	90.25
336.825	110.25
337.053	79.25
337.281	67.25
337.51	106.25
337.738	89.25
337.966	88.25
338.194	88.25
338.422	89.25
338.65	77.25
338.878	82.25
339.106	92.25
339.334	92.25
339.562	81.25
339.79	89.25
340.018	86.25
340.246	93.25
340.474	99.25
340.702	92.25
340.93	91.25
341.158	89.25
341.386	94.25
341.614	84.25
341.842	98.25
342.07	75.25
342.298	100.25
342.526	84.25
342.754	82.25
342.981	99.25
343.209	90.25
343.437	106.25
343.665	93.25
343.893	88.25
344.12	92.25
344.348	99.25
344.576	98.25
344.804	94.25
345.031	88.25
345.259	94.25
345.487	94.25
345.714	104.25
345.942	88.25
346.17	103.25
346.397	90.25
346.625	101.25
346.853	82.25
347.08	101.25
347.308	97.25
347.535	96.25
347.763	96.25
347.99	99.25
348.218	103.25
348.445	96.25
348.673	104.25
348.9	98.25
349.128	97.25
349.355	78.25
349.583	92.25
349.81	93.25
350.037	89.25
350.265	94.25
350.492	93.25
350.72	109.25
350.947	101.25
351.174	92.25
351.402	97.25
351.629	99.25
351.856	122.25
352.083	96.25
352.311	104.25
352.538	96.25
352.765	110.25
352.992	107.25
353.22	94.25
353.447	103.25
353.674	112.25
353.901	102.25
354.128	103.25
354.355	90.25
354.583	103.25
354.81	104.25
355.037	107.25
355.264	103.25
355.491	104.25
355.718	99.25
355.945	121.25
356.172	111.25
356.399	101.25
356.626	109.25
356.853	107.25
357.08	99.25
357.307	90.25
357.534	84.25
357.761	93.25
357.988	102.25
358.215	106.25
358.441	117.25
358.668	124.25
358.895	108.25
359.122	99.25
359.349	97.25
359.576	97.25
359.802	87.25
360.029	81.25
360.256	86.25
360.483	98.25
360.709	79.25
360.936	80.25
361.163	88.25
361.39	92.25
361.616	93.25
361.843	86.25
362.07	94.25
362.296	90.25
362.523	97.25
362.749	92.25
362.976	75.25
363.203	98.25
363.429	98.25
363.656	100.25
363.882	87.25
364.109	82.25
364.335	104.25
364.562	86.25
364.788	86.25
365.015	106.25
365.241	96.25
365.468	84.25
365.694	92.25
365.92	76.25
366.147	97.25
366.373	88.25
366.599	90.25
366.826	96.25
367.052	90.25
367.278	90.25
367.505	97.25
367.731	96.25
367.957	106.25
368.184	89.25
368.41	96.25
368.636	89.25
368.862	106.25
369.089	95.25
369.315	84.25
369.541	100.25
369.767	108.25
369.993	97.25
370.219	104.25
370.445	85.25
370.672	89.25
370.898	84.25
371.124	82.25
371.35	98.25
371.576	99.25
371.802	87.25
372.028	89.25
372.254	94.25
372.48	104.25
372.706	92.25
372.932	71.25
373.158	81.25
373.384	94.25
373.61	100.25
373.835	95.25
374.061	87.25
374.287	78.25
374.513	100.25
374.739	93.25
374.965	91.25
375.191	100.25
375.416	91.25
375.642	98.25
375.868	95.25
376.094	88.25
376.319	100.25
376.545	94.25
376.771	119.25
376.997	110.25
377.222	88.25
377.448	99.25
377.674	98.25
377.899	94.25
378.125	107.25
378.35	93.25
378.576	108.25
378.802	92.25
379.027	102.25
379.253	117.25
379.478	110.25
379.704	120.25
379.929	119.25
380.155	107.25
380.38	121.25
380.606	109.25
380.831	120.25
381.057	120.25
381.282	120.25
381.507	121.25
381.733	108.25
381.958	136.25
382.184	121.25
382.409	136.25
382.634	135.25
382.86	136.25
383.085	129.25
383.31	127.25
383.535	143.25
383.761	141.25
383.986	140.25
384.211	137.25
384.436	132.25
384.662	150.25
384.887	166.25
385.112	170.25
385.337	187.25
385.562	162.25
385.787	170.25
386.013	179.25
386.238	172.25
386.463	178.25
386.688	165.25
386.913	159.25
387.138	190.25
387.363	150.25
387.588	138.25
387.813	148.25
388.038	156.25
388.263	197.25
388.488	185.25
388.713	127.25
388.938	102.25
389.163	100.25
389.387	115.25
389.612	97.25
389.837	103.25
390.062	102.25
390.287	106.25
390.512	98.25
390.736	89.25
390.961	103.25
391.186	84.25
391.411	94.25
391.636	86.25
391.86	97.25
392.085	84.25
392.31	84.25
392.534	86.25
392.759	87.25
392.984	93.25
393.208	93.25
393.433	94.25
393.658	110.25
393.882	89.25
394.107	71.25
394.331	80.25
394.556	84.25
394.78	95.25
395.005	83.25
395.229	89.25
395.454	96.25
395.678	71.25
395.903	76.25
396.127	95.25
396.352	76.25
396.576	98.25
396.801	80.25
397.025	84.25
397.249	92.25
397.474	88.25
397.698	92.25
397.922	87.25
398.147	86.25
398.371	88.25
398.595	97.25
398.82	88.25
399.044	64.25
399.268	77.25
399.492	77.25
399.717	84.25
399.941	76.25
400.165	93.25
400.389	101.25
400.613	96.25
400.837	81.25
401.062	97.25
401.286	86.25
401.51	93.25
401.734	82.25
401.958	81.25
402.182	94.25
402.406	105.25
402.63	94.25
402.854	88.25
403.078	83.25
403.302	93.25
403.526	80.25
403.75	91.25
403.974	90.25
404.198	88.25
404.422	72.25
404.645	82.25
404.869	77.25
405.093	87.25
405.317	107.25
405.541	93.25
405.765	87.25
405.988	102.25
406.212	103.25
406.436	136.25
406.66	98.25
406.883	92.25
407.107	91.25
407.331	92.25
407.555	88.25
407.778	88.25
408.002	82.25
408.226	89.25
408.449	84.25
408.673	81.25
408.896	78.25
409.12	106.25
409.344	98.25
409.567	101.25
409.791	96.25
410.014	99.25
410.238	88.25
410.461	104.25
410.685	96.25
410.908	100.25
411.132	115.25
411.355	105.25
411.578	110.25
411.802	90.25
412.025	82.25
412.249	103.25
412.472	92.25
412.695	87.25
412.919	97.25
413.142	83.25
413.365	90.25
413.589	90.25
413.812	90.25
414.035	91.25
414.258	103.25
414.482	110.25
414.705	109.25
414.928	103.25
415.151	102.25
415.374	114.25
415.597	96.25
415.821	98.25
416.044	91.25
416.267	103.25
416.49	103.25
416.713	80.25
416.936	92.25
417.159	107.25
417.382	114.25
417.605	94.25
417.828	88.25
418.051	91.25
418.274	92.25
418.497	94.25
418.72	86.25
418.943	91.25
419.166	94.25
419.389	99.25
419.611	103.25
419.834	105.25
420.057	96.25
420.28	76.25
420.503	82.25
420.726	86.25
420.948	93.25
421.171	83.25
421.394	90.25
421.617	84.25
421.839	96.25
422.062	82.25
422.285	92.25
422.507	88.25
422.73	94.25
422.953	72.25
423.175	88.25
423.398	77.25
423.621	91.25
423.843	80.25
424.066	90.25
424.288	90.25
424.511	89.25
424.733	84.25
424.956	79.25
425.178	92.25
425.401	96.25
425.623	102.25
425.846	97.25
426.068	73.25
426.291	86.25
426.513	84.25
426.735	70.25
426.958	91.25
427.18	95.25
427.402	112.25
427.625	102.25
427.847	106.25
428.069	113.25
428.292	78.25
428.514	84.25
428.736	91.25
428.958	98.25
429.181	99.25
429.403	92.25
429.625	69.25
429.847	91.25
430.069	95.25
430.292	96.25
430.514	86.25
430.736	64.25
430.958	80.25
431.18	88.25
431.402	81.25
431.624	74.25
431.846	86.25
432.068	78.25
432.29	90.25
432.512	96.25
432.734	84.25
432.956	82.25
433.178	103.25
433.4	96.25
433.622	92.25
433.844	102.25
434.066	110.25
434.287	88.25
434.509	80.25
434.731	86.25
434.953	87.25
435.175	79.25
435.397	93.25
435.618	90.25
435.84	107.25
436.062	100.25
436.284	92.25
436.505	92.25
436.727	92.25
436.949	91.25
437.17	78.25
437.392	92.25
437.614	75.25
437.835	96.25
438.057	94.25
438.278	94.25
438.5	108.25
438.721	109.25
438.943	99.25
439.165	91.25
439.386	92.25
439.608	95.25
439.829	88.25
440.05	104.25
440.272	115.25
440.493	89.25
440.715	90.25
440.936	94.25
441.158	91.25
441.379	89.25
441.6	91.25
441.822	94.25
442.043	96.25
442.264	76.25
442.486	92.25
442.707	99.25
442.928	96.25
443.149	119.25
443.371	114.25
443.592	73.25
443.813	98.25
444.034	96.25
444.255	91.25
444.476	89.25
444.698	88.25
444.919	76.25
445.14	122.25
445.361	114.25
445.582	102.25
445.803	116.25
446.024	114.25
446.245	106.25
446.466	104.25
446.687	89.25
446.908	91.25
447.129	69.25
447.35	94.25
447.571	69.25
447.792	80.25
448.013	95.25
448.234	93.25
448.455	96.25
448.675	88.25
448.896	98.25
449.117	76.25
449.338	103.25
449.559	108.25
449.779	119.25
450	106.25
450.221	80.25
450.442	86.25
450.662	77.25
450.883	80.25
451.104	82.25
451.324	102.25
451.545	81.25
451.766	89.25
451.986	92.25
452.207	77.25
452.428	84.25
452.648	89.25
452.869	92.25
453.089	86.25
453.31	93.25
453.53	97.25
453.751	88.25
453.971	89.25
454.192	97.25
454.412	93.25
454.633	91.25
454.853	89.25
455.073	86.25
455.294	79.25
455.514	100.25
455.734	78.25
455.955	84.25
456.175	85.25
456.395	88.25
456.616	93.25
456.836	86.25
457.056	81.25
457.276	77.25
457.497	75.25
457.717	85.25
457.937	88.25
458.157	96.25
458.377	84.25
458.598	92.25
458.818	98.25
459.038	110.25
459.258	87.25
459.478	69.25
459.698	71.25
459.918	83.25
460.138	79.25
460.358	70.25
460.578	96.25
460.798	83.25
461.018	69.25
461.238	102.25
461.458	82.25
461.678	82.25
461.898	86.25
462.118	82.25
462.338	90.25
462.558	99.25
462.777	86.25
462.997	72.25
463.217	82.25
463.437	80.25
463.657	77.25
463.876	83.25
464.096	80.25
464.316	94.25
464.536	94.25
464.755	91.25
464.975	93.25
465.195	104.25
465.414	110.25
465.634	84.25
465.854	83.25
466.073	75.25
466.293	81.25
466.512	90.25
466.732	77.25
466.951	96.25
467.171	94.25
467.391	97.25
467.61	76.25
467.829	81.25
468.049	96.25
468.268	90.25
468.488	82.25
468.707	90.25
468.927	83.25
469.146	88.25
469.365	86.25
469.585	82.25
469.804	78.25
470.023	90.25
470.243	101.25
470.462	96.25
470.681	92.25
470.901	86.25
471.12	84.25
471.339	82.25
471.558	87.25
471.777	65.25
471.997	82.25
472.216	102.25
472.435	109.25
472.654	101.25
472.873	83.25
473.092	73.25
473.311	86.25
473.53	83.25
473.749	86.25
473.968	98.25
474.187	90.25
474.406	96.25
474.625	91.25
474.844	94.25
475.063	82.25
475.282	77.25
475.501	99.25
475.72	81.25
475.939	80.25
476.158	100.25
476.377	87.25
476.596	92.25
476.814	76.25
477.033	84.25
477.252	85.25
477.471	97.25
477.69	74.25
477.908	95.25
478.127	107.25
478.346	67.25
478.564	74.25
478.783	94.25
479.002	85.25
479.22	96.25
479.439	80.25
479.658	82.25
479.876	93.25
480.095	89.25
480.313	90.25
480.532	96.25
480.751	79.25
480.969	92.25
481.188	123.25
481.406	105.25
481.624	84.25
481.843	97.25
482.061	82.25
482.28	95.25
482.498	93.25
482.717	90.25
482.935	84.25
483.153	96.25
483.372	78.25
483.59	92.25
483.808	88.25
484.027	87.25
484.245	91.25
484.463	98.25
484.681	84.25
484.9	103.25
485.118	97.25
485.336	98.25
485.554	89.25
485.772	107.25
485.99	111.25
486.209	114.25
486.427	117.25
486.645	99.25
486.863	97.25
487.081	110.25
487.299	91.25
487.517	95.25
487.735	94.25
487.953	100.25
488.171	108.25
488.389	90.25
488.607	96.25
488.825	98.25
489.043	96.25
489.261	85.25
489.479	89.25
489.696	77.25
489.914	104.25
490.132	88.25
490.35	86.25
490.568	96.25
490.786	99.25
491.003	80.25
491.221	103.25
491.439	88.25
491.657	95.25
491.874	97.25
492.092	101.25
492.31	94.25
492.527	82.25
492.745	90.25
492.963	109.25
493.18	96.25
493.398	96.25
493.615	104.25
493.833	102.25
494.05	80.25
494.268	77.25
494.485	86.25
494.703	83.25
494.92	86.25
495.138	97.25
495.355	85.25
495.573	85.25
495.79	93.25
496.008	101.25
496.225	80.25
496.442	85.25
496.66	88.25
496.877	92.25
497.094	87.25
497.312	86.25
497.529	101.25
497.746	82.25
497.963	90.25
498.181	83.25
498.398	92.25
498.615	95.25
498.832	88.25
499.049	96.25
499.267	77.25
499.484	90.25
499.701	88.25
499.918	89.25
500.135	104.25
500.352	112.25
500.569	88.25
500.786	79.25
501.003	68.25
501.22	96.25
501.437	85.25
501.654	89.25
501.871	98.25
502.088	83.25
502.305	88.25
502.522	84.25
502.739	86.25
502.956	81.25
503.172	98.25
503.389	92.25
503.606	92.25
503.823	86.25
504.04	85.25
504.256	88.25
504.473	72.25
504.69	77.25
504.907	98.25
505.123	82.25
505.34	88.25
505.557	88.25
505.773	98.25
505.99	82.25
506.207	85.25
506.423	84.25
506.64	90.25
506.856	101.25
507.073	76.25
507.289	89.25
507.506	97.25
507.722	94.25
507.939	93.25
508.155	84.25
508.372	104.25
508.588	81.25
508.805	92.25
509.021	98.25
509.238	81.25
509.454	93.25
509.67	92.25
509.887	90.25
510.103	107.25
510.319	115.25
510.536	350.25
510.752	923.25
510.968	301.25
511.184	102.25
511.401	101.25
511.617	93.25
511.833	87.25
512.049	89.25
512.265	88.25
512.481	92.25
512.698	101.25
512.914	97.25
513.13	79.25
513.346	77.25
513.562	92.25
513.778	86.25
513.994	98.25
514.21	88.25
514.426	93.25
514.642	118.25
514.858	103.25
515.074	117.25
515.29	224.25
515.506	535.25
515.721	225.25
515.937	126.25
516.153	100.25
516.369	95.25
