Data from Uncirc_1981_H10_HRD10591_00033.txt Node
Date: Wed Jan 03 12:33:14 EST 2024
User: Yrep
Spectrometer: HR+D1059
Trigger mode: 1
Integration Time (sec): 1.000000E-1
Scans to average: 1
Electric dark correction enabled: true
Nonlinearity correction enabled: false
Boxcar width: 0
XAxis mode: Wavelengths
Number of Pixels in Spectrum: 2048
>>>>>Begin Spectral Data<<<<<
223.165	-24.44
223.4	-24.44
223.635	-24.44
223.869	-15.44
224.104	-17.44
224.338	-16.44
224.573	-15.44
224.808	3.56
225.042	-2.44
225.277	-8.44
225.511	-1.44
225.746	-4.44
225.98	16.56
226.215	10.56
226.449	2.56
226.683	19.56
226.918	28.56
227.152	24.56
227.387	29.56
227.621	31.56
227.856	33.56
228.09	42.56
228.324	41.56
228.559	60.56
228.793	59.56
229.027	49.56
229.262	68.56
229.496	51.56
229.73	75.56
229.964	68.56
230.199	69.56
230.433	57.56
230.667	76.56
230.901	80.56
231.136	64.56
231.37	85.56
231.604	74.56
231.838	71.56
232.072	60.56
232.306	77.56
232.541	60.56
232.775	84.56
233.009	66.56
233.243	64.56
233.477	71.56
233.711	77.56
233.945	72.56
234.179	70.56
234.413	84.56
234.647	76.56
234.881	61.56
235.115	74.56
235.349	68.56
235.583	66.56
235.817	59.56
236.051	79.56
236.285	82.56
236.519	79.56
236.753	69.56
236.987	74.56
237.221	84.56
237.455	67.56
237.689	80.56
237.922	74.56
238.156	61.56
238.39	70.56
238.624	75.56
238.858	74.56
239.091	57.56
239.325	70.56
239.559	71.56
239.793	81.56
240.027	70.56
240.26	60.56
240.494	74.56
240.728	72.56
240.961	76.56
241.195	74.56
241.429	67.56
241.662	73.56
241.896	74.56
242.13	76.56
242.363	76.56
242.597	61.56
242.83	60.56
243.064	78.56
243.298	75.56
243.531	79.56
243.765	72.56
243.998	84.56
244.232	80.56
244.465	84.56
244.699	55.56
244.932	74.56
245.166	63.56
245.399	67.56
245.633	69.56
245.866	70.56
246.099	70.56
246.333	75.56
246.566	72.56
246.8	76.56
247.033	85.56
247.266	71.56
247.5	80.56
247.733	77.56
247.966	85.56
248.2	69.56
248.433	87.56
248.666	81.56
248.899	87.56
249.133	58.56
249.366	92.56
249.599	79.56
249.832	59.56
250.066	78.56
250.299	65.56
250.532	66.56
250.765	70.56
250.998	82.56
251.231	70.56
251.465	80.56
251.698	62.56
251.931	62.56
252.164	81.56
252.397	71.56
252.63	63.56
252.863	65.56
253.096	68.56
253.329	83.56
253.562	70.56
253.795	89.56
254.028	68.56
254.261	66.56
254.494	59.56
254.727	80.56
254.96	74.56
255.193	82.56
255.426	86.56
255.659	78.56
255.892	78.56
256.124	61.56
256.357	71.56
256.59	76.56
256.823	74.56
257.056	64.56
257.289	64.56
257.521	77.56
257.754	88.56
257.987	73.56
258.22	81.56
258.452	74.56
258.685	66.56
258.918	82.56
259.151	77.56
259.383	87.56
259.616	74.56
259.849	90.56
260.081	71.56
260.314	75.56
260.547	78.56
260.779	68.56
261.012	67.56
261.244	74.56
261.477	78.56
261.71	81.56
261.942	89.56
262.175	87.56
262.407	79.56
262.64	72.56
262.872	88.56
263.105	74.56
263.337	87.56
263.57	66.56
263.802	74.56
264.035	84.56
264.267	78.56
264.499	68.56
264.732	67.56
264.964	79.56
265.197	68.56
265.429	76.56
265.661	74.56
265.894	79.56
266.126	75.56
266.358	77.56
266.591	85.56
266.823	77.56
267.055	74.56
267.287	74.56
267.52	79.56
267.752	82.56
267.984	78.56
268.216	82.56
268.448	69.56
268.681	70.56
268.913	85.56
269.145	82.56
269.377	76.56
269.609	73.56
269.841	81.56
270.073	70.56
270.306	86.56
270.538	88.56
270.77	80.56
271.002	83.56
271.234	93.56
271.466	82.56
271.698	69.56
271.93	78.56
272.162	86.56
272.394	78.56
272.626	77.56
272.858	70.56
273.09	76.56
273.322	85.56
273.553	76.56
273.785	85.56
274.017	83.56
274.249	76.56
274.481	80.56
274.713	74.56
274.945	65.56
275.176	81.56
275.408	93.56
275.64	72.56
275.872	85.56
276.104	83.56
276.335	80.56
276.567	86.56
276.799	88.56
277.031	95.56
277.262	79.56
277.494	83.56
277.726	76.56
277.957	79.56
278.189	74.56
278.421	92.56
278.652	77.56
278.884	77.56
279.115	81.56
279.347	75.56
279.579	88.56
279.81	78.56
280.042	77.56
280.273	62.56
280.505	69.56
280.736	72.56
280.968	72.56
281.199	87.56
281.431	84.56
281.662	76.56
281.894	69.56
282.125	101.56
282.356	104.56
282.588	112.56
282.819	93.56
283.051	80.56
283.282	83.56
283.513	66.56
283.745	70.56
283.976	90.56
284.207	87.56
284.439	86.56
284.67	71.56
284.901	87.56
285.132	81.56
285.364	86.56
285.595	75.56
285.826	82.56
286.057	72.56
286.288	93.56
286.52	70.56
286.751	83.56
286.982	71.56
287.213	80.56
287.444	78.56
287.675	76.56
287.906	79.56
288.138	74.56
288.369	85.56
288.6	89.56
288.831	70.56
289.062	67.56
289.293	74.56
289.524	83.56
289.755	83.56
289.986	74.56
290.217	74.56
290.448	84.56
290.679	92.56
290.91	82.56
291.141	84.56
291.371	80.56
291.602	68.56
291.833	79.56
292.064	95.56
292.295	92.56
292.526	81.56
292.757	90.56
292.987	69.56
293.218	94.56
293.449	79.56
293.68	88.56
293.91	89.56
294.141	80.56
294.372	80.56
294.603	81.56
294.833	82.56
295.064	72.56
295.295	87.56
295.525	77.56
295.756	99.56
295.987	101.56
296.217	109.56
296.448	97.56
296.679	81.56
296.909	96.56
297.14	84.56
297.37	72.56
297.601	91.56
297.831	72.56
298.062	87.56
298.292	86.56
298.523	80.56
298.753	87.56
298.984	70.56
299.214	72.56
299.445	85.56
299.675	90.56
299.905	83.56
300.136	90.56
300.366	96.56
300.597	85.56
300.827	78.56
301.057	84.56
301.288	80.56
301.518	85.56
301.748	87.56
301.979	92.56
302.209	78.56
302.439	73.56
302.669	75.56
302.9	85.56
303.13	84.56
303.36	87.56
303.59	78.56
303.82	97.56
304.051	89.56
304.281	86.56
304.511	86.56
304.741	86.56
304.971	69.56
305.201	80.56
305.431	77.56
305.661	88.56
305.891	78.56
306.121	86.56
306.352	74.56
306.582	91.56
306.812	85.56
307.042	85.56
307.272	96.56
307.502	78.56
307.731	87.56
307.961	78.56
308.191	90.56
308.421	88.56
308.651	77.56
308.881	83.56
309.111	81.56
309.341	81.56
309.571	94.56
309.8	82.56
310.03	85.56
310.26	87.56
310.49	82.56
310.72	82.56
310.949	94.56
311.179	88.56
311.409	84.56
311.639	74.56
311.868	79.56
312.098	105.56
312.328	83.56
312.557	104.56
312.787	92.56
313.017	84.56
313.246	92.56
313.476	90.56
313.706	79.56
313.935	82.56
314.165	80.56
314.394	93.56
314.624	92.56
314.853	95.56
315.083	86.56
315.312	92.56
315.542	77.56
315.771	86.56
316.001	88.56
316.23	75.56
316.46	92.56
316.689	77.56
316.919	70.56
317.148	83.56
317.377	76.56
317.607	80.56
317.836	87.56
318.065	92.56
318.295	88.56
318.524	93.56
318.753	85.56
318.983	83.56
319.212	86.56
319.441	93.56
319.67	89.56
319.9	89.56
320.129	88.56
320.358	86.56
320.587	84.56
320.816	91.56
321.046	86.56
321.275	95.56
321.504	83.56
321.733	83.56
321.962	85.56
322.191	85.56
322.42	107.56
322.649	101.56
322.878	109.56
323.108	114.56
323.337	110.56
323.566	108.56
323.795	145.56
324.024	171.56
324.253	336.56
324.482	723.56
324.71	1434.56
324.939	1889.56
325.168	689.56
325.397	196.56
325.626	132.56
325.855	104.56
326.084	102.56
326.313	114.56
326.542	127.56
326.77	210.56
326.999	423.56
327.228	844.56
327.457	1507.56
327.686	1188.56
327.914	317.56
328.143	156.56
328.372	140.56
328.6	114.56
328.829	99.56
329.058	112.56
329.287	102.56
329.515	78.56
329.744	91.56
329.972	88.56
330.201	92.56
330.43	104.56
330.658	110.56
330.887	102.56
331.115	94.56
331.344	98.56
331.572	83.56
331.801	85.56
332.03	88.56
332.258	87.56
332.486	86.56
332.715	80.56
332.943	95.56
333.172	91.56
333.4	98.56
333.629	96.56
333.857	90.56
334.085	96.56
334.314	102.56
334.542	113.56
334.771	109.56
334.999	80.56
335.227	92.56
335.455	85.56
335.684	84.56
335.912	81.56
336.14	86.56
336.369	74.56
336.597	97.56
336.825	86.56
337.053	79.56
337.281	88.56
337.51	90.56
337.738	87.56
337.966	94.56
338.194	86.56
338.422	81.56
338.65	89.56
338.878	84.56
339.106	79.56
339.334	98.56
339.562	86.56
339.79	86.56
340.018	84.56
340.246	83.56
340.474	83.56
340.702	100.56
340.93	84.56
341.158	69.56
341.386	95.56
341.614	85.56
341.842	59.56
342.07	76.56
342.298	87.56
342.526	78.56
342.754	81.56
342.981	82.56
343.209	78.56
343.437	101.56
343.665	93.56
343.893	64.56
344.12	86.56
344.348	78.56
344.576	79.56
344.804	83.56
345.031	90.56
345.259	78.56
345.487	87.56
345.714	82.56
345.942	91.56
346.17	77.56
346.397	80.56
346.625	83.56
346.853	77.56
347.08	79.56
347.308	80.56
347.535	77.56
347.763	80.56
347.99	96.56
348.218	79.56
348.445	101.56
348.673	94.56
348.9	74.56
349.128	92.56
349.355	80.56
349.583	91.56
349.81	81.56
350.037	86.56
350.265	81.56
350.492	82.56
350.72	84.56
350.947	85.56
351.174	95.56
351.402	103.56
351.629	85.56
351.856	96.56
352.083	87.56
352.311	96.56
352.538	92.56
352.765	99.56
352.992	104.56
353.22	104.56
353.447	104.56
353.674	90.56
353.901	95.56
354.128	87.56
354.355	87.56
354.583	105.56
354.81	84.56
355.037	84.56
355.264	85.56
355.491	91.56
355.718	90.56
355.945	84.56
356.172	101.56
356.399	96.56
356.626	100.56
356.853	88.56
357.08	101.56
357.307	82.56
357.534	73.56
357.761	66.56
357.988	85.56
358.215	84.56
358.441	95.56
358.668	93.56
358.895	88.56
359.122	92.56
359.349	86.56
359.576	91.56
359.802	95.56
360.029	100.56
360.256	106.56
360.483	79.56
360.709	85.56
360.936	78.56
361.163	83.56
361.39	84.56
361.616	88.56
361.843	87.56
362.07	93.56
362.296	89.56
362.523	91.56
362.749	85.56
362.976	68.56
363.203	86.56
363.429	92.56
363.656	90.56
363.882	81.56
364.109	96.56
364.335	94.56
364.562	79.56
364.788	106.56
365.015	84.56
365.241	72.56
365.468	87.56
365.694	93.56
365.92	88.56
366.147	78.56
366.373	84.56
366.599	84.56
366.826	85.56
367.052	82.56
367.278	76.56
367.505	74.56
367.731	80.56
367.957	90.56
368.184	60.56
368.41	87.56
368.636	96.56
368.862	99.56
369.089	102.56
369.315	78.56
369.541	74.56
369.767	79.56
369.993	79.56
370.219	67.56
370.445	72.56
370.672	90.56
370.898	62.56
371.124	68.56
371.35	87.56
371.576	79.56
371.802	80.56
372.028	85.56
372.254	72.56
372.48	81.56
372.706	93.56
372.932	67.56
373.158	84.56
373.384	85.56
373.61	82.56
373.835	86.56
374.061	91.56
374.287	88.56
374.513	92.56
374.739	86.56
374.965	88.56
375.191	88.56
375.416	82.56
375.642	76.56
375.868	86.56
376.094	88.56
376.319	84.56
376.545	89.56
376.771	78.56
376.997	96.56
377.222	84.56
377.448	73.56
377.674	80.56
377.899	90.56
378.125	79.56
378.35	86.56
378.576	83.56
378.802	90.56
379.027	93.56
379.253	95.56
379.478	96.56
379.704	86.56
379.929	98.56
380.155	90.56
380.38	88.56
380.606	96.56
380.831	90.56
381.057	99.56
381.282	82.56
381.507	107.56
381.733	97.56
381.958	98.56
382.184	83.56
382.409	88.56
382.634	99.56
382.86	103.56
383.085	104.56
383.31	101.56
383.535	101.56
383.761	109.56
383.986	74.56
384.211	89.56
384.436	104.56
384.662	98.56
384.887	99.56
385.112	90.56
385.337	101.56
385.562	106.56
385.787	96.56
386.013	106.56
386.238	116.56
386.463	107.56
386.688	113.56
386.913	93.56
387.138	110.56
387.363	99.56
387.588	96.56
387.813	100.56
388.038	111.56
388.263	101.56
388.488	105.56
388.713	94.56
388.938	88.56
389.163	72.56
389.387	92.56
389.612	81.56
389.837	83.56
390.062	95.56
390.287	90.56
390.512	80.56
390.736	90.56
390.961	88.56
391.186	93.56
391.411	86.56
391.636	92.56
391.86	62.56
392.085	82.56
392.31	97.56
392.534	83.56
392.759	74.56
392.984	78.56
393.208	90.56
393.433	82.56
393.658	63.56
393.882	78.56
394.107	80.56
394.331	74.56
394.556	74.56
394.78	83.56
395.005	84.56
395.229	86.56
395.454	75.56
395.678	80.56
395.903	86.56
396.127	78.56
396.352	93.56
396.576	76.56
396.801	79.56
397.025	88.56
397.249	92.56
397.474	79.56
397.698	71.56
397.922	82.56
398.147	82.56
398.371	69.56
398.595	84.56
398.82	61.56
399.044	76.56
399.268	87.56
399.492	90.56
399.717	94.56
399.941	84.56
400.165	92.56
400.389	83.56
400.613	83.56
400.837	83.56
401.062	73.56
401.286	72.56
401.51	80.56
401.734	72.56
401.958	93.56
402.182	102.56
402.406	138.56
402.63	98.56
402.854	82.56
403.078	87.56
403.302	77.56
403.526	68.56
403.75	84.56
403.974	80.56
404.198	63.56
404.422	93.56
404.645	77.56
404.869	89.56
405.093	89.56
405.317	89.56
405.541	78.56
405.765	108.56
405.988	106.56
406.212	135.56
406.436	168.56
406.66	105.56
406.883	90.56
407.107	75.56
407.331	85.56
407.555	82.56
407.778	93.56
408.002	94.56
408.226	94.56
408.449	80.56
408.673	74.56
408.896	83.56
409.12	93.56
409.344	85.56
409.567	71.56
409.791	84.56
410.014	69.56
410.238	91.56
410.461	80.56
410.685	89.56
410.908	93.56
411.132	88.56
411.355	85.56
411.578	105.56
411.802	89.56
412.025	83.56
412.249	87.56
412.472	66.56
412.695	86.56
412.919	80.56
413.142	85.56
413.365	91.56
413.589	74.56
413.812	83.56
414.035	93.56
414.258	76.56
414.482	90.56
414.705	75.56
414.928	95.56
415.151	84.56
415.374	83.56
415.597	83.56
415.821	76.56
416.044	86.56
416.267	85.56
416.49	87.56
416.713	78.56
416.936	83.56
417.159	60.56
417.382	88.56
417.605	82.56
417.828	95.56
418.051	85.56
418.274	80.56
418.497	87.56
418.72	79.56
418.943	77.56
419.166	75.56
419.389	90.56
419.611	79.56
419.834	80.56
420.057	94.56
420.28	79.56
420.503	76.56
420.726	85.56
420.948	77.56
421.171	87.56
421.394	96.56
421.617	83.56
421.839	74.56
422.062	76.56
422.285	65.56
422.507	101.56
422.73	92.56
422.953	96.56
423.175	79.56
423.398	82.56
423.621	83.56
423.843	74.56
424.066	85.56
424.288	91.56
424.511	85.56
424.733	95.56
424.956	85.56
425.178	83.56
425.401	94.56
425.623	74.56
425.846	78.56
426.068	83.56
426.291	83.56
426.513	85.56
426.735	85.56
426.958	80.56
427.18	95.56
427.402	104.56
427.625	145.56
427.847	99.56
428.069	96.56
428.292	88.56
428.514	94.56
428.736	87.56
428.958	78.56
429.181	83.56
429.403	86.56
429.625	80.56
429.847	71.56
430.069	78.56
430.292	76.56
430.514	83.56
430.736	82.56
430.958	83.56
431.18	82.56
431.402	79.56
431.624	81.56
431.846	76.56
432.068	88.56
432.29	75.56
432.512	80.56
432.734	86.56
432.956	85.56
433.178	91.56
433.4	83.56
433.622	70.56
433.844	91.56
434.066	70.56
434.287	72.56
434.509	88.56
434.731	88.56
434.953	90.56
435.175	90.56
435.397	88.56
435.618	89.56
435.84	88.56
436.062	102.56
436.284	101.56
436.505	92.56
436.727	81.56
436.949	81.56
437.17	80.56
437.392	96.56
437.614	75.56
437.835	90.56
438.057	107.56
438.278	98.56
438.5	98.56
438.721	117.56
438.943	94.56
439.165	72.56
439.386	73.56
439.608	78.56
439.829	78.56
440.05	107.56
440.272	124.56
440.493	85.56
440.715	67.56
440.936	97.56
441.158	79.56
441.379	83.56
441.6	69.56
441.822	78.56
442.043	76.56
442.264	81.56
442.486	93.56
442.707	84.56
442.928	85.56
443.149	112.56
443.371	100.56
443.592	92.56
443.813	88.56
444.034	90.56
444.255	90.56
444.476	71.56
444.698	94.56
444.919	80.56
445.14	119.56
445.361	112.56
445.582	110.56
445.803	107.56
446.024	92.56
446.245	99.56
446.466	104.56
446.687	80.56
446.908	88.56
447.129	95.56
447.35	94.56
447.571	92.56
447.792	80.56
448.013	94.56
448.234	99.56
448.455	82.56
448.675	84.56
448.896	96.56
449.117	82.56
449.338	92.56
449.559	106.56
449.779	115.56
450	93.56
450.221	79.56
450.442	78.56
450.662	81.56
450.883	72.56
451.104	83.56
451.324	92.56
451.545	92.56
451.766	67.56
451.986	99.56
452.207	91.56
452.428	79.56
452.648	95.56
452.869	93.56
453.089	101.56
453.31	100.56
453.53	96.56
453.751	84.56
453.971	86.56
454.192	82.56
454.412	81.56
454.633	75.56
454.853	85.56
455.073	67.56
455.294	69.56
455.514	94.56
455.734	82.56
455.955	92.56
456.175	88.56
456.395	71.56
456.616	71.56
456.836	77.56
457.056	76.56
457.276	82.56
457.497	85.56
457.717	78.56
457.937	82.56
458.157	71.56
458.377	82.56
458.598	106.56
458.818	112.56
459.038	123.56
459.258	85.56
459.478	94.56
459.698	88.56
459.918	74.56
460.138	81.56
460.358	77.56
460.578	62.56
460.798	71.56
461.018	64.56
461.238	89.56
461.458	84.56
461.678	74.56
461.898	69.56
462.118	82.56
462.338	82.56
462.558	72.56
462.777	96.56
462.997	79.56
463.217	85.56
463.437	82.56
463.657	87.56
463.876	80.56
464.096	80.56
464.316	80.56
464.536	72.56
464.755	84.56
464.975	107.56
465.195	112.56
465.414	123.56
465.634	88.56
465.854	86.56
466.073	74.56
466.293	82.56
466.512	78.56
466.732	72.56
466.951	96.56
467.171	94.56
467.391	85.56
467.61	98.56
467.829	78.56
468.049	94.56
468.268	80.56
468.488	88.56
468.707	86.56
468.927	72.56
469.146	74.56
469.365	78.56
469.585	87.56
469.804	84.56
470.023	87.56
470.243	82.56
470.462	84.56
470.681	93.56
470.901	88.56
471.12	87.56
471.339	91.56
471.558	92.56
471.777	82.56
471.997	83.56
472.216	93.56
472.435	128.56
472.654	82.56
472.873	91.56
473.092	82.56
473.311	89.56
473.53	84.56
473.749	82.56
473.968	76.56
474.187	87.56
474.406	83.56
474.625	74.56
474.844	87.56
475.063	81.56
475.282	77.56
475.501	79.56
475.72	74.56
475.939	72.56
476.158	82.56
476.377	88.56
476.596	65.56
476.814	75.56
477.033	86.56
477.252	92.56
477.471	72.56
477.69	78.56
477.908	68.56
478.127	81.56
478.346	66.56
478.564	87.56
478.783	95.56
479.002	85.56
479.22	78.56
479.439	96.56
479.658	91.56
479.876	82.56
480.095	80.56
480.313	111.56
480.532	88.56
480.751	80.56
480.969	102.56
481.188	166.56
481.406	117.56
481.624	89.56
481.843	71.56
482.061	77.56
482.28	83.56
482.498	77.56
482.717	91.56
482.935	83.56
483.153	83.56
483.372	89.56
483.59	92.56
483.808	66.56
484.027	84.56
484.245	83.56
484.463	88.56
484.681	100.56
484.9	76.56
485.118	92.56
485.336	71.56
485.554	101.56
485.772	85.56
485.99	101.56
486.209	92.56
486.427	103.56
486.645	107.56
486.863	106.56
487.081	91.56
487.299	100.56
487.517	96.56
487.735	106.56
487.953	90.56
488.171	99.56
488.389	94.56
488.607	81.56
488.825	74.56
489.043	67.56
489.261	84.56
489.479	78.56
489.696	79.56
489.914	90.56
490.132	78.56
490.35	78.56
490.568	85.56
490.786	76.56
491.003	78.56
491.221	87.56
491.439	78.56
491.657	82.56
491.874	76.56
492.092	83.56
492.31	79.56
492.527	77.56
492.745	85.56
492.963	88.56
493.18	80.56
493.398	78.56
493.615	84.56
493.833	88.56
494.05	77.56
494.268	82.56
494.485	86.56
494.703	92.56
494.92	92.56
495.138	88.56
495.355	82.56
495.573	82.56
495.79	83.56
496.008	94.56
496.225	89.56
496.442	85.56
496.66	84.56
496.877	99.56
497.094	80.56
497.312	91.56
497.529	79.56
497.746	79.56
497.963	86.56
498.181	83.56
498.398	97.56
498.615	103.56
498.832	81.56
499.049	86.56
499.267	68.56
499.484	95.56
499.701	78.56
499.918	78.56
500.135	81.56
500.352	76.56
500.569	80.56
500.786	90.56
501.003	90.56
501.22	78.56
501.437	76.56
501.654	79.56
501.871	107.56
502.088	80.56
502.305	92.56
502.522	93.56
502.739	91.56
502.956	93.56
503.172	92.56
503.389	90.56
503.606	90.56
503.823	83.56
504.04	96.56
504.256	80.56
504.473	70.56
504.69	83.56
504.907	87.56
505.123	76.56
505.34	86.56
505.557	67.56
505.773	76.56
505.99	82.56
506.207	87.56
506.423	85.56
506.64	79.56
506.856	63.56
507.073	82.56
507.289	69.56
507.506	102.56
507.722	100.56
507.939	101.56
508.155	84.56
508.372	79.56
508.588	85.56
508.805	83.56
509.021	86.56
509.238	96.56
509.454	76.56
509.67	79.56
509.887	90.56
510.103	98.56
510.319	167.56
510.536	574.56
510.752	1650.56
510.968	475.56
511.184	119.56
511.401	96.56
511.617	94.56
511.833	79.56
512.049	66.56
512.265	91.56
512.481	78.56
512.698	78.56
512.914	94.56
513.13	94.56
513.346	82.56
513.562	80.56
513.778	78.56
513.994	87.56
514.21	90.56
514.426	99.56
514.642	106.56
514.858	110.56
515.074	131.56
515.29	346.56
515.506	979.56
515.721	365.56
515.937	131.56
516.153	102.56
516.369	94.56
516.585	75.56
516.801	82.56
517.016	81.56
517.232	86.56
517.448	88.56
517.664	86.56
517.879	82.56
518.095	77.56
