Data from Uncirc_1981_H10_HRD10591_00057.txt Node
Date: Wed Jan 03 12:33:19 EST 2024
User: Yrep
Spectrometer: HR+D1059
Trigger mode: 1
Integration Time (sec): 1.000000E-1
Scans to average: 1
Electric dark correction enabled: true
Nonlinearity correction enabled: false
Boxcar width: 0
XAxis mode: Wavelengths
Number of Pixels in Spectrum: 2048
>>>>>Begin Spectral Data<<<<<
223.165	-25.06
223.4	-25.06
223.635	-25.06
223.869	-14.06
224.104	-17.06
224.338	-16.06
224.573	-26.06
224.808	-1.06
225.042	-14.06
225.277	-16.06
225.511	0.94
225.746	-0.06
225.98	14.94
226.215	15.94
226.449	24.94
226.683	23.94
226.918	24.94
227.152	23.94
227.387	39.94
227.621	41.94
227.856	48.94
228.09	40.94
228.324	49.94
228.559	51.94
228.793	43.94
229.027	66.94
229.262	61.94
229.496	72.94
229.73	79.94
229.964	76.94
230.199	73.94
230.433	71.94
230.667	77.94
230.901	82.94
231.136	66.94
231.37	57.94
231.604	83.94
231.838	71.94
232.072	74.94
232.306	74.94
232.541	80.94
232.775	80.94
233.009	70.94
233.243	62.94
233.477	88.94
233.711	77.94
233.945	79.94
234.179	78.94
234.413	83.94
234.647	66.94
234.881	80.94
235.115	77.94
235.349	69.94
235.583	71.94
235.817	74.94
236.051	78.94
236.285	61.94
236.519	77.94
236.753	58.94
236.987	79.94
237.221	80.94
237.455	81.94
237.689	69.94
237.922	74.94
238.156	85.94
238.39	82.94
238.624	64.94
238.858	77.94
239.091	74.94
239.325	73.94
239.559	73.94
239.793	81.94
240.027	82.94
240.26	79.94
240.494	69.94
240.728	58.94
240.961	73.94
241.195	74.94
241.429	58.94
241.662	82.94
241.896	57.94
242.13	77.94
242.363	74.94
242.597	66.94
242.83	78.94
243.064	86.94
243.298	66.94
243.531	72.94
243.765	65.94
243.998	75.94
244.232	81.94
244.465	72.94
244.699	84.94
244.932	67.94
245.166	65.94
245.399	81.94
245.633	73.94
245.866	74.94
246.099	83.94
246.333	71.94
246.566	68.94
246.8	84.94
247.033	83.94
247.266	75.94
247.5	81.94
247.733	63.94
247.966	73.94
248.2	87.94
248.433	90.94
248.666	85.94
248.899	79.94
249.133	89.94
249.366	92.94
249.599	86.94
249.832	91.94
250.066	66.94
250.299	69.94
250.532	69.94
250.765	86.94
250.998	79.94
251.231	78.94
251.465	78.94
251.698	73.94
251.931	79.94
252.164	75.94
252.397	77.94
252.63	80.94
252.863	63.94
253.096	72.94
253.329	89.94
253.562	71.94
253.795	83.94
254.028	82.94
254.261	88.94
254.494	76.94
254.727	91.94
254.96	86.94
255.193	79.94
255.426	79.94
255.659	71.94
255.892	80.94
256.124	67.94
256.357	80.94
256.59	77.94
256.823	84.94
257.056	82.94
257.289	74.94
257.521	77.94
257.754	75.94
257.987	87.94
258.22	74.94
258.452	87.94
258.685	73.94
258.918	79.94
259.151	69.94
259.383	81.94
259.616	79.94
259.849	81.94
260.081	76.94
260.314	67.94
260.547	78.94
260.779	83.94
261.012	90.94
261.244	71.94
261.477	73.94
261.71	74.94
261.942	89.94
262.175	105.94
262.407	96.94
262.64	69.94
262.872	74.94
263.105	86.94
263.337	70.94
263.57	90.94
263.802	67.94
264.035	64.94
264.267	90.94
264.499	85.94
264.732	72.94
264.964	74.94
265.197	74.94
265.429	68.94
265.661	74.94
265.894	72.94
266.126	75.94
266.358	73.94
266.591	93.94
266.823	85.94
267.055	86.94
267.287	85.94
267.52	72.94
267.752	74.94
267.984	84.94
268.216	81.94
268.448	74.94
268.681	79.94
268.913	80.94
269.145	82.94
269.377	76.94
269.609	67.94
269.841	87.94
270.073	73.94
270.306	88.94
270.538	77.94
270.77	94.94
271.002	81.94
271.234	85.94
271.466	91.94
271.698	83.94
271.93	77.94
272.162	86.94
272.394	74.94
272.626	87.94
272.858	88.94
273.09	72.94
273.322	68.94
273.553	88.94
273.785	73.94
274.017	91.94
274.249	89.94
274.481	75.94
274.713	93.94
274.945	80.94
275.176	89.94
275.408	75.94
275.64	87.94
275.872	76.94
276.104	79.94
276.335	88.94
276.567	103.94
276.799	95.94
277.031	93.94
277.262	95.94
277.494	87.94
277.726	63.94
277.957	94.94
278.189	87.94
278.421	75.94
278.652	87.94
278.884	89.94
279.115	78.94
279.347	70.94
279.579	93.94
279.81	77.94
280.042	90.94
280.273	72.94
280.505	74.94
280.736	90.94
280.968	77.94
281.199	87.94
281.431	87.94
281.662	86.94
281.894	78.94
282.125	106.94
282.356	91.94
282.588	104.94
282.819	109.94
283.051	95.94
283.282	74.94
283.513	93.94
283.745	87.94
283.976	80.94
284.207	84.94
284.439	76.94
284.67	91.94
284.901	94.94
285.132	82.94
285.364	83.94
285.595	77.94
285.826	92.94
286.057	68.94
286.288	91.94
286.52	95.94
286.751	67.94
286.982	79.94
287.213	94.94
287.444	85.94
287.675	72.94
287.906	82.94
288.138	86.94
288.369	94.94
288.6	73.94
288.831	89.94
289.062	82.94
289.293	90.94
289.524	88.94
289.755	92.94
289.986	93.94
290.217	82.94
290.448	86.94
290.679	91.94
290.91	84.94
291.141	98.94
291.371	86.94
291.602	89.94
291.833	77.94
292.064	73.94
292.295	90.94
292.526	90.94
292.757	86.94
292.987	97.94
293.218	97.94
293.449	73.94
293.68	86.94
293.91	77.94
294.141	92.94
294.372	83.94
294.603	86.94
294.833	105.94
295.064	88.94
295.295	84.94
295.525	93.94
295.756	91.94
295.987	106.94
296.217	120.94
296.448	101.94
296.679	86.94
296.909	95.94
297.14	89.94
297.37	107.94
297.601	74.94
297.831	88.94
298.062	97.94
298.292	87.94
298.523	94.94
298.753	89.94
298.984	90.94
299.214	81.94
299.445	95.94
299.675	90.94
299.905	79.94
300.136	78.94
300.366	89.94
300.597	91.94
300.827	98.94
301.057	86.94
301.288	68.94
301.518	78.94
301.748	87.94
301.979	94.94
302.209	86.94
302.439	89.94
302.669	88.94
302.9	90.94
303.13	81.94
303.36	74.94
303.59	90.94
303.82	89.94
304.051	77.94
304.281	91.94
304.511	79.94
304.741	91.94
304.971	84.94
305.201	85.94
305.431	90.94
305.661	68.94
305.891	88.94
306.121	97.94
306.352	83.94
306.582	102.94
306.812	81.94
307.042	85.94
307.272	89.94
307.502	83.94
307.731	99.94
307.961	79.94
308.191	87.94
308.421	94.94
308.651	91.94
308.881	80.94
309.111	81.94
309.341	107.94
309.571	99.94
309.8	90.94
310.03	97.94
310.26	91.94
310.49	89.94
310.72	76.94
310.949	96.94
311.179	87.94
311.409	96.94
311.639	93.94
311.868	94.94
312.098	91.94
312.328	84.94
312.557	91.94
312.787	97.94
313.017	94.94
313.246	94.94
313.476	82.94
313.706	83.94
313.935	96.94
314.165	111.94
314.394	95.94
314.624	97.94
314.853	92.94
315.083	95.94
315.312	92.94
315.542	89.94
315.771	86.94
316.001	100.94
316.23	85.94
316.46	83.94
316.689	73.94
316.919	80.94
317.148	88.94
317.377	103.94
317.607	99.94
317.836	76.94
318.065	89.94
318.295	82.94
318.524	88.94
318.753	95.94
318.983	92.94
319.212	103.94
319.441	101.94
319.67	109.94
319.9	86.94
320.129	85.94
320.358	83.94
320.587	100.94
320.816	89.94
321.046	106.94
321.275	102.94
321.504	96.94
321.733	83.94
321.962	93.94
322.191	83.94
322.42	99.94
322.649	95.94
322.878	99.94
323.108	101.94
323.337	119.94
323.566	120.94
323.795	138.94
324.024	177.94
324.253	314.94
324.482	704.94
324.71	1370.94
324.939	1793.94
325.168	653.94
325.397	226.94
325.626	142.94
325.855	130.94
326.084	113.94
326.313	131.94
326.542	131.94
326.77	200.94
326.999	400.94
327.228	797.94
327.457	1473.94
327.686	1129.94
327.914	304.94
328.143	143.94
328.372	119.94
328.6	110.94
328.829	106.94
329.058	102.94
329.287	107.94
329.515	100.94
329.744	93.94
329.972	105.94
330.201	107.94
330.43	114.94
330.658	111.94
330.887	112.94
331.115	111.94
331.344	91.94
331.572	105.94
331.801	89.94
332.03	94.94
332.258	92.94
332.486	91.94
332.715	84.94
332.943	75.94
333.172	66.94
333.4	86.94
333.629	97.94
333.857	101.94
334.085	94.94
334.314	106.94
334.542	132.94
334.771	106.94
334.999	82.94
335.227	84.94
335.455	91.94
335.684	88.94
335.912	93.94
336.14	92.94
336.369	98.94
336.597	104.94
336.825	90.94
337.053	96.94
337.281	82.94
337.51	94.94
337.738	81.94
337.966	91.94
338.194	84.94
338.422	90.94
338.65	91.94
338.878	94.94
339.106	94.94
339.334	74.94
339.562	101.94
339.79	86.94
340.018	97.94
340.246	89.94
340.474	77.94
340.702	90.94
340.93	82.94
341.158	91.94
341.386	82.94
341.614	95.94
341.842	77.94
342.07	78.94
342.298	90.94
342.526	81.94
342.754	82.94
342.981	74.94
343.209	83.94
343.437	97.94
343.665	91.94
343.893	75.94
344.12	92.94
344.348	89.94
344.576	74.94
344.804	98.94
345.031	77.94
345.259	99.94
345.487	102.94
345.714	85.94
345.942	86.94
346.17	94.94
346.397	86.94
346.625	88.94
346.853	85.94
347.08	59.94
347.308	99.94
347.535	82.94
347.763	98.94
347.99	83.94
348.218	103.94
348.445	90.94
348.673	110.94
348.9	83.94
349.128	93.94
349.355	90.94
349.583	98.94
349.81	88.94
350.037	93.94
350.265	88.94
350.492	95.94
350.72	95.94
350.947	104.94
351.174	93.94
351.402	98.94
351.629	95.94
351.856	106.94
352.083	96.94
352.311	104.94
352.538	95.94
352.765	105.94
352.992	103.94
353.22	97.94
353.447	97.94
353.674	100.94
353.901	88.94
354.128	79.94
354.355	113.94
354.583	93.94
354.81	87.94
355.037	95.94
355.264	95.94
355.491	88.94
355.718	103.94
355.945	84.94
356.172	97.94
356.399	86.94
356.626	95.94
356.853	93.94
357.08	80.94
357.307	94.94
357.534	85.94
357.761	90.94
357.988	96.94
358.215	91.94
358.441	104.94
358.668	95.94
358.895	85.94
359.122	87.94
359.349	90.94
359.576	81.94
359.802	95.94
360.029	105.94
360.256	86.94
360.483	91.94
360.709	93.94
360.936	93.94
361.163	95.94
361.39	80.94
361.616	91.94
361.843	98.94
362.07	97.94
362.296	82.94
362.523	88.94
362.749	97.94
362.976	88.94
363.203	91.94
363.429	96.94
363.656	93.94
363.882	90.94
364.109	87.94
364.335	109.94
364.562	86.94
364.788	81.94
365.015	79.94
365.241	89.94
365.468	84.94
365.694	89.94
365.92	101.94
366.147	85.94
366.373	82.94
366.599	102.94
366.826	99.94
367.052	91.94
367.278	80.94
367.505	73.94
367.731	77.94
367.957	85.94
368.184	74.94
368.41	83.94
368.636	98.94
368.862	97.94
369.089	72.94
369.315	86.94
369.541	101.94
369.767	73.94
369.993	83.94
370.219	85.94
370.445	85.94
370.672	103.94
370.898	90.94
371.124	71.94
371.35	59.94
371.576	83.94
371.802	87.94
372.028	83.94
372.254	85.94
372.48	99.94
372.706	85.94
372.932	77.94
373.158	64.94
373.384	85.94
373.61	94.94
373.835	77.94
374.061	89.94
374.287	90.94
374.513	97.94
374.739	101.94
374.965	81.94
375.191	85.94
375.416	81.94
375.642	91.94
375.868	95.94
376.094	88.94
376.319	93.94
376.545	84.94
376.771	71.94
376.997	90.94
377.222	87.94
377.448	71.94
377.674	90.94
377.899	82.94
378.125	81.94
378.35	107.94
378.576	81.94
378.802	85.94
379.027	101.94
379.253	91.94
379.478	95.94
379.704	97.94
379.929	90.94
380.155	87.94
380.38	90.94
380.606	83.94
380.831	87.94
381.057	93.94
381.282	86.94
381.507	89.94
381.733	99.94
381.958	91.94
382.184	116.94
382.409	100.94
382.634	95.94
382.86	99.94
383.085	102.94
383.31	113.94
383.535	91.94
383.761	97.94
383.986	96.94
384.211	89.94
384.436	102.94
384.662	102.94
384.887	100.94
385.112	120.94
385.337	95.94
385.562	103.94
385.787	106.94
386.013	106.94
386.238	103.94
386.463	119.94
386.688	87.94
386.913	83.94
387.138	95.94
387.363	93.94
387.588	106.94
387.813	106.94
388.038	107.94
388.263	114.94
388.488	106.94
388.713	106.94
388.938	88.94
389.163	85.94
389.387	86.94
389.612	85.94
389.837	83.94
390.062	96.94
390.287	101.94
390.512	83.94
390.736	102.94
390.961	84.94
391.186	92.94
391.411	99.94
391.636	93.94
391.86	79.94
392.085	83.94
392.31	85.94
392.534	81.94
392.759	79.94
392.984	97.94
393.208	72.94
393.433	77.94
393.658	94.94
393.882	82.94
394.107	80.94
394.331	89.94
394.556	83.94
394.78	97.94
395.005	66.94
395.229	83.94
395.454	77.94
395.678	74.94
395.903	80.94
396.127	95.94
396.352	77.94
396.576	77.94
396.801	88.94
397.025	92.94
397.249	95.94
397.474	106.94
397.698	92.94
397.922	83.94
398.147	90.94
398.371	73.94
398.595	81.94
398.82	79.94
399.044	80.94
399.268	73.94
399.492	70.94
399.717	72.94
399.941	95.94
400.165	87.94
400.389	93.94
400.613	81.94
400.837	81.94
401.062	89.94
401.286	86.94
401.51	92.94
401.734	83.94
401.958	87.94
402.182	105.94
402.406	115.94
402.63	91.94
402.854	70.94
403.078	90.94
403.302	80.94
403.526	93.94
403.75	80.94
403.974	97.94
404.198	85.94
404.422	74.94
404.645	86.94
404.869	86.94
405.093	101.94
405.317	98.94
405.541	101.94
405.765	97.94
405.988	97.94
406.212	132.94
406.436	171.94
406.66	111.94
406.883	83.94
407.107	82.94
407.331	82.94
407.555	88.94
407.778	86.94
408.002	82.94
408.226	94.94
408.449	81.94
408.673	94.94
408.896	86.94
409.12	93.94
409.344	93.94
409.567	75.94
409.791	85.94
410.014	97.94
410.238	89.94
410.461	88.94
410.685	90.94
410.908	100.94
411.132	93.94
411.355	89.94
411.578	85.94
411.802	87.94
412.025	84.94
412.249	71.94
412.472	90.94
412.695	94.94
412.919	98.94
413.142	88.94
413.365	73.94
413.589	101.94
413.812	81.94
414.035	84.94
414.258	78.94
414.482	88.94
414.705	91.94
414.928	74.94
415.151	88.94
415.374	92.94
415.597	84.94
415.821	79.94
416.044	81.94
416.267	89.94
416.49	70.94
416.713	72.94
416.936	97.94
417.159	86.94
417.382	97.94
417.605	89.94
417.828	72.94
418.051	77.94
418.274	91.94
418.497	81.94
418.72	77.94
418.943	90.94
419.166	94.94
419.389	86.94
419.611	91.94
419.834	84.94
420.057	85.94
420.28	70.94
420.503	71.94
420.726	69.94
420.948	89.94
421.171	90.94
421.394	86.94
421.617	74.94
421.839	93.94
422.062	87.94
422.285	85.94
422.507	98.94
422.73	87.94
422.953	101.94
423.175	100.94
423.398	90.94
423.621	97.94
423.843	90.94
424.066	89.94
424.288	88.94
424.511	78.94
424.733	76.94
424.956	96.94
425.178	101.94
425.401	84.94
425.623	104.94
425.846	90.94
426.068	89.94
426.291	91.94
426.513	98.94
426.735	90.94
426.958	81.94
427.18	99.94
427.402	113.94
427.625	136.94
427.847	107.94
428.069	99.94
428.292	80.94
428.514	76.94
428.736	74.94
428.958	85.94
429.181	81.94
429.403	69.94
429.625	82.94
429.847	91.94
430.069	89.94
430.292	88.94
430.514	82.94
430.736	82.94
430.958	72.94
431.18	85.94
431.402	79.94
431.624	86.94
431.846	82.94
432.068	88.94
432.29	64.94
432.512	86.94
432.734	88.94
432.956	73.94
433.178	96.94
433.4	93.94
433.622	77.94
433.844	99.94
434.066	88.94
434.287	70.94
434.509	90.94
434.731	87.94
434.953	93.94
435.175	91.94
435.397	90.94
435.618	86.94
435.84	102.94
436.062	102.94
436.284	107.94
436.505	100.94
436.727	92.94
436.949	97.94
437.17	79.94
437.392	77.94
437.614	78.94
437.835	88.94
438.057	92.94
438.278	94.94
438.5	94.94
438.721	99.94
438.943	89.94
439.165	77.94
439.386	98.94
439.608	71.94
439.829	104.94
440.05	120.94
440.272	105.94
440.493	87.94
440.715	78.94
440.936	86.94
441.158	94.94
441.379	102.94
441.6	95.94
441.822	89.94
442.043	95.94
442.264	90.94
442.486	99.94
442.707	98.94
442.928	98.94
443.149	107.94
443.371	102.94
443.592	91.94
443.813	95.94
444.034	103.94
444.255	89.94
444.476	81.94
444.698	91.94
444.919	80.94
445.14	134.94
445.361	115.94
445.582	99.94
445.803	107.94
446.024	91.94
446.245	120.94
446.466	107.94
446.687	72.94
446.908	79.94
447.129	71.94
447.35	77.94
447.571	81.94
447.792	90.94
448.013	89.94
448.234	94.94
448.455	85.94
448.675	92.94
448.896	97.94
449.117	92.94
449.338	91.94
449.559	107.94
449.779	114.94
450	96.94
450.221	79.94
450.442	101.94
450.662	80.94
450.883	95.94
451.104	89.94
451.324	92.94
451.545	81.94
451.766	78.94
451.986	81.94
452.207	93.94
452.428	93.94
452.648	89.94
452.869	84.94
453.089	90.94
453.31	103.94
453.53	97.94
453.751	87.94
453.971	91.94
454.192	98.94
454.412	97.94
454.633	82.94
454.853	73.94
455.073	83.94
455.294	83.94
455.514	75.94
455.734	99.94
455.955	95.94
456.175	73.94
456.395	81.94
456.616	81.94
456.836	100.94
457.056	81.94
457.276	85.94
457.497	69.94
457.717	79.94
457.937	81.94
458.157	83.94
458.377	85.94
458.598	92.94
458.818	121.94
459.038	129.94
459.258	86.94
459.478	97.94
459.698	82.94
459.918	67.94
460.138	75.94
460.358	78.94
460.578	94.94
460.798	95.94
461.018	87.94
461.238	87.94
461.458	77.94
461.678	86.94
461.898	90.94
462.118	88.94
462.338	89.94
462.558	74.94
462.777	70.94
462.997	80.94
463.217	85.94
463.437	83.94
463.657	73.94
463.876	73.94
464.096	72.94
464.316	82.94
464.536	83.94
464.755	65.94
464.975	89.94
465.195	123.94
465.414	123.94
465.634	94.94
465.854	84.94
466.073	84.94
466.293	83.94
466.512	86.94
466.732	83.94
466.951	88.94
467.171	87.94
467.391	73.94
467.61	68.94
467.829	107.94
468.049	87.94
468.268	78.94
468.488	82.94
468.707	87.94
468.927	81.94
469.146	83.94
469.365	87.94
469.585	83.94
469.804	87.94
470.023	84.94
470.243	82.94
470.462	93.94
470.681	106.94
470.901	85.94
471.12	79.94
471.339	73.94
471.558	85.94
471.777	82.94
471.997	82.94
472.216	98.94
472.435	121.94
472.654	90.94
472.873	85.94
473.092	88.94
473.311	81.94
473.53	81.94
473.749	88.94
473.968	90.94
474.187	103.94
474.406	81.94
474.625	77.94
474.844	96.94
475.063	80.94
475.282	77.94
475.501	64.94
475.72	85.94
475.939	77.94
476.158	88.94
476.377	89.94
476.596	69.94
476.814	85.94
477.033	90.94
477.252	95.94
477.471	72.94
477.69	101.94
477.908	89.94
478.127	80.94
478.346	70.94
478.564	86.94
478.783	75.94
479.002	87.94
479.22	89.94
479.439	80.94
479.658	87.94
479.876	88.94
480.095	102.94
480.313	94.94
480.532	80.94
480.751	81.94
480.969	86.94
481.188	160.94
481.406	105.94
481.624	91.94
481.843	80.94
482.061	91.94
482.28	91.94
482.498	89.94
482.717	70.94
482.935	77.94
483.153	85.94
483.372	80.94
483.59	91.94
483.808	78.94
484.027	83.94
484.245	91.94
484.463	90.94
484.681	90.94
484.9	78.94
485.118	84.94
485.336	80.94
485.554	85.94
485.772	104.94
485.99	95.94
486.209	99.94
486.427	90.94
486.645	99.94
486.863	117.94
487.081	97.94
487.299	100.94
487.517	88.94
487.735	101.94
487.953	88.94
488.171	96.94
488.389	79.94
488.607	93.94
488.825	88.94
489.043	94.94
489.261	71.94
489.479	81.94
489.696	79.94
489.914	93.94
490.132	93.94
490.35	95.94
490.568	77.94
490.786	86.94
491.003	88.94
491.221	70.94
491.439	98.94
491.657	92.94
491.874	90.94
492.092	79.94
492.31	89.94
492.527	83.94
492.745	88.94
492.963	87.94
493.18	76.94
493.398	88.94
493.615	92.94
493.833	95.94
494.05	97.94
494.268	78.94
494.485	91.94
494.703	101.94
494.92	85.94
495.138	96.94
495.355	93.94
495.573	93.94
495.79	84.94
496.008	94.94
496.225	79.94
496.442	82.94
496.66	81.94
496.877	83.94
497.094	102.94
497.312	100.94
497.529	86.94
497.746	97.94
497.963	85.94
498.181	89.94
498.398	86.94
498.615	109.94
498.832	99.94
499.049	83.94
499.267	89.94
499.484	75.94
499.701	81.94
499.918	80.94
500.135	88.94
500.352	94.94
500.569	102.94
500.786	81.94
501.003	79.94
501.22	82.94
501.437	86.94
501.654	91.94
501.871	93.94
502.088	90.94
502.305	89.94
502.522	88.94
502.739	97.94
502.956	86.94
503.172	94.94
503.389	83.94
503.606	81.94
503.823	87.94
504.04	93.94
504.256	91.94
504.473	83.94
504.69	80.94
504.907	93.94
505.123	76.94
505.34	83.94
505.557	76.94
505.773	94.94
505.99	77.94
506.207	66.94
506.423	72.94
506.64	82.94
506.856	91.94
507.073	82.94
507.289	75.94
507.506	93.94
507.722	101.94
507.939	112.94
508.155	102.94
508.372	86.94
508.588	86.94
508.805	103.94
509.021	89.94
509.238	81.94
509.454	94.94
509.67	102.94
509.887	107.94
510.103	103.94
510.319	163.94
510.536	534.94
510.752	1578.94
510.968	433.94
511.184	121.94
511.401	98.94
511.617	102.94
511.833	95.94
512.049	97.94
512.265	93.94
512.481	93.94
512.698	85.94
512.914	78.94
513.13	94.94
513.346	91.94
513.562	93.94
513.778	77.94
513.994	77.94
514.21	98.94
514.426	112.94
514.642	110.94
514.858	106.94
515.074	121.94
515.29	317.94
515.506	925.94
515.721	341.94
515.937	125.94
516.153	97.94
516.369	93.94
516.585	85.94
516.801	95.94
517.016	87.94
517.232	91.94
517.448	93.94
