Data from Uncirc_1981_H10_HRD10591_00100.txt Node
Date: Wed Jan 03 12:33:28 EST 2024
User: Yrep
Spectrometer: HR+D1059
Trigger mode: 1
Integration Time (sec): 1.000000E-1
Scans to average: 1
Electric dark correction enabled: true
Nonlinearity correction enabled: false
Boxcar width: 0
XAxis mode: Wavelengths
Number of Pixels in Spectrum: 2048
>>>>>Begin Spectral Data<<<<<
223.165	-19.06
223.4	-19.06
223.635	-19.06
223.869	-18.06
224.104	-17.06
224.338	-14.06
224.573	-7.06
224.808	-17.06
225.042	-12.06
225.277	-13.06
225.511	2.94
225.746	7.94
225.98	14.94
226.215	3.94
226.449	14.94
226.683	8.94
226.918	20.94
227.152	42.94
227.387	43.94
227.621	33.94
227.856	28.94
228.09	48.94
228.324	52.94
228.559	55.94
228.793	46.94
229.027	57.94
229.262	64.94
229.496	72.94
229.73	96.94
229.964	81.94
230.199	77.94
230.433	85.94
230.667	86.94
230.901	85.94
231.136	80.94
231.37	81.94
231.604	89.94
231.838	90.94
232.072	70.94
232.306	67.94
232.541	78.94
232.775	88.94
233.009	66.94
233.243	76.94
233.477	87.94
233.711	85.94
233.945	82.94
234.179	72.94
234.413	83.94
234.647	69.94
234.881	91.94
235.115	87.94
235.349	65.94
235.583	83.94
235.817	77.94
236.051	87.94
236.285	85.94
236.519	83.94
236.753	74.94
236.987	88.94
237.221	75.94
237.455	68.94
237.689	88.94
237.922	89.94
238.156	89.94
238.39	75.94
238.624	74.94
238.858	76.94
239.091	98.94
239.325	73.94
239.559	75.94
239.793	81.94
240.027	91.94
240.26	88.94
240.494	94.94
240.728	72.94
240.961	86.94
241.195	97.94
241.429	83.94
241.662	74.94
241.896	91.94
242.13	88.94
242.363	86.94
242.597	78.94
242.83	77.94
243.064	102.94
243.298	83.94
243.531	78.94
243.765	71.94
243.998	86.94
244.232	86.94
244.465	76.94
244.699	90.94
244.932	73.94
245.166	83.94
245.399	70.94
245.633	73.94
245.866	80.94
246.099	69.94
246.333	70.94
246.566	64.94
246.8	85.94
247.033	71.94
247.266	65.94
247.5	81.94
247.733	63.94
247.966	81.94
248.2	77.94
248.433	77.94
248.666	81.94
248.899	98.94
249.133	80.94
249.366	92.94
249.599	95.94
249.832	89.94
250.066	85.94
250.299	79.94
250.532	94.94
250.765	74.94
250.998	77.94
251.231	69.94
251.465	83.94
251.698	66.94
251.931	75.94
252.164	82.94
252.397	75.94
252.63	70.94
252.863	81.94
253.096	85.94
253.329	77.94
253.562	88.94
253.795	80.94
254.028	74.94
254.261	96.94
254.494	89.94
254.727	84.94
254.96	74.94
255.193	81.94
255.426	78.94
255.659	77.94
255.892	93.94
256.124	86.94
256.357	79.94
256.59	75.94
256.823	79.94
257.056	88.94
257.289	91.94
257.521	93.94
257.754	87.94
257.987	74.94
258.22	80.94
258.452	76.94
258.685	93.94
258.918	78.94
259.151	66.94
259.383	88.94
259.616	84.94
259.849	91.94
260.081	81.94
260.314	81.94
260.547	83.94
260.779	87.94
261.012	93.94
261.244	76.94
261.477	94.94
261.71	105.94
261.942	93.94
262.175	109.94
262.407	91.94
262.64	80.94
262.872	82.94
263.105	85.94
263.337	69.94
263.57	85.94
263.802	77.94
264.035	78.94
264.267	77.94
264.499	76.94
264.732	77.94
264.964	86.94
265.197	89.94
265.429	77.94
265.661	85.94
265.894	84.94
266.126	79.94
266.358	87.94
266.591	88.94
266.823	95.94
267.055	82.94
267.287	82.94
267.52	76.94
267.752	80.94
267.984	91.94
268.216	77.94
268.448	83.94
268.681	90.94
268.913	95.94
269.145	85.94
269.377	85.94
269.609	87.94
269.841	88.94
270.073	77.94
270.306	69.94
270.538	89.94
270.77	86.94
271.002	75.94
271.234	74.94
271.466	89.94
271.698	72.94
271.93	91.94
272.162	79.94
272.394	93.94
272.626	81.94
272.858	99.94
273.09	90.94
273.322	81.94
273.553	92.94
273.785	77.94
274.017	85.94
274.249	88.94
274.481	71.94
274.713	84.94
274.945	85.94
275.176	86.94
275.408	90.94
275.64	83.94
275.872	76.94
276.104	81.94
276.335	71.94
276.567	118.94
276.799	91.94
277.031	86.94
277.262	100.94
277.494	91.94
277.726	94.94
277.957	74.94
278.189	89.94
278.421	80.94
278.652	80.94
278.884	93.94
279.115	92.94
279.347	75.94
279.579	101.94
279.81	100.94
280.042	88.94
280.273	97.94
280.505	84.94
280.736	82.94
280.968	92.94
281.199	94.94
281.431	89.94
281.662	87.94
281.894	85.94
282.125	90.94
282.356	110.94
282.588	109.94
282.819	102.94
283.051	100.94
283.282	73.94
283.513	85.94
283.745	83.94
283.976	78.94
284.207	79.94
284.439	102.94
284.67	94.94
284.901	77.94
285.132	99.94
285.364	83.94
285.595	97.94
285.826	83.94
286.057	92.94
286.288	83.94
286.52	96.94
286.751	82.94
286.982	86.94
287.213	81.94
287.444	88.94
287.675	84.94
287.906	95.94
288.138	93.94
288.369	103.94
288.6	87.94
288.831	83.94
289.062	87.94
289.293	76.94
289.524	98.94
289.755	85.94
289.986	85.94
290.217	83.94
290.448	88.94
290.679	86.94
290.91	82.94
291.141	85.94
291.371	84.94
291.602	92.94
291.833	87.94
292.064	94.94
292.295	87.94
292.526	94.94
292.757	80.94
292.987	100.94
293.218	107.94
293.449	95.94
293.68	100.94
293.91	87.94
294.141	102.94
294.372	92.94
294.603	85.94
294.833	89.94
295.064	91.94
295.295	79.94
295.525	97.94
295.756	105.94
295.987	97.94
296.217	118.94
296.448	111.94
296.679	91.94
296.909	90.94
297.14	88.94
297.37	87.94
297.601	88.94
297.831	103.94
298.062	85.94
298.292	90.94
298.523	88.94
298.753	91.94
298.984	85.94
299.214	97.94
299.445	95.94
299.675	93.94
299.905	85.94
300.136	88.94
300.366	88.94
300.597	83.94
300.827	99.94
301.057	110.94
301.288	85.94
301.518	99.94
301.748	84.94
301.979	112.94
302.209	86.94
302.439	90.94
302.669	95.94
302.9	91.94
303.13	95.94
303.36	93.94
303.59	97.94
303.82	107.94
304.051	90.94
304.281	101.94
304.511	101.94
304.741	83.94
304.971	96.94
305.201	90.94
305.431	79.94
305.661	97.94
305.891	109.94
306.121	94.94
306.352	92.94
306.582	93.94
306.812	89.94
307.042	91.94
307.272	89.94
307.502	94.94
307.731	91.94
307.961	90.94
308.191	86.94
308.421	102.94
308.651	107.94
308.881	98.94
309.111	93.94
309.341	91.94
309.571	107.94
309.8	92.94
310.03	97.94
310.26	100.94
310.49	99.94
310.72	86.94
310.949	87.94
311.179	89.94
311.409	94.94
311.639	95.94
311.868	94.94
312.098	98.94
312.328	82.94
312.557	103.94
312.787	93.94
313.017	97.94
313.246	83.94
313.476	96.94
313.706	86.94
313.935	97.94
314.165	97.94
314.394	92.94
314.624	99.94
314.853	100.94
315.083	105.94
315.312	89.94
315.542	90.94
315.771	93.94
316.001	86.94
316.23	85.94
316.46	85.94
316.689	85.94
316.919	85.94
317.148	97.94
317.377	91.94
317.607	84.94
317.836	100.94
318.065	88.94
318.295	83.94
318.524	99.94
318.753	98.94
318.983	119.94
319.212	91.94
319.441	105.94
319.67	110.94
319.9	84.94
320.129	87.94
320.358	91.94
320.587	89.94
320.816	89.94
321.046	100.94
321.275	93.94
321.504	94.94
321.733	77.94
321.962	102.94
322.191	93.94
322.42	101.94
322.649	110.94
322.878	115.94
323.108	115.94
323.337	108.94
323.566	116.94
323.795	142.94
324.024	167.94
324.253	339.94
324.482	683.94
324.71	1353.94
324.939	1780.94
325.168	648.94
325.397	207.94
325.626	140.94
325.855	124.94
326.084	114.94
326.313	133.94
326.542	161.94
326.77	227.94
326.999	376.94
327.228	803.94
327.457	1451.94
327.686	1176.94
327.914	318.94
328.143	147.94
328.372	139.94
328.6	117.94
328.829	119.94
329.058	113.94
329.287	122.94
329.515	98.94
329.744	91.94
329.972	94.94
330.201	117.94
330.43	120.94
330.658	132.94
330.887	116.94
331.115	115.94
331.344	96.94
331.572	91.94
331.801	97.94
332.03	103.94
332.258	104.94
332.486	70.94
332.715	100.94
332.943	82.94
333.172	102.94
333.4	106.94
333.629	87.94
333.857	100.94
334.085	97.94
334.314	108.94
334.542	131.94
334.771	108.94
334.999	107.94
335.227	100.94
335.455	97.94
335.684	91.94
335.912	89.94
336.14	106.94
336.369	102.94
336.597	106.94
336.825	114.94
337.053	94.94
337.281	99.94
337.51	91.94
337.738	96.94
337.966	87.94
338.194	90.94
338.422	106.94
338.65	107.94
338.878	91.94
339.106	94.94
339.334	111.94
339.562	98.94
339.79	67.94
340.018	96.94
340.246	95.94
340.474	99.94
340.702	93.94
340.93	79.94
341.158	91.94
341.386	97.94
341.614	91.94
341.842	91.94
342.07	79.94
342.298	93.94
342.526	100.94
342.754	85.94
342.981	93.94
343.209	92.94
343.437	94.94
343.665	93.94
343.893	94.94
344.12	106.94
344.348	110.94
344.576	92.94
344.804	92.94
345.031	87.94
345.259	107.94
345.487	93.94
345.714	81.94
345.942	98.94
346.17	106.94
346.397	103.94
346.625	91.94
346.853	87.94
347.08	100.94
347.308	101.94
347.535	102.94
347.763	89.94
347.99	94.94
348.218	90.94
348.445	103.94
348.673	102.94
348.9	102.94
349.128	109.94
349.355	90.94
349.583	100.94
349.81	100.94
350.037	87.94
350.265	104.94
350.492	99.94
350.72	98.94
350.947	103.94
351.174	111.94
351.402	110.94
351.629	105.94
351.856	98.94
352.083	103.94
352.311	87.94
352.538	105.94
352.765	121.94
352.992	111.94
353.22	116.94
353.447	101.94
353.674	89.94
353.901	102.94
354.128	105.94
354.355	105.94
354.583	98.94
354.81	111.94
355.037	103.94
355.264	83.94
355.491	93.94
355.718	93.94
355.945	90.94
356.172	92.94
356.399	78.94
356.626	92.94
356.853	108.94
357.08	96.94
357.307	91.94
357.534	97.94
357.761	103.94
357.988	110.94
358.215	89.94
358.441	92.94
358.668	114.94
358.895	98.94
359.122	95.94
359.349	78.94
359.576	102.94
359.802	84.94
360.029	93.94
360.256	103.94
360.483	95.94
360.709	80.94
360.936	110.94
361.163	90.94
361.39	95.94
361.616	92.94
361.843	90.94
362.07	89.94
362.296	92.94
362.523	89.94
362.749	99.94
362.976	84.94
363.203	77.94
363.429	75.94
363.656	93.94
363.882	97.94
364.109	85.94
364.335	87.94
364.562	107.94
364.788	88.94
365.015	84.94
365.241	106.94
365.468	99.94
365.694	110.94
365.92	91.94
366.147	97.94
366.373	94.94
366.599	84.94
366.826	79.94
367.052	83.94
367.278	76.94
367.505	97.94
367.731	96.94
367.957	85.94
368.184	89.94
368.41	91.94
368.636	120.94
368.862	106.94
369.089	97.94
369.315	71.94
369.541	89.94
369.767	83.94
369.993	86.94
370.219	99.94
370.445	87.94
370.672	91.94
370.898	89.94
371.124	87.94
371.35	78.94
371.576	91.94
371.802	106.94
372.028	95.94
372.254	93.94
372.48	96.94
372.706	90.94
372.932	75.94
373.158	93.94
373.384	93.94
373.61	102.94
373.835	99.94
374.061	100.94
374.287	99.94
374.513	85.94
374.739	84.94
374.965	100.94
375.191	96.94
375.416	102.94
375.642	94.94
375.868	91.94
376.094	87.94
376.319	93.94
376.545	99.94
376.771	87.94
376.997	104.94
377.222	93.94
377.448	87.94
377.674	83.94
377.899	107.94
378.125	92.94
378.35	87.94
378.576	98.94
378.802	100.94
379.027	95.94
379.253	101.94
379.478	82.94
379.704	95.94
379.929	106.94
380.155	100.94
380.38	106.94
380.606	89.94
380.831	100.94
381.057	101.94
381.282	101.94
381.507	86.94
381.733	82.94
381.958	106.94
382.184	100.94
382.409	101.94
382.634	91.94
382.86	102.94
383.085	97.94
383.31	102.94
383.535	99.94
383.761	97.94
383.986	101.94
384.211	97.94
384.436	99.94
384.662	87.94
384.887	105.94
385.112	105.94
385.337	109.94
385.562	108.94
385.787	105.94
386.013	105.94
386.238	115.94
386.463	97.94
386.688	110.94
386.913	101.94
387.138	108.94
387.363	82.94
387.588	100.94
387.813	113.94
388.038	100.94
388.263	112.94
388.488	116.94
388.713	95.94
388.938	99.94
389.163	99.94
389.387	100.94
389.612	97.94
389.837	108.94
390.062	99.94
390.287	97.94
390.512	104.94
390.736	101.94
390.961	92.94
391.186	86.94
391.411	110.94
391.636	103.94
391.86	83.94
392.085	77.94
392.31	87.94
392.534	95.94
392.759	75.94
392.984	88.94
393.208	84.94
393.433	86.94
393.658	87.94
393.882	90.94
394.107	93.94
394.331	85.94
394.556	77.94
394.78	74.94
395.005	82.94
395.229	84.94
395.454	89.94
395.678	108.94
395.903	110.94
396.127	97.94
396.352	76.94
396.576	78.94
396.801	79.94
397.025	86.94
397.249	81.94
397.474	76.94
397.698	79.94
397.922	90.94
398.147	89.94
398.371	93.94
398.595	91.94
398.82	97.94
399.044	84.94
399.268	94.94
399.492	90.94
399.717	98.94
399.941	85.94
400.165	85.94
400.389	83.94
400.613	84.94
400.837	93.94
401.062	105.94
401.286	108.94
401.51	85.94
401.734	95.94
401.958	100.94
402.182	127.94
402.406	139.94
402.63	112.94
402.854	104.94
403.078	84.94
403.302	85.94
403.526	91.94
403.75	89.94
403.974	95.94
404.198	79.94
404.422	90.94
404.645	81.94
404.869	88.94
405.093	97.94
405.317	93.94
405.541	103.94
405.765	106.94
405.988	117.94
406.212	145.94
406.436	193.94
406.66	131.94
406.883	93.94
407.107	91.94
407.331	88.94
407.555	86.94
407.778	77.94
408.002	97.94
408.226	85.94
408.449	90.94
408.673	83.94
408.896	90.94
409.12	92.94
409.344	93.94
409.567	86.94
409.791	87.94
410.014	109.94
410.238	104.94
410.461	99.94
410.685	105.94
410.908	110.94
411.132	109.94
411.355	101.94
411.578	85.94
411.802	84.94
412.025	97.94
412.249	85.94
412.472	77.94
412.695	86.94
412.919	86.94
413.142	102.94
413.365	95.94
413.589	86.94
413.812	90.94
414.035	103.94
414.258	87.94
414.482	92.94
414.705	91.94
414.928	85.94
415.151	76.94
415.374	86.94
415.597	103.94
415.821	102.94
416.044	91.94
416.267	96.94
416.49	94.94
416.713	95.94
416.936	91.94
417.159	90.94
417.382	90.94
417.605	75.94
417.828	87.94
418.051	101.94
418.274	107.94
418.497	83.94
418.72	78.94
418.943	95.94
419.166	70.94
419.389	81.94
419.611	105.94
419.834	88.94
420.057	97.94
420.28	81.94
420.503	94.94
420.726	89.94
420.948	96.94
421.171	92.94
421.394	88.94
421.617	83.94
421.839	94.94
422.062	76.94
422.285	85.94
422.507	104.94
422.73	104.94
422.953	104.94
423.175	82.94
423.398	81.94
423.621	89.94
423.843	84.94
424.066	93.94
424.288	91.94
424.511	89.94
424.733	125.94
424.956	109.94
425.178	102.94
425.401	100.94
425.623	101.94
425.846	88.94
426.068	103.94
426.291	95.94
426.513	90.94
426.735	73.94
426.958	99.94
427.18	111.94
427.402	131.94
427.625	141.94
427.847	119.94
428.069	108.94
428.292	91.94
428.514	105.94
428.736	89.94
428.958	94.94
429.181	97.94
429.403	88.94
429.625	84.94
429.847	90.94
430.069	75.94
430.292	98.94
430.514	98.94
430.736	77.94
430.958	102.94
431.18	78.94
431.402	94.94
431.624	80.94
431.846	92.94
432.068	86.94
432.29	91.94
432.512	98.94
432.734	85.94
432.956	86.94
433.178	88.94
433.4	99.94
433.622	107.94
433.844	98.94
434.066	97.94
434.287	87.94
434.509	90.94
434.731	87.94
434.953	100.94
435.175	101.94
435.397	90.94
435.618	107.94
435.84	98.94
436.062	130.94
436.284	113.94
436.505	107.94
436.727	74.94
436.949	97.94
437.17	98.94
437.392	67.94
437.614	97.94
437.835	94.94
438.057	109.94
438.278	116.94
438.5	102.94
438.721	123.94
438.943	110.94
439.165	99.94
439.386	86.94
439.608	85.94
439.829	90.94
440.05	124.94
440.272	121.94
440.493	97.94
440.715	87.94
440.936	97.94
441.158	85.94
441.379	99.94
441.6	86.94
441.822	98.94
442.043	87.94
442.264	105.94
442.486	93.94
442.707	89.94
442.928	103.94
443.149	123.94
443.371	100.94
443.592	100.94
443.813	104.94
444.034	100.94
444.255	81.94
444.476	97.94
444.698	81.94
444.919	92.94
445.14	123.94
445.361	129.94
445.582	110.94
445.803	117.94
446.024	138.94
446.245	121.94
446.466	104.94
446.687	93.94
446.908	96.94
447.129	99.94
447.35	87.94
447.571	91.94
447.792	83.94
448.013	99.94
448.234	86.94
448.455	89.94
448.675	101.94
448.896	110.94
449.117	99.94
449.338	105.94
449.559	121.94
449.779	134.94
450	104.94
450.221	89.94
450.442	93.94
450.662	89.94
450.883	86.94
451.104	84.94
451.324	99.94
451.545	85.94
451.766	102.94
451.986	108.94
452.207	80.94
452.428	102.94
452.648	89.94
452.869	97.94
453.089	106.94
453.31	114.94
453.53	92.94
453.751	89.94
453.971	85.94
454.192	98.94
454.412	95.94
454.633	91.94
454.853	78.94
455.073	92.94
455.294	99.94
455.514	107.94
455.734	94.94
455.955	91.94
456.175	81.94
456.395	87.94
456.616	83.94
456.836	105.94
457.056	97.94
457.276	95.94
457.497	85.94
457.717	89.94
457.937	87.94
458.157	82.94
458.377	90.94
458.598	89.94
458.818	125.94
459.038	132.94
459.258	110.94
459.478	95.94
459.698	103.94
459.918	91.94
460.138	88.94
460.358	89.94
460.578	95.94
460.798	89.94
461.018	104.94
461.238	92.94
461.458	85.94
461.678	74.94
461.898	75.94
462.118	78.94
462.338	94.94
462.558	77.94
462.777	85.94
462.997	96.94
463.217	86.94
463.437	83.94
463.657	86.94
463.876	88.94
464.096	74.94
464.316	84.94
464.536	107.94
464.755	86.94
464.975	98.94
465.195	129.94
465.414	125.94
465.634	91.94
465.854	85.94
466.073	94.94
466.293	91.94
466.512	83.94
466.732	94.94
466.951	103.94
467.171	101.94
467.391	91.94
467.61	104.94
467.829	105.94
468.049	89.94
468.268	98.94
468.488	96.94
468.707	91.94
468.927	90.94
469.146	91.94
469.365	77.94
469.585	84.94
469.804	98.94
470.023	81.94
470.243	85.94
470.462	85.94
470.681	106.94
470.901	81.94
471.12	93.94
471.339	86.94
471.558	79.94
471.777	99.94
471.997	82.94
472.216	122.94
472.435	114.94
472.654	97.94
472.873	81.94
473.092	85.94
473.311	91.94
473.53	87.94
473.749	96.94
473.968	99.94
474.187	89.94
474.406	93.94
474.625	94.94
474.844	86.94
475.063	93.94
475.282	101.94
475.501	79.94
475.72	97.94
475.939	90.94
476.158	83.94
476.377	102.94
476.596	93.94
476.814	97.94
477.033	90.94
477.252	85.94
477.471	85.94
477.69	91.94
477.908	87.94
478.127	96.94
478.346	76.94
478.564	101.94
478.783	93.94
479.002	95.94
479.22	103.94
479.439	90.94
479.658	109.94
479.876	85.94
480.095	94.94
480.313	87.94
480.532	94.94
480.751	105.94
480.969	124.94
481.188	173.94
481.406	132.94
481.624	98.94
481.843	105.94
482.061	75.94
482.28	98.94
482.498	89.94
482.717	96.94
482.935	94.94
483.153	93.94
483.372	93.94
483.59	84.94
483.808	85.94
484.027	91.94
484.245	82.94
484.463	91.94
484.681	110.94
484.9	86.94
485.118	91.94
485.336	94.94
485.554	97.94
485.772	101.94
485.99	86.94
486.209	102.94
486.427	108.94
486.645	93.94
486.863	97.94
487.081	94.94
487.299	85.94
487.517	84.94
487.735	79.94
487.953	83.94
488.171	98.94
488.389	92.94
488.607	96.94
488.825	103.94
489.043	85.94
489.261	95.94
489.479	87.94
489.696	82.94
489.914	90.94
490.132	93.94
490.35	78.94
490.568	97.94
490.786	97.94
491.003	91.94
491.221	82.94
491.439	87.94
491.657	85.94
491.874	91.94
492.092	79.94
492.31	82.94
492.527	77.94
492.745	90.94
492.963	81.94
493.18	87.94
493.398	91.94
493.615	97.94
493.833	104.94
494.05	87.94
494.268	96.94
494.485	104.94
494.703	94.94
494.92	75.94
495.138	96.94
495.355	107.94
495.573	90.94
495.79	85.94
496.008	108.94
496.225	79.94
496.442	82.94
496.66	89.94
496.877	100.94
497.094	91.94
497.312	93.94
497.529	93.94
497.746	107.94
497.963	87.94
498.181	99.94
498.398	89.94
498.615	97.94
498.832	100.94
499.049	100.94
499.267	102.94
499.484	93.94
499.701	101.94
499.918	104.94
500.135	87.94
500.352	89.94
500.569	77.94
500.786	91.94
501.003	83.94
501.22	90.94
501.437	95.94
501.654	93.94
501.871	90.94
502.088	95.94
502.305	83.94
502.522	93.94
502.739	89.94
502.956	89.94
503.172	93.94
503.389	99.94
503.606	88.94
503.823	94.94
504.04	86.94
504.256	101.94
504.473	85.94
504.69	96.94
504.907	98.94
505.123	95.94
505.34	83.94
505.557	98.94
505.773	89.94
505.99	94.94
506.207	89.94
506.423	83.94
506.64	91.94
506.856	85.94
507.073	108.94
507.289	101.94
507.506	103.94
507.722	104.94
507.939	103.94
508.155	99.94
508.372	82.94
508.588	89.94
508.805	105.94
509.021	90.94
509.238	104.94
509.454	89.94
509.67	98.94
509.887	102.94
510.103	112.94
510.319	180.94
510.536	573.94
510.752	1649.94
510.968	459.94
511.184	124.94
511.401	107.94
511.617	85.94
511.833	88.94
512.049	89.94
512.265	82.94
512.481	101.94
512.698	86.94
512.914	92.94
513.13	98.94
513.346	102.94
513.562	89.94
513.778	77.94
513.994	85.94
514.21	92.94
514.426	117.94
514.642	124.94
514.858	114.94
515.074	146.94
515.29	332.94
