Data from Uncirc_1981_H10_HRD10591_00005.txt Node
Date: Wed Jan 03 12:33:09 EST 2024
User: Yrep
Spectrometer: HR+D1059
Trigger mode: 1
Integration Time (sec): 1.000000E-1
Scans to average: 1
Electric dark correction enabled: true
Nonlinearity correction enabled: false
Boxcar width: 0
XAxis mode: Wavelengths
Number of Pixels in Spectrum: 2048
>>>>>Begin Spectral Data<<<<<
223.165	-22.12
223.4	-22.12
223.635	-22.12
223.869	-20.12
224.104	-19.12
224.338	-6.12
224.573	-21.12
224.808	-10.12
225.042	0.88
225.277	-7.12
225.511	-4.12
225.746	11.88
225.98	-3.12
226.215	13.88
226.449	20.88
226.683	13.88
226.918	26.88
227.152	24.88
227.387	14.88
227.621	40.88
227.856	36.88
228.09	55.88
228.324	40.88
228.559	64.88
228.793	68.88
229.027	80.88
229.262	78.88
229.496	61.88
229.73	77.88
229.964	71.88
230.199	74.88
230.433	77.88
230.667	91.88
230.901	80.88
231.136	64.88
231.37	78.88
231.604	62.88
231.838	82.88
232.072	90.88
232.306	80.88
232.541	73.88
232.775	76.88
233.009	81.88
233.243	80.88
233.477	80.88
233.711	80.88
233.945	83.88
234.179	72.88
234.413	89.88
234.647	90.88
234.881	91.88
235.115	81.88
235.349	76.88
235.583	77.88
235.817	65.88
236.051	88.88
236.285	80.88
236.519	87.88
236.753	78.88
236.987	91.88
237.221	72.88
237.455	78.88
237.689	87.88
237.922	75.88
238.156	64.88
238.39	86.88
238.624	77.88
238.858	82.88
239.091	77.88
239.325	76.88
239.559	93.88
239.793	75.88
240.027	74.88
240.26	83.88
240.494	80.88
240.728	65.88
240.961	88.88
241.195	64.88
241.429	78.88
241.662	70.88
241.896	65.88
242.13	87.88
242.363	75.88
242.597	77.88
242.83	92.88
243.064	88.88
243.298	80.88
243.531	93.88
243.765	81.88
243.998	96.88
244.232	85.88
244.465	86.88
244.699	80.88
244.932	87.88
245.166	74.88
245.399	70.88
245.633	72.88
245.866	71.88
246.099	78.88
246.333	77.88
246.566	86.88
246.8	72.88
247.033	88.88
247.266	84.88
247.5	89.88
247.733	83.88
247.966	78.88
248.2	89.88
248.433	85.88
248.666	69.88
248.899	64.88
249.133	90.88
249.366	73.88
249.599	82.88
249.832	85.88
250.066	72.88
250.299	85.88
250.532	75.88
250.765	85.88
250.998	82.88
251.231	85.88
251.465	74.88
251.698	85.88
251.931	84.88
252.164	75.88
252.397	85.88
252.63	85.88
252.863	93.88
253.096	75.88
253.329	94.88
253.562	86.88
253.795	88.88
254.028	89.88
254.261	67.88
254.494	77.88
254.727	80.88
254.96	86.88
255.193	77.88
255.426	74.88
255.659	68.88
255.892	84.88
256.124	85.88
256.357	85.88
256.59	83.88
256.823	76.88
257.056	87.88
257.289	73.88
257.521	77.88
257.754	73.88
257.987	84.88
258.22	70.88
258.452	67.88
258.685	82.88
258.918	77.88
259.151	88.88
259.383	77.88
259.616	76.88
259.849	82.88
260.081	82.88
260.314	90.88
260.547	89.88
260.779	80.88
261.012	64.88
261.244	88.88
261.477	81.88
261.71	70.88
261.942	87.88
262.175	90.88
262.407	82.88
262.64	78.88
262.872	77.88
263.105	74.88
263.337	85.88
263.57	82.88
263.802	87.88
264.035	76.88
264.267	75.88
264.499	81.88
264.732	80.88
264.964	77.88
265.197	71.88
265.429	82.88
265.661	96.88
265.894	99.88
266.126	77.88
266.358	93.88
266.591	88.88
266.823	72.88
267.055	80.88
267.287	76.88
267.52	83.88
267.752	102.88
267.984	87.88
268.216	74.88
268.448	93.88
268.681	82.88
268.913	77.88
269.145	78.88
269.377	65.88
269.609	85.88
269.841	91.88
270.073	69.88
270.306	80.88
270.538	78.88
270.77	85.88
271.002	86.88
271.234	75.88
271.466	86.88
271.698	74.88
271.93	89.88
272.162	83.88
272.394	91.88
272.626	88.88
272.858	74.88
273.09	83.88
273.322	85.88
273.553	67.88
273.785	84.88
274.017	80.88
274.249	69.88
274.481	88.88
274.713	89.88
274.945	84.88
275.176	89.88
275.408	88.88
275.64	94.88
275.872	86.88
276.104	90.88
276.335	83.88
276.567	88.88
276.799	89.88
277.031	82.88
277.262	90.88
277.494	77.88
277.726	85.88
277.957	82.88
278.189	73.88
278.421	77.88
278.652	75.88
278.884	97.88
279.115	78.88
279.347	82.88
279.579	88.88
279.81	72.88
280.042	86.88
280.273	84.88
280.505	84.88
280.736	85.88
280.968	74.88
281.199	98.88
281.431	92.88
281.662	98.88
281.894	85.88
282.125	77.88
282.356	97.88
282.588	88.88
282.819	90.88
283.051	86.88
283.282	76.88
283.513	89.88
283.745	92.88
283.976	91.88
284.207	85.88
284.439	87.88
284.67	86.88
284.901	90.88
285.132	80.88
285.364	83.88
285.595	77.88
285.826	92.88
286.057	86.88
286.288	86.88
286.52	103.88
286.751	88.88
286.982	88.88
287.213	96.88
287.444	84.88
287.675	81.88
287.906	80.88
288.138	98.88
288.369	89.88
288.6	83.88
288.831	76.88
289.062	76.88
289.293	95.88
289.524	88.88
289.755	84.88
289.986	88.88
290.217	76.88
290.448	84.88
290.679	85.88
290.91	84.88
291.141	86.88
291.371	90.88
291.602	87.88
291.833	92.88
292.064	74.88
292.295	84.88
292.526	84.88
292.757	85.88
292.987	75.88
293.218	82.88
293.449	88.88
293.68	77.88
293.91	82.88
294.141	93.88
294.372	87.88
294.603	85.88
294.833	88.88
295.064	85.88
295.295	81.88
295.525	91.88
295.756	97.88
295.987	108.88
296.217	99.88
296.448	84.88
296.679	85.88
296.909	96.88
297.14	85.88
297.37	97.88
297.601	86.88
297.831	76.88
298.062	83.88
298.292	84.88
298.523	84.88
298.753	79.88
298.984	84.88
299.214	73.88
299.445	100.88
299.675	88.88
299.905	85.88
300.136	88.88
300.366	98.88
300.597	77.88
300.827	98.88
301.057	99.88
301.288	81.88
301.518	83.88
301.748	78.88
301.979	96.88
302.209	104.88
302.439	81.88
302.669	77.88
302.9	87.88
303.13	97.88
303.36	77.88
303.59	93.88
303.82	76.88
304.051	82.88
304.281	92.88
304.511	81.88
304.741	86.88
304.971	92.88
305.201	85.88
305.431	81.88
305.661	93.88
305.891	88.88
306.121	87.88
306.352	89.88
306.582	94.88
306.812	85.88
307.042	94.88
307.272	84.88
307.502	93.88
307.731	84.88
307.961	77.88
308.191	90.88
308.421	84.88
308.651	92.88
308.881	83.88
309.111	93.88
309.341	97.88
309.571	75.88
309.8	99.88
310.03	93.88
310.26	73.88
310.49	90.88
310.72	102.88
310.949	106.88
311.179	89.88
311.409	90.88
311.639	86.88
311.868	93.88
312.098	93.88
312.328	90.88
312.557	106.88
312.787	93.88
313.017	97.88
313.246	87.88
313.476	93.88
313.706	85.88
313.935	99.88
314.165	89.88
314.394	94.88
314.624	99.88
314.853	101.88
315.083	84.88
315.312	89.88
315.542	98.88
315.771	93.88
316.001	92.88
316.23	91.88
316.46	96.88
316.689	92.88
316.919	91.88
317.148	96.88
317.377	80.88
317.607	96.88
317.836	100.88
318.065	94.88
318.295	104.88
318.524	88.88
318.753	82.88
318.983	91.88
319.212	98.88
319.441	110.88
319.67	97.88
319.9	86.88
320.129	87.88
320.358	80.88
320.587	92.88
320.816	86.88
321.046	88.88
321.275	102.88
321.504	89.88
321.733	105.88
321.962	84.88
322.191	96.88
322.42	115.88
322.649	117.88
322.878	97.88
323.108	114.88
323.337	111.88
323.566	131.88
323.795	120.88
324.024	146.88
324.253	266.88
324.482	520.88
324.71	1061.88
324.939	1348.88
325.168	513.88
325.397	178.88
325.626	124.88
325.855	105.88
326.084	100.88
326.313	116.88
326.542	129.88
326.77	178.88
326.999	315.88
327.228	614.88
327.457	1089.88
327.686	865.88
327.914	246.88
328.143	132.88
328.372	121.88
328.6	104.88
328.829	94.88
329.058	112.88
329.287	100.88
329.515	100.88
329.744	94.88
329.972	101.88
330.201	106.88
330.43	100.88
330.658	100.88
330.887	107.88
331.115	91.88
331.344	79.88
331.572	84.88
331.801	81.88
332.03	90.88
332.258	97.88
332.486	93.88
332.715	89.88
332.943	91.88
333.172	83.88
333.4	89.88
333.629	84.88
333.857	101.88
334.085	105.88
334.314	112.88
334.542	103.88
334.771	107.88
334.999	104.88
335.227	79.88
335.455	91.88
335.684	80.88
335.912	97.88
336.14	89.88
336.369	94.88
336.597	90.88
336.825	105.88
337.053	104.88
337.281	104.88
337.51	87.88
337.738	94.88
337.966	96.88
338.194	80.88
338.422	109.88
338.65	87.88
338.878	93.88
339.106	88.88
339.334	85.88
339.562	82.88
339.79	79.88
340.018	87.88
340.246	86.88
340.474	87.88
340.702	102.88
340.93	90.88
341.158	83.88
341.386	110.88
341.614	97.88
341.842	104.88
342.07	99.88
342.298	80.88
342.526	92.88
342.754	91.88
342.981	91.88
343.209	101.88
343.437	95.88
343.665	89.88
343.893	91.88
344.12	92.88
344.348	95.88
344.576	94.88
344.804	93.88
345.031	88.88
345.259	89.88
345.487	98.88
345.714	98.88
345.942	90.88
346.17	103.88
346.397	85.88
346.625	89.88
346.853	98.88
347.08	103.88
347.308	93.88
347.535	98.88
347.763	82.88
347.99	94.88
348.218	90.88
348.445	107.88
348.673	95.88
348.9	93.88
349.128	86.88
349.355	89.88
349.583	110.88
349.81	85.88
350.037	86.88
350.265	101.88
350.492	93.88
350.72	95.88
350.947	77.88
351.174	91.88
351.402	86.88
351.629	106.88
351.856	104.88
352.083	90.88
352.311	102.88
352.538	97.88
352.765	103.88
352.992	118.88
353.22	86.88
353.447	114.88
353.674	121.88
353.901	103.88
354.128	106.88
354.355	101.88
354.583	99.88
354.81	103.88
355.037	115.88
355.264	116.88
355.491	100.88
355.718	108.88
355.945	87.88
356.172	100.88
356.399	102.88
356.626	95.88
356.853	98.88
357.08	105.88
357.307	92.88
357.534	91.88
357.761	104.88
357.988	116.88
358.215	116.88
358.441	129.88
358.668	113.88
358.895	108.88
359.122	101.88
359.349	96.88
359.576	98.88
359.802	88.88
360.029	102.88
360.256	98.88
360.483	90.88
360.709	92.88
360.936	112.88
361.163	97.88
361.39	80.88
361.616	96.88
361.843	97.88
362.07	86.88
362.296	102.88
362.523	95.88
362.749	91.88
362.976	80.88
363.203	104.88
363.429	84.88
363.656	98.88
363.882	96.88
364.109	101.88
364.335	91.88
364.562	86.88
364.788	85.88
365.015	93.88
365.241	96.88
365.468	89.88
365.694	83.88
365.92	102.88
366.147	90.88
366.373	106.88
366.599	87.88
366.826	98.88
367.052	84.88
367.278	91.88
367.505	94.88
367.731	86.88
367.957	104.88
368.184	88.88
368.41	98.88
368.636	83.88
368.862	95.88
369.089	105.88
369.315	108.88
369.541	95.88
369.767	96.88
369.993	89.88
370.219	88.88
370.445	91.88
370.672	97.88
370.898	93.88
371.124	92.88
371.35	84.88
371.576	84.88
371.802	87.88
372.028	92.88
372.254	94.88
372.48	97.88
372.706	91.88
372.932	100.88
373.158	90.88
373.384	92.88
373.61	102.88
373.835	93.88
374.061	107.88
374.287	103.88
374.513	93.88
374.739	92.88
374.965	84.88
375.191	90.88
375.416	98.88
375.642	98.88
375.868	94.88
376.094	98.88
376.319	103.88
376.545	95.88
376.771	108.88
376.997	103.88
377.222	96.88
377.448	102.88
377.674	101.88
377.899	100.88
378.125	98.88
378.35	103.88
378.576	84.88
378.802	103.88
379.027	116.88
379.253	98.88
379.478	114.88
379.704	101.88
379.929	100.88
380.155	110.88
380.38	110.88
380.606	110.88
380.831	96.88
381.057	116.88
381.282	113.88
381.507	114.88
381.733	119.88
381.958	124.88
382.184	118.88
382.409	118.88
382.634	117.88
382.86	137.88
383.085	103.88
383.31	121.88
383.535	127.88
383.761	117.88
383.986	119.88
384.211	122.88
384.436	116.88
384.662	134.88
384.887	153.88
385.112	158.88
385.337	138.88
385.562	148.88
385.787	149.88
386.013	147.88
386.238	140.88
386.463	134.88
386.688	152.88
386.913	149.88
387.138	176.88
387.363	153.88
387.588	130.88
387.813	140.88
388.038	135.88
388.263	172.88
388.488	176.88
388.713	109.88
388.938	87.88
389.163	94.88
389.387	100.88
389.612	100.88
389.837	107.88
390.062	80.88
390.287	101.88
390.512	113.88
390.736	96.88
390.961	91.88
391.186	92.88
391.411	91.88
391.636	95.88
391.86	78.88
392.085	89.88
392.31	92.88
392.534	84.88
392.759	87.88
392.984	84.88
393.208	95.88
393.433	83.88
393.658	92.88
393.882	87.88
394.107	93.88
394.331	89.88
394.556	101.88
394.78	83.88
395.005	83.88
395.229	91.88
395.454	92.88
395.678	77.88
395.903	88.88
396.127	87.88
396.352	92.88
396.576	104.88
396.801	97.88
397.025	98.88
397.249	89.88
397.474	91.88
397.698	90.88
397.922	89.88
398.147	81.88
398.371	81.88
398.595	84.88
398.82	86.88
399.044	77.88
399.268	99.88
399.492	89.88
399.717	69.88
399.941	82.88
400.165	89.88
400.389	80.88
400.613	94.88
400.837	86.88
401.062	88.88
401.286	87.88
401.51	82.88
401.734	83.88
401.958	81.88
402.182	108.88
402.406	110.88
402.63	86.88
402.854	83.88
403.078	94.88
403.302	92.88
403.526	99.88
403.75	80.88
403.974	99.88
404.198	92.88
404.422	90.88
404.645	92.88
404.869	96.88
405.093	98.88
405.317	87.88
405.541	85.88
405.765	86.88
405.988	114.88
406.212	125.88
406.436	133.88
406.66	105.88
406.883	77.88
407.107	81.88
407.331	100.88
407.555	106.88
407.778	96.88
408.002	87.88
408.226	67.88
408.449	89.88
408.673	81.88
408.896	99.88
409.12	90.88
409.344	89.88
409.567	109.88
409.791	93.88
410.014	90.88
410.238	83.88
410.461	83.88
410.685	93.88
410.908	116.88
411.132	107.88
411.355	105.88
411.578	104.88
411.802	83.88
412.025	107.88
412.249	89.88
412.472	91.88
412.695	83.88
412.919	97.88
413.142	94.88
413.365	83.88
413.589	84.88
413.812	80.88
414.035	86.88
414.258	97.88
414.482	105.88
414.705	101.88
414.928	103.88
415.151	105.88
415.374	91.88
415.597	88.88
415.821	78.88
416.044	105.88
416.267	104.88
416.49	92.88
416.713	94.88
416.936	102.88
417.159	80.88
417.382	82.88
417.605	93.88
417.828	94.88
418.051	93.88
418.274	103.88
418.497	84.88
418.72	95.88
418.943	89.88
419.166	75.88
419.389	84.88
419.611	85.88
419.834	93.88
420.057	87.88
420.28	108.88
420.503	102.88
420.726	80.88
420.948	89.88
421.171	103.88
421.394	92.88
421.617	88.88
421.839	85.88
422.062	77.88
422.285	106.88
422.507	107.88
422.73	82.88
422.953	86.88
423.175	98.88
423.398	77.88
423.621	85.88
423.843	83.88
424.066	76.88
424.288	97.88
424.511	97.88
424.733	73.88
424.956	90.88
425.178	84.88
425.401	95.88
425.623	98.88
425.846	85.88
426.068	84.88
426.291	93.88
426.513	89.88
426.735	91.88
426.958	92.88
427.18	110.88
427.402	114.88
427.625	122.88
427.847	101.88
428.069	100.88
428.292	82.88
428.514	100.88
428.736	92.88
428.958	76.88
429.181	86.88
429.403	70.88
429.625	71.88
429.847	83.88
430.069	88.88
430.292	97.88
430.514	91.88
430.736	86.88
430.958	84.88
431.18	94.88
431.402	92.88
431.624	92.88
431.846	86.88
432.068	86.88
432.29	84.88
432.512	86.88
432.734	73.88
432.956	94.88
433.178	99.88
433.4	84.88
433.622	84.88
433.844	74.88
434.066	77.88
434.287	88.88
434.509	95.88
434.731	88.88
434.953	88.88
435.175	75.88
435.397	82.88
435.618	83.88
435.84	83.88
436.062	109.88
436.284	77.88
436.505	92.88
436.727	98.88
436.949	92.88
437.17	87.88
437.392	80.88
437.614	77.88
437.835	101.88
438.057	104.88
438.278	96.88
438.5	98.88
438.721	94.88
438.943	76.88
439.165	88.88
439.386	85.88
439.608	94.88
439.829	101.88
440.05	103.88
440.272	115.88
440.493	88.88
440.715	76.88
440.936	92.88
441.158	67.88
441.379	96.88
441.6	76.88
441.822	77.88
442.043	88.88
442.264	83.88
442.486	82.88
442.707	93.88
442.928	84.88
443.149	100.88
443.371	88.88
443.592	102.88
443.813	94.88
444.034	87.88
444.255	66.88
444.476	99.88
444.698	93.88
444.919	79.88
445.14	124.88
445.361	99.88
445.582	102.88
445.803	97.88
446.024	113.88
446.245	115.88
446.466	93.88
446.687	91.88
446.908	82.88
447.129	84.88
447.35	83.88
447.571	75.88
447.792	90.88
448.013	86.88
448.234	93.88
448.455	96.88
448.675	92.88
448.896	87.88
449.117	92.88
449.338	99.88
449.559	110.88
449.779	105.88
450	100.88
450.221	87.88
450.442	71.88
450.662	71.88
450.883	92.88
451.104	102.88
451.324	93.88
451.545	96.88
451.766	84.88
451.986	83.88
452.207	84.88
452.428	89.88
452.648	82.88
452.869	91.88
453.089	95.88
453.31	85.88
453.53	86.88
453.751	73.88
453.971	100.88
454.192	94.88
454.412	85.88
454.633	87.88
454.853	88.88
455.073	77.88
455.294	85.88
455.514	100.88
455.734	100.88
455.955	81.88
456.175	80.88
456.395	92.88
456.616	70.88
456.836	75.88
457.056	67.88
457.276	86.88
457.497	69.88
457.717	94.88
457.937	77.88
458.157	89.88
458.377	86.88
458.598	88.88
458.818	103.88
459.038	106.88
459.258	93.88
459.478	88.88
459.698	95.88
459.918	88.88
460.138	78.88
460.358	97.88
460.578	83.88
460.798	103.88
461.018	86.88
461.238	102.88
461.458	90.88
461.678	93.88
461.898	83.88
462.118	94.88
462.338	69.88
462.558	85.88
462.777	81.88
462.997	84.88
463.217	83.88
463.437	96.88
463.657	88.88
463.876	91.88
464.096	82.88
464.316	84.88
464.536	82.88
464.755	82.88
464.975	103.88
465.195	128.88
465.414	97.88
465.634	92.88
465.854	89.88
466.073	84.88
466.293	77.88
466.512	80.88
466.732	89.88
466.951	92.88
467.171	91.88
467.391	88.88
467.61	94.88
467.829	98.88
468.049	90.88
468.268	79.88
468.488	80.88
468.707	71.88
468.927	81.88
469.146	75.88
469.365	78.88
469.585	87.88
469.804	84.88
470.023	93.88
470.243	82.88
470.462	89.88
470.681	80.88
470.901	82.88
471.12	81.88
471.339	101.88
471.558	82.88
471.777	68.88
471.997	94.88
472.216	89.88
472.435	90.88
472.654	92.88
472.873	72.88
473.092	97.88
473.311	88.88
473.53	100.88
473.749	96.88
473.968	84.88
474.187	92.88
474.406	86.88
474.625	83.88
474.844	84.88
475.063	94.88
475.282	85.88
475.501	85.88
475.72	86.88
475.939	92.88
476.158	82.88
476.377	80.88
476.596	86.88
476.814	84.88
477.033	71.88
477.252	86.88
477.471	86.88
477.69	91.88
477.908	82.88
478.127	85.88
478.346	91.88
478.564	89.88
478.783	88.88
479.002	77.88
479.22	88.88
479.439	86.88
479.658	93.88
479.876	89.88
480.095	81.88
480.313	86.88
480.532	102.88
480.751	90.88
480.969	98.88
481.188	129.88
481.406	103.88
481.624	103.88
481.843	102.88
482.061	84.88
482.28	99.88
482.498	90.88
482.717	84.88
482.935	87.88
483.153	80.88
483.372	82.88
483.59	91.88
483.808	77.88
484.027	82.88
484.245	102.88
484.463	103.88
484.681	108.88
484.9	91.88
485.118	90.88
485.336	108.88
485.554	102.88
485.772	101.88
485.99	111.88
486.209	88.88
486.427	124.88
486.645	112.88
486.863	109.88
487.081	93.88
487.299	92.88
487.517	95.88
487.735	94.88
487.953	88.88
488.171	87.88
488.389	101.88
488.607	100.88
488.825	96.88
489.043	96.88
489.261	77.88
489.479	78.88
489.696	77.88
489.914	94.88
490.132	88.88
490.35	95.88
490.568	86.88
490.786	79.88
491.003	82.88
491.221	87.88
491.439	101.88
491.657	89.88
491.874	98.88
492.092	91.88
492.31	77.88
492.527	94.88
492.745	87.88
492.963	86.88
493.18	77.88
493.398	89.88
493.615	102.88
493.833	88.88
494.05	98.88
494.268	96.88
494.485	88.88
494.703	89.88
494.92	89.88
495.138	69.88
495.355	82.88
495.573	82.88
495.79	90.88
496.008	82.88
496.225	90.88
496.442	94.88
496.66	85.88
496.877	86.88
497.094	88.88
497.312	83.88
497.529	92.88
497.746	95.88
497.963	88.88
498.181	86.88
498.398	108.88
498.615	100.88
498.832	92.88
499.049	97.88
499.267	84.88
499.484	62.88
499.701	93.88
499.918	81.88
500.135	88.88
500.352	92.88
500.569	81.88
500.786	87.88
501.003	81.88
501.22	89.88
501.437	96.88
501.654	84.88
501.871	97.88
502.088	90.88
502.305	91.88
502.522	83.88
502.739	85.88
502.956	96.88
503.172	96.88
503.389	77.88
503.606	96.88
503.823	87.88
504.04	100.88
504.256	81.88
504.473	94.88
504.69	88.88
504.907	92.88
505.123	99.88
505.34	100.88
505.557	99.88
505.773	87.88
505.99	88.88
506.207	89.88
506.423	99.88
506.64	91.88
506.856	94.88
507.073	93.88
507.289	80.88
507.506	89.88
507.722	91.88
507.939	87.88
508.155	101.88
508.372	82.88
508.588	83.88
508.805	93.88
509.021	90.88
509.238	92.88
509.454	83.88
509.67	98.88
509.887	107.88
510.103	101.88
510.319	135.88
510.536	371.88
510.752	1022.88
510.968	328.88
511.184	130.88
511.401	102.88
511.617	93.88
511.833	91.88
512.049	93.88
512.265	78.88
512.481	81.88
512.698	82.88
512.914	86.88
513.13	91.88
513.346	85.88
513.562	88.88
513.778	76.88
513.994	90.88
514.21	90.88
514.426	88.88
514.642	96.88
514.858	108.88
515.074	114.88
515.29	232.88
515.506	594.88
515.721	247.88
515.937	118.88
516.153	96.88
516.369	84.88
