Data from Uncirc_1981_H10_HRD10591_00090.txt Node
Date: Wed Jan 03 12:33:26 EST 2024
User: Yrep
Spectrometer: HR+D1059
Trigger mode: 1
Integration Time (sec): 1.000000E-1
Scans to average: 1
Electric dark correction enabled: true
Nonlinearity correction enabled: false
Boxcar width: 0
XAxis mode: Wavelengths
Number of Pixels in Spectrum: 2048
>>>>>Begin Spectral Data<<<<<
223.165	-17.19
223.4	-17.19
223.635	-17.19
223.869	-15.19
224.104	-12.19
224.338	-23.19
224.573	-18.19
224.808	-10.19
225.042	-6.19
225.277	-2.19
225.511	8.81
225.746	2.81
225.98	-7.19
226.215	7.81
226.449	16.81
226.683	20.81
226.918	34.81
227.152	19.81
227.387	29.81
227.621	25.81
227.856	39.81
228.09	40.81
228.324	52.81
228.559	58.81
228.793	62.81
229.027	64.81
229.262	60.81
229.496	63.81
229.73	80.81
229.964	65.81
230.199	80.81
230.433	73.81
230.667	92.81
230.901	73.81
231.136	73.81
231.37	78.81
231.604	92.81
231.838	85.81
232.072	78.81
232.306	73.81
232.541	84.81
232.775	65.81
233.009	85.81
233.243	68.81
233.477	88.81
233.711	86.81
233.945	86.81
234.179	62.81
234.413	75.81
234.647	70.81
234.881	87.81
235.115	88.81
235.349	64.81
235.583	81.81
235.817	75.81
236.051	78.81
236.285	74.81
236.519	84.81
236.753	81.81
236.987	84.81
237.221	74.81
237.455	88.81
237.689	57.81
237.922	63.81
238.156	65.81
238.39	68.81
238.624	74.81
238.858	81.81
239.091	86.81
239.325	80.81
239.559	68.81
239.793	68.81
240.027	92.81
240.26	74.81
240.494	68.81
240.728	66.81
240.961	70.81
241.195	69.81
241.429	68.81
241.662	68.81
241.896	56.81
242.13	63.81
242.363	61.81
242.597	85.81
242.83	72.81
243.064	76.81
243.298	69.81
243.531	67.81
243.765	73.81
243.998	75.81
244.232	66.81
244.465	83.81
244.699	84.81
244.932	63.81
245.166	72.81
245.399	74.81
245.633	70.81
245.866	68.81
246.099	68.81
246.333	64.81
246.566	66.81
246.8	80.81
247.033	78.81
247.266	62.81
247.5	70.81
247.733	78.81
247.966	86.81
248.2	74.81
248.433	82.81
248.666	64.81
248.899	84.81
249.133	88.81
249.366	88.81
249.599	102.81
249.832	64.81
250.066	55.81
250.299	74.81
250.532	80.81
250.765	81.81
250.998	71.81
251.231	64.81
251.465	85.81
251.698	78.81
251.931	72.81
252.164	65.81
252.397	66.81
252.63	79.81
252.863	87.81
253.096	85.81
253.329	73.81
253.562	76.81
253.795	84.81
254.028	65.81
254.261	80.81
254.494	90.81
254.727	86.81
254.96	78.81
255.193	80.81
255.426	67.81
255.659	92.81
255.892	73.81
256.124	79.81
256.357	73.81
256.59	80.81
256.823	84.81
257.056	72.81
257.289	68.81
257.521	77.81
257.754	70.81
257.987	80.81
258.22	83.81
258.452	84.81
258.685	80.81
258.918	78.81
259.151	74.81
259.383	95.81
259.616	80.81
259.849	68.81
260.081	78.81
260.314	78.81
260.547	76.81
260.779	78.81
261.012	81.81
261.244	71.81
261.477	88.81
261.71	90.81
261.942	110.81
262.175	108.81
262.407	77.81
262.64	92.81
262.872	60.81
263.105	65.81
263.337	77.81
263.57	78.81
263.802	73.81
264.035	88.81
264.267	78.81
264.499	71.81
264.732	72.81
264.964	72.81
265.197	73.81
265.429	80.81
265.661	67.81
265.894	70.81
266.126	87.81
266.358	85.81
266.591	71.81
266.823	80.81
267.055	78.81
267.287	69.81
267.52	72.81
267.752	68.81
267.984	64.81
268.216	80.81
268.448	98.81
268.681	71.81
268.913	66.81
269.145	78.81
269.377	87.81
269.609	78.81
269.841	99.81
270.073	80.81
270.306	79.81
270.538	86.81
270.77	80.81
271.002	62.81
271.234	98.81
271.466	95.81
271.698	76.81
271.93	67.81
272.162	65.81
272.394	81.81
272.626	69.81
272.858	71.81
273.09	94.81
273.322	90.81
273.553	71.81
273.785	81.81
274.017	88.81
274.249	82.81
274.481	82.81
274.713	81.81
274.945	82.81
275.176	79.81
275.408	80.81
275.64	87.81
275.872	79.81
276.104	71.81
276.335	84.81
276.567	84.81
276.799	76.81
277.031	83.81
277.262	81.81
277.494	95.81
277.726	100.81
277.957	90.81
278.189	71.81
278.421	94.81
278.652	84.81
278.884	65.81
279.115	82.81
279.347	77.81
279.579	80.81
279.81	87.81
280.042	88.81
280.273	80.81
280.505	73.81
280.736	91.81
280.968	84.81
281.199	80.81
281.431	79.81
281.662	92.81
281.894	78.81
282.125	69.81
282.356	112.81
282.588	115.81
282.819	95.81
283.051	92.81
283.282	76.81
283.513	70.81
283.745	79.81
283.976	84.81
284.207	85.81
284.439	79.81
284.67	84.81
284.901	82.81
285.132	79.81
285.364	83.81
285.595	88.81
285.826	84.81
286.057	78.81
286.288	93.81
286.52	74.81
286.751	91.81
286.982	78.81
287.213	83.81
287.444	92.81
287.675	105.81
287.906	100.81
288.138	102.81
288.369	80.81
288.6	83.81
288.831	69.81
289.062	82.81
289.293	82.81
289.524	92.81
289.755	92.81
289.986	86.81
290.217	77.81
290.448	78.81
290.679	90.81
290.91	79.81
291.141	82.81
291.371	81.81
291.602	93.81
291.833	81.81
292.064	86.81
292.295	82.81
292.526	64.81
292.757	88.81
292.987	83.81
293.218	80.81
293.449	90.81
293.68	71.81
293.91	76.81
294.141	82.81
294.372	90.81
294.603	92.81
294.833	86.81
295.064	72.81
295.295	88.81
295.525	94.81
295.756	91.81
295.987	104.81
296.217	120.81
296.448	100.81
296.679	93.81
296.909	88.81
297.14	82.81
297.37	92.81
297.601	82.81
297.831	84.81
298.062	98.81
298.292	69.81
298.523	85.81
298.753	72.81
298.984	67.81
299.214	89.81
299.445	87.81
299.675	95.81
299.905	80.81
300.136	91.81
300.366	87.81
300.597	78.81
300.827	99.81
301.057	90.81
301.288	81.81
301.518	92.81
301.748	84.81
301.979	101.81
302.209	98.81
302.439	76.81
302.669	92.81
302.9	72.81
303.13	81.81
303.36	76.81
303.59	97.81
303.82	103.81
304.051	83.81
304.281	92.81
304.511	74.81
304.741	93.81
304.971	101.81
305.201	88.81
305.431	82.81
305.661	69.81
305.891	88.81
306.121	76.81
306.352	95.81
306.582	102.81
306.812	93.81
307.042	84.81
307.272	100.81
307.502	92.81
307.731	78.81
307.961	100.81
308.191	90.81
308.421	81.81
308.651	86.81
308.881	96.81
309.111	76.81
309.341	87.81
309.571	100.81
309.8	92.81
310.03	81.81
310.26	90.81
310.49	79.81
310.72	88.81
310.949	85.81
311.179	90.81
311.409	86.81
311.639	85.81
311.868	96.81
312.098	73.81
312.328	88.81
312.557	86.81
312.787	86.81
313.017	83.81
313.246	90.81
313.476	88.81
313.706	73.81
313.935	94.81
314.165	87.81
314.394	92.81
314.624	92.81
314.853	103.81
315.083	86.81
315.312	85.81
315.542	89.81
315.771	77.81
316.001	99.81
316.23	88.81
316.46	77.81
316.689	96.81
316.919	85.81
317.148	93.81
317.377	92.81
317.607	97.81
317.836	87.81
318.065	90.81
318.295	72.81
318.524	71.81
318.753	95.81
318.983	95.81
319.212	86.81
319.441	83.81
319.67	91.81
319.9	85.81
320.129	84.81
320.358	96.81
320.587	94.81
320.816	86.81
321.046	90.81
321.275	86.81
321.504	94.81
321.733	87.81
321.962	95.81
322.191	94.81
322.42	101.81
322.649	99.81
322.878	112.81
323.108	115.81
323.337	122.81
323.566	107.81
323.795	144.81
324.024	188.81
324.253	370.81
324.482	740.81
324.71	1538.81
324.939	2098.81
325.168	763.81
325.397	215.81
325.626	134.81
325.855	110.81
326.084	124.81
326.313	137.81
326.542	135.81
326.77	197.81
326.999	421.81
327.228	881.81
327.457	1615.81
327.686	1265.81
327.914	318.81
328.143	177.81
328.372	122.81
328.6	113.81
328.829	111.81
329.058	104.81
329.287	104.81
329.515	93.81
329.744	108.81
329.972	105.81
330.201	117.81
330.43	110.81
330.658	110.81
330.887	124.81
331.115	101.81
331.344	96.81
331.572	96.81
331.801	101.81
332.03	85.81
332.258	80.81
332.486	97.81
332.715	87.81
332.943	80.81
333.172	83.81
333.4	100.81
333.629	87.81
333.857	109.81
334.085	96.81
334.314	104.81
334.542	132.81
334.771	106.81
334.999	90.81
335.227	83.81
335.455	89.81
335.684	74.81
335.912	93.81
336.14	84.81
336.369	85.81
336.597	90.81
336.825	99.81
337.053	103.81
337.281	85.81
337.51	89.81
337.738	87.81
337.966	95.81
338.194	95.81
338.422	92.81
338.65	80.81
338.878	85.81
339.106	72.81
339.334	84.81
339.562	82.81
339.79	82.81
340.018	78.81
340.246	76.81
340.474	84.81
340.702	78.81
340.93	93.81
341.158	84.81
341.386	89.81
341.614	99.81
341.842	85.81
342.07	85.81
342.298	88.81
342.526	84.81
342.754	81.81
342.981	97.81
343.209	85.81
343.437	97.81
343.665	90.81
343.893	84.81
344.12	89.81
344.348	87.81
344.576	87.81
344.804	96.81
345.031	99.81
345.259	95.81
345.487	85.81
345.714	79.81
345.942	79.81
346.17	80.81
346.397	87.81
346.625	94.81
346.853	87.81
347.08	94.81
347.308	91.81
347.535	71.81
347.763	88.81
347.99	93.81
348.218	85.81
348.445	95.81
348.673	92.81
348.9	82.81
349.128	96.81
349.355	85.81
349.583	91.81
349.81	91.81
350.037	98.81
350.265	95.81
350.492	86.81
350.72	99.81
350.947	102.81
351.174	98.81
351.402	110.81
351.629	89.81
351.856	80.81
352.083	90.81
352.311	97.81
352.538	98.81
352.765	108.81
352.992	105.81
353.22	100.81
353.447	97.81
353.674	96.81
353.901	81.81
354.128	78.81
354.355	88.81
354.583	103.81
354.81	100.81
355.037	80.81
355.264	99.81
355.491	78.81
355.718	110.81
355.945	108.81
356.172	99.81
356.399	74.81
356.626	83.81
356.853	83.81
357.08	86.81
357.307	82.81
357.534	86.81
357.761	81.81
357.988	87.81
358.215	86.81
358.441	83.81
358.668	83.81
358.895	80.81
359.122	77.81
359.349	93.81
359.576	90.81
359.802	102.81
360.029	100.81
360.256	104.81
360.483	100.81
360.709	85.81
360.936	87.81
361.163	81.81
361.39	77.81
361.616	89.81
361.843	89.81
362.07	73.81
362.296	88.81
362.523	74.81
362.749	78.81
362.976	76.81
363.203	88.81
363.429	78.81
363.656	86.81
363.882	88.81
364.109	78.81
364.335	84.81
364.562	89.81
364.788	80.81
365.015	90.81
365.241	104.81
365.468	95.81
365.694	101.81
365.92	86.81
366.147	87.81
366.373	89.81
366.599	91.81
366.826	90.81
367.052	92.81
367.278	97.81
367.505	82.81
367.731	97.81
367.957	89.81
368.184	76.81
368.41	88.81
368.636	98.81
368.862	106.81
369.089	113.81
369.315	76.81
369.541	93.81
369.767	85.81
369.993	82.81
370.219	95.81
370.445	71.81
370.672	86.81
370.898	79.81
371.124	88.81
371.35	89.81
371.576	84.81
371.802	64.81
372.028	88.81
372.254	88.81
372.48	96.81
372.706	73.81
372.932	82.81
373.158	86.81
373.384	81.81
373.61	71.81
373.835	80.81
374.061	80.81
374.287	93.81
374.513	84.81
374.739	92.81
374.965	74.81
375.191	96.81
375.416	92.81
375.642	90.81
375.868	74.81
376.094	83.81
376.319	85.81
376.545	76.81
376.771	84.81
376.997	84.81
377.222	86.81
377.448	87.81
377.674	84.81
377.899	85.81
378.125	89.81
378.35	76.81
378.576	95.81
378.802	94.81
379.027	88.81
379.253	88.81
379.478	95.81
379.704	78.81
379.929	87.81
380.155	94.81
380.38	85.81
380.606	89.81
380.831	92.81
381.057	100.81
381.282	93.81
381.507	95.81
381.733	80.81
381.958	86.81
382.184	89.81
382.409	97.81
382.634	83.81
382.86	94.81
383.085	82.81
383.31	104.81
383.535	81.81
383.761	94.81
383.986	92.81
384.211	93.81
384.436	109.81
384.662	98.81
384.887	81.81
385.112	92.81
385.337	97.81
385.562	97.81
385.787	101.81
386.013	97.81
386.238	100.81
386.463	100.81
386.688	108.81
386.913	104.81
387.138	94.81
387.363	72.81
387.588	82.81
387.813	84.81
388.038	103.81
388.263	102.81
388.488	105.81
388.713	83.81
388.938	90.81
389.163	94.81
389.387	99.81
389.612	92.81
389.837	92.81
390.062	96.81
390.287	85.81
390.512	96.81
390.736	99.81
390.961	93.81
391.186	88.81
391.411	99.81
391.636	82.81
391.86	82.81
392.085	72.81
392.31	93.81
392.534	88.81
392.759	84.81
392.984	89.81
393.208	82.81
393.433	80.81
393.658	85.81
393.882	74.81
394.107	83.81
394.331	81.81
394.556	90.81
394.78	84.81
395.005	96.81
395.229	76.81
395.454	81.81
395.678	78.81
395.903	93.81
396.127	80.81
396.352	87.81
396.576	81.81
396.801	85.81
397.025	90.81
397.249	78.81
397.474	92.81
397.698	93.81
397.922	95.81
398.147	85.81
398.371	84.81
398.595	76.81
398.82	88.81
399.044	85.81
399.268	73.81
399.492	69.81
399.717	88.81
399.941	65.81
400.165	93.81
400.389	90.81
400.613	83.81
400.837	70.81
401.062	92.81
401.286	84.81
401.51	81.81
401.734	88.81
401.958	86.81
402.182	100.81
402.406	129.81
402.63	94.81
402.854	83.81
403.078	89.81
403.302	79.81
403.526	72.81
403.75	98.81
403.974	93.81
404.198	94.81
404.422	81.81
404.645	80.81
404.869	69.81
405.093	100.81
405.317	92.81
405.541	80.81
405.765	85.81
405.988	104.81
406.212	139.81
406.436	154.81
406.66	118.81
406.883	88.81
407.107	94.81
407.331	92.81
407.555	86.81
407.778	93.81
408.002	95.81
408.226	95.81
408.449	95.81
408.673	95.81
408.896	87.81
409.12	73.81
409.344	88.81
409.567	69.81
409.791	97.81
410.014	94.81
410.238	93.81
410.461	92.81
410.685	98.81
410.908	86.81
411.132	99.81
411.355	88.81
411.578	83.81
411.802	82.81
412.025	87.81
412.249	92.81
412.472	70.81
412.695	88.81
412.919	84.81
413.142	97.81
413.365	92.81
413.589	92.81
413.812	88.81
414.035	95.81
414.258	89.81
414.482	81.81
414.705	90.81
414.928	95.81
415.151	90.81
415.374	97.81
415.597	89.81
415.821	86.81
416.044	88.81
416.267	93.81
416.49	73.81
416.713	89.81
416.936	87.81
417.159	73.81
417.382	88.81
417.605	87.81
417.828	72.81
418.051	92.81
418.274	87.81
418.497	70.81
418.72	64.81
418.943	92.81
419.166	70.81
419.389	89.81
419.611	72.81
419.834	92.81
420.057	79.81
420.28	79.81
420.503	77.81
420.726	69.81
420.948	75.81
421.171	89.81
421.394	101.81
421.617	86.81
421.839	78.81
422.062	86.81
422.285	88.81
422.507	89.81
422.73	100.81
422.953	85.81
423.175	81.81
423.398	77.81
423.621	73.81
423.843	80.81
424.066	83.81
424.288	86.81
424.511	88.81
424.733	84.81
424.956	85.81
425.178	77.81
425.401	88.81
425.623	88.81
425.846	88.81
426.068	96.81
426.291	83.81
426.513	99.81
426.735	74.81
426.958	79.81
427.18	101.81
427.402	125.81
427.625	144.81
427.847	110.81
428.069	98.81
428.292	79.81
428.514	90.81
428.736	78.81
428.958	76.81
429.181	72.81
429.403	82.81
429.625	79.81
429.847	90.81
430.069	86.81
430.292	94.81
430.514	101.81
430.736	90.81
430.958	80.81
431.18	88.81
431.402	90.81
431.624	80.81
431.846	87.81
432.068	88.81
432.29	89.81
432.512	85.81
432.734	88.81
432.956	90.81
433.178	94.81
433.4	88.81
433.622	90.81
433.844	88.81
434.066	80.81
434.287	80.81
434.509	95.81
434.731	84.81
434.953	95.81
435.175	97.81
435.397	78.81
435.618	92.81
435.84	96.81
436.062	100.81
436.284	110.81
436.505	110.81
436.727	87.81
436.949	84.81
437.17	85.81
437.392	78.81
437.614	78.81
437.835	89.81
438.057	109.81
438.278	89.81
438.5	100.81
438.721	108.81
438.943	85.81
439.165	76.81
439.386	84.81
439.608	95.81
439.829	88.81
440.05	117.81
440.272	120.81
440.493	88.81
440.715	82.81
440.936	73.81
441.158	69.81
441.379	82.81
441.6	90.81
441.822	94.81
442.043	80.81
442.264	90.81
442.486	100.81
442.707	86.81
442.928	82.81
443.149	113.81
443.371	124.81
443.592	101.81
443.813	121.81
444.034	104.81
444.255	88.81
444.476	92.81
444.698	89.81
444.919	87.81
445.14	132.81
445.361	119.81
445.582	105.81
445.803	130.81
446.024	135.81
446.245	131.81
446.466	98.81
446.687	87.81
446.908	88.81
447.129	71.81
447.35	79.81
447.571	92.81
447.792	93.81
448.013	99.81
448.234	92.81
448.455	81.81
448.675	106.81
448.896	108.81
449.117	96.81
449.338	105.81
449.559	125.81
449.779	118.81
450	92.81
450.221	90.81
450.442	88.81
450.662	82.81
450.883	97.81
451.104	97.81
451.324	79.81
451.545	94.81
451.766	81.81
451.986	84.81
452.207	83.81
452.428	94.81
452.648	90.81
452.869	94.81
453.089	91.81
453.31	124.81
453.53	85.81
453.751	83.81
453.971	103.81
454.192	102.81
454.412	88.81
454.633	86.81
454.853	80.81
455.073	88.81
455.294	100.81
455.514	84.81
455.734	81.81
455.955	94.81
456.175	81.81
456.395	79.81
456.616	81.81
456.836	76.81
457.056	94.81
457.276	81.81
457.497	67.81
457.717	85.81
457.937	93.81
458.157	84.81
458.377	90.81
458.598	97.81
458.818	102.81
459.038	143.81
459.258	96.81
459.478	84.81
459.698	87.81
459.918	80.81
460.138	73.81
460.358	81.81
460.578	82.81
460.798	87.81
461.018	86.81
461.238	77.81
461.458	57.81
461.678	72.81
461.898	70.81
462.118	69.81
462.338	76.81
462.558	85.81
462.777	78.81
462.997	99.81
463.217	82.81
463.437	88.81
463.657	86.81
463.876	90.81
464.096	95.81
464.316	89.81
464.536	90.81
464.755	94.81
464.975	98.81
465.195	117.81
465.414	112.81
465.634	92.81
465.854	86.81
466.073	85.81
466.293	82.81
466.512	87.81
466.732	68.81
466.951	86.81
467.171	102.81
467.391	93.81
467.61	80.81
467.829	99.81
468.049	92.81
468.268	91.81
468.488	65.81
468.707	80.81
468.927	74.81
469.146	88.81
469.365	88.81
469.585	88.81
469.804	86.81
470.023	92.81
470.243	90.81
470.462	97.81
470.681	91.81
470.901	78.81
471.12	81.81
471.339	82.81
471.558	78.81
471.777	75.81
471.997	70.81
472.216	92.81
472.435	125.81
472.654	87.81
472.873	86.81
473.092	86.81
473.311	82.81
473.53	72.81
473.749	68.81
473.968	83.81
474.187	93.81
474.406	95.81
474.625	79.81
474.844	82.81
475.063	72.81
475.282	85.81
475.501	73.81
475.72	79.81
475.939	81.81
476.158	102.81
476.377	83.81
476.596	83.81
476.814	83.81
477.033	82.81
477.252	82.81
477.471	82.81
477.69	66.81
477.908	81.81
478.127	88.81
478.346	87.81
478.564	95.81
478.783	88.81
479.002	93.81
479.22	80.81
479.439	89.81
479.658	81.81
479.876	76.81
480.095	84.81
480.313	86.81
480.532	92.81
480.751	92.81
480.969	100.81
481.188	162.81
481.406	122.81
481.624	93.81
481.843	81.81
482.061	82.81
482.28	88.81
482.498	82.81
482.717	67.81
482.935	84.81
483.153	71.81
483.372	91.81
483.59	89.81
483.808	80.81
484.027	90.81
484.245	84.81
484.463	89.81
484.681	97.81
484.9	69.81
485.118	96.81
485.336	89.81
485.554	90.81
485.772	95.81
485.99	94.81
486.209	101.81
486.427	98.81
486.645	92.81
486.863	102.81
487.081	93.81
487.299	79.81
487.517	91.81
487.735	93.81
487.953	103.81
488.171	103.81
488.389	97.81
488.607	97.81
488.825	84.81
489.043	95.81
489.261	97.81
489.479	85.81
489.696	94.81
489.914	89.81
490.132	87.81
490.35	97.81
490.568	77.81
490.786	94.81
491.003	73.81
491.221	83.81
491.439	96.81
491.657	97.81
491.874	98.81
492.092	97.81
492.31	91.81
492.527	80.81
492.745	78.81
492.963	81.81
493.18	70.81
493.398	102.81
493.615	103.81
493.833	91.81
494.05	82.81
494.268	100.81
494.485	100.81
494.703	86.81
494.92	84.81
495.138	85.81
495.355	88.81
495.573	90.81
495.79	83.81
496.008	76.81
496.225	72.81
496.442	78.81
496.66	92.81
496.877	94.81
497.094	85.81
497.312	84.81
497.529	86.81
497.746	89.81
497.963	96.81
498.181	97.81
498.398	102.81
498.615	104.81
498.832	101.81
499.049	97.81
499.267	77.81
499.484	78.81
499.701	94.81
499.918	88.81
500.135	71.81
500.352	84.81
500.569	86.81
500.786	87.81
501.003	80.81
501.22	71.81
501.437	91.81
501.654	94.81
501.871	100.81
502.088	79.81
502.305	80.81
502.522	83.81
502.739	88.81
502.956	85.81
503.172	81.81
503.389	84.81
503.606	104.81
503.823	90.81
504.04	88.81
504.256	87.81
504.473	86.81
504.69	81.81
504.907	87.81
505.123	72.81
505.34	89.81
505.557	99.81
505.773	100.81
505.99	89.81
506.207	93.81
506.423	84.81
506.64	76.81
506.856	86.81
507.073	77.81
507.289	89.81
507.506	101.81
507.722	89.81
507.939	90.81
508.155	94.81
508.372	68.81
508.588	90.81
508.805	80.81
509.021	96.81
509.238	92.81
509.454	85.81
509.67	96.81
509.887	106.81
510.103	121.81
510.319	181.81
510.536	559.81
510.752	1651.81
510.968	457.81
511.184	135.81
511.401	102.81
511.617	95.81
511.833	93.81
512.049	85.81
512.265	87.81
512.481	85.81
512.698	88.81
512.914	89.81
513.13	103.81
513.346	71.81
513.562	91.81
513.778	87.81
513.994	84.81
514.21	61.81
514.426	92.81
514.642	114.81
514.858	108.81
515.074	148.81
515.29	312.81
515.506	1008.81
515.721	380.81
515.937	142.81
516.153	113.81
516.369	92.81
516.585	84.81
516.801	105.81
517.016	88.81
517.232	77.81
517.448	87.81
