Data from Uncirc_1981_H10_HRD10591_00039.txt Node
Date: Wed Jan 03 12:33:15 EST 2024
User: Yrep
Spectrometer: HR+D1059
Trigger mode: 1
Integration Time (sec): 1.000000E-1
Scans to average: 1
Electric dark correction enabled: true
Nonlinearity correction enabled: false
Boxcar width: 0
XAxis mode: Wavelengths
Number of Pixels in Spectrum: 2048
>>>>>Begin Spectral Data<<<<<
223.165	-15.62
223.4	-15.62
223.635	-15.62
223.869	-9.62
224.104	-24.62
224.338	-19.62
224.573	-28.62
224.808	-3.62
225.042	-11.62
225.277	-3.62
225.511	-9.62
225.746	6.38
225.98	16.38
226.215	13.38
226.449	18.38
226.683	11.38
226.918	28.38
227.152	32.38
227.387	39.38
227.621	46.38
227.856	39.38
228.09	57.38
228.324	52.38
228.559	68.38
228.793	57.38
229.027	68.38
229.262	66.38
229.496	76.38
229.73	80.38
229.964	77.38
230.199	75.38
230.433	74.38
230.667	69.38
230.901	65.38
231.136	74.38
231.37	79.38
231.604	63.38
231.838	84.38
232.072	85.38
232.306	78.38
232.541	93.38
232.775	92.38
233.009	86.38
233.243	96.38
233.477	90.38
233.711	77.38
233.945	80.38
234.179	94.38
234.413	63.38
234.647	84.38
234.881	82.38
235.115	82.38
235.349	89.38
235.583	86.38
235.817	75.38
236.051	70.38
236.285	87.38
236.519	83.38
236.753	74.38
236.987	90.38
237.221	79.38
237.455	97.38
237.689	100.38
237.922	89.38
238.156	73.38
238.39	71.38
238.624	87.38
238.858	73.38
239.091	72.38
239.325	63.38
239.559	71.38
239.793	85.38
240.027	67.38
240.26	76.38
240.494	77.38
240.728	63.38
240.961	78.38
241.195	86.38
241.429	72.38
241.662	83.38
241.896	75.38
242.13	82.38
242.363	75.38
242.597	78.38
242.83	81.38
243.064	64.38
243.298	72.38
243.531	78.38
243.765	75.38
243.998	83.38
244.232	94.38
244.465	69.38
244.699	88.38
244.932	89.38
245.166	72.38
245.399	71.38
245.633	74.38
245.866	78.38
246.099	67.38
246.333	83.38
246.566	84.38
246.8	76.38
247.033	77.38
247.266	65.38
247.5	81.38
247.733	88.38
247.966	89.38
248.2	100.38
248.433	88.38
248.666	75.38
248.899	86.38
249.133	76.38
249.366	100.38
249.599	100.38
249.832	83.38
250.066	83.38
250.299	86.38
250.532	84.38
250.765	91.38
250.998	84.38
251.231	80.38
251.465	90.38
251.698	82.38
251.931	81.38
252.164	77.38
252.397	72.38
252.63	89.38
252.863	62.38
253.096	80.38
253.329	84.38
253.562	73.38
253.795	74.38
254.028	72.38
254.261	81.38
254.494	84.38
254.727	80.38
254.96	76.38
255.193	68.38
255.426	72.38
255.659	74.38
255.892	87.38
256.124	84.38
256.357	78.38
256.59	98.38
256.823	90.38
257.056	72.38
257.289	82.38
257.521	91.38
257.754	83.38
257.987	84.38
258.22	68.38
258.452	78.38
258.685	86.38
258.918	92.38
259.151	72.38
259.383	90.38
259.616	86.38
259.849	85.38
260.081	101.38
260.314	76.38
260.547	77.38
260.779	77.38
261.012	83.38
261.244	65.38
261.477	66.38
261.71	83.38
261.942	107.38
262.175	97.38
262.407	84.38
262.64	91.38
262.872	79.38
263.105	81.38
263.337	72.38
263.57	80.38
263.802	76.38
264.035	73.38
264.267	75.38
264.499	90.38
264.732	71.38
264.964	78.38
265.197	80.38
265.429	88.38
265.661	80.38
265.894	92.38
266.126	85.38
266.358	80.38
266.591	74.38
266.823	78.38
267.055	68.38
267.287	84.38
267.52	80.38
267.752	77.38
267.984	91.38
268.216	77.38
268.448	87.38
268.681	91.38
268.913	85.38
269.145	83.38
269.377	73.38
269.609	97.38
269.841	84.38
270.073	72.38
270.306	94.38
270.538	85.38
270.77	92.38
271.002	70.38
271.234	86.38
271.466	95.38
271.698	87.38
271.93	86.38
272.162	80.38
272.394	93.38
272.626	92.38
272.858	79.38
273.09	82.38
273.322	73.38
273.553	84.38
273.785	78.38
274.017	71.38
274.249	79.38
274.481	102.38
274.713	73.38
274.945	89.38
275.176	85.38
275.408	89.38
275.64	89.38
275.872	89.38
276.104	94.38
276.335	78.38
276.567	82.38
276.799	92.38
277.031	99.38
277.262	91.38
277.494	91.38
277.726	84.38
277.957	78.38
278.189	85.38
278.421	90.38
278.652	80.38
278.884	76.38
279.115	94.38
279.347	88.38
279.579	83.38
279.81	82.38
280.042	81.38
280.273	68.38
280.505	93.38
280.736	87.38
280.968	82.38
281.199	86.38
281.431	92.38
281.662	92.38
281.894	86.38
282.125	93.38
282.356	106.38
282.588	115.38
282.819	118.38
283.051	94.38
283.282	98.38
283.513	73.38
283.745	62.38
283.976	85.38
284.207	82.38
284.439	93.38
284.67	97.38
284.901	89.38
285.132	97.38
285.364	86.38
285.595	82.38
285.826	94.38
286.057	92.38
286.288	98.38
286.52	80.38
286.751	66.38
286.982	77.38
287.213	72.38
287.444	85.38
287.675	90.38
287.906	76.38
288.138	84.38
288.369	86.38
288.6	99.38
288.831	83.38
289.062	88.38
289.293	86.38
289.524	82.38
289.755	94.38
289.986	75.38
290.217	72.38
290.448	97.38
290.679	86.38
290.91	89.38
291.141	91.38
291.371	89.38
291.602	76.38
291.833	92.38
292.064	82.38
292.295	90.38
292.526	78.38
292.757	83.38
292.987	90.38
293.218	86.38
293.449	98.38
293.68	76.38
293.91	92.38
294.141	75.38
294.372	86.38
294.603	91.38
294.833	96.38
295.064	93.38
295.295	91.38
295.525	84.38
295.756	105.38
295.987	104.38
296.217	117.38
296.448	107.38
296.679	82.38
296.909	85.38
297.14	93.38
297.37	88.38
297.601	80.38
297.831	83.38
298.062	87.38
298.292	86.38
298.523	78.38
298.753	84.38
298.984	92.38
299.214	86.38
299.445	89.38
299.675	105.38
299.905	86.38
300.136	100.38
300.366	100.38
300.597	77.38
300.827	118.38
301.057	90.38
301.288	93.38
301.518	92.38
301.748	86.38
301.979	96.38
302.209	85.38
302.439	86.38
302.669	93.38
302.9	82.38
303.13	86.38
303.36	88.38
303.59	91.38
303.82	107.38
304.051	89.38
304.281	95.38
304.511	90.38
304.741	85.38
304.971	94.38
305.201	82.38
305.431	106.38
305.661	86.38
305.891	97.38
306.121	91.38
306.352	100.38
306.582	97.38
306.812	100.38
307.042	91.38
307.272	89.38
307.502	104.38
307.731	80.38
307.961	97.38
308.191	77.38
308.421	90.38
308.651	91.38
308.881	83.38
309.111	100.38
309.341	108.38
309.571	92.38
309.8	103.38
310.03	88.38
310.26	94.38
310.49	91.38
310.72	87.38
310.949	97.38
311.179	90.38
311.409	100.38
311.639	87.38
311.868	96.38
312.098	94.38
312.328	77.38
312.557	93.38
312.787	86.38
313.017	87.38
313.246	85.38
313.476	90.38
313.706	99.38
313.935	80.38
314.165	104.38
314.394	93.38
314.624	80.38
314.853	81.38
315.083	78.38
315.312	104.38
315.542	100.38
315.771	92.38
316.001	84.38
316.23	90.38
316.46	72.38
316.689	100.38
316.919	98.38
317.148	102.38
317.377	84.38
317.607	92.38
317.836	96.38
318.065	96.38
318.295	96.38
318.524	68.38
318.753	92.38
318.983	88.38
319.212	94.38
319.441	102.38
319.67	112.38
319.9	86.38
320.129	82.38
320.358	94.38
320.587	88.38
320.816	109.38
321.046	96.38
321.275	84.38
321.504	82.38
321.733	106.38
321.962	100.38
322.191	93.38
322.42	95.38
322.649	109.38
322.878	123.38
323.108	115.38
323.337	117.38
323.566	129.38
323.795	135.38
324.024	182.38
324.253	346.38
324.482	820.38
324.71	1683.38
324.939	2275.38
325.168	813.38
325.397	222.38
325.626	148.38
325.855	131.38
326.084	117.38
326.313	131.38
326.542	164.38
326.77	228.38
326.999	444.38
327.228	917.38
327.457	1720.38
327.686	1394.38
327.914	352.38
328.143	173.38
328.372	114.38
328.6	119.38
328.829	104.38
329.058	107.38
329.287	113.38
329.515	106.38
329.744	97.38
329.972	106.38
330.201	122.38
330.43	106.38
330.658	112.38
330.887	119.38
331.115	114.38
331.344	99.38
331.572	104.38
331.801	106.38
332.03	90.38
332.258	99.38
332.486	76.38
332.715	103.38
332.943	96.38
333.172	95.38
333.4	81.38
333.629	95.38
333.857	108.38
334.085	100.38
334.314	117.38
334.542	118.38
334.771	116.38
334.999	107.38
335.227	85.38
335.455	88.38
335.684	105.38
335.912	100.38
336.14	93.38
336.369	104.38
336.597	101.38
336.825	103.38
337.053	89.38
337.281	77.38
337.51	91.38
337.738	103.38
337.966	80.38
338.194	101.38
338.422	90.38
338.65	79.38
338.878	90.38
339.106	96.38
339.334	92.38
339.562	81.38
339.79	80.38
340.018	69.38
340.246	103.38
340.474	88.38
340.702	86.38
340.93	91.38
341.158	91.38
341.386	92.38
341.614	90.38
341.842	84.38
342.07	81.38
342.298	93.38
342.526	86.38
342.754	83.38
342.981	92.38
343.209	101.38
343.437	108.38
343.665	102.38
343.893	96.38
344.12	92.38
344.348	88.38
344.576	98.38
344.804	94.38
345.031	107.38
345.259	100.38
345.487	93.38
345.714	91.38
345.942	93.38
346.17	106.38
346.397	105.38
346.625	96.38
346.853	94.38
347.08	102.38
347.308	85.38
347.535	87.38
347.763	93.38
347.99	108.38
348.218	93.38
348.445	102.38
348.673	106.38
348.9	100.38
349.128	99.38
349.355	100.38
349.583	99.38
349.81	84.38
350.037	107.38
350.265	92.38
350.492	77.38
350.72	105.38
350.947	109.38
351.174	112.38
351.402	109.38
351.629	102.38
351.856	100.38
352.083	96.38
352.311	90.38
352.538	100.38
352.765	100.38
352.992	103.38
353.22	117.38
353.447	94.38
353.674	100.38
353.901	90.38
354.128	94.38
354.355	108.38
354.583	87.38
354.81	102.38
355.037	101.38
355.264	106.38
355.491	94.38
355.718	94.38
355.945	96.38
356.172	88.38
356.399	89.38
356.626	86.38
356.853	89.38
357.08	88.38
357.307	90.38
357.534	94.38
357.761	92.38
357.988	92.38
358.215	98.38
358.441	91.38
358.668	82.38
358.895	97.38
359.122	104.38
359.349	74.38
359.576	84.38
359.802	88.38
360.029	94.38
360.256	100.38
360.483	81.38
360.709	93.38
360.936	93.38
361.163	104.38
361.39	91.38
361.616	91.38
361.843	90.38
362.07	90.38
362.296	91.38
362.523	92.38
362.749	95.38
362.976	85.38
363.203	85.38
363.429	102.38
363.656	100.38
363.882	88.38
364.109	90.38
364.335	77.38
364.562	90.38
364.788	100.38
365.015	93.38
365.241	86.38
365.468	93.38
365.694	92.38
365.92	98.38
366.147	101.38
366.373	89.38
366.599	99.38
366.826	80.38
367.052	74.38
367.278	92.38
367.505	108.38
367.731	100.38
367.957	96.38
368.184	96.38
368.41	88.38
368.636	81.38
368.862	112.38
369.089	102.38
369.315	97.38
369.541	99.38
369.767	90.38
369.993	103.38
370.219	104.38
370.445	86.38
370.672	86.38
370.898	82.38
371.124	103.38
371.35	94.38
371.576	78.38
371.802	101.38
372.028	86.38
372.254	93.38
372.48	100.38
372.706	92.38
372.932	78.38
373.158	93.38
373.384	86.38
373.61	85.38
373.835	92.38
374.061	95.38
374.287	89.38
374.513	89.38
374.739	102.38
374.965	86.38
375.191	79.38
375.416	94.38
375.642	96.38
375.868	105.38
376.094	78.38
376.319	90.38
376.545	100.38
376.771	100.38
376.997	86.38
377.222	97.38
377.448	97.38
377.674	83.38
377.899	86.38
378.125	97.38
378.35	92.38
378.576	98.38
378.802	100.38
379.027	89.38
379.253	99.38
379.478	86.38
379.704	88.38
379.929	104.38
380.155	88.38
380.38	93.38
380.606	84.38
380.831	102.38
381.057	109.38
381.282	112.38
381.507	98.38
381.733	107.38
381.958	90.38
382.184	100.38
382.409	105.38
382.634	112.38
382.86	104.38
383.085	104.38
383.31	110.38
383.535	114.38
383.761	102.38
383.986	115.38
384.211	103.38
384.436	108.38
384.662	99.38
384.887	104.38
385.112	106.38
385.337	107.38
385.562	104.38
385.787	98.38
386.013	118.38
386.238	114.38
386.463	112.38
386.688	104.38
386.913	121.38
387.138	122.38
387.363	113.38
387.588	104.38
387.813	108.38
388.038	101.38
388.263	100.38
388.488	103.38
388.713	98.38
388.938	90.38
389.163	86.38
389.387	97.38
389.612	95.38
389.837	100.38
390.062	104.38
390.287	78.38
390.512	83.38
390.736	96.38
390.961	94.38
391.186	106.38
391.411	93.38
391.636	76.38
391.86	91.38
392.085	86.38
392.31	100.38
392.534	82.38
392.759	96.38
392.984	72.38
393.208	71.38
393.433	101.38
393.658	84.38
393.882	74.38
394.107	84.38
394.331	82.38
394.556	99.38
394.78	99.38
395.005	95.38
395.229	88.38
395.454	97.38
395.678	96.38
395.903	91.38
396.127	84.38
396.352	90.38
396.576	85.38
396.801	96.38
397.025	77.38
397.249	91.38
397.474	93.38
397.698	92.38
397.922	95.38
398.147	93.38
398.371	73.38
398.595	70.38
398.82	92.38
399.044	91.38
399.268	88.38
399.492	75.38
399.717	77.38
399.941	94.38
400.165	84.38
400.389	99.38
400.613	81.38
400.837	76.38
401.062	80.38
401.286	92.38
401.51	87.38
401.734	91.38
401.958	96.38
402.182	100.38
402.406	128.38
402.63	88.38
402.854	85.38
403.078	93.38
403.302	82.38
403.526	91.38
403.75	88.38
403.974	86.38
404.198	92.38
404.422	76.38
404.645	101.38
404.869	72.38
405.093	95.38
405.317	99.38
405.541	96.38
405.765	87.38
405.988	104.38
406.212	140.38
406.436	182.38
406.66	116.38
406.883	70.38
407.107	93.38
407.331	106.38
407.555	103.38
407.778	86.38
408.002	83.38
408.226	86.38
408.449	83.38
408.673	75.38
408.896	99.38
409.12	105.38
409.344	93.38
409.567	89.38
409.791	98.38
410.014	93.38
410.238	100.38
410.461	93.38
410.685	87.38
410.908	91.38
411.132	97.38
411.355	90.38
411.578	101.38
411.802	95.38
412.025	93.38
412.249	87.38
412.472	91.38
412.695	89.38
412.919	82.38
413.142	97.38
413.365	101.38
413.589	77.38
413.812	89.38
414.035	77.38
414.258	83.38
414.482	88.38
414.705	104.38
414.928	82.38
415.151	104.38
415.374	96.38
415.597	97.38
415.821	82.38
416.044	96.38
416.267	89.38
416.49	93.38
416.713	92.38
416.936	84.38
417.159	94.38
417.382	87.38
417.605	66.38
417.828	99.38
418.051	93.38
418.274	88.38
418.497	85.38
418.72	81.38
418.943	93.38
419.166	92.38
419.389	97.38
419.611	81.38
419.834	94.38
420.057	76.38
420.28	85.38
420.503	88.38
420.726	90.38
420.948	99.38
421.171	76.38
421.394	95.38
421.617	100.38
421.839	99.38
422.062	83.38
422.285	94.38
422.507	99.38
422.73	100.38
422.953	92.38
423.175	91.38
423.398	76.38
423.621	83.38
423.843	85.38
424.066	84.38
424.288	87.38
424.511	90.38
424.733	88.38
424.956	90.38
425.178	106.38
425.401	93.38
425.623	101.38
425.846	89.38
426.068	100.38
426.291	92.38
426.513	92.38
426.735	88.38
426.958	91.38
427.18	108.38
427.402	123.38
427.625	141.38
427.847	127.38
428.069	109.38
428.292	86.38
428.514	91.38
428.736	91.38
428.958	82.38
429.181	91.38
429.403	76.38
429.625	80.38
429.847	93.38
430.069	100.38
430.292	96.38
430.514	98.38
430.736	84.38
430.958	81.38
431.18	94.38
431.402	97.38
431.624	87.38
431.846	96.38
432.068	87.38
432.29	101.38
432.512	90.38
432.734	111.38
432.956	85.38
433.178	105.38
433.4	100.38
433.622	87.38
433.844	77.38
434.066	86.38
434.287	84.38
434.509	98.38
434.731	105.38
434.953	82.38
435.175	93.38
435.397	100.38
435.618	99.38
435.84	105.38
436.062	129.38
436.284	103.38
436.505	106.38
436.727	106.38
436.949	86.38
437.17	93.38
437.392	89.38
437.614	82.38
437.835	114.38
438.057	84.38
438.278	105.38
438.5	114.38
438.721	130.38
438.943	107.38
439.165	96.38
439.386	100.38
439.608	93.38
439.829	97.38
440.05	123.38
440.272	129.38
440.493	89.38
440.715	93.38
440.936	64.38
441.158	91.38
441.379	88.38
441.6	82.38
441.822	90.38
442.043	88.38
442.264	96.38
442.486	104.38
442.707	98.38
442.928	92.38
443.149	121.38
443.371	113.38
443.592	102.38
443.813	116.38
444.034	93.38
444.255	92.38
444.476	86.38
444.698	74.38
444.919	84.38
445.14	138.38
445.361	117.38
445.582	98.38
445.803	132.38
446.024	131.38
446.245	132.38
446.466	120.38
446.687	100.38
446.908	88.38
447.129	75.38
447.35	77.38
447.571	85.38
447.792	81.38
448.013	88.38
448.234	110.38
448.455	90.38
448.675	124.38
448.896	124.38
449.117	112.38
449.338	115.38
449.559	116.38
449.779	120.38
450	110.38
450.221	98.38
450.442	93.38
450.662	97.38
450.883	90.38
451.104	104.38
451.324	103.38
451.545	84.38
451.766	101.38
451.986	92.38
452.207	94.38
452.428	92.38
452.648	114.38
452.869	89.38
453.089	91.38
453.31	103.38
453.53	84.38
453.751	92.38
453.971	86.38
454.192	96.38
454.412	88.38
454.633	101.38
454.853	71.38
455.073	93.38
455.294	79.38
455.514	107.38
455.734	89.38
455.955	72.38
456.175	92.38
456.395	88.38
456.616	84.38
456.836	83.38
457.056	88.38
457.276	89.38
457.497	69.38
457.717	92.38
457.937	84.38
458.157	91.38
458.377	90.38
458.598	91.38
458.818	131.38
459.038	124.38
459.258	109.38
459.478	94.38
459.698	85.38
459.918	89.38
460.138	90.38
460.358	80.38
460.578	87.38
460.798	85.38
461.018	91.38
461.238	95.38
461.458	92.38
461.678	93.38
461.898	77.38
462.118	77.38
462.338	80.38
462.558	88.38
462.777	84.38
462.997	93.38
463.217	89.38
463.437	74.38
463.657	86.38
463.876	86.38
464.096	80.38
464.316	83.38
464.536	75.38
464.755	92.38
464.975	86.38
465.195	147.38
465.414	121.38
465.634	91.38
465.854	94.38
466.073	77.38
466.293	91.38
466.512	80.38
466.732	81.38
466.951	90.38
467.171	89.38
467.391	98.38
467.61	86.38
467.829	104.38
468.049	94.38
468.268	101.38
468.488	95.38
468.707	92.38
468.927	86.38
469.146	88.38
469.365	96.38
469.585	82.38
469.804	91.38
470.023	89.38
470.243	99.38
470.462	103.38
470.681	86.38
470.901	95.38
471.12	94.38
471.339	91.38
471.558	74.38
471.777	80.38
471.997	91.38
472.216	102.38
472.435	123.38
472.654	96.38
472.873	88.38
473.092	89.38
473.311	96.38
473.53	87.38
473.749	76.38
473.968	104.38
474.187	101.38
474.406	74.38
474.625	80.38
474.844	75.38
475.063	78.38
475.282	92.38
475.501	82.38
475.72	96.38
475.939	93.38
476.158	90.38
476.377	88.38
476.596	93.38
476.814	91.38
477.033	81.38
477.252	99.38
477.471	73.38
477.69	82.38
477.908	86.38
478.127	107.38
478.346	78.38
478.564	96.38
478.783	94.38
479.002	95.38
479.22	105.38
479.439	107.38
479.658	92.38
479.876	90.38
480.095	87.38
480.313	89.38
480.532	84.38
480.751	88.38
480.969	107.38
481.188	165.38
481.406	123.38
481.624	88.38
481.843	82.38
482.061	86.38
482.28	91.38
482.498	96.38
482.717	88.38
482.935	90.38
483.153	92.38
483.372	96.38
483.59	98.38
483.808	85.38
484.027	93.38
484.245	100.38
484.463	100.38
484.681	97.38
484.9	91.38
485.118	93.38
485.336	89.38
485.554	97.38
485.772	86.38
485.99	113.38
486.209	88.38
486.427	114.38
486.645	99.38
486.863	89.38
487.081	88.38
487.299	92.38
487.517	101.38
487.735	109.38
487.953	94.38
488.171	105.38
488.389	99.38
488.607	96.38
488.825	76.38
489.043	80.38
489.261	102.38
489.479	95.38
489.696	93.38
489.914	97.38
490.132	103.38
490.35	78.38
490.568	90.38
490.786	97.38
491.003	93.38
491.221	92.38
491.439	99.38
491.657	90.38
491.874	97.38
492.092	87.38
492.31	80.38
492.527	88.38
492.745	81.38
492.963	88.38
493.18	97.38
493.398	94.38
493.615	103.38
493.833	90.38
494.05	86.38
494.268	82.38
494.485	81.38
494.703	89.38
494.92	101.38
495.138	105.38
495.355	85.38
495.573	88.38
495.79	82.38
496.008	91.38
496.225	80.38
496.442	78.38
496.66	92.38
496.877	77.38
497.094	112.38
497.312	78.38
497.529	84.38
497.746	86.38
497.963	103.38
498.181	103.38
498.398	89.38
498.615	101.38
498.832	98.38
499.049	92.38
499.267	89.38
499.484	102.38
499.701	94.38
499.918	94.38
500.135	91.38
500.352	90.38
500.569	82.38
500.786	91.38
501.003	98.38
501.22	82.38
501.437	85.38
501.654	95.38
501.871	99.38
502.088	74.38
502.305	86.38
502.522	109.38
502.739	104.38
502.956	82.38
503.172	94.38
503.389	97.38
503.606	88.38
503.823	91.38
504.04	97.38
504.256	90.38
504.473	92.38
504.69	92.38
504.907	98.38
505.123	90.38
505.34	96.38
505.557	90.38
505.773	81.38
505.99	77.38
506.207	99.38
506.423	94.38
506.64	80.38
506.856	91.38
507.073	89.38
507.289	103.38
507.506	101.38
507.722	102.38
507.939	102.38
508.155	87.38
508.372	98.38
508.588	98.38
508.805	93.38
509.021	91.38
509.238	106.38
509.454	98.38
509.67	100.38
509.887	105.38
510.103	107.38
510.319	193.38
510.536	564.38
510.752	1606.38
510.968	475.38
511.184	132.38
511.401	101.38
511.617	100.38
511.833	80.38
512.049	118.38
512.265	93.38
512.481	90.38
512.698	96.38
512.914	75.38
513.13	88.38
513.346	76.38
513.562	93.38
513.778	92.38
513.994	117.38
514.21	99.38
514.426	114.38
514.642	116.38
514.858	120.38
515.074	155.38
515.29	339.38
515.506	982.38
515.721	379.38
