Data from Uncirc_1981_H10_HRD10591_00018.txt Node
Date: Wed Jan 03 12:33:11 EST 2024
User: Yrep
Spectrometer: HR+D1059
Trigger mode: 1
Integration Time (sec): 1.000000E-1
Scans to average: 1
Electric dark correction enabled: true
Nonlinearity correction enabled: false
Boxcar width: 0
XAxis mode: Wavelengths
Number of Pixels in Spectrum: 2048
>>>>>Begin Spectral Data<<<<<
223.165	-23.38
223.4	-23.38
223.635	-23.38
223.869	-14.38
224.104	-28.38
224.338	-14.38
224.573	-18.38
224.808	-10.38
225.042	-2.38
225.277	-16.38
225.511	-9.38
225.746	9.62
225.98	10.62
226.215	20.62
226.449	27.62
226.683	14.62
226.918	22.62
227.152	31.62
227.387	42.62
227.621	29.62
227.856	44.62
228.09	38.62
228.324	53.62
228.559	68.62
228.793	55.62
229.027	58.62
229.262	60.62
229.496	72.62
229.73	87.62
229.964	69.62
230.199	73.62
230.433	88.62
230.667	83.62
230.901	71.62
231.136	89.62
231.37	78.62
231.604	78.62
231.838	69.62
232.072	54.62
232.306	91.62
232.541	89.62
232.775	95.62
233.009	75.62
233.243	83.62
233.477	82.62
233.711	82.62
233.945	81.62
234.179	93.62
234.413	68.62
234.647	89.62
234.881	93.62
235.115	89.62
235.349	97.62
235.583	81.62
235.817	81.62
236.051	79.62
236.285	87.62
236.519	78.62
236.753	78.62
236.987	70.62
237.221	83.62
237.455	72.62
237.689	71.62
237.922	77.62
238.156	71.62
238.39	84.62
238.624	79.62
238.858	89.62
239.091	75.62
239.325	82.62
239.559	73.62
239.793	82.62
240.027	75.62
240.26	78.62
240.494	74.62
240.728	78.62
240.961	54.62
241.195	81.62
241.429	79.62
241.662	66.62
241.896	76.62
242.13	82.62
242.363	79.62
242.597	73.62
242.83	88.62
243.064	76.62
243.298	68.62
243.531	82.62
243.765	81.62
243.998	88.62
244.232	72.62
244.465	87.62
244.699	73.62
244.932	78.62
245.166	49.62
245.399	71.62
245.633	87.62
245.866	78.62
246.099	76.62
246.333	79.62
246.566	72.62
246.8	85.62
247.033	76.62
247.266	79.62
247.5	89.62
247.733	76.62
247.966	75.62
248.2	82.62
248.433	88.62
248.666	84.62
248.899	92.62
249.133	82.62
249.366	100.62
249.599	91.62
249.832	88.62
250.066	85.62
250.299	73.62
250.532	83.62
250.765	82.62
250.998	66.62
251.231	92.62
251.465	77.62
251.698	69.62
251.931	69.62
252.164	82.62
252.397	82.62
252.63	90.62
252.863	78.62
253.096	83.62
253.329	71.62
253.562	70.62
253.795	77.62
254.028	78.62
254.261	79.62
254.494	77.62
254.727	90.62
254.96	74.62
255.193	67.62
255.426	79.62
255.659	79.62
255.892	87.62
256.124	77.62
256.357	83.62
256.59	86.62
256.823	78.62
257.056	74.62
257.289	84.62
257.521	75.62
257.754	73.62
257.987	92.62
258.22	91.62
258.452	81.62
258.685	76.62
258.918	85.62
259.151	89.62
259.383	97.62
259.616	93.62
259.849	87.62
260.081	85.62
260.314	95.62
260.547	79.62
260.779	82.62
261.012	70.62
261.244	81.62
261.477	89.62
261.71	105.62
261.942	96.62
262.175	98.62
262.407	97.62
262.64	75.62
262.872	82.62
263.105	83.62
263.337	77.62
263.57	87.62
263.802	97.62
264.035	70.62
264.267	91.62
264.499	87.62
264.732	87.62
264.964	73.62
265.197	76.62
265.429	75.62
265.661	81.62
265.894	88.62
266.126	78.62
266.358	69.62
266.591	95.62
266.823	84.62
267.055	94.62
267.287	75.62
267.52	93.62
267.752	83.62
267.984	83.62
268.216	85.62
268.448	93.62
268.681	97.62
268.913	86.62
269.145	77.62
269.377	72.62
269.609	83.62
269.841	89.62
270.073	71.62
270.306	92.62
270.538	90.62
270.77	88.62
271.002	86.62
271.234	77.62
271.466	89.62
271.698	93.62
271.93	79.62
272.162	86.62
272.394	83.62
272.626	83.62
272.858	93.62
273.09	93.62
273.322	79.62
273.553	86.62
273.785	77.62
274.017	87.62
274.249	94.62
274.481	81.62
274.713	77.62
274.945	100.62
275.176	92.62
275.408	81.62
275.64	82.62
275.872	87.62
276.104	81.62
276.335	96.62
276.567	86.62
276.799	90.62
277.031	86.62
277.262	94.62
277.494	93.62
277.726	77.62
277.957	81.62
278.189	83.62
278.421	98.62
278.652	81.62
278.884	91.62
279.115	92.62
279.347	87.62
279.579	84.62
279.81	77.62
280.042	88.62
280.273	85.62
280.505	94.62
280.736	89.62
280.968	92.62
281.199	87.62
281.431	108.62
281.662	85.62
281.894	102.62
282.125	84.62
282.356	106.62
282.588	105.62
282.819	99.62
283.051	94.62
283.282	72.62
283.513	89.62
283.745	94.62
283.976	96.62
284.207	88.62
284.439	86.62
284.67	94.62
284.901	86.62
285.132	89.62
285.364	91.62
285.595	91.62
285.826	87.62
286.057	88.62
286.288	98.62
286.52	86.62
286.751	97.62
286.982	97.62
287.213	82.62
287.444	81.62
287.675	92.62
287.906	70.62
288.138	67.62
288.369	86.62
288.6	95.62
288.831	90.62
289.062	99.62
289.293	81.62
289.524	91.62
289.755	90.62
289.986	93.62
290.217	66.62
290.448	93.62
290.679	97.62
290.91	89.62
291.141	91.62
291.371	84.62
291.602	84.62
291.833	93.62
292.064	91.62
292.295	86.62
292.526	69.62
292.757	100.62
292.987	83.62
293.218	91.62
293.449	90.62
293.68	89.62
293.91	97.62
294.141	82.62
294.372	88.62
294.603	81.62
294.833	74.62
295.064	90.62
295.295	91.62
295.525	99.62
295.756	77.62
295.987	110.62
296.217	120.62
296.448	107.62
296.679	87.62
296.909	97.62
297.14	82.62
297.37	103.62
297.601	99.62
297.831	91.62
298.062	90.62
298.292	106.62
298.523	82.62
298.753	74.62
298.984	91.62
299.214	93.62
299.445	99.62
299.675	103.62
299.905	94.62
300.136	78.62
300.366	90.62
300.597	72.62
300.827	78.62
301.057	90.62
301.288	96.62
301.518	94.62
301.748	69.62
301.979	97.62
302.209	74.62
302.439	84.62
302.669	81.62
302.9	74.62
303.13	78.62
303.36	93.62
303.59	106.62
303.82	94.62
304.051	91.62
304.281	89.62
304.511	70.62
304.741	93.62
304.971	93.62
305.201	91.62
305.431	90.62
305.661	98.62
305.891	88.62
306.121	95.62
306.352	91.62
306.582	95.62
306.812	87.62
307.042	94.62
307.272	86.62
307.502	85.62
307.731	84.62
307.961	90.62
308.191	83.62
308.421	86.62
308.651	93.62
308.881	90.62
309.111	92.62
309.341	86.62
309.571	91.62
309.8	101.62
310.03	107.62
310.26	96.62
310.49	88.62
310.72	89.62
310.949	88.62
311.179	102.62
311.409	101.62
311.639	86.62
311.868	98.62
312.098	94.62
312.328	98.62
312.557	88.62
312.787	97.62
313.017	91.62
313.246	91.62
313.476	93.62
313.706	101.62
313.935	90.62
314.165	104.62
314.394	107.62
314.624	107.62
314.853	97.62
315.083	93.62
315.312	93.62
315.542	91.62
315.771	87.62
316.001	94.62
316.23	95.62
316.46	83.62
316.689	78.62
316.919	91.62
317.148	90.62
317.377	91.62
317.607	92.62
317.836	73.62
318.065	76.62
318.295	100.62
318.524	84.62
318.753	81.62
318.983	86.62
319.212	97.62
319.441	100.62
319.67	96.62
319.9	74.62
320.129	94.62
320.358	81.62
320.587	102.62
320.816	73.62
321.046	89.62
321.275	98.62
321.504	98.62
321.733	97.62
321.962	90.62
322.191	107.62
322.42	105.62
322.649	99.62
322.878	98.62
323.108	109.62
323.337	108.62
323.566	116.62
323.795	126.62
324.024	172.62
324.253	303.62
324.482	659.62
324.71	1299.62
324.939	1756.62
325.168	627.62
325.397	193.62
325.626	127.62
325.855	135.62
326.084	120.62
326.313	123.62
326.542	141.62
326.77	186.62
326.999	372.62
327.228	754.62
327.457	1383.62
327.686	1099.62
327.914	287.62
328.143	161.62
328.372	124.62
328.6	119.62
328.829	106.62
329.058	97.62
329.287	103.62
329.515	98.62
329.744	102.62
329.972	89.62
330.201	109.62
330.43	101.62
330.658	97.62
330.887	111.62
331.115	98.62
331.344	91.62
331.572	97.62
331.801	108.62
332.03	101.62
332.258	103.62
332.486	107.62
332.715	89.62
332.943	106.62
333.172	102.62
333.4	88.62
333.629	101.62
333.857	98.62
334.085	95.62
334.314	115.62
334.542	94.62
334.771	109.62
334.999	107.62
335.227	89.62
335.455	100.62
335.684	83.62
335.912	88.62
336.14	102.62
336.369	105.62
336.597	89.62
336.825	95.62
337.053	84.62
337.281	99.62
337.51	90.62
337.738	94.62
337.966	89.62
338.194	102.62
338.422	103.62
338.65	97.62
338.878	73.62
339.106	92.62
339.334	90.62
339.562	99.62
339.79	87.62
340.018	93.62
340.246	89.62
340.474	93.62
340.702	76.62
340.93	85.62
341.158	96.62
341.386	100.62
341.614	88.62
341.842	92.62
342.07	86.62
342.298	95.62
342.526	84.62
342.754	93.62
342.981	94.62
343.209	87.62
343.437	102.62
343.665	84.62
343.893	86.62
344.12	95.62
344.348	81.62
344.576	87.62
344.804	97.62
345.031	99.62
345.259	99.62
345.487	81.62
345.714	102.62
345.942	97.62
346.17	103.62
346.397	100.62
346.625	92.62
346.853	106.62
347.08	81.62
347.308	87.62
347.535	101.62
347.763	109.62
347.99	100.62
348.218	83.62
348.445	97.62
348.673	91.62
348.9	87.62
349.128	91.62
349.355	99.62
349.583	89.62
349.81	87.62
350.037	105.62
350.265	95.62
350.492	102.62
350.72	98.62
350.947	97.62
351.174	98.62
351.402	96.62
351.629	102.62
351.856	110.62
352.083	111.62
352.311	98.62
352.538	111.62
352.765	102.62
352.992	103.62
353.22	114.62
353.447	106.62
353.674	91.62
353.901	101.62
354.128	106.62
354.355	100.62
354.583	99.62
354.81	86.62
355.037	106.62
355.264	99.62
355.491	95.62
355.718	87.62
355.945	92.62
356.172	108.62
356.399	105.62
356.626	91.62
356.853	93.62
357.08	97.62
357.307	102.62
357.534	100.62
357.761	93.62
357.988	93.62
358.215	102.62
358.441	116.62
358.668	102.62
358.895	97.62
359.122	80.62
359.349	86.62
359.576	89.62
359.802	94.62
360.029	96.62
360.256	103.62
360.483	94.62
360.709	97.62
360.936	65.62
361.163	90.62
361.39	99.62
361.616	103.62
361.843	83.62
362.07	89.62
362.296	85.62
362.523	99.62
362.749	90.62
362.976	87.62
363.203	89.62
363.429	97.62
363.656	92.62
363.882	84.62
364.109	92.62
364.335	99.62
364.562	111.62
364.788	97.62
365.015	68.62
365.241	74.62
365.468	86.62
365.694	89.62
365.92	75.62
366.147	94.62
366.373	75.62
366.599	85.62
366.826	83.62
367.052	82.62
367.278	88.62
367.505	88.62
367.731	83.62
367.957	90.62
368.184	75.62
368.41	93.62
368.636	103.62
368.862	98.62
369.089	81.62
369.315	99.62
369.541	82.62
369.767	101.62
369.993	100.62
370.219	99.62
370.445	78.62
370.672	89.62
370.898	93.62
371.124	84.62
371.35	83.62
371.576	92.62
371.802	75.62
372.028	99.62
372.254	95.62
372.48	90.62
372.706	94.62
372.932	90.62
373.158	88.62
373.384	83.62
373.61	98.62
373.835	97.62
374.061	89.62
374.287	108.62
374.513	87.62
374.739	87.62
374.965	109.62
375.191	99.62
375.416	94.62
375.642	98.62
375.868	86.62
376.094	86.62
376.319	99.62
376.545	94.62
376.771	91.62
376.997	104.62
377.222	99.62
377.448	102.62
377.674	89.62
377.899	77.62
378.125	106.62
378.35	110.62
378.576	84.62
378.802	96.62
379.027	98.62
379.253	109.62
379.478	102.62
379.704	125.62
379.929	90.62
380.155	112.62
380.38	110.62
380.606	104.62
380.831	103.62
381.057	114.62
381.282	99.62
381.507	104.62
381.733	97.62
381.958	108.62
382.184	110.62
382.409	107.62
382.634	100.62
382.86	99.62
383.085	106.62
383.31	104.62
383.535	108.62
383.761	108.62
383.986	107.62
384.211	110.62
384.436	119.62
384.662	117.62
384.887	108.62
385.112	102.62
385.337	134.62
385.562	132.62
385.787	134.62
386.013	124.62
386.238	117.62
386.463	131.62
386.688	137.62
386.913	117.62
387.138	113.62
387.363	119.62
387.588	114.62
387.813	115.62
388.038	123.62
388.263	147.62
388.488	121.62
388.713	104.62
388.938	90.62
389.163	94.62
389.387	95.62
389.612	96.62
389.837	92.62
390.062	98.62
390.287	91.62
390.512	106.62
390.736	93.62
390.961	89.62
391.186	95.62
391.411	99.62
391.636	81.62
391.86	87.62
392.085	74.62
392.31	61.62
392.534	91.62
392.759	91.62
392.984	89.62
393.208	103.62
393.433	87.62
393.658	93.62
393.882	90.62
394.107	82.62
394.331	87.62
394.556	88.62
394.78	93.62
395.005	89.62
395.229	89.62
395.454	97.62
395.678	92.62
395.903	83.62
396.127	86.62
396.352	76.62
396.576	90.62
396.801	95.62
397.025	89.62
397.249	88.62
397.474	78.62
397.698	88.62
397.922	94.62
398.147	87.62
398.371	105.62
398.595	81.62
398.82	93.62
399.044	87.62
399.268	83.62
399.492	89.62
399.717	78.62
399.941	100.62
400.165	89.62
400.389	87.62
400.613	87.62
400.837	100.62
401.062	93.62
401.286	80.62
401.51	81.62
401.734	93.62
401.958	82.62
402.182	121.62
402.406	111.62
402.63	98.62
402.854	102.62
403.078	86.62
403.302	77.62
403.526	88.62
403.75	92.62
403.974	78.62
404.198	85.62
404.422	83.62
404.645	86.62
404.869	84.62
405.093	92.62
405.317	102.62
405.541	97.62
405.765	88.62
405.988	100.62
406.212	127.62
406.436	140.62
406.66	102.62
406.883	83.62
407.107	84.62
407.331	98.62
407.555	100.62
407.778	91.62
408.002	90.62
408.226	83.62
408.449	89.62
408.673	75.62
408.896	86.62
409.12	91.62
409.344	101.62
409.567	106.62
409.791	93.62
410.014	77.62
410.238	110.62
410.461	97.62
410.685	91.62
410.908	97.62
411.132	105.62
411.355	87.62
411.578	95.62
411.802	95.62
412.025	106.62
412.249	98.62
412.472	87.62
412.695	85.62
412.919	87.62
413.142	84.62
413.365	75.62
413.589	88.62
413.812	89.62
414.035	93.62
414.258	88.62
414.482	91.62
414.705	90.62
414.928	90.62
415.151	99.62
415.374	86.62
415.597	106.62
415.821	80.62
416.044	89.62
416.267	86.62
416.49	87.62
416.713	78.62
416.936	75.62
417.159	93.62
417.382	99.62
417.605	94.62
417.828	89.62
418.051	104.62
418.274	110.62
418.497	93.62
418.72	99.62
418.943	86.62
419.166	97.62
419.389	76.62
419.611	89.62
419.834	90.62
420.057	95.62
420.28	96.62
420.503	85.62
420.726	74.62
420.948	82.62
421.171	89.62
421.394	81.62
421.617	99.62
421.839	98.62
422.062	74.62
422.285	107.62
422.507	109.62
422.73	100.62
422.953	95.62
423.175	84.62
423.398	91.62
423.621	78.62
423.843	89.62
424.066	83.62
424.288	87.62
424.511	94.62
424.733	90.62
424.956	111.62
425.178	87.62
425.401	95.62
425.623	86.62
425.846	98.62
426.068	84.62
426.291	85.62
426.513	87.62
426.735	79.62
426.958	105.62
427.18	90.62
427.402	123.62
427.625	136.62
427.847	117.62
428.069	91.62
428.292	95.62
428.514	90.62
428.736	81.62
428.958	87.62
429.181	87.62
429.403	88.62
429.625	64.62
429.847	84.62
430.069	74.62
430.292	84.62
430.514	78.62
430.736	85.62
430.958	91.62
431.18	97.62
431.402	77.62
431.624	74.62
431.846	87.62
432.068	85.62
432.29	99.62
432.512	77.62
432.734	93.62
432.956	85.62
433.178	103.62
433.4	95.62
433.622	77.62
433.844	91.62
434.066	87.62
434.287	84.62
434.509	81.62
434.731	87.62
434.953	90.62
435.175	89.62
435.397	89.62
435.618	87.62
435.84	106.62
436.062	104.62
436.284	100.62
436.505	107.62
436.727	98.62
436.949	101.62
437.17	88.62
437.392	65.62
437.614	86.62
437.835	78.62
438.057	107.62
438.278	85.62
438.5	89.62
438.721	107.62
438.943	108.62
439.165	82.62
439.386	91.62
439.608	83.62
439.829	87.62
440.05	103.62
440.272	106.62
440.493	93.62
440.715	76.62
440.936	81.62
441.158	85.62
441.379	88.62
441.6	78.62
441.822	95.62
442.043	90.62
442.264	98.62
442.486	95.62
442.707	86.62
442.928	91.62
443.149	121.62
443.371	97.62
443.592	78.62
443.813	118.62
444.034	111.62
444.255	79.62
444.476	100.62
444.698	83.62
444.919	83.62
445.14	131.62
445.361	122.62
445.582	100.62
445.803	117.62
446.024	125.62
446.245	117.62
446.466	98.62
446.687	87.62
446.908	97.62
447.129	86.62
447.35	85.62
447.571	104.62
447.792	91.62
448.013	107.62
448.234	98.62
448.455	98.62
448.675	111.62
448.896	107.62
449.117	93.62
449.338	101.62
449.559	114.62
449.779	126.62
450	92.62
450.221	78.62
450.442	90.62
450.662	89.62
450.883	83.62
451.104	97.62
451.324	83.62
451.545	82.62
451.766	85.62
451.986	78.62
452.207	88.62
452.428	91.62
452.648	92.62
452.869	96.62
453.089	114.62
453.31	88.62
453.53	93.62
453.751	67.62
453.971	87.62
454.192	82.62
454.412	87.62
454.633	93.62
454.853	83.62
455.073	84.62
455.294	92.62
455.514	101.62
455.734	107.62
455.955	82.62
456.175	81.62
456.395	80.62
456.616	93.62
456.836	74.62
457.056	89.62
457.276	90.62
457.497	95.62
457.717	77.62
457.937	97.62
458.157	92.62
458.377	75.62
458.598	79.62
458.818	121.62
459.038	129.62
459.258	104.62
459.478	96.62
459.698	79.62
459.918	78.62
460.138	83.62
460.358	82.62
460.578	91.62
460.798	102.62
461.018	85.62
461.238	77.62
461.458	92.62
461.678	82.62
461.898	97.62
462.118	85.62
462.338	95.62
462.558	79.62
462.777	86.62
462.997	85.62
463.217	90.62
463.437	60.62
463.657	75.62
463.876	87.62
464.096	86.62
464.316	94.62
464.536	71.62
464.755	87.62
464.975	102.62
465.195	121.62
465.414	130.62
465.634	97.62
465.854	98.62
466.073	97.62
466.293	93.62
466.512	84.62
466.732	77.62
466.951	77.62
467.171	85.62
467.391	99.62
467.61	101.62
467.829	89.62
468.049	101.62
468.268	101.62
468.488	89.62
468.707	90.62
468.927	97.62
469.146	72.62
469.365	69.62
469.585	80.62
469.804	100.62
470.023	88.62
470.243	100.62
470.462	90.62
470.681	89.62
470.901	85.62
471.12	74.62
471.339	83.62
471.558	72.62
471.777	87.62
471.997	79.62
472.216	89.62
472.435	126.62
472.654	104.62
472.873	87.62
473.092	79.62
473.311	89.62
473.53	81.62
473.749	81.62
473.968	85.62
474.187	94.62
474.406	89.62
474.625	95.62
474.844	84.62
475.063	89.62
475.282	85.62
475.501	73.62
475.72	79.62
475.939	84.62
476.158	87.62
476.377	80.62
476.596	84.62
476.814	77.62
477.033	90.62
477.252	98.62
477.471	89.62
477.69	94.62
477.908	93.62
478.127	83.62
478.346	78.62
478.564	90.62
478.783	82.62
479.002	98.62
479.22	86.62
479.439	105.62
479.658	99.62
479.876	100.62
480.095	93.62
480.313	94.62
480.532	85.62
480.751	101.62
480.969	83.62
481.188	131.62
481.406	124.62
481.624	94.62
481.843	86.62
482.061	67.62
482.28	100.62
482.498	93.62
482.717	89.62
482.935	75.62
483.153	92.62
483.372	83.62
483.59	88.62
483.808	92.62
484.027	93.62
484.245	94.62
484.463	86.62
484.681	94.62
484.9	76.62
485.118	93.62
485.336	100.62
485.554	90.62
485.772	96.62
485.99	109.62
486.209	94.62
486.427	113.62
486.645	104.62
486.863	105.62
487.081	110.62
487.299	109.62
487.517	90.62
487.735	93.62
487.953	90.62
488.171	88.62
488.389	92.62
488.607	110.62
488.825	93.62
489.043	94.62
489.261	99.62
489.479	104.62
489.696	100.62
489.914	82.62
490.132	78.62
490.35	87.62
490.568	75.62
490.786	84.62
491.003	88.62
491.221	87.62
491.439	86.62
491.657	86.62
491.874	86.62
492.092	88.62
492.31	94.62
492.527	76.62
492.745	95.62
492.963	97.62
493.18	92.62
493.398	95.62
493.615	101.62
493.833	97.62
494.05	86.62
494.268	102.62
494.485	88.62
494.703	88.62
494.92	93.62
495.138	97.62
495.355	109.62
495.573	94.62
495.79	86.62
496.008	108.62
496.225	88.62
496.442	83.62
496.66	85.62
496.877	88.62
497.094	104.62
497.312	91.62
497.529	107.62
497.746	102.62
497.963	85.62
498.181	91.62
498.398	98.62
498.615	105.62
498.832	99.62
499.049	100.62
499.267	90.62
499.484	95.62
499.701	95.62
499.918	82.62
500.135	84.62
500.352	83.62
500.569	92.62
500.786	86.62
501.003	72.62
501.22	99.62
501.437	85.62
501.654	89.62
501.871	93.62
502.088	93.62
502.305	102.62
502.522	89.62
502.739	90.62
502.956	95.62
503.172	85.62
503.389	93.62
503.606	89.62
503.823	100.62
504.04	90.62
504.256	93.62
504.473	75.62
504.69	87.62
504.907	83.62
505.123	90.62
505.34	92.62
505.557	81.62
505.773	94.62
505.99	87.62
506.207	87.62
506.423	84.62
506.64	94.62
506.856	89.62
507.073	94.62
507.289	72.62
507.506	102.62
507.722	97.62
507.939	103.62
508.155	98.62
508.372	93.62
508.588	83.62
508.805	92.62
509.021	95.62
509.238	86.62
509.454	107.62
509.67	97.62
509.887	102.62
510.103	120.62
510.319	163.62
510.536	458.62
510.752	1210.62
510.968	366.62
511.184	124.62
511.401	93.62
511.617	105.62
511.833	82.62
512.049	97.62
512.265	90.62
512.481	89.62
512.698	98.62
512.914	80.62
513.13	90.62
513.346	97.62
513.562	100.62
513.778	95.62
513.994	87.62
514.21	93.62
514.426	114.62
514.642	131.62
514.858	102.62
515.074	127.62
515.29	265.62
515.506	738.62
515.721	290.62
515.937	117.62
516.153	105.62
