Data from Uncirc_1981_H10_HRD10591_00040.txt Node
Date: Wed Jan 03 12:33:16 EST 2024
User: Yrep
Spectrometer: HR+D1059
Trigger mode: 1
Integration Time (sec): 1.000000E-1
Scans to average: 1
Electric dark correction enabled: true
Nonlinearity correction enabled: false
Boxcar width: 0
XAxis mode: Wavelengths
Number of Pixels in Spectrum: 2048
>>>>>Begin Spectral Data<<<<<
223.165	-21
223.4	-21
223.635	-21
223.869	-22
224.104	-5
224.338	-16
224.573	-7
224.808	-8
225.042	-3
225.277	-6
225.511	-10
225.746	14
225.98	5
226.215	8
226.449	22
226.683	3
226.918	17
227.152	29
227.387	44
227.621	44
227.856	40
228.09	56
228.324	38
228.559	61
228.793	45
229.027	58
229.262	72
229.496	68
229.73	84
229.964	86
230.199	65
230.433	75
230.667	77
230.901	84
231.136	88
231.37	83
231.604	89
231.838	96
232.072	91
232.306	86
232.541	70
232.775	82
233.009	86
233.243	91
233.477	75
233.711	92
233.945	80
234.179	88
234.413	82
234.647	79
234.881	87
235.115	87
235.349	83
235.583	76
235.817	85
236.051	74
236.285	84
236.519	92
236.753	88
236.987	82
237.221	89
237.455	92
237.689	98
237.922	66
238.156	79
238.39	91
238.624	72
238.858	81
239.091	76
239.325	86
239.559	84
239.793	76
240.027	73
240.26	71
240.494	78
240.728	84
240.961	82
241.195	94
241.429	87
241.662	78
241.896	85
242.13	72
242.363	83
242.597	83
242.83	86
243.064	102
243.298	92
243.531	82
243.765	94
243.998	83
244.232	70
244.465	80
244.699	75
244.932	76
245.166	90
245.399	83
245.633	73
245.866	77
246.099	77
246.333	88
246.566	78
246.8	88
247.033	74
247.266	82
247.5	79
247.733	80
247.966	68
248.2	83
248.433	76
248.666	77
248.899	76
249.133	74
249.366	87
249.599	90
249.832	83
250.066	68
250.299	86
250.532	77
250.765	79
250.998	86
251.231	73
251.465	91
251.698	85
251.931	70
252.164	71
252.397	88
252.63	65
252.863	78
253.096	83
253.329	86
253.562	87
253.795	80
254.028	74
254.261	73
254.494	76
254.727	88
254.96	77
255.193	81
255.426	94
255.659	88
255.892	80
256.124	84
256.357	95
256.59	95
256.823	83
257.056	89
257.289	82
257.521	82
257.754	83
257.987	91
258.22	71
258.452	83
258.685	84
258.918	83
259.151	90
259.383	77
259.616	82
259.849	77
260.081	86
260.314	86
260.547	80
260.779	78
261.012	82
261.244	63
261.477	72
261.71	84
261.942	111
262.175	97
262.407	91
262.64	80
262.872	70
263.105	100
263.337	91
263.57	89
263.802	95
264.035	80
264.267	82
264.499	82
264.732	91
264.964	73
265.197	89
265.429	68
265.661	85
265.894	87
266.126	86
266.358	84
266.591	75
266.823	83
267.055	77
267.287	88
267.52	94
267.752	99
267.984	80
268.216	61
268.448	109
268.681	91
268.913	83
269.145	77
269.377	88
269.609	83
269.841	86
270.073	92
270.306	88
270.538	85
270.77	78
271.002	82
271.234	86
271.466	77
271.698	84
271.93	92
272.162	87
272.394	79
272.626	95
272.858	88
273.09	88
273.322	86
273.553	87
273.785	87
274.017	94
274.249	86
274.481	85
274.713	87
274.945	75
275.176	68
275.408	95
275.64	78
275.872	98
276.104	90
276.335	88
276.567	99
276.799	101
277.031	94
277.262	96
277.494	96
277.726	100
277.957	102
278.189	78
278.421	94
278.652	71
278.884	86
279.115	86
279.347	78
279.579	84
279.81	95
280.042	87
280.273	77
280.505	93
280.736	84
280.968	79
281.199	96
281.431	77
281.662	78
281.894	93
282.125	84
282.356	94
282.588	110
282.819	99
283.051	92
283.282	86
283.513	91
283.745	90
283.976	75
284.207	79
284.439	92
284.67	78
284.901	82
285.132	64
285.364	78
285.595	86
285.826	101
286.057	94
286.288	92
286.52	82
286.751	80
286.982	100
287.213	82
287.444	91
287.675	91
287.906	95
288.138	84
288.369	86
288.6	94
288.831	89
289.062	95
289.293	87
289.524	81
289.755	94
289.986	80
290.217	93
290.448	79
290.679	100
290.91	83
291.141	99
291.371	87
291.602	87
291.833	102
292.064	92
292.295	95
292.526	96
292.757	87
292.987	76
293.218	90
293.449	74
293.68	100
293.91	68
294.141	103
294.372	96
294.603	87
294.833	93
295.064	96
295.295	91
295.525	86
295.756	95
295.987	91
296.217	103
296.448	122
296.679	104
296.909	99
297.14	85
297.37	88
297.601	98
297.831	93
298.062	95
298.292	94
298.523	96
298.753	74
298.984	100
299.214	84
299.445	90
299.675	90
299.905	88
300.136	110
300.366	93
300.597	82
300.827	82
301.057	94
301.288	98
301.518	85
301.748	72
301.979	87
302.209	88
302.439	94
302.669	104
302.9	92
303.13	99
303.36	90
303.59	103
303.82	90
304.051	101
304.281	101
304.511	87
304.741	87
304.971	89
305.201	84
305.431	82
305.661	91
305.891	94
306.121	94
306.352	104
306.582	87
306.812	84
307.042	84
307.272	93
307.502	87
307.731	88
307.961	105
308.191	94
308.421	84
308.651	107
308.881	90
309.111	93
309.341	94
309.571	85
309.8	92
310.03	96
310.26	92
310.49	94
310.72	80
310.949	100
311.179	102
311.409	90
311.639	83
311.868	96
312.098	86
312.328	102
312.557	99
312.787	99
313.017	94
313.246	87
313.476	86
313.706	90
313.935	99
314.165	92
314.394	101
314.624	99
314.853	95
315.083	90
315.312	98
315.542	90
315.771	75
316.001	86
316.23	89
316.46	89
316.689	90
316.919	75
317.148	87
317.377	103
317.607	96
317.836	88
318.065	84
318.295	91
318.524	88
318.753	109
318.983	88
319.212	103
319.441	104
319.67	90
319.9	75
320.129	77
320.358	104
320.587	95
320.816	101
321.046	90
321.275	100
321.504	93
321.733	99
321.962	88
322.191	87
322.42	104
322.649	98
322.878	107
323.108	115
323.337	109
323.566	121
323.795	122
324.024	164
324.253	323
324.482	708
324.71	1408
324.939	1861
325.168	687
325.397	203
325.626	143
325.855	133
326.084	127
326.313	131
326.542	137
326.77	215
326.999	423
327.228	800
327.457	1454
327.686	1146
327.914	322
328.143	171
328.372	143
328.6	125
328.829	106
329.058	127
329.287	107
329.515	96
329.744	104
329.972	98
330.201	102
330.43	117
330.658	106
330.887	109
331.115	112
331.344	112
331.572	99
331.801	96
332.03	100
332.258	86
332.486	95
332.715	102
332.943	86
333.172	98
333.4	92
333.629	94
333.857	107
334.085	99
334.314	118
334.542	108
334.771	115
334.999	110
335.227	90
335.455	93
335.684	85
335.912	108
336.14	115
336.369	102
336.597	100
336.825	83
337.053	83
337.281	93
337.51	105
337.738	94
337.966	91
338.194	93
338.422	97
338.65	91
338.878	96
339.106	82
339.334	104
339.562	91
339.79	106
340.018	91
340.246	80
340.474	102
340.702	97
340.93	92
341.158	98
341.386	88
341.614	97
341.842	92
342.07	76
342.298	86
342.526	90
342.754	79
342.981	92
343.209	93
343.437	109
343.665	83
343.893	95
344.12	102
344.348	91
344.576	86
344.804	94
345.031	90
345.259	103
345.487	85
345.714	104
345.942	84
346.17	91
346.397	92
346.625	88
346.853	90
347.08	84
347.308	93
347.535	84
347.763	96
347.99	107
348.218	103
348.445	90
348.673	98
348.9	96
349.128	96
349.355	92
349.583	104
349.81	100
350.037	95
350.265	86
350.492	93
350.72	98
350.947	104
351.174	100
351.402	106
351.629	108
351.856	99
352.083	103
352.311	98
352.538	98
352.765	115
352.992	112
353.22	107
353.447	95
353.674	98
353.901	97
354.128	97
354.355	102
354.583	108
354.81	106
355.037	86
355.264	90
355.491	90
355.718	101
355.945	85
356.172	101
356.399	103
356.626	101
356.853	98
357.08	92
357.307	109
357.534	93
357.761	99
357.988	106
358.215	94
358.441	94
358.668	88
358.895	88
359.122	108
359.349	93
359.576	100
359.802	92
360.029	85
360.256	106
360.483	98
360.709	84
360.936	106
361.163	78
361.39	93
361.616	111
361.843	92
362.07	92
362.296	90
362.523	106
362.749	99
362.976	90
363.203	97
363.429	81
363.656	93
363.882	95
364.109	92
364.335	94
364.562	93
364.788	84
365.015	103
365.241	94
365.468	99
365.694	96
365.92	108
366.147	91
366.373	90
366.599	95
366.826	73
367.052	94
367.278	91
367.505	86
367.731	93
367.957	86
368.184	78
368.41	92
368.636	101
368.862	105
369.089	99
369.315	83
369.541	82
369.767	102
369.993	91
370.219	89
370.445	85
370.672	94
370.898	86
371.124	95
371.35	102
371.576	103
371.802	94
372.028	88
372.254	66
372.48	90
372.706	100
372.932	82
373.158	86
373.384	82
373.61	82
373.835	80
374.061	103
374.287	90
374.513	107
374.739	103
374.965	91
375.191	95
375.416	91
375.642	87
375.868	96
376.094	88
376.319	90
376.545	85
376.771	98
376.997	102
377.222	82
377.448	99
377.674	101
377.899	110
378.125	95
378.35	89
378.576	94
378.802	91
379.027	92
379.253	91
379.478	79
379.704	99
379.929	93
380.155	100
380.38	106
380.606	98
380.831	100
381.057	112
381.282	91
381.507	105
381.733	102
381.958	74
382.184	109
382.409	103
382.634	108
382.86	111
383.085	107
383.31	108
383.535	101
383.761	110
383.986	117
384.211	112
384.436	103
384.662	111
384.887	98
385.112	115
385.337	108
385.562	122
385.787	111
386.013	103
386.238	123
386.463	111
386.688	113
386.913	109
387.138	121
387.363	105
387.588	99
387.813	98
388.038	118
388.263	120
388.488	114
388.713	98
388.938	102
389.163	90
389.387	93
389.612	94
389.837	111
390.062	94
390.287	94
390.512	91
390.736	105
390.961	86
391.186	94
391.411	98
391.636	106
391.86	94
392.085	89
392.31	80
392.534	94
392.759	90
392.984	94
393.208	89
393.433	97
393.658	97
393.882	82
394.107	82
394.331	73
394.556	74
394.78	94
395.005	91
395.229	95
395.454	88
395.678	96
395.903	94
396.127	100
396.352	109
396.576	87
396.801	102
397.025	83
397.249	89
397.474	93
397.698	88
397.922	78
398.147	78
398.371	86
398.595	89
398.82	85
399.044	84
399.268	85
399.492	82
399.717	95
399.941	94
400.165	84
400.389	89
400.613	88
400.837	87
401.062	81
401.286	88
401.51	83
401.734	90
401.958	93
402.182	106
402.406	127
402.63	101
402.854	95
403.078	93
403.302	85
403.526	94
403.75	102
403.974	94
404.198	98
404.422	91
404.645	94
404.869	88
405.093	97
405.317	116
405.541	91
405.765	89
405.988	90
406.212	134
406.436	168
406.66	123
406.883	100
407.107	79
407.331	91
407.555	83
407.778	94
408.002	81
408.226	90
408.449	99
408.673	90
408.896	97
409.12	74
409.344	79
409.567	78
409.791	85
410.014	100
410.238	92
410.461	92
410.685	101
410.908	95
411.132	99
411.355	92
411.578	100
411.802	79
412.025	92
412.249	89
412.472	97
412.695	101
412.919	95
413.142	85
413.365	103
413.589	95
413.812	90
414.035	91
414.258	78
414.482	107
414.705	98
414.928	91
415.151	93
415.374	99
415.597	85
415.821	97
416.044	83
416.267	95
416.49	85
416.713	89
416.936	99
417.159	91
417.382	93
417.605	98
417.828	84
418.051	84
418.274	83
418.497	92
418.72	82
418.943	84
419.166	87
419.389	96
419.611	97
419.834	93
420.057	94
420.28	89
420.503	95
420.726	102
420.948	94
421.171	88
421.394	90
421.617	84
421.839	78
422.062	88
422.285	101
422.507	105
422.73	106
422.953	88
423.175	99
423.398	79
423.621	87
423.843	87
424.066	100
424.288	75
424.511	79
424.733	108
424.956	99
425.178	107
425.401	112
425.623	98
425.846	78
426.068	95
426.291	76
426.513	90
426.735	87
426.958	85
427.18	102
427.402	137
427.625	151
427.847	118
428.069	114
428.292	87
428.514	87
428.736	95
428.958	93
429.181	103
429.403	92
429.625	87
429.847	96
430.069	95
430.292	93
430.514	72
430.736	88
430.958	100
431.18	88
431.402	82
431.624	84
431.846	75
432.068	82
432.29	75
432.512	92
432.734	85
432.956	79
433.178	90
433.4	91
433.622	80
433.844	86
434.066	93
434.287	94
434.509	96
434.731	104
434.953	94
435.175	87
435.397	89
435.618	86
435.84	87
436.062	109
436.284	94
436.505	97
436.727	115
436.949	102
437.17	88
437.392	86
437.614	90
437.835	100
438.057	110
438.278	88
438.5	104
438.721	117
438.943	106
439.165	82
439.386	91
439.608	91
439.829	107
440.05	106
440.272	115
440.493	98
440.715	76
440.936	99
441.158	96
441.379	96
441.6	87
441.822	95
442.043	92
442.264	103
442.486	105
442.707	96
442.928	113
443.149	118
443.371	111
443.592	110
443.813	103
444.034	109
444.255	106
444.476	95
444.698	90
444.919	88
445.14	132
445.361	100
445.582	102
445.803	124
446.024	123
446.245	140
446.466	93
446.687	96
446.908	92
447.129	90
447.35	91
447.571	95
447.792	83
448.013	101
448.234	95
448.455	100
448.675	104
448.896	115
449.117	88
449.338	99
449.559	125
449.779	112
450	108
450.221	80
450.442	93
450.662	89
450.883	95
451.104	100
451.324	87
451.545	94
451.766	92
451.986	86
452.207	87
452.428	93
452.648	78
452.869	105
453.089	106
453.31	108
453.53	94
453.751	98
453.971	110
454.192	119
454.412	92
454.633	88
454.853	77
455.073	79
455.294	84
455.514	99
455.734	77
455.955	95
456.175	86
456.395	89
456.616	90
456.836	82
457.056	97
457.276	84
457.497	92
457.717	88
457.937	91
458.157	89
458.377	103
458.598	109
458.818	126
459.038	123
459.258	114
459.478	73
459.698	90
459.918	85
460.138	90
460.358	79
460.578	89
460.798	89
461.018	97
461.238	95
461.458	96
461.678	84
461.898	97
462.118	102
462.338	89
462.558	91
462.777	96
462.997	89
463.217	106
463.437	98
463.657	90
463.876	75
464.096	82
464.316	96
464.536	85
464.755	86
464.975	99
465.195	127
465.414	114
465.634	97
465.854	88
466.073	89
466.293	97
466.512	89
466.732	90
466.951	95
467.171	85
467.391	100
467.61	97
467.829	96
468.049	95
468.268	92
468.488	88
468.707	97
468.927	84
469.146	86
469.365	92
469.585	82
469.804	91
470.023	92
470.243	93
470.462	93
470.681	92
470.901	91
471.12	80
471.339	95
471.558	101
471.777	85
471.997	98
472.216	92
472.435	115
472.654	94
472.873	109
473.092	99
473.311	85
473.53	83
473.749	89
473.968	92
474.187	79
474.406	86
474.625	86
474.844	84
475.063	87
475.282	107
475.501	87
475.72	92
475.939	89
476.158	82
476.377	92
476.596	103
476.814	85
477.033	103
477.252	92
477.471	99
477.69	87
477.908	95
478.127	98
478.346	77
478.564	84
478.783	75
479.002	91
479.22	84
479.439	96
479.658	92
479.876	86
480.095	88
480.313	98
480.532	97
480.751	99
480.969	99
481.188	155
481.406	103
481.624	105
481.843	75
482.061	87
482.28	90
482.498	85
482.717	94
482.935	102
483.153	86
483.372	86
483.59	86
483.808	98
484.027	99
484.245	89
484.463	93
484.681	110
484.9	90
485.118	92
485.336	98
485.554	113
485.772	102
485.99	88
486.209	94
486.427	92
486.645	97
486.863	114
487.081	122
487.299	109
487.517	97
487.735	76
487.953	96
488.171	79
488.389	97
488.607	82
488.825	89
489.043	98
489.261	93
489.479	75
489.696	99
489.914	70
490.132	80
490.35	99
490.568	98
490.786	95
491.003	100
491.221	97
491.439	96
491.657	86
491.874	91
492.092	95
492.31	83
492.527	99
492.745	80
492.963	89
493.18	91
493.398	75
493.615	104
493.833	94
494.05	92
494.268	95
494.485	86
494.703	91
494.92	86
495.138	94
495.355	72
495.573	102
495.79	88
496.008	94
496.225	86
496.442	88
496.66	88
496.877	80
497.094	87
497.312	77
497.529	77
497.746	83
497.963	90
498.181	98
498.398	93
498.615	111
498.832	99
499.049	94
499.267	88
499.484	99
499.701	84
499.918	99
500.135	87
500.352	98
500.569	94
500.786	84
501.003	79
501.22	85
501.437	89
501.654	104
501.871	99
502.088	86
502.305	84
502.522	90
502.739	100
502.956	78
503.172	88
503.389	102
503.606	115
503.823	90
504.04	80
504.256	88
504.473	86
504.69	97
504.907	92
505.123	75
505.34	92
505.557	75
505.773	91
505.99	98
506.207	84
506.423	87
506.64	102
506.856	95
507.073	99
507.289	92
507.506	98
507.722	111
507.939	105
508.155	80
508.372	95
508.588	92
508.805	94
509.021	91
509.238	94
509.454	102
509.67	92
509.887	118
510.103	119
510.319	170
510.536	557
510.752	1584
510.968	455
511.184	134
511.401	90
511.617	92
511.833	86
512.049	98
512.265	89
512.481	90
512.698	88
512.914	66
513.13	102
513.346	91
513.562	107
513.778	88
513.994	79
514.21	94
514.426	108
514.642	106
514.858	98
515.074	157
515.29	319
515.506	971
515.721	349
515.937	130
516.153	100
516.369	90
516.585	95
516.801	95
517.016	94
517.232	89
517.448	105
517.664	102
517.879	92
518.095	98
518.311	111
518.527	97
518.742	98
518.958	89
519.173	92
519.389	98
519.605	107
519.82	115
520.036	91
520.251	101
520.467	107
520.682	104
520.898	114
521.113	133
521.329	125
521.544	177
521.76	395
521.975	1562
522.19	954
522.406	224
522.621	121
522.836	102
523.052	108
523.267	100
523.482	87
523.698	98
523.913	102
524.128	99
524.343	101
524.559	96
524.774	100
524.989	108
525.204	104
525.419	102
525.634	98
525.849	98
526.064	80
526.28	98
526.495	96
526.71	102
526.925	79
527.14	97
527.355	93
527.57	92
527.785	95
527.999	90
528.214	93
528.429	94
528.644	98
528.859	94
529.074	95
529.289	110
529.503	133
529.718	96
529.933	78
530.148	90
530.363	91
530.577	105
530.792	91
531.007	101
531.221	89
531.436	94
531.651	89
531.865	86
532.08	94
532.295	96
532.509	91
532.724	102
532.938	99
533.153	100
533.367	111
533.582	93
533.796	80
534.011	90
534.225	109
534.44	101
534.654	100
534.868	100
535.083	101
535.297	100
535.511	103
535.726	100
535.94	94
536.154	108
536.369	98
536.583	95
536.797	93
537.011	95
537.225	97
537.44	90
537.654	88
537.868	97
538.082	87
538.296	95
538.51	91
538.724	89
538.938	100
539.153	110
539.367	109
539.581	86
539.795	92
540.009	91
540.222	100
540.436	92
540.65	95
540.864	95
541.078	103
541.292	92
541.506	90
541.72	90
541.934	99
542.147	91
542.361	107
542.575	93
542.789	86
543.002	87
543.216	113
543.43	104
543.644	88
543.857	100
544.071	105
544.285	96
544.498	102
544.712	88
544.925	96
545.139	108
545.352	105
545.566	100
545.779	84
545.993	87
546.206	100
546.42	111
546.633	94
546.847	102
547.06	101
547.274	88
547.487	101
547.7	98
547.914	83
548.127	81
548.34	84
548.554	88
548.767	85
548.98	94
549.193	81
549.407	95
549.62	95
549.833	92
550.046	74
550.259	98
550.473	93
550.686	103
550.899	94
551.112	100
551.325	93
551.538	78
551.751	77
551.964	77
552.177	94
552.39	86
552.603	99
552.816	84
553.029	94
553.242	96
553.455	91
553.667	96
553.88	94
554.093	106
554.306	102
554.519	84
554.732	90
554.944	87
555.157	75
555.37	84
555.583	86
555.795	96
556.008	90
556.221	97
556.433	88
556.646	104
556.859	102
557.071	95
557.284	84
557.496	103
557.709	102
557.921	91
558.134	90
558.346	90
558.559	95
558.771	87
558.984	103
559.196	104
559.409	93
559.621	77
559.833	79
560.046	78
560.258	113
560.47	90
560.683	91
560.895	80
561.107	82
561.32	90
561.532	106
561.744	87
561.956	86
562.168	82
562.381	110
562.593	103
562.805	95
563.017	100
563.229	98
563.441	94
563.653	95
563.865	90
564.077	79
564.289	98
564.501	88
564.713	70
564.925	96
565.137	90
565.349	82
565.561	92
565.773	94
565.985	76
566.197	84
566.408	94
566.62	75
566.832	82
567.044	86
567.255	79
567.467	94
567.679	102
567.891	85
568.102	82
568.314	100
568.526	85
568.737	90
568.949	95
569.161	78
569.372	100
569.584	89
569.795	77
570.007	107
570.218	189
570.43	116
570.641	100
570.853	88
571.064	88
571.276	87
571.487	93
571.698	80
571.91	79
572.121	91
572.333	88
572.544	74
572.755	86
572.966	92
573.178	92
573.389	99
573.6	88
573.811	91
574.023	95
574.234	94
574.445	106
574.656	91
574.867	84
575.078	82
575.289	106
575.501	90
575.712	92
575.923	88
576.134	85
576.345	99
576.556	95
576.767	110
576.978	98
577.188	103
577.399	98
577.61	90
577.821	102
578.032	111
578.243	216
578.454	551
578.665	163
578.875	104
579.086	93
579.297	77
579.508	95
579.718	89
579.929	96
580.14	87
580.35	109
580.561	102
580.772	94
580.982	81
581.193	90
581.403	77
581.614	111
581.825	91
582.035	85
582.246	85
582.456	84
582.667	84
582.877	94
583.087	78
583.298	75
583.508	94
583.719	98
583.929	95
