Data from Uncirc_1981_H10_HRD10591_00019.txt Node
Date: Wed Jan 03 12:33:11 EST 2024
User: Yrep
Spectrometer: HR+D1059
Trigger mode: 1
Integration Time (sec): 1.000000E-1
Scans to average: 1
Electric dark correction enabled: true
Nonlinearity correction enabled: false
Boxcar width: 0
XAxis mode: Wavelengths
Number of Pixels in Spectrum: 2048
>>>>>Begin Spectral Data<<<<<
223.165	-16.88
223.4	-16.88
223.635	-16.88
223.869	-13.88
224.104	-23.88
224.338	-22.88
224.573	-20.88
224.808	-7.88
225.042	-4.88
225.277	-12.88
225.511	4.12
225.746	4.12
225.98	18.12
226.215	14.12
226.449	11.12
226.683	15.12
226.918	27.12
227.152	30.12
227.387	32.12
227.621	32.12
227.856	47.12
228.09	42.12
228.324	54.12
228.559	57.12
228.793	59.12
229.027	81.12
229.262	64.12
229.496	60.12
229.73	78.12
229.964	78.12
230.199	79.12
230.433	91.12
230.667	75.12
230.901	80.12
231.136	71.12
231.37	76.12
231.604	81.12
231.838	75.12
232.072	72.12
232.306	80.12
232.541	73.12
232.775	78.12
233.009	78.12
233.243	89.12
233.477	80.12
233.711	78.12
233.945	74.12
234.179	86.12
234.413	65.12
234.647	97.12
234.881	96.12
235.115	90.12
235.349	73.12
235.583	83.12
235.817	76.12
236.051	75.12
236.285	69.12
236.519	88.12
236.753	74.12
236.987	77.12
237.221	78.12
237.455	75.12
237.689	76.12
237.922	72.12
238.156	71.12
238.39	74.12
238.624	70.12
238.858	66.12
239.091	89.12
239.325	70.12
239.559	73.12
239.793	69.12
240.027	77.12
240.26	81.12
240.494	83.12
240.728	66.12
240.961	61.12
241.195	83.12
241.429	73.12
241.662	69.12
241.896	66.12
242.13	79.12
242.363	74.12
242.597	74.12
242.83	74.12
243.064	80.12
243.298	75.12
243.531	66.12
243.765	72.12
243.998	88.12
244.232	79.12
244.465	76.12
244.699	86.12
244.932	91.12
245.166	85.12
245.399	84.12
245.633	75.12
245.866	70.12
246.099	82.12
246.333	77.12
246.566	66.12
246.8	75.12
247.033	79.12
247.266	78.12
247.5	62.12
247.733	70.12
247.966	75.12
248.2	75.12
248.433	74.12
248.666	74.12
248.899	71.12
249.133	70.12
249.366	79.12
249.599	86.12
249.832	89.12
250.066	64.12
250.299	69.12
250.532	78.12
250.765	89.12
250.998	75.12
251.231	70.12
251.465	74.12
251.698	74.12
251.931	74.12
252.164	83.12
252.397	84.12
252.63	91.12
252.863	72.12
253.096	76.12
253.329	86.12
253.562	87.12
253.795	79.12
254.028	74.12
254.261	73.12
254.494	83.12
254.727	78.12
254.96	72.12
255.193	78.12
255.426	74.12
255.659	73.12
255.892	87.12
256.124	82.12
256.357	84.12
256.59	80.12
256.823	82.12
257.056	86.12
257.289	80.12
257.521	89.12
257.754	93.12
257.987	75.12
258.22	89.12
258.452	75.12
258.685	80.12
258.918	94.12
259.151	81.12
259.383	72.12
259.616	86.12
259.849	83.12
260.081	82.12
260.314	72.12
260.547	83.12
260.779	71.12
261.012	77.12
261.244	64.12
261.477	88.12
261.71	86.12
261.942	96.12
262.175	108.12
262.407	75.12
262.64	72.12
262.872	62.12
263.105	90.12
263.337	87.12
263.57	90.12
263.802	94.12
264.035	74.12
264.267	82.12
264.499	88.12
264.732	81.12
264.964	73.12
265.197	86.12
265.429	80.12
265.661	81.12
265.894	75.12
266.126	87.12
266.358	73.12
266.591	86.12
266.823	87.12
267.055	68.12
267.287	88.12
267.52	81.12
267.752	89.12
267.984	91.12
268.216	87.12
268.448	76.12
268.681	82.12
268.913	87.12
269.145	94.12
269.377	74.12
269.609	89.12
269.841	78.12
270.073	77.12
270.306	81.12
270.538	75.12
270.77	95.12
271.002	90.12
271.234	78.12
271.466	84.12
271.698	70.12
271.93	82.12
272.162	85.12
272.394	91.12
272.626	66.12
272.858	77.12
273.09	80.12
273.322	84.12
273.553	87.12
273.785	99.12
274.017	72.12
274.249	70.12
274.481	75.12
274.713	88.12
274.945	87.12
275.176	78.12
275.408	76.12
275.64	100.12
275.872	91.12
276.104	92.12
276.335	89.12
276.567	91.12
276.799	78.12
277.031	79.12
277.262	82.12
277.494	75.12
277.726	80.12
277.957	90.12
278.189	81.12
278.421	101.12
278.652	70.12
278.884	84.12
279.115	81.12
279.347	102.12
279.579	87.12
279.81	86.12
280.042	86.12
280.273	62.12
280.505	83.12
280.736	91.12
280.968	86.12
281.199	71.12
281.431	89.12
281.662	73.12
281.894	87.12
282.125	91.12
282.356	110.12
282.588	122.12
282.819	96.12
283.051	83.12
283.282	83.12
283.513	87.12
283.745	89.12
283.976	86.12
284.207	87.12
284.439	82.12
284.67	67.12
284.901	96.12
285.132	96.12
285.364	82.12
285.595	80.12
285.826	85.12
286.057	83.12
286.288	103.12
286.52	92.12
286.751	83.12
286.982	97.12
287.213	80.12
287.444	91.12
287.675	91.12
287.906	97.12
288.138	74.12
288.369	90.12
288.6	81.12
288.831	82.12
289.062	99.12
289.293	82.12
289.524	91.12
289.755	92.12
289.986	95.12
290.217	86.12
290.448	90.12
290.679	89.12
290.91	78.12
291.141	80.12
291.371	82.12
291.602	93.12
291.833	82.12
292.064	83.12
292.295	90.12
292.526	78.12
292.757	95.12
292.987	80.12
293.218	89.12
293.449	89.12
293.68	84.12
293.91	95.12
294.141	92.12
294.372	80.12
294.603	75.12
294.833	91.12
295.064	91.12
295.295	96.12
295.525	88.12
295.756	90.12
295.987	115.12
296.217	106.12
296.448	111.12
296.679	94.12
296.909	73.12
297.14	79.12
297.37	70.12
297.601	99.12
297.831	92.12
298.062	93.12
298.292	94.12
298.523	83.12
298.753	86.12
298.984	81.12
299.214	69.12
299.445	86.12
299.675	90.12
299.905	91.12
300.136	86.12
300.366	73.12
300.597	88.12
300.827	81.12
301.057	90.12
301.288	95.12
301.518	90.12
301.748	75.12
301.979	89.12
302.209	88.12
302.439	106.12
302.669	100.12
302.9	87.12
303.13	85.12
303.36	90.12
303.59	95.12
303.82	92.12
304.051	89.12
304.281	86.12
304.511	82.12
304.741	82.12
304.971	80.12
305.201	90.12
305.431	88.12
305.661	73.12
305.891	86.12
306.121	87.12
306.352	86.12
306.582	91.12
306.812	90.12
307.042	93.12
307.272	82.12
307.502	77.12
307.731	87.12
307.961	87.12
308.191	86.12
308.421	95.12
308.651	106.12
308.881	88.12
309.111	87.12
309.341	75.12
309.571	104.12
309.8	93.12
310.03	87.12
310.26	83.12
310.49	91.12
310.72	106.12
310.949	106.12
311.179	95.12
311.409	90.12
311.639	91.12
311.868	99.12
312.098	102.12
312.328	87.12
312.557	99.12
312.787	100.12
313.017	105.12
313.246	85.12
313.476	90.12
313.706	94.12
313.935	83.12
314.165	88.12
314.394	89.12
314.624	83.12
314.853	112.12
315.083	108.12
315.312	79.12
315.542	90.12
315.771	91.12
316.001	92.12
316.23	94.12
316.46	79.12
316.689	82.12
316.919	94.12
317.148	82.12
317.377	91.12
317.607	82.12
317.836	93.12
318.065	91.12
318.295	91.12
318.524	85.12
318.753	98.12
318.983	84.12
319.212	89.12
319.441	88.12
319.67	102.12
319.9	93.12
320.129	82.12
320.358	98.12
320.587	99.12
320.816	106.12
321.046	99.12
321.275	91.12
321.504	83.12
321.733	91.12
321.962	99.12
322.191	90.12
322.42	114.12
322.649	101.12
322.878	104.12
323.108	103.12
323.337	127.12
323.566	115.12
323.795	139.12
324.024	189.12
324.253	339.12
324.482	707.12
324.71	1476.12
324.939	2009.12
325.168	727.12
325.397	219.12
325.626	114.12
325.855	107.12
326.084	116.12
326.313	127.12
326.542	144.12
326.77	203.12
326.999	410.12
327.228	845.12
327.457	1564.12
327.686	1219.12
327.914	326.12
328.143	174.12
328.372	126.12
328.6	108.12
328.829	105.12
329.058	113.12
329.287	105.12
329.515	88.12
329.744	94.12
329.972	86.12
330.201	112.12
330.43	101.12
330.658	103.12
330.887	111.12
331.115	108.12
331.344	104.12
331.572	90.12
331.801	94.12
332.03	86.12
332.258	95.12
332.486	86.12
332.715	91.12
332.943	95.12
333.172	102.12
333.4	108.12
333.629	86.12
333.857	87.12
334.085	106.12
334.314	112.12
334.542	113.12
334.771	121.12
334.999	102.12
335.227	99.12
335.455	92.12
335.684	110.12
335.912	101.12
336.14	99.12
336.369	106.12
336.597	87.12
336.825	87.12
337.053	98.12
337.281	98.12
337.51	84.12
337.738	92.12
337.966	91.12
338.194	107.12
338.422	79.12
338.65	102.12
338.878	88.12
339.106	92.12
339.334	90.12
339.562	85.12
339.79	78.12
340.018	67.12
340.246	82.12
340.474	105.12
340.702	93.12
340.93	96.12
341.158	102.12
341.386	94.12
341.614	84.12
341.842	76.12
342.07	86.12
342.298	94.12
342.526	87.12
342.754	69.12
342.981	83.12
343.209	92.12
343.437	87.12
343.665	83.12
343.893	88.12
344.12	91.12
344.348	92.12
344.576	98.12
344.804	89.12
345.031	90.12
345.259	96.12
345.487	90.12
345.714	85.12
345.942	97.12
346.17	91.12
346.397	80.12
346.625	80.12
346.853	113.12
347.08	94.12
347.308	75.12
347.535	95.12
347.763	85.12
347.99	92.12
348.218	112.12
348.445	97.12
348.673	103.12
348.9	97.12
349.128	101.12
349.355	107.12
349.583	85.12
349.81	90.12
350.037	84.12
350.265	92.12
350.492	91.12
350.72	98.12
350.947	88.12
351.174	117.12
351.402	104.12
351.629	84.12
351.856	82.12
352.083	88.12
352.311	99.12
352.538	109.12
352.765	101.12
352.992	95.12
353.22	101.12
353.447	112.12
353.674	117.12
353.901	104.12
354.128	89.12
354.355	102.12
354.583	108.12
354.81	78.12
355.037	101.12
355.264	90.12
355.491	97.12
355.718	76.12
355.945	87.12
356.172	103.12
356.399	107.12
356.626	90.12
356.853	81.12
357.08	92.12
357.307	97.12
357.534	104.12
357.761	105.12
357.988	105.12
358.215	91.12
358.441	97.12
358.668	101.12
358.895	113.12
359.122	99.12
359.349	84.12
359.576	107.12
359.802	84.12
360.029	95.12
360.256	111.12
360.483	104.12
360.709	65.12
360.936	98.12
361.163	90.12
361.39	84.12
361.616	95.12
361.843	85.12
362.07	90.12
362.296	94.12
362.523	86.12
362.749	93.12
362.976	80.12
363.203	90.12
363.429	90.12
363.656	67.12
363.882	86.12
364.109	99.12
364.335	86.12
364.562	94.12
364.788	75.12
365.015	102.12
365.241	95.12
365.468	97.12
365.694	88.12
365.92	89.12
366.147	74.12
366.373	80.12
366.599	78.12
366.826	75.12
367.052	76.12
367.278	76.12
367.505	91.12
367.731	103.12
367.957	93.12
368.184	97.12
368.41	86.12
368.636	97.12
368.862	102.12
369.089	97.12
369.315	66.12
369.541	90.12
369.767	87.12
369.993	100.12
370.219	75.12
370.445	96.12
370.672	87.12
370.898	79.12
371.124	92.12
371.35	82.12
371.576	85.12
371.802	86.12
372.028	90.12
372.254	88.12
372.48	99.12
372.706	86.12
372.932	97.12
373.158	82.12
373.384	78.12
373.61	85.12
373.835	89.12
374.061	91.12
374.287	86.12
374.513	92.12
374.739	83.12
374.965	91.12
375.191	98.12
375.416	99.12
375.642	88.12
375.868	85.12
376.094	88.12
376.319	80.12
376.545	95.12
376.771	96.12
376.997	95.12
377.222	98.12
377.448	95.12
377.674	100.12
377.899	83.12
378.125	101.12
378.35	97.12
378.576	89.12
378.802	95.12
379.027	94.12
379.253	94.12
379.478	100.12
379.704	97.12
379.929	92.12
380.155	90.12
380.38	97.12
380.606	86.12
380.831	95.12
381.057	95.12
381.282	106.12
381.507	105.12
381.733	107.12
381.958	104.12
382.184	92.12
382.409	106.12
382.634	109.12
382.86	100.12
383.085	110.12
383.31	101.12
383.535	103.12
383.761	103.12
383.986	101.12
384.211	114.12
384.436	112.12
384.662	116.12
384.887	126.12
385.112	122.12
385.337	129.12
385.562	113.12
385.787	105.12
386.013	118.12
386.238	119.12
386.463	107.12
386.688	123.12
386.913	124.12
387.138	136.12
387.363	113.12
387.588	101.12
387.813	120.12
388.038	143.12
388.263	130.12
388.488	100.12
388.713	100.12
388.938	88.12
389.163	98.12
389.387	89.12
389.612	103.12
389.837	78.12
390.062	90.12
390.287	86.12
390.512	95.12
390.736	86.12
390.961	73.12
391.186	83.12
391.411	82.12
391.636	102.12
391.86	75.12
392.085	82.12
392.31	83.12
392.534	86.12
392.759	90.12
392.984	74.12
393.208	84.12
393.433	90.12
393.658	85.12
393.882	93.12
394.107	82.12
394.331	85.12
394.556	83.12
394.78	94.12
395.005	84.12
395.229	91.12
395.454	75.12
395.678	91.12
395.903	95.12
396.127	99.12
396.352	80.12
396.576	72.12
396.801	80.12
397.025	85.12
397.249	90.12
397.474	91.12
397.698	80.12
397.922	93.12
398.147	90.12
398.371	71.12
398.595	92.12
398.82	85.12
399.044	92.12
399.268	77.12
399.492	79.12
399.717	65.12
399.941	98.12
400.165	83.12
400.389	81.12
400.613	94.12
400.837	93.12
401.062	89.12
401.286	96.12
401.51	96.12
401.734	79.12
401.958	99.12
402.182	112.12
402.406	115.12
402.63	94.12
402.854	84.12
403.078	76.12
403.302	86.12
403.526	76.12
403.75	86.12
403.974	98.12
404.198	80.12
404.422	82.12
404.645	88.12
404.869	73.12
405.093	84.12
405.317	94.12
405.541	87.12
405.765	94.12
405.988	101.12
406.212	130.12
406.436	167.12
406.66	124.12
406.883	96.12
407.107	79.12
407.331	83.12
407.555	84.12
407.778	89.12
408.002	89.12
408.226	95.12
408.449	90.12
408.673	86.12
408.896	82.12
409.12	83.12
409.344	82.12
409.567	84.12
409.791	84.12
410.014	99.12
410.238	97.12
410.461	82.12
410.685	80.12
410.908	96.12
411.132	106.12
411.355	85.12
411.578	90.12
411.802	96.12
412.025	78.12
412.249	88.12
412.472	99.12
412.695	90.12
412.919	80.12
413.142	76.12
413.365	91.12
413.589	76.12
413.812	108.12
414.035	92.12
414.258	99.12
414.482	96.12
414.705	85.12
414.928	81.12
415.151	99.12
415.374	91.12
415.597	95.12
415.821	88.12
416.044	80.12
416.267	109.12
416.49	94.12
416.713	95.12
416.936	91.12
417.159	83.12
417.382	87.12
417.605	84.12
417.828	106.12
418.051	78.12
418.274	82.12
418.497	89.12
418.72	74.12
418.943	100.12
419.166	88.12
419.389	90.12
419.611	98.12
419.834	84.12
420.057	87.12
420.28	102.12
420.503	87.12
420.726	90.12
420.948	78.12
421.171	84.12
421.394	79.12
421.617	83.12
421.839	91.12
422.062	91.12
422.285	82.12
422.507	92.12
422.73	86.12
422.953	94.12
423.175	89.12
423.398	70.12
423.621	86.12
423.843	83.12
424.066	89.12
424.288	97.12
424.511	89.12
424.733	94.12
424.956	107.12
425.178	90.12
425.401	96.12
425.623	95.12
425.846	72.12
426.068	88.12
426.291	86.12
426.513	92.12
426.735	83.12
426.958	90.12
427.18	91.12
427.402	126.12
427.625	127.12
427.847	112.12
428.069	107.12
428.292	81.12
428.514	86.12
428.736	78.12
428.958	91.12
429.181	81.12
429.403	84.12
429.625	90.12
429.847	84.12
430.069	90.12
430.292	90.12
430.514	89.12
430.736	84.12
430.958	81.12
431.18	86.12
431.402	86.12
431.624	80.12
431.846	94.12
432.068	83.12
432.29	82.12
432.512	71.12
432.734	97.12
432.956	90.12
433.178	88.12
433.4	87.12
433.622	90.12
433.844	94.12
434.066	99.12
434.287	91.12
434.509	83.12
434.731	82.12
434.953	82.12
435.175	91.12
435.397	76.12
435.618	103.12
435.84	106.12
436.062	108.12
436.284	92.12
436.505	103.12
436.727	91.12
436.949	91.12
437.17	102.12
437.392	73.12
437.614	79.12
437.835	99.12
438.057	107.12
438.278	95.12
438.5	101.12
438.721	100.12
438.943	90.12
439.165	99.12
439.386	83.12
439.608	80.12
439.829	85.12
440.05	113.12
440.272	113.12
440.493	90.12
440.715	91.12
440.936	92.12
441.158	92.12
441.379	85.12
441.6	82.12
441.822	88.12
442.043	100.12
442.264	86.12
442.486	76.12
442.707	100.12
442.928	101.12
443.149	110.12
443.371	118.12
443.592	96.12
443.813	107.12
444.034	94.12
444.255	83.12
444.476	83.12
444.698	71.12
444.919	97.12
445.14	145.12
445.361	118.12
445.582	102.12
445.803	120.12
446.024	123.12
446.245	117.12
446.466	102.12
446.687	105.12
446.908	97.12
447.129	82.12
447.35	81.12
447.571	81.12
447.792	87.12
448.013	90.12
448.234	99.12
448.455	79.12
448.675	96.12
448.896	105.12
449.117	91.12
449.338	91.12
449.559	103.12
449.779	120.12
450	97.12
450.221	82.12
450.442	89.12
450.662	83.12
450.883	93.12
451.104	95.12
451.324	84.12
451.545	82.12
451.766	58.12
451.986	80.12
452.207	86.12
452.428	87.12
452.648	82.12
452.869	108.12
453.089	118.12
453.31	98.12
453.53	97.12
453.751	87.12
453.971	87.12
454.192	93.12
454.412	94.12
454.633	81.12
454.853	79.12
455.073	93.12
455.294	103.12
455.514	92.12
455.734	96.12
455.955	75.12
456.175	82.12
456.395	88.12
456.616	98.12
456.836	85.12
457.056	93.12
457.276	86.12
457.497	81.12
457.717	78.12
457.937	84.12
458.157	88.12
458.377	92.12
458.598	113.12
458.818	119.12
459.038	113.12
459.258	115.12
459.478	86.12
459.698	87.12
459.918	88.12
460.138	73.12
460.358	66.12
460.578	90.12
460.798	75.12
461.018	83.12
461.238	92.12
461.458	87.12
461.678	90.12
461.898	77.12
462.118	84.12
462.338	75.12
462.558	92.12
462.777	90.12
462.997	79.12
463.217	91.12
463.437	80.12
463.657	89.12
463.876	78.12
464.096	86.12
464.316	90.12
464.536	70.12
464.755	94.12
464.975	97.12
465.195	122.12
465.414	126.12
465.634	91.12
465.854	80.12
466.073	98.12
466.293	97.12
466.512	76.12
466.732	83.12
466.951	78.12
467.171	84.12
467.391	90.12
467.61	106.12
467.829	83.12
468.049	99.12
468.268	95.12
468.488	83.12
468.707	75.12
468.927	76.12
469.146	93.12
469.365	98.12
469.585	88.12
469.804	84.12
470.023	78.12
470.243	87.12
470.462	87.12
470.681	104.12
470.901	107.12
471.12	95.12
471.339	83.12
471.558	89.12
471.777	89.12
471.997	85.12
472.216	104.12
472.435	113.12
472.654	98.12
472.873	100.12
473.092	99.12
473.311	70.12
473.53	79.12
473.749	82.12
473.968	96.12
474.187	88.12
474.406	90.12
474.625	80.12
474.844	86.12
475.063	84.12
475.282	90.12
475.501	90.12
475.72	96.12
475.939	68.12
476.158	88.12
476.377	102.12
476.596	84.12
476.814	77.12
477.033	80.12
477.252	92.12
477.471	86.12
477.69	90.12
477.908	93.12
478.127	97.12
478.346	79.12
478.564	92.12
478.783	96.12
479.002	94.12
479.22	85.12
479.439	80.12
479.658	103.12
479.876	95.12
480.095	84.12
480.313	91.12
480.532	79.12
480.751	100.12
480.969	115.12
481.188	175.12
481.406	120.12
481.624	87.12
481.843	80.12
482.061	67.12
482.28	86.12
482.498	87.12
482.717	81.12
482.935	91.12
483.153	99.12
483.372	91.12
483.59	96.12
483.808	80.12
484.027	84.12
484.245	107.12
484.463	80.12
484.681	104.12
484.9	87.12
485.118	77.12
485.336	98.12
485.554	103.12
485.772	102.12
485.99	95.12
486.209	103.12
486.427	104.12
486.645	97.12
486.863	108.12
487.081	94.12
487.299	88.12
487.517	82.12
487.735	90.12
487.953	91.12
488.171	98.12
488.389	93.12
488.607	84.12
488.825	80.12
489.043	74.12
489.261	75.12
489.479	73.12
489.696	89.12
489.914	92.12
490.132	88.12
490.35	76.12
490.568	83.12
490.786	87.12
491.003	84.12
491.221	96.12
491.439	81.12
491.657	104.12
491.874	92.12
492.092	84.12
492.31	90.12
492.527	92.12
492.745	75.12
492.963	87.12
493.18	108.12
493.398	90.12
493.615	98.12
493.833	76.12
494.05	91.12
494.268	90.12
494.485	93.12
494.703	78.12
494.92	91.12
495.138	67.12
495.355	84.12
495.573	82.12
495.79	85.12
496.008	118.12
496.225	84.12
496.442	91.12
496.66	92.12
496.877	100.12
497.094	92.12
497.312	89.12
497.529	82.12
497.746	79.12
497.963	95.12
498.181	90.12
498.398	98.12
498.615	92.12
498.832	92.12
499.049	97.12
499.267	100.12
499.484	83.12
499.701	88.12
499.918	75.12
500.135	93.12
500.352	84.12
500.569	81.12
500.786	83.12
501.003	90.12
501.22	84.12
501.437	80.12
501.654	96.12
501.871	97.12
502.088	95.12
502.305	102.12
502.522	81.12
502.739	90.12
502.956	85.12
503.172	83.12
503.389	80.12
503.606	89.12
503.823	107.12
504.04	102.12
504.256	96.12
504.473	99.12
504.69	88.12
504.907	92.12
505.123	91.12
505.34	90.12
505.557	84.12
505.773	109.12
505.99	74.12
506.207	96.12
506.423	81.12
506.64	90.12
506.856	83.12
507.073	92.12
507.289	101.12
507.506	88.12
507.722	89.12
507.939	115.12
508.155	95.12
508.372	81.12
508.588	85.12
508.805	82.12
509.021	95.12
509.238	88.12
509.454	96.12
509.67	104.12
509.887	107.12
510.103	105.12
510.319	167.12
510.536	544.12
510.752	1559.12
510.968	426.12
511.184	138.12
511.401	104.12
511.617	109.12
511.833	84.12
512.049	105.12
512.265	92.12
512.481	89.12
512.698	93.12
512.914	93.12
513.13	96.12
513.346	98.12
513.562	94.12
513.778	91.12
513.994	92.12
514.21	72.12
514.426	93.12
514.642	121.12
514.858	128.12
515.074	128.12
515.29	336.12
515.506	1003.12
515.721	377.12
515.937	135.12
516.153	94.12
516.369	97.12
516.585	98.12
