Data from Uncirc_1981_H10_HRD10591_00042.txt Node
Date: Wed Jan 03 12:33:16 EST 2024
User: Yrep
Spectrometer: HR+D1059
Trigger mode: 1
Integration Time (sec): 1.000000E-1
Scans to average: 1
Electric dark correction enabled: true
Nonlinearity correction enabled: false
Boxcar width: 0
XAxis mode: Wavelengths
Number of Pixels in Spectrum: 2048
>>>>>Begin Spectral Data<<<<<
223.165	-31
223.4	-31
223.635	-31
223.869	-12
224.104	-19
224.338	-22
224.573	-6
224.808	-7
225.042	-13
225.277	-5
225.511	-6
225.746	2
225.98	8
226.215	9
226.449	11
226.683	28
226.918	32
227.152	31
227.387	35
227.621	46
227.856	53
228.09	52
228.324	61
228.559	52
228.793	65
229.027	54
229.262	70
229.496	69
229.73	75
229.964	79
230.199	69
230.433	66
230.667	74
230.901	68
231.136	69
231.37	66
231.604	76
231.838	75
232.072	79
232.306	74
232.541	78
232.775	92
233.009	73
233.243	79
233.477	80
233.711	75
233.945	85
234.179	89
234.413	89
234.647	84
234.881	82
235.115	68
235.349	69
235.583	73
235.817	79
236.051	77
236.285	78
236.519	84
236.753	78
236.987	83
237.221	101
237.455	87
237.689	81
237.922	73
238.156	63
238.39	79
238.624	78
238.858	83
239.091	73
239.325	84
239.559	82
239.793	74
240.027	69
240.26	75
240.494	90
240.728	78
240.961	61
241.195	86
241.429	93
241.662	71
241.896	63
242.13	89
242.363	85
242.597	80
242.83	69
243.064	68
243.298	66
243.531	89
243.765	61
243.998	75
244.232	94
244.465	77
244.699	89
244.932	78
245.166	66
245.399	79
245.633	75
245.866	86
246.099	68
246.333	73
246.566	83
246.8	85
247.033	76
247.266	79
247.5	84
247.733	74
247.966	80
248.2	68
248.433	61
248.666	69
248.899	75
249.133	76
249.366	89
249.599	81
249.832	74
250.066	81
250.299	85
250.532	87
250.765	78
250.998	82
251.231	76
251.465	97
251.698	78
251.931	94
252.164	75
252.397	76
252.63	79
252.863	77
253.096	68
253.329	81
253.562	81
253.795	92
254.028	92
254.261	79
254.494	81
254.727	85
254.96	78
255.193	88
255.426	68
255.659	99
255.892	102
256.124	83
256.357	82
256.59	74
256.823	79
257.056	97
257.289	85
257.521	67
257.754	70
257.987	86
258.22	97
258.452	86
258.685	103
258.918	70
259.151	85
259.383	83
259.616	75
259.849	75
260.081	90
260.314	78
260.547	92
260.779	85
261.012	78
261.244	70
261.477	90
261.71	78
261.942	109
262.175	88
262.407	81
262.64	91
262.872	91
263.105	87
263.337	105
263.57	75
263.802	82
264.035	79
264.267	94
264.499	78
264.732	79
264.964	82
265.197	82
265.429	89
265.661	92
265.894	93
266.126	90
266.358	87
266.591	73
266.823	81
267.055	91
267.287	97
267.52	87
267.752	83
267.984	97
268.216	89
268.448	84
268.681	78
268.913	82
269.145	83
269.377	92
269.609	90
269.841	83
270.073	66
270.306	91
270.538	78
270.77	91
271.002	75
271.234	95
271.466	85
271.698	84
271.93	97
272.162	95
272.394	96
272.626	94
272.858	97
273.09	78
273.322	85
273.553	83
273.785	87
274.017	93
274.249	67
274.481	89
274.713	79
274.945	79
275.176	86
275.408	89
275.64	91
275.872	76
276.104	78
276.335	85
276.567	106
276.799	97
277.031	88
277.262	91
277.494	92
277.726	83
277.957	102
278.189	78
278.421	85
278.652	93
278.884	86
279.115	97
279.347	91
279.579	81
279.81	78
280.042	83
280.273	90
280.505	84
280.736	98
280.968	110
281.199	91
281.431	97
281.662	88
281.894	95
282.125	86
282.356	101
282.588	107
282.819	93
283.051	78
283.282	91
283.513	92
283.745	83
283.976	89
284.207	89
284.439	102
284.67	103
284.901	88
285.132	79
285.364	90
285.595	86
285.826	88
286.057	95
286.288	91
286.52	87
286.751	85
286.982	87
287.213	92
287.444	91
287.675	104
287.906	99
288.138	93
288.369	99
288.6	89
288.831	99
289.062	83
289.293	97
289.524	87
289.755	85
289.986	86
290.217	78
290.448	102
290.679	85
290.91	94
291.141	90
291.371	93
291.602	89
291.833	90
292.064	92
292.295	93
292.526	79
292.757	87
292.987	89
293.218	68
293.449	89
293.68	97
293.91	79
294.141	89
294.372	89
294.603	81
294.833	67
295.064	86
295.295	87
295.525	77
295.756	75
295.987	111
296.217	114
296.448	114
296.679	82
296.909	89
297.14	88
297.37	86
297.601	91
297.831	102
298.062	92
298.292	81
298.523	100
298.753	87
298.984	85
299.214	89
299.445	71
299.675	85
299.905	78
300.136	81
300.366	93
300.597	89
300.827	78
301.057	89
301.288	101
301.518	83
301.748	88
301.979	99
302.209	85
302.439	104
302.669	100
302.9	78
303.13	95
303.36	93
303.59	95
303.82	108
304.051	92
304.281	73
304.511	105
304.741	95
304.971	96
305.201	77
305.431	74
305.661	94
305.891	84
306.121	73
306.352	104
306.582	89
306.812	91
307.042	89
307.272	94
307.502	87
307.731	86
307.961	89
308.191	91
308.421	93
308.651	101
308.881	97
309.111	95
309.341	85
309.571	92
309.8	112
310.03	97
310.26	89
310.49	96
310.72	89
310.949	109
311.179	114
311.409	85
311.639	89
311.868	108
312.098	91
312.328	110
312.557	103
312.787	106
313.017	98
313.246	82
313.476	78
313.706	74
313.935	95
314.165	92
314.394	95
314.624	106
314.853	81
315.083	106
315.312	100
315.542	89
315.771	100
316.001	91
316.23	85
316.46	92
316.689	79
316.919	105
317.148	85
317.377	90
317.607	87
317.836	90
318.065	91
318.295	98
318.524	105
318.753	97
318.983	109
319.212	93
319.441	117
319.67	99
319.9	95
320.129	108
320.358	94
320.587	85
320.816	81
321.046	94
321.275	104
321.504	98
321.733	77
321.962	89
322.191	72
322.42	100
322.649	121
322.878	101
323.108	116
323.337	105
323.566	115
323.795	133
324.024	167
324.253	311
324.482	653
324.71	1320
324.939	1714
325.168	655
325.397	199
325.626	139
325.855	126
326.084	114
326.313	111
326.542	140
326.77	205
326.999	377
327.228	747
327.457	1362
327.686	1117
327.914	313
328.143	172
328.372	139
328.6	105
328.829	111
329.058	119
329.287	106
329.515	105
329.744	101
329.972	108
330.201	102
330.43	118
330.658	111
330.887	130
331.115	107
331.344	91
331.572	102
331.801	97
332.03	98
332.258	102
332.486	89
332.715	92
332.943	92
333.172	90
333.4	91
333.629	84
333.857	94
334.085	103
334.314	111
334.542	115
334.771	121
334.999	100
335.227	93
335.455	89
335.684	104
335.912	89
336.14	90
336.369	100
336.597	91
336.825	101
337.053	87
337.281	98
337.51	87
337.738	106
337.966	101
338.194	100
338.422	85
338.65	94
338.878	98
339.106	87
339.334	94
339.562	90
339.79	91
340.018	85
340.246	87
340.474	96
340.702	89
340.93	85
341.158	95
341.386	98
341.614	92
341.842	111
342.07	83
342.298	107
342.526	99
342.754	96
342.981	85
343.209	93
343.437	102
343.665	83
343.893	64
344.12	73
344.348	88
344.576	98
344.804	81
345.031	108
345.259	103
345.487	93
345.714	93
345.942	99
346.17	93
346.397	94
346.625	109
346.853	91
347.08	94
347.308	107
347.535	81
347.763	108
347.99	91
348.218	93
348.445	105
348.673	85
348.9	89
349.128	78
349.355	104
349.583	97
349.81	100
350.037	102
350.265	98
350.492	109
350.72	92
350.947	96
351.174	93
351.402	102
351.629	99
351.856	98
352.083	92
352.311	101
352.538	94
352.765	94
352.992	104
353.22	103
353.447	87
353.674	103
353.901	104
354.128	93
354.355	93
354.583	102
354.81	101
355.037	93
355.264	94
355.491	105
355.718	88
355.945	112
356.172	95
356.399	93
356.626	95
356.853	91
357.08	74
357.307	83
357.534	92
357.761	94
357.988	93
358.215	90
358.441	89
358.668	106
358.895	74
359.122	102
359.349	90
359.576	97
359.802	94
360.029	95
360.256	107
360.483	110
360.709	96
360.936	99
361.163	85
361.39	102
361.616	81
361.843	89
362.07	87
362.296	81
362.523	96
362.749	85
362.976	91
363.203	87
363.429	93
363.656	96
363.882	91
364.109	101
364.335	99
364.562	89
364.788	97
365.015	102
365.241	96
365.468	87
365.694	92
365.92	78
366.147	94
366.373	92
366.599	91
366.826	104
367.052	101
367.278	96
367.505	76
367.731	90
367.957	89
368.184	105
368.41	103
368.636	109
368.862	98
369.089	95
369.315	98
369.541	93
369.767	85
369.993	90
370.219	89
370.445	97
370.672	89
370.898	96
371.124	103
371.35	88
371.576	83
371.802	81
372.028	90
372.254	89
372.48	92
372.706	76
372.932	90
373.158	87
373.384	86
373.61	97
373.835	94
374.061	91
374.287	90
374.513	83
374.739	94
374.965	93
375.191	97
375.416	89
375.642	81
375.868	92
376.094	81
376.319	87
376.545	91
376.771	92
376.997	85
377.222	99
377.448	94
377.674	94
377.899	101
378.125	93
378.35	105
378.576	93
378.802	93
379.027	97
379.253	89
379.478	82
379.704	85
379.929	81
380.155	93
380.38	104
380.606	92
380.831	97
381.057	106
381.282	86
381.507	90
381.733	91
381.958	96
382.184	89
382.409	100
382.634	105
382.86	99
383.085	110
383.31	95
383.535	99
383.761	91
383.986	102
384.211	104
384.436	110
384.662	110
384.887	100
385.112	114
385.337	103
385.562	113
385.787	101
386.013	121
386.238	112
386.463	99
386.688	115
386.913	92
387.138	111
387.363	105
387.588	97
387.813	88
388.038	109
388.263	116
388.488	116
388.713	104
388.938	97
389.163	95
389.387	89
389.612	86
389.837	91
390.062	95
390.287	120
390.512	94
390.736	78
390.961	99
391.186	99
391.411	95
391.636	103
391.86	81
392.085	78
392.31	79
392.534	87
392.759	105
392.984	95
393.208	87
393.433	86
393.658	93
393.882	71
394.107	86
394.331	93
394.556	89
394.78	81
395.005	84
395.229	85
395.454	81
395.678	71
395.903	82
396.127	87
396.352	88
396.576	91
396.801	95
397.025	89
397.249	97
397.474	93
397.698	84
397.922	91
398.147	94
398.371	77
398.595	103
398.82	96
399.044	94
399.268	88
399.492	95
399.717	85
399.941	95
400.165	78
400.389	97
400.613	91
400.837	94
401.062	97
401.286	93
401.51	97
401.734	93
401.958	101
402.182	98
402.406	108
402.63	109
402.854	82
403.078	85
403.302	103
403.526	91
403.75	99
403.974	90
404.198	100
404.422	88
404.645	92
404.869	84
405.093	92
405.317	104
405.541	88
405.765	95
405.988	100
406.212	140
406.436	162
406.66	136
406.883	105
407.107	87
407.331	85
407.555	94
407.778	100
408.002	98
408.226	97
408.449	92
408.673	91
408.896	84
409.12	88
409.344	96
409.567	89
409.791	97
410.014	90
410.238	81
410.461	107
410.685	90
410.908	98
411.132	110
411.355	100
411.578	75
411.802	87
412.025	87
412.249	87
412.472	94
412.695	106
412.919	100
413.142	100
413.365	91
413.589	85
413.812	93
414.035	97
414.258	83
414.482	81
414.705	92
414.928	83
415.151	82
415.374	90
415.597	103
415.821	98
416.044	89
416.267	84
416.49	74
416.713	102
416.936	73
417.159	91
417.382	71
417.605	78
417.828	96
418.051	77
418.274	99
418.497	87
418.72	92
418.943	85
419.166	90
419.389	103
419.611	86
419.834	88
420.057	91
420.28	98
420.503	101
420.726	95
420.948	87
421.171	82
421.394	85
421.617	79
421.839	90
422.062	93
422.285	94
422.507	88
422.73	108
422.953	78
423.175	97
423.398	89
423.621	100
423.843	92
424.066	85
424.288	90
424.511	97
424.733	103
424.956	105
425.178	102
425.401	94
425.623	95
425.846	95
426.068	95
426.291	100
426.513	89
426.735	81
426.958	95
427.18	97
427.402	112
427.625	122
427.847	123
428.069	112
428.292	93
428.514	78
428.736	93
428.958	83
429.181	77
429.403	87
429.625	87
429.847	85
430.069	95
430.292	98
430.514	90
430.736	83
430.958	82
431.18	81
431.402	74
431.624	63
431.846	84
432.068	97
432.29	84
432.512	86
432.734	90
432.956	86
433.178	104
433.4	86
433.622	87
433.844	79
434.066	98
434.287	82
434.509	88
434.731	94
434.953	90
435.175	79
435.397	96
435.618	86
435.84	96
436.062	115
436.284	107
436.505	84
436.727	104
436.949	83
437.17	100
437.392	76
437.614	86
437.835	90
438.057	93
438.278	94
438.5	92
438.721	101
438.943	96
439.165	72
439.386	94
439.608	99
439.829	97
440.05	114
440.272	116
440.493	88
440.715	99
440.936	89
441.158	85
441.379	82
441.6	86
441.822	83
442.043	87
442.264	99
442.486	103
442.707	86
442.928	93
443.149	101
443.371	113
443.592	101
443.813	105
444.034	108
444.255	105
444.476	98
444.698	95
444.919	93
445.14	125
445.361	119
445.582	109
445.803	118
446.024	108
446.245	133
446.466	100
446.687	83
446.908	87
447.129	92
447.35	89
447.571	86
447.792	95
448.013	89
448.234	103
448.455	87
448.675	102
448.896	106
449.117	88
449.338	75
449.559	122
449.779	111
450	102
450.221	83
450.442	90
450.662	74
450.883	99
451.104	94
451.324	92
451.545	78
451.766	75
451.986	78
452.207	82
452.428	102
452.648	110
452.869	98
453.089	109
453.31	103
453.53	87
453.751	89
453.971	97
454.192	96
454.412	99
454.633	78
454.853	78
455.073	76
455.294	82
455.514	104
455.734	97
455.955	79
456.175	81
456.395	83
456.616	73
456.836	88
457.056	75
457.276	96
457.497	81
457.717	92
457.937	95
458.157	91
458.377	106
458.598	98
458.818	118
459.038	113
459.258	90
459.478	88
459.698	95
459.918	103
460.138	87
460.358	89
460.578	97
460.798	93
461.018	89
461.238	78
461.458	83
461.678	93
461.898	73
462.118	92
462.338	76
462.558	73
462.777	92
462.997	81
463.217	93
463.437	93
463.657	71
463.876	83
464.096	88
464.316	87
464.536	85
464.755	95
464.975	103
465.195	123
465.414	122
465.634	98
465.854	87
466.073	91
466.293	84
466.512	75
466.732	83
466.951	92
467.171	94
467.391	93
467.61	104
467.829	81
468.049	92
468.268	97
468.488	86
468.707	82
468.927	72
469.146	89
469.365	75
469.585	85
469.804	94
470.023	93
470.243	97
470.462	95
470.681	106
470.901	82
471.12	105
471.339	99
471.558	92
471.777	95
471.997	90
472.216	93
472.435	119
472.654	94
472.873	82
473.092	93
473.311	90
473.53	89
473.749	88
473.968	86
474.187	93
474.406	85
474.625	97
474.844	90
475.063	91
475.282	92
475.501	103
475.72	99
475.939	91
476.158	83
476.377	95
476.596	81
476.814	96
477.033	92
477.252	89
477.471	105
477.69	93
477.908	89
478.127	85
478.346	97
478.564	84
478.783	92
479.002	89
479.22	94
479.439	95
479.658	94
479.876	84
480.095	88
480.313	92
480.532	83
480.751	89
480.969	88
481.188	172
481.406	118
481.624	87
481.843	94
482.061	93
482.28	90
482.498	92
482.717	84
482.935	90
483.153	104
483.372	85
483.59	89
483.808	83
484.027	94
484.245	92
484.463	85
484.681	111
484.9	93
485.118	100
485.336	89
485.554	95
485.772	90
485.99	105
486.209	104
486.427	102
486.645	99
486.863	112
487.081	98
487.299	100
487.517	95
487.735	95
487.953	87
488.171	95
488.389	88
488.607	94
488.825	97
489.043	88
489.261	100
489.479	102
489.696	98
489.914	78
490.132	94
490.35	85
490.568	86
490.786	104
491.003	85
491.221	93
491.439	85
491.657	77
491.874	91
492.092	103
492.31	97
492.527	97
492.745	81
492.963	92
493.18	89
493.398	73
493.615	96
493.833	104
494.05	92
494.268	102
494.485	92
494.703	93
494.92	77
495.138	87
495.355	96
495.573	97
495.79	93
496.008	105
496.225	100
496.442	104
496.66	85
496.877	75
497.094	94
497.312	94
497.529	75
497.746	93
497.963	91
498.181	93
498.398	95
498.615	102
498.832	97
499.049	85
499.267	87
499.484	99
499.701	99
499.918	88
500.135	102
500.352	65
500.569	86
500.786	92
501.003	86
501.22	92
501.437	94
501.654	94
501.871	109
502.088	94
502.305	77
502.522	85
502.739	91
502.956	86
503.172	85
503.389	82
503.606	94
503.823	90
504.04	96
504.256	94
504.473	91
504.69	91
504.907	86
505.123	95
505.34	85
505.557	98
505.773	75
505.99	83
506.207	76
506.423	88
506.64	87
506.856	74
507.073	97
507.289	91
507.506	99
507.722	103
507.939	91
508.155	104
508.372	89
508.588	89
508.805	102
509.021	91
509.238	75
509.454	87
509.67	97
509.887	114
510.103	107
510.319	157
510.536	499
510.752	1425
510.968	421
511.184	137
511.401	105
511.617	96
511.833	99
512.049	89
512.265	82
512.481	90
512.698	92
512.914	98
513.13	116
513.346	78
513.562	97
513.778	97
513.994	88
514.21	84
514.426	106
514.642	110
514.858	102
515.074	121
515.29	301
515.506	846
515.721	307
515.937	114
516.153	97
516.369	101
516.585	85
516.801	91
517.016	101
517.232	83
517.448	85
517.664	96
517.879	98
518.095	83
518.311	98
518.527	94
518.742	94
518.958	93
519.173	99
519.389	101
519.605	95
519.82	93
520.036	108
520.251	115
520.467	99
520.682	99
520.898	101
521.113	97
521.329	109
521.544	146
521.76	364
521.975	1413
522.19	803
522.406	198
522.621	110
522.836	101
523.052	90
523.267	107
523.482	91
523.698	102
523.913	98
524.128	103
524.343	92
524.559	97
524.774	99
524.989	94
525.204	102
525.419	93
525.634	100
525.849	104
526.064	100
526.28	88
526.495	83
526.71	94
526.925	87
527.14	101
527.355	101
527.57	85
527.785	84
527.999	86
528.214	85
528.429	97
528.644	91
528.859	100
529.074	88
529.289	97
529.503	130
529.718	101
529.933	83
530.148	85
530.363	95
530.577	91
530.792	83
531.007	83
531.221	90
531.436	79
531.651	73
531.865	91
532.08	98
532.295	93
532.509	96
532.724	82
532.938	92
533.153	86
533.367	95
533.582	87
533.796	92
534.011	92
534.225	92
534.44	97
534.654	82
534.868	87
535.083	97
535.297	96
535.511	89
535.726	108
535.94	87
536.154	95
536.369	83
536.583	94
536.797	99
537.011	85
537.225	105
537.44	81
537.654	90
537.868	96
538.082	75
538.296	90
538.51	88
538.724	86
538.938	92
539.153	108
539.367	98
539.581	102
539.795	83
540.009	83
540.222	92
540.436	99
540.65	89
540.864	89
541.078	73
541.292	102
541.506	95
541.72	93
541.934	74
542.147	97
542.361	81
542.575	95
542.789	93
543.002	78
543.216	78
543.43	84
543.644	84
543.857	87
544.071	91
544.285	93
544.498	102
544.712	82
544.925	101
545.139	86
545.352	101
545.566	81
545.779	91
545.993	92
546.206	100
546.42	96
546.633	92
546.847	107
547.06	91
547.274	88
547.487	85
547.7	94
547.914	98
548.127	91
548.34	85
548.554	90
548.767	93
548.98	85
549.193	83
549.407	82
549.62	85
549.833	73
550.046	87
550.259	82
550.473	89
550.686	106
550.899	86
551.112	89
551.325	83
551.538	85
551.751	93
551.964	81
552.177	87
552.39	82
552.603	83
552.816	83
553.029	95
553.242	91
553.455	109
553.667	94
553.88	99
554.093	89
554.306	81
554.519	92
554.732	96
554.944	86
555.157	92
555.37	87
555.583	97
555.795	96
556.008	84
556.221	69
556.433	94
556.646	89
556.859	72
557.071	110
557.284	86
557.496	85
557.709	87
557.921	76
558.134	85
558.346	86
558.559	86
558.771	78
558.984	84
559.196	100
559.409	90
559.621	94
559.833	85
560.046	98
560.258	94
560.47	87
560.683	94
560.895	82
561.107	91
561.32	93
561.532	89
561.744	90
561.956	92
562.168	86
562.381	84
562.593	93
562.805	86
563.017	92
563.229	101
563.441	86
563.653	93
563.865	81
564.077	74
564.289	91
564.501	99
564.713	82
564.925	95
565.137	90
565.349	86
565.561	87
565.773	96
565.985	109
566.197	102
566.408	96
566.62	87
566.832	89
567.044	87
567.255	84
567.467	86
567.679	81
567.891	92
568.102	86
568.314	91
568.526	85
568.737	105
568.949	75
569.161	85
569.372	86
569.584	93
569.795	90
570.007	103
570.218	181
570.43	113
570.641	88
570.853	83
571.064	92
571.276	87
571.487	91
571.698	76
571.91	76
572.121	91
572.333	91
572.544	98
572.755	88
572.966	77
573.178	100
573.389	81
573.6	98
573.811	72
574.023	85
574.234	76
574.445	91
574.656	93
574.867	78
575.078	90
575.289	88
575.501	90
575.712	91
575.923	67
576.134	86
576.345	89
576.556	78
576.767	77
576.978	88
577.188	81
577.399	95
577.61	100
577.821	96
578.032	108
578.243	218
578.454	469
578.665	167
578.875	90
579.086	87
579.297	85
579.508	84
579.718	87
579.929	75
580.14	71
580.35	86
580.561	85
580.772	89
580.982	95
581.193	87
581.403	92
581.614	84
581.825	84
582.035	83
582.246	84
582.456	81
582.667	85
582.877	83
583.087	74
583.298	93
583.508	84
583.719	89
583.929	87
584.139	93
584.35	81
584.56	93
584.77	91
584.981	96
