Data from Uncirc_1981_H10_HRD10591_00012.txt Node
Date: Wed Jan 03 12:33:10 EST 2024
User: Yrep
Spectrometer: HR+D1059
Trigger mode: 1
Integration Time (sec): 1.000000E-1
Scans to average: 1
Electric dark correction enabled: true
Nonlinearity correction enabled: false
Boxcar width: 0
XAxis mode: Wavelengths
Number of Pixels in Spectrum: 2048
>>>>>Begin Spectral Data<<<<<
223.165	-18.94
223.4	-18.94
223.635	-18.94
223.869	-23.94
224.104	-19.94
224.338	-10.94
224.573	-7.94
224.808	-23.94
225.042	1.06
225.277	2.06
225.511	-8.94
225.746	3.06
225.98	4.06
226.215	10.06
226.449	27.06
226.683	21.06
226.918	17.06
227.152	29.06
227.387	23.06
227.621	29.06
227.856	50.06
228.09	54.06
228.324	54.06
228.559	53.06
228.793	55.06
229.027	65.06
229.262	77.06
229.496	77.06
229.73	72.06
229.964	86.06
230.199	76.06
230.433	77.06
230.667	81.06
230.901	78.06
231.136	82.06
231.37	86.06
231.604	76.06
231.838	69.06
232.072	78.06
232.306	92.06
232.541	75.06
232.775	79.06
233.009	75.06
233.243	78.06
233.477	78.06
233.711	91.06
233.945	71.06
234.179	86.06
234.413	69.06
234.647	84.06
234.881	85.06
235.115	73.06
235.349	82.06
235.583	79.06
235.817	77.06
236.051	80.06
236.285	80.06
236.519	86.06
236.753	73.06
236.987	83.06
237.221	83.06
237.455	96.06
237.689	84.06
237.922	71.06
238.156	83.06
238.39	77.06
238.624	63.06
238.858	83.06
239.091	83.06
239.325	61.06
239.559	70.06
239.793	80.06
240.027	86.06
240.26	75.06
240.494	90.06
240.728	69.06
240.961	84.06
241.195	87.06
241.429	75.06
241.662	66.06
241.896	84.06
242.13	75.06
242.363	79.06
242.597	73.06
242.83	76.06
243.064	77.06
243.298	70.06
243.531	76.06
243.765	76.06
243.998	85.06
244.232	79.06
244.465	93.06
244.699	78.06
244.932	79.06
245.166	64.06
245.399	75.06
245.633	70.06
245.866	90.06
246.099	70.06
246.333	86.06
246.566	75.06
246.8	86.06
247.033	86.06
247.266	58.06
247.5	77.06
247.733	90.06
247.966	90.06
248.2	95.06
248.433	70.06
248.666	91.06
248.899	95.06
249.133	85.06
249.366	88.06
249.599	106.06
249.832	80.06
250.066	77.06
250.299	74.06
250.532	89.06
250.765	87.06
250.998	76.06
251.231	74.06
251.465	71.06
251.698	87.06
251.931	71.06
252.164	86.06
252.397	66.06
252.63	80.06
252.863	83.06
253.096	68.06
253.329	77.06
253.562	74.06
253.795	90.06
254.028	96.06
254.261	77.06
254.494	75.06
254.727	92.06
254.96	84.06
255.193	92.06
255.426	89.06
255.659	79.06
255.892	77.06
256.124	95.06
256.357	85.06
256.59	68.06
256.823	90.06
257.056	82.06
257.289	78.06
257.521	71.06
257.754	94.06
257.987	90.06
258.22	85.06
258.452	80.06
258.685	87.06
258.918	82.06
259.151	86.06
259.383	78.06
259.616	86.06
259.849	92.06
260.081	79.06
260.314	77.06
260.547	100.06
260.779	82.06
261.012	84.06
261.244	86.06
261.477	88.06
261.71	103.06
261.942	110.06
262.175	122.06
262.407	92.06
262.64	78.06
262.872	94.06
263.105	85.06
263.337	102.06
263.57	87.06
263.802	96.06
264.035	87.06
264.267	84.06
264.499	98.06
264.732	86.06
264.964	87.06
265.197	79.06
265.429	79.06
265.661	70.06
265.894	82.06
266.126	94.06
266.358	82.06
266.591	91.06
266.823	99.06
267.055	92.06
267.287	91.06
267.52	88.06
267.752	95.06
267.984	88.06
268.216	84.06
268.448	83.06
268.681	98.06
268.913	79.06
269.145	78.06
269.377	81.06
269.609	88.06
269.841	66.06
270.073	86.06
270.306	76.06
270.538	84.06
270.77	92.06
271.002	88.06
271.234	93.06
271.466	105.06
271.698	94.06
271.93	86.06
272.162	90.06
272.394	101.06
272.626	76.06
272.858	80.06
273.09	82.06
273.322	75.06
273.553	84.06
273.785	98.06
274.017	78.06
274.249	88.06
274.481	76.06
274.713	80.06
274.945	93.06
275.176	84.06
275.408	89.06
275.64	99.06
275.872	86.06
276.104	84.06
276.335	96.06
276.567	84.06
276.799	95.06
277.031	98.06
277.262	97.06
277.494	83.06
277.726	91.06
277.957	89.06
278.189	88.06
278.421	79.06
278.652	95.06
278.884	84.06
279.115	79.06
279.347	99.06
279.579	92.06
279.81	78.06
280.042	72.06
280.273	95.06
280.505	88.06
280.736	75.06
280.968	87.06
281.199	82.06
281.431	88.06
281.662	84.06
281.894	97.06
282.125	96.06
282.356	82.06
282.588	106.06
282.819	112.06
283.051	91.06
283.282	80.06
283.513	90.06
283.745	89.06
283.976	75.06
284.207	84.06
284.439	106.06
284.67	97.06
284.901	98.06
285.132	84.06
285.364	85.06
285.595	87.06
285.826	82.06
286.057	90.06
286.288	80.06
286.52	87.06
286.751	85.06
286.982	80.06
287.213	88.06
287.444	90.06
287.675	94.06
287.906	75.06
288.138	71.06
288.369	82.06
288.6	98.06
288.831	87.06
289.062	90.06
289.293	90.06
289.524	94.06
289.755	80.06
289.986	88.06
290.217	88.06
290.448	90.06
290.679	99.06
290.91	96.06
291.141	90.06
291.371	83.06
291.602	89.06
291.833	92.06
292.064	95.06
292.295	102.06
292.526	83.06
292.757	88.06
292.987	91.06
293.218	101.06
293.449	90.06
293.68	90.06
293.91	91.06
294.141	100.06
294.372	84.06
294.603	86.06
294.833	85.06
295.064	91.06
295.295	96.06
295.525	89.06
295.756	99.06
295.987	100.06
296.217	121.06
296.448	105.06
296.679	97.06
296.909	100.06
297.14	91.06
297.37	105.06
297.601	96.06
297.831	86.06
298.062	91.06
298.292	85.06
298.523	82.06
298.753	91.06
298.984	90.06
299.214	88.06
299.445	104.06
299.675	92.06
299.905	100.06
300.136	91.06
300.366	90.06
300.597	85.06
300.827	89.06
301.057	86.06
301.288	115.06
301.518	95.06
301.748	95.06
301.979	105.06
302.209	88.06
302.439	87.06
302.669	84.06
302.9	85.06
303.13	78.06
303.36	87.06
303.59	101.06
303.82	116.06
304.051	80.06
304.281	91.06
304.511	88.06
304.741	96.06
304.971	107.06
305.201	80.06
305.431	89.06
305.661	88.06
305.891	102.06
306.121	107.06
306.352	83.06
306.582	104.06
306.812	100.06
307.042	95.06
307.272	99.06
307.502	94.06
307.731	102.06
307.961	79.06
308.191	97.06
308.421	94.06
308.651	90.06
308.881	92.06
309.111	111.06
309.341	95.06
309.571	102.06
309.8	96.06
310.03	113.06
310.26	95.06
310.49	94.06
310.72	95.06
310.949	99.06
311.179	93.06
311.409	90.06
311.639	95.06
311.868	101.06
312.098	102.06
312.328	101.06
312.557	99.06
312.787	103.06
313.017	87.06
313.246	87.06
313.476	87.06
313.706	100.06
313.935	97.06
314.165	99.06
314.394	103.06
314.624	76.06
314.853	103.06
315.083	90.06
315.312	95.06
315.542	93.06
315.771	89.06
316.001	98.06
316.23	101.06
316.46	85.06
316.689	91.06
316.919	100.06
317.148	99.06
317.377	92.06
317.607	100.06
317.836	98.06
318.065	89.06
318.295	104.06
318.524	95.06
318.753	86.06
318.983	101.06
319.212	95.06
319.441	107.06
319.67	112.06
319.9	94.06
320.129	111.06
320.358	86.06
320.587	88.06
320.816	99.06
321.046	111.06
321.275	110.06
321.504	96.06
321.733	101.06
321.962	108.06
322.191	108.06
322.42	113.06
322.649	114.06
322.878	95.06
323.108	116.06
323.337	127.06
323.566	134.06
323.795	172.06
324.024	177.06
324.253	362.06
324.482	759.06
324.71	1596.06
324.939	2204.06
325.168	783.06
325.397	246.06
325.626	137.06
325.855	119.06
326.084	128.06
326.313	136.06
326.542	151.06
326.77	219.06
326.999	438.06
327.228	872.06
327.457	1634.06
327.686	1370.06
327.914	354.06
328.143	195.06
328.372	138.06
328.6	133.06
328.829	127.06
329.058	118.06
329.287	107.06
329.515	98.06
329.744	107.06
329.972	83.06
330.201	124.06
330.43	119.06
330.658	111.06
330.887	128.06
331.115	106.06
331.344	109.06
331.572	86.06
331.801	105.06
332.03	96.06
332.258	105.06
332.486	87.06
332.715	104.06
332.943	101.06
333.172	108.06
333.4	106.06
333.629	114.06
333.857	116.06
334.085	99.06
334.314	105.06
334.542	118.06
334.771	123.06
334.999	97.06
335.227	95.06
335.455	95.06
335.684	104.06
335.912	102.06
336.14	108.06
336.369	111.06
336.597	103.06
336.825	77.06
337.053	114.06
337.281	92.06
337.51	109.06
337.738	90.06
337.966	86.06
338.194	99.06
338.422	109.06
338.65	91.06
338.878	97.06
339.106	84.06
339.334	91.06
339.562	91.06
339.79	102.06
340.018	95.06
340.246	98.06
340.474	90.06
340.702	105.06
340.93	88.06
341.158	76.06
341.386	79.06
341.614	92.06
341.842	94.06
342.07	102.06
342.298	94.06
342.526	87.06
342.754	95.06
342.981	83.06
343.209	86.06
343.437	96.06
343.665	96.06
343.893	95.06
344.12	103.06
344.348	79.06
344.576	104.06
344.804	104.06
345.031	84.06
345.259	90.06
345.487	87.06
345.714	94.06
345.942	102.06
346.17	91.06
346.397	93.06
346.625	100.06
346.853	98.06
347.08	91.06
347.308	102.06
347.535	109.06
347.763	105.06
347.99	97.06
348.218	108.06
348.445	95.06
348.673	103.06
348.9	98.06
349.128	91.06
349.355	108.06
349.583	103.06
349.81	94.06
350.037	111.06
350.265	110.06
350.492	86.06
350.72	86.06
350.947	92.06
351.174	98.06
351.402	113.06
351.629	108.06
351.856	92.06
352.083	92.06
352.311	107.06
352.538	106.06
352.765	105.06
352.992	114.06
353.22	109.06
353.447	107.06
353.674	103.06
353.901	101.06
354.128	103.06
354.355	100.06
354.583	97.06
354.81	99.06
355.037	111.06
355.264	96.06
355.491	98.06
355.718	101.06
355.945	99.06
356.172	101.06
356.399	101.06
356.626	95.06
356.853	98.06
357.08	98.06
357.307	96.06
357.534	90.06
357.761	111.06
357.988	106.06
358.215	118.06
358.441	120.06
358.668	90.06
358.895	99.06
359.122	82.06
359.349	94.06
359.576	103.06
359.802	98.06
360.029	118.06
360.256	99.06
360.483	90.06
360.709	96.06
360.936	99.06
361.163	100.06
361.39	103.06
361.616	96.06
361.843	103.06
362.07	100.06
362.296	99.06
362.523	87.06
362.749	88.06
362.976	95.06
363.203	103.06
363.429	97.06
363.656	96.06
363.882	98.06
364.109	90.06
364.335	96.06
364.562	97.06
364.788	83.06
365.015	84.06
365.241	80.06
365.468	99.06
365.694	97.06
365.92	104.06
366.147	92.06
366.373	98.06
366.599	99.06
366.826	95.06
367.052	88.06
367.278	97.06
367.505	104.06
367.731	106.06
367.957	83.06
368.184	92.06
368.41	95.06
368.636	118.06
368.862	118.06
369.089	107.06
369.315	102.06
369.541	100.06
369.767	95.06
369.993	91.06
370.219	94.06
370.445	89.06
370.672	88.06
370.898	79.06
371.124	82.06
371.35	102.06
371.576	91.06
371.802	82.06
372.028	96.06
372.254	82.06
372.48	96.06
372.706	86.06
372.932	81.06
373.158	91.06
373.384	86.06
373.61	99.06
373.835	106.06
374.061	104.06
374.287	91.06
374.513	93.06
374.739	77.06
374.965	97.06
375.191	83.06
375.416	80.06
375.642	84.06
375.868	96.06
376.094	93.06
376.319	100.06
376.545	100.06
376.771	93.06
376.997	96.06
377.222	99.06
377.448	93.06
377.674	99.06
377.899	89.06
378.125	98.06
378.35	94.06
378.576	94.06
378.802	113.06
379.027	103.06
379.253	106.06
379.478	117.06
379.704	94.06
379.929	109.06
380.155	111.06
380.38	107.06
380.606	99.06
380.831	123.06
381.057	117.06
381.282	96.06
381.507	103.06
381.733	111.06
381.958	107.06
382.184	107.06
382.409	125.06
382.634	123.06
382.86	117.06
383.085	115.06
383.31	102.06
383.535	122.06
383.761	125.06
383.986	108.06
384.211	113.06
384.436	129.06
384.662	140.06
384.887	122.06
385.112	136.06
385.337	129.06
385.562	127.06
385.787	129.06
386.013	146.06
386.238	140.06
386.463	135.06
386.688	132.06
386.913	146.06
387.138	136.06
387.363	123.06
387.588	105.06
387.813	118.06
388.038	154.06
388.263	159.06
388.488	153.06
388.713	108.06
388.938	110.06
389.163	98.06
389.387	101.06
389.612	92.06
389.837	103.06
390.062	88.06
390.287	102.06
390.512	91.06
390.736	89.06
390.961	111.06
391.186	100.06
391.411	77.06
391.636	94.06
391.86	92.06
392.085	89.06
392.31	84.06
392.534	86.06
392.759	82.06
392.984	86.06
393.208	80.06
393.433	96.06
393.658	93.06
393.882	92.06
394.107	85.06
394.331	86.06
394.556	94.06
394.78	102.06
395.005	88.06
395.229	101.06
395.454	103.06
395.678	80.06
395.903	88.06
396.127	104.06
396.352	89.06
396.576	89.06
396.801	102.06
397.025	77.06
397.249	79.06
397.474	72.06
397.698	84.06
397.922	90.06
398.147	98.06
398.371	96.06
398.595	86.06
398.82	86.06
399.044	75.06
399.268	84.06
399.492	90.06
399.717	86.06
399.941	87.06
400.165	85.06
400.389	107.06
400.613	82.06
400.837	85.06
401.062	78.06
401.286	93.06
401.51	94.06
401.734	101.06
401.958	110.06
402.182	113.06
402.406	125.06
402.63	115.06
402.854	92.06
403.078	92.06
403.302	91.06
403.526	94.06
403.75	90.06
403.974	91.06
404.198	86.06
404.422	92.06
404.645	80.06
404.869	84.06
405.093	98.06
405.317	93.06
405.541	95.06
405.765	103.06
405.988	118.06
406.212	162.06
406.436	186.06
406.66	138.06
406.883	115.06
407.107	94.06
407.331	98.06
407.555	105.06
407.778	103.06
408.002	99.06
408.226	96.06
408.449	95.06
408.673	95.06
408.896	101.06
409.12	104.06
409.344	89.06
409.567	82.06
409.791	91.06
410.014	113.06
410.238	99.06
410.461	87.06
410.685	100.06
410.908	93.06
411.132	110.06
411.355	98.06
411.578	94.06
411.802	100.06
412.025	87.06
412.249	97.06
412.472	102.06
412.695	99.06
412.919	96.06
413.142	89.06
413.365	96.06
413.589	106.06
413.812	90.06
414.035	104.06
414.258	98.06
414.482	101.06
414.705	89.06
414.928	100.06
415.151	91.06
415.374	98.06
415.597	88.06
415.821	96.06
416.044	88.06
416.267	86.06
416.49	107.06
416.713	108.06
416.936	92.06
417.159	98.06
417.382	90.06
417.605	95.06
417.828	103.06
418.051	99.06
418.274	101.06
418.497	104.06
418.72	90.06
418.943	76.06
419.166	108.06
419.389	88.06
419.611	107.06
419.834	105.06
420.057	97.06
420.28	90.06
420.503	84.06
420.726	96.06
420.948	96.06
421.171	92.06
421.394	95.06
421.617	83.06
421.839	90.06
422.062	94.06
422.285	86.06
422.507	103.06
422.73	112.06
422.953	103.06
423.175	99.06
423.398	82.06
423.621	98.06
423.843	99.06
424.066	93.06
424.288	84.06
424.511	88.06
424.733	96.06
424.956	105.06
425.178	100.06
425.401	97.06
425.623	84.06
425.846	84.06
426.068	95.06
426.291	95.06
426.513	83.06
426.735	89.06
426.958	88.06
427.18	98.06
427.402	141.06
427.625	162.06
427.847	124.06
428.069	100.06
428.292	89.06
428.514	84.06
428.736	79.06
428.958	92.06
429.181	91.06
429.403	88.06
429.625	85.06
429.847	91.06
430.069	99.06
430.292	107.06
430.514	103.06
430.736	81.06
430.958	92.06
431.18	88.06
431.402	100.06
431.624	94.06
431.846	85.06
432.068	81.06
432.29	87.06
432.512	92.06
432.734	88.06
432.956	111.06
433.178	102.06
433.4	97.06
433.622	104.06
433.844	92.06
434.066	104.06
434.287	85.06
434.509	92.06
434.731	87.06
434.953	95.06
435.175	91.06
435.397	95.06
435.618	92.06
435.84	93.06
436.062	130.06
436.284	108.06
436.505	115.06
436.727	101.06
436.949	100.06
437.17	93.06
437.392	86.06
437.614	97.06
437.835	118.06
438.057	115.06
438.278	118.06
438.5	108.06
438.721	122.06
438.943	102.06
439.165	91.06
439.386	88.06
439.608	97.06
439.829	107.06
440.05	133.06
440.272	131.06
440.493	109.06
440.715	77.06
440.936	94.06
441.158	86.06
441.379	90.06
441.6	110.06
441.822	98.06
442.043	94.06
442.264	120.06
442.486	104.06
442.707	102.06
442.928	102.06
443.149	141.06
443.371	135.06
443.592	112.06
443.813	117.06
444.034	122.06
444.255	91.06
444.476	76.06
444.698	86.06
444.919	95.06
445.14	138.06
445.361	125.06
445.582	118.06
445.803	131.06
446.024	134.06
446.245	136.06
446.466	118.06
446.687	87.06
446.908	88.06
447.129	84.06
447.35	91.06
447.571	98.06
447.792	100.06
448.013	105.06
448.234	90.06
448.455	102.06
448.675	115.06
448.896	107.06
449.117	100.06
449.338	111.06
449.559	146.06
449.779	135.06
450	95.06
450.221	95.06
450.442	91.06
450.662	92.06
450.883	107.06
451.104	110.06
451.324	113.06
451.545	94.06
451.766	86.06
451.986	88.06
452.207	77.06
452.428	92.06
452.648	107.06
452.869	105.06
453.089	111.06
453.31	132.06
453.53	101.06
453.751	95.06
453.971	95.06
454.192	110.06
454.412	86.06
454.633	90.06
454.853	88.06
455.073	83.06
455.294	95.06
455.514	90.06
455.734	103.06
455.955	86.06
456.175	98.06
456.395	90.06
456.616	96.06
456.836	95.06
457.056	79.06
457.276	92.06
457.497	78.06
457.717	73.06
457.937	94.06
458.157	84.06
458.377	98.06
458.598	93.06
458.818	134.06
459.038	138.06
459.258	119.06
459.478	88.06
459.698	91.06
459.918	96.06
460.138	89.06
460.358	78.06
460.578	72.06
460.798	92.06
461.018	100.06
461.238	82.06
461.458	91.06
461.678	69.06
461.898	84.06
462.118	86.06
462.338	89.06
462.558	98.06
462.777	88.06
462.997	82.06
463.217	86.06
463.437	88.06
463.657	90.06
463.876	86.06
464.096	84.06
464.316	83.06
464.536	75.06
464.755	87.06
464.975	110.06
465.195	151.06
465.414	143.06
465.634	82.06
465.854	76.06
466.073	82.06
466.293	85.06
466.512	109.06
466.732	97.06
466.951	90.06
467.171	94.06
467.391	94.06
467.61	108.06
467.829	92.06
468.049	87.06
468.268	91.06
468.488	91.06
468.707	91.06
468.927	94.06
469.146	91.06
469.365	90.06
469.585	87.06
469.804	92.06
470.023	102.06
470.243	93.06
470.462	115.06
470.681	107.06
470.901	88.06
471.12	86.06
471.339	83.06
471.558	90.06
471.777	88.06
471.997	92.06
472.216	104.06
472.435	135.06
472.654	94.06
472.873	84.06
473.092	88.06
473.311	93.06
473.53	104.06
473.749	104.06
473.968	100.06
474.187	107.06
474.406	95.06
474.625	100.06
474.844	74.06
475.063	74.06
475.282	90.06
475.501	82.06
475.72	92.06
475.939	93.06
476.158	92.06
476.377	92.06
476.596	89.06
476.814	83.06
477.033	101.06
477.252	112.06
477.471	92.06
477.69	89.06
477.908	96.06
478.127	89.06
478.346	90.06
478.564	94.06
478.783	100.06
479.002	90.06
479.22	90.06
479.439	102.06
479.658	99.06
479.876	107.06
480.095	92.06
480.313	97.06
480.532	103.06
480.751	108.06
480.969	94.06
481.188	173.06
481.406	122.06
481.624	99.06
481.843	92.06
482.061	90.06
482.28	98.06
482.498	96.06
482.717	86.06
482.935	77.06
483.153	100.06
483.372	84.06
483.59	89.06
483.808	96.06
484.027	102.06
484.245	92.06
484.463	102.06
484.681	95.06
484.9	94.06
485.118	93.06
485.336	94.06
485.554	95.06
485.772	104.06
485.99	108.06
486.209	110.06
486.427	98.06
486.645	104.06
486.863	103.06
487.081	96.06
487.299	94.06
487.517	99.06
487.735	90.06
487.953	106.06
488.171	90.06
488.389	109.06
488.607	97.06
488.825	91.06
489.043	75.06
489.261	90.06
489.479	82.06
489.696	91.06
489.914	93.06
490.132	98.06
490.35	98.06
490.568	100.06
490.786	83.06
491.003	92.06
491.221	96.06
491.439	87.06
491.657	97.06
491.874	101.06
492.092	100.06
492.31	84.06
492.527	99.06
492.745	79.06
492.963	93.06
493.18	83.06
493.398	93.06
493.615	88.06
493.833	102.06
494.05	78.06
494.268	93.06
494.485	101.06
494.703	85.06
494.92	96.06
495.138	98.06
495.355	88.06
495.573	90.06
495.79	79.06
496.008	93.06
496.225	96.06
496.442	98.06
496.66	82.06
496.877	99.06
497.094	86.06
497.312	99.06
497.529	102.06
497.746	100.06
497.963	98.06
498.181	93.06
498.398	89.06
498.615	107.06
498.832	93.06
499.049	89.06
499.267	102.06
499.484	100.06
499.701	86.06
499.918	100.06
500.135	100.06
500.352	102.06
500.569	84.06
500.786	101.06
501.003	101.06
501.22	93.06
501.437	84.06
501.654	101.06
501.871	96.06
502.088	77.06
502.305	101.06
502.522	84.06
502.739	90.06
502.956	92.06
503.172	99.06
503.389	90.06
503.606	112.06
503.823	82.06
504.04	72.06
504.256	76.06
504.473	77.06
504.69	97.06
504.907	84.06
505.123	96.06
505.34	98.06
505.557	100.06
505.773	85.06
505.99	87.06
506.207	81.06
506.423	90.06
506.64	102.06
506.856	100.06
507.073	95.06
507.289	93.06
507.506	100.06
507.722	125.06
507.939	104.06
508.155	91.06
508.372	85.06
508.588	96.06
508.805	95.06
509.021	89.06
509.238	87.06
509.454	110.06
509.67	102.06
509.887	97.06
510.103	133.06
510.319	177.06
510.536	546.06
510.752	1654.06
510.968	482.06
511.184	141.06
511.401	98.06
511.617	106.06
511.833	103.06
512.049	107.06
512.265	95.06
512.481	100.06
512.698	98.06
512.914	105.06
513.13	90.06
513.346	86.06
513.562	88.06
513.778	85.06
513.994	99.06
514.21	105.06
514.426	118.06
